#   1 NUMBER                 Running object number                                     
#   2 MAG_AUTO               Kron-like elliptical aperture magnitude                    [mag]
#   3 X_IMAGE                Object position along x                                    [pixel]
#   4 Y_IMAGE                Object position along y                                    [pixel]
#   5 X_WORLD                Barycenter position along world x axis                     [deg]
#   6 Y_WORLD                Barycenter position along world y axis                     [deg]
#   7 A_WORLD                Profile RMS along major axis (world units)                 [deg]
#   8 B_WORLD                Profile RMS along minor axis (world units)                 [deg]
#   9 THETA_WORLD            Position angle (CCW/world-x)                               [deg]
#  10 FWHM_WORLD             FWHM assuming a gaussian core                              [deg]
#  11 ELONGATION             A_IMAGE/B_IMAGE                                           
#  12 ELLIPTICITY            1 - B_IMAGE/A_IMAGE                                       
         1 -11.5294     73.1920     27.9383   5.4253460219e+01   6.0546739935e+01     1.033232    0.4925264  42.19   0.00505157    1.800    0.445
         2 -11.7296     61.9846     22.2892   5.5912814040e+01   6.3265762629e+01    0.4661564    0.4535158 -59.79  0.001499406    1.488    0.328
         3 -10.7606     62.1373     16.8106   5.3589735590e+01   6.3841414891e+01    0.4443863    0.2090193  36.34  0.001383597    1.857    0.462
         4 -10.6867    113.9524     34.9775   4.5319135821e+01   5.1221459403e+01    0.7179824    0.3851523 -39.92  0.003480391    2.106    0.525
         5 -10.5834     87.2408     34.4348   5.2234058472e+01   5.6999106484e+01    0.8110207    0.4157815  -7.88  0.003126978    3.662    0.727
         6 -10.8068     18.3131     27.9685   7.7906253185e+01   6.8674987266e+01    0.3751864     0.283863 -42.33 0.0008821466    1.552    0.356
         7 -10.9020     69.1762     11.5266   4.9031306400e+01   6.3056379038e+01    0.4672764    0.3072416  16.21  0.001054626    1.579    0.367
         8 -11.0343     37.1074     26.2732   6.7890845652e+01   6.6698466239e+01    0.7924258    0.3014788  30.15  0.002337561    2.501    0.600
         9 -10.2850     26.2598     22.7389   7.1613884913e+01   6.8576847257e+01    0.3426046    0.3099321   8.43  0.001598561    1.420    0.296
        10 -10.5051     40.7355     20.9165   6.3931269711e+01   6.6889817318e+01    0.4849437    0.3257943  45.67  0.002891973    1.841    0.457
        11 -10.9068     35.8078     17.9228   6.4850627684e+01   6.7970940711e+01    0.4635698     0.215691  29.01  0.002424184    1.935    0.483
        12 -11.0595     50.5327     22.1098   6.0261368698e+01   6.5232001748e+01     0.298213    0.2061481 -13.67 0.0007107868    1.438    0.304
        13 -10.8122     72.7284     15.7724   4.9617477167e+01   6.1963890688e+01    0.4264738    0.2196252  42.22  0.001657251    1.600    0.375
        14 -10.6012    172.1555     22.5022   3.1690361131e+01   3.9318600528e+01     0.521448    0.3211688  47.03  0.002238399    1.871    0.466
        15 -11.0251    175.1955     12.5063   2.8947482615e+01   3.9683378812e+01    0.6367515    0.3619134  64.70  0.003255293    1.533    0.348
        16 -11.1143    182.3825     18.3090   2.9494383680e+01   3.7486008670e+01    0.2488331    0.2085731  80.51 0.0003856546    1.094    0.086
        17  -8.9207    184.2403     13.5358   2.8209514383e+01   3.7578165947e+01    0.2321494    0.1753348  53.78  0.001501569    1.495    0.331
        18 -10.8534    131.2604     21.7660   3.7655308400e+01   4.8764636651e+01    0.4980756    0.2715842 -26.54  0.002552884    2.181    0.542
        19 -11.3905    132.9333     12.7034   3.4714461211e+01   4.9261006692e+01    0.2424667     0.237391  60.19  0.000310947    1.183    0.154
        20 -12.0657    105.0143     21.1444   4.2838510500e+01   5.4731034160e+01    0.2898237    0.2394975 -16.74 0.0004353655    1.396    0.284
        21  -9.6348    238.4284     17.0302   2.4224806509e+01   2.6052355312e+01    0.3673725    0.2613643  -3.73  0.002077879    3.358    0.702
        22 -10.5531    230.6871     15.4487   2.4501895068e+01   2.7717625504e+01    0.3873742    0.2088266 -86.94  0.001385234    1.711    0.416
        23 -10.7612    151.7201     18.1302   3.3331969202e+01   4.4435597317e+01    0.2624839    0.2401464 -65.19 0.0002771785    1.184    0.155
        24 -10.4627    165.8861     18.6293   3.1535561589e+01   4.1151392318e+01    0.4351245    0.2676203  32.87  0.001821447    2.489    0.598
        25 -10.9566    116.4837     15.3595   3.8481430757e+01   5.2744897957e+01    0.5468288    0.3630371 -82.39 0.0007483992    2.038    0.509
        26 -10.2860    143.4294     16.3983   3.4096392518e+01   4.6509409975e+01    0.3462091    0.2391552 -69.36  0.001146403    1.635    0.388
        27  -9.9687    144.6782     12.5763   3.2861226963e+01   4.6588616517e+01    0.3839177    0.1343538  64.94  0.001282084    2.317    0.568
        28  -9.8441    246.7771     19.9119   2.4147819421e+01   2.4159471534e+01     0.304029     0.116655  61.83  0.001608476    2.805    0.644
        29 -10.2350      8.0337      9.1396   7.5353913865e+01   7.2390394990e+01     0.328462    0.1529533  31.69  0.001883559    2.232    0.552
        30  -9.7448      2.1219      8.0323   7.8380276704e+01   7.3071016131e+01    0.3229033     0.219808 -23.49  0.001623175    1.216    0.178
        31 -11.3369      5.6850     16.1597   7.9926404810e+01   7.1616303178e+01    0.3353609    0.2760404  19.14  0.001101383    1.513    0.339
        32 -10.7717      9.3947     15.1996   7.7357204394e+01   7.1427807273e+01    0.3397859     0.204944  -6.87 0.0006231565    1.443    0.307
        33  -9.4053    127.4097     15.9684   3.6620086310e+01   5.0216039715e+01    0.3313181    0.2073834  -1.76 0.0009031376    2.372    0.578
        34 -10.3799    210.8414     11.5215   2.5307138298e+01   3.2122578872e+01    0.4699672    0.2316486 -24.24  0.002373107    3.113    0.679
        35 -10.9578    207.8836      3.7424   2.3997355631e+01   3.3534643085e+01    0.4114663    0.2089422 -67.85   0.00234687    1.849    0.459
        36  99.0000     85.5371     14.2721   4.5286579715e+01   5.9545510907e+01    0.3945384    0.2141217  54.86 0.0005377285    1.587    0.370
        37  -8.9493     89.2750     13.3543   4.3955559277e+01   5.8853859575e+01    0.3952314    0.2208592  67.85  0.001650834    2.063    0.515
        38  -9.0338     90.9632      8.9029   4.1903341895e+01   5.8890305669e+01    0.4465969    0.2342348  49.57  0.002420106    1.517    0.341
        39  -9.0995     87.6859      6.6896   4.1901902314e+01   5.9762529297e+01    0.1871321    0.1472618  32.49   0.00111063    1.169    0.144
        40  -9.8404    244.4356     13.1089   2.3113327774e+01   2.5371228237e+01    0.3105685    0.1985654  46.18  0.001897712    2.739    0.635
        41  -9.9897    106.9224      2.4995   3.6192528984e+01   5.5954596255e+01    0.3666053    0.1998504  43.12  0.002023468    1.678    0.404
        42 -10.6965    106.9128      7.1563   3.7735551480e+01   5.5590327695e+01    0.5612566    0.1912076  53.81  0.002207935    2.203    0.546
        43 -10.9231    101.7309     11.3612   4.0255874238e+01   5.6369854220e+01    0.3100073    0.2788681 -85.09  0.001000608    1.315    0.239
        44 -10.0526     96.9718     12.9565   4.1904331307e+01   5.7257572740e+01    0.2225404     0.180519  43.84   0.00043177    1.050    0.047
        45 -10.6574     31.0874     12.1881   6.4457966414e+01   6.9318262245e+01    0.3727763    0.2749689  38.95  0.001863202    1.606    0.377
        46  -9.6126    219.0919     11.2975   2.4600548934e+01   3.0467962734e+01    0.3263198    0.1494118  88.11  0.001725393    2.148    0.534
        47  -8.8958    191.5231     11.5410   2.7038236453e+01   3.6197666255e+01    0.2388756    0.1673391 -53.39 0.0007905893    1.372    0.271
        48  -9.6113    190.7702      7.0772   2.6143732312e+01   3.6809754955e+01    0.2525114    0.1837281 -64.01 0.0006381553    1.251    0.201
        49 -10.0474    195.2760      3.7209   2.5027530856e+01   3.6174667704e+01    0.3362206    0.1753945  80.53  0.001280934    1.639    0.390
        50  -8.8523    199.4525      2.5275   2.4428250648e+01   3.5408221887e+01    0.1499932    0.1140402 -15.76 5.424762e-05    1.984    0.496
        51  -9.1582    124.8898     11.7098   3.5784610643e+01   5.1180207536e+01    0.2168495     0.206046 -36.56 0.0008922542    1.252    0.201
        52 -10.1069    124.5055      6.6904   3.4338260256e+01   5.1699176080e+01    0.4826751    0.2812239  73.38  0.002029814    1.574    0.365
        53 -10.1670     53.7486      9.1012   5.3341398886e+01   6.6106122424e+01    0.4778135    0.2779961  14.35  0.001810996    1.868    0.465
        54  -9.2216    198.4354     10.0108   2.6068639259e+01   3.4875240132e+01    0.2137874    0.1355325  62.71 0.0007759097    1.563    0.360
        55  -9.2908     44.1427      9.7719   5.7452328190e+01   6.7643563168e+01    0.2704538    0.1474474  15.34   0.00144528    2.025    0.506
        56  -9.0821     48.6959      7.8870   5.4741105513e+01   6.7086631666e+01    0.2090911    0.1385935  38.55 0.0007411248    1.279    0.218
        57 -12.1266    156.0255      3.5192   2.8976585432e+01   4.4824029894e+01    0.3382242    0.1967804  54.16  0.000155482    1.633    0.387
        58 -12.1978    160.0821      1.6613   2.8039425953e+01   4.4072096581e+01    0.6819416    0.4585078  77.63   0.00155836    1.220    0.180
        59  -9.5532    170.9937      6.5068   2.7997737420e+01   4.1199433505e+01    0.2830005    0.1826707  42.79 0.0007108125    1.961    0.490
        60 -11.0812     79.3559      4.3650   4.3180316909e+01   6.1665504438e+01    0.2638777    0.1938141  44.13 0.0004229851    1.081    0.075
        61 -10.4626     73.5317      5.5140   4.5265382260e+01   6.2738581856e+01    0.2733523    0.2023519 -30.50  0.001481034    1.643    0.392
        62 -10.8974     74.5182      2.4838   4.3769281763e+01   6.2785684538e+01    0.3124073    0.1863585  54.16  0.001007096    1.412    0.292
        63  -8.7787     15.2258      7.7929   7.0585729052e+01   7.1820055666e+01    0.2273201    0.1119607  30.46  0.001336643    1.869    0.465
        64  -9.9819     13.3707      2.9282   6.9205621453e+01   7.2614295073e+01    0.2382256    0.1968204 -26.96  0.001801759    1.608    0.378
        65  -8.9743     17.7017      2.6037   6.6632967825e+01   7.2145820238e+01    0.2124792    0.1152842 -10.34 0.0009317154    1.877    0.467
        66 -10.2205     24.6103      6.8385   6.5108416777e+01   7.0800454854e+01    0.1791736    0.1503096   7.43 0.0004615568    1.276    0.216
        67  -9.9545     21.2046      5.6051   6.6266210730e+01   7.1374842455e+01    0.2498289    0.1465206  23.43  0.001065957    1.409    0.290
        68  -9.2135    231.4317      6.2032   2.2753782023e+01   2.8583068268e+01     0.145499    0.0798932 -53.81 0.0003915949    1.511    0.338
        69  -9.1140     98.6295      6.0297   3.9101287497e+01   5.7488592375e+01    0.2349031    0.1325223  41.89  0.001299799    1.583    0.368
        70  -8.5920     46.5796      4.2153   5.3895665246e+01   6.7788420456e+01     0.153491    0.1063131 -13.43 0.0004285182    1.489    0.329
        71 -10.6648     37.8583      4.5628   5.7706399857e+01   6.9156261846e+01    0.2755895    0.1896241  18.90 0.0008713753    1.163    0.141
        72  -9.6992     42.5964      1.3438   5.4153537752e+01   6.8707038326e+01    0.3325993   0.09359802  46.11 0.0008842213    2.954    0.662
        73 -10.0134    238.2641      3.5594   2.1838482860e+01   2.7561465918e+01    0.2504501     0.165531  59.78  0.001405061    1.893    0.472
        74  -8.3127    224.3003      4.6268   2.2954332510e+01   3.0137204998e+01    0.1221444   0.06118605 -65.09 0.0007029363    1.750    0.429
        75 -10.3941    218.4872      2.7789   2.3018358516e+01   3.1479577522e+01     0.277833    0.1978485  65.76  0.001952344    1.522    0.343
        76  -9.7889     30.7542      2.5893   5.9985900932e+01   7.0412479518e+01    0.2169301    0.1611436 -30.63  0.001158693    1.698    0.411
        77  -9.5719    233.0047      2.6626   2.2013323448e+01   2.8652422149e+01    0.1571431    0.1078165 -82.01 0.0006094929    1.134    0.118
        78  -9.9904    180.4152      2.2693   2.6062875021e+01   3.9513814363e+01    0.3904595    0.1787602  82.44  0.002002255    2.005    0.501
        79 -10.0994    135.4884      2.3300   3.1361105809e+01   4.9569516702e+01    0.3055401    0.2045766  75.29  0.001667351    1.277    0.217
        80 -10.9681    249.8682      1.5674   2.0807107648e+01   2.5632999426e+01    0.1675183    0.1070959 -87.03  0.000333358    1.277    0.217
        81 -10.3616    115.6752      1.9128   3.4388741327e+01   5.4060382006e+01    0.2138851    0.1431112  60.94 0.0003083799    1.197    0.165
        82 -10.7034     92.1363      2.5090   3.9310875593e+01   5.9152818331e+01    0.4148276    0.2063326  71.99   0.00170318    2.347    0.574
        83  -9.1303     23.1610      1.3965   6.3130302452e+01   7.1585203528e+01    0.1424282   0.09086856  36.45 0.0008055242    1.581    0.368
        84  -9.2206      5.1752      1.4905   7.3299066893e+01   7.3646680940e+01    0.2033095    0.0864979  20.21   0.00112956    2.127    0.530
        85  -9.0419     81.8190    115.3445   7.9233727037e+01   4.2788048005e+01    0.3874187    0.1489373  23.98  0.001097493    4.194    0.762
        86 -10.0384    201.3038    249.5887   7.5555197372e+01  -6.7404574328e+00    0.2388795    0.1885086  -1.77 0.0007131245    1.033    0.032
        87  -8.8606    150.7517    249.9570   8.6222588927e+01   1.6113097707e-01    0.1573841     0.111174 -43.96  0.000879704    1.568    0.362
        88 -10.5816    115.8595    248.3039   9.3719957047e+01   5.5587216870e+00    0.2698549    0.2677881  77.72  0.001404497    1.144    0.126
        89  -8.6884     53.3192    112.6637   8.8352154338e+01   4.7570589692e+01    0.1449364    0.1131844  72.11 0.0005133626    1.704    0.413
        90 -10.0170     40.6640    103.1356   9.0783235418e+01   5.1346386748e+01     0.255984    0.2241124 -26.68   0.00112087    1.074    0.069
        91  -9.7813     36.9805    110.0551   9.3630799817e+01   5.0042804973e+01    0.2105798    0.1849234 -50.38 0.0004528304    1.043    0.042
        92 -10.0918     37.4514    106.5326   9.2717059532e+01   5.0857556325e+01     0.287277    0.1798657 -44.30 0.0005915125    1.418    0.295
        93  -8.1230    235.6864    107.2804   4.2067877716e+01   1.3483330056e+01     0.129057   0.09092622 -68.86 0.0002860077    1.570    0.363
        94  -9.2398     91.8827    106.6445   7.3707945118e+01   4.3095869199e+01    0.2613601     0.196031 -35.24 0.0003615366    1.337    0.252
        95  -8.9173      8.3745    105.8499   1.0320118998e+02   5.3319595829e+01    0.2051006    0.0885779 -55.85 0.0005237408    1.773    0.436
        96  -8.9289    141.8522    103.3471   5.8607878425e+01   3.3638320633e+01    0.2556506    0.2081231 -57.78 0.0007590388    1.297    0.229
        97  -9.6019    100.7094    103.0534   6.9948817397e+01   4.2261224491e+01    0.2845922    0.2245511 -42.70 0.0006104017    1.254    0.202
        98 -10.0876    105.4599     99.9712   6.7644364521e+01   4.2009493661e+01    0.3523262    0.2146553  25.00   0.00143278    2.014    0.504
        99 -10.7439     71.0116    101.9693   7.9479077286e+01   4.7667838153e+01    0.3751001    0.2970396 -33.10  0.001230295    1.214    0.176
       100 -10.2427     67.0263    101.4792   8.0755991391e+01   4.8382852670e+01    0.3358748    0.2518741 -16.94  0.001661928    1.454    0.312
       101 -10.5525     79.5162    100.8059   7.6228978412e+01   4.6572034649e+01    0.4237164    0.2880036  40.82  0.001991134    1.545    0.353
       102 -10.2235     56.7332    100.5138   8.4219110977e+01   5.0051615450e+01    0.3566748    0.2198478 -33.35  0.001601299    1.664    0.399
       103 -10.0942     50.5594     99.7692   8.6308772867e+01   5.1013905036e+01    0.3484584     0.227417 -14.40 0.0009433479    1.831    0.454
       104  -9.5424     45.2501     99.8542   8.8309252218e+01   5.1622868222e+01    0.3027508    0.1991849  19.94 0.0008774897    1.626    0.385
       105  -8.8764     16.5638     99.1399   9.8995888461e+01   5.4416667357e+01    0.2545243    0.1195748 -67.97  0.001135108    2.035    0.509
       106 -11.5800    117.6466     98.0303   6.3543687115e+01   3.9939900054e+01    0.2833294    0.2622965  21.77  0.000303677    1.084    0.077
       107 -10.4309    124.8362     96.6807   6.1186469621e+01   3.8696394038e+01    0.4512855    0.2998696  62.29  0.001944358    1.858    0.462
       108  -9.5270      3.6755     97.6333   1.0356118451e+02   5.5548275240e+01    0.4246753    0.1635881  26.07  0.001903933    2.895    0.655
       109  -9.6524      3.6399     79.6256   1.0025070237e+02   5.9711378184e+01    0.3850916    0.1365794 -47.64 0.0006448027    2.072    0.517
       110 -10.0459      2.4408     92.4380   1.0313973603e+02   5.6833971063e+01    0.4877753    0.2629808  59.32   0.00216329    3.046    0.672
       111  -9.8549      2.4614     85.9668   1.0196420967e+02   5.8331774593e+01    0.4361155    0.1313465 -54.12  0.001695931    2.265    0.558
       112  -8.4231    154.3306     96.3020   5.3835457854e+01   3.2280573490e+01    0.1497665     0.119579  11.21 0.0004416022    1.650    0.394
       113  -9.8600    140.8795     96.2825   5.6964478295e+01   3.5276064097e+01    0.2856395    0.2093041  29.62  0.001115732    1.580    0.367
       114 -10.1642     85.5498     96.1031   7.2893238047e+01   4.6586470272e+01    0.4576293    0.2045652  39.08 0.0009418165    2.248    0.555
       115  -9.8544     42.1185     95.4226   8.8423162798e+01   5.3013390952e+01    0.2502662    0.1901038 -59.21 0.0006762921    1.323    0.244
       116  -9.4619     14.8410     87.0680   9.7233540420e+01   5.7363626382e+01    0.4741961    0.1427503 -41.21  0.001797846    2.929    0.659
       117  -9.8133     19.6321     81.6002   9.4057384448e+01   5.8261147311e+01    0.4417763    0.2620309  32.51  0.002320559    1.958    0.489
       118 -10.6898     23.4213     93.3872   9.5192085874e+01   5.5266307415e+01    0.5182771    0.2412282 -72.62  0.002095531    2.750    0.636
       119 -10.8049     26.6344     86.6017   9.2379608559e+01   5.6564958697e+01    0.5808567    0.3758291 -24.10  0.001525807    1.539    0.350
       120 -10.7009     32.3377     92.9276   9.1607296900e+01   5.4594765531e+01    0.5095391    0.2701669 -42.40  0.001930826    1.661    0.398
       121 -10.1638     47.4825     92.4056   8.5611609185e+01   5.3092529398e+01    0.3478072    0.3012265 -78.35  0.001346288    1.435    0.303
       122  -9.4895     44.5101     88.0513   8.5627614754e+01   5.4428037490e+01    0.2588753    0.1985641 -25.35 0.0006716265    1.223    0.182
       123  -9.7672     12.9977     93.5000   9.9269390253e+01   5.5990674949e+01    0.2681471    0.1589482 -28.68  0.001400723    1.668    0.400
       124 -10.1785     17.8408     91.0053   9.6872284541e+01   5.6245556918e+01    0.3605185    0.2120852 -17.04 0.0004672141    1.874    0.466
       125  -9.9571    133.9621     92.1860   5.7562983841e+01   3.7610428315e+01    0.4467984    0.2387702  31.05  0.001604531    2.605    0.616
       126 -10.4215     53.5052     91.5316   8.3086438536e+01   5.2538999304e+01     0.350169    0.3321335  40.61  0.002078062    1.240    0.194
       127  -9.7083    108.9679     90.8191   6.4003514570e+01   4.3221160791e+01     0.504238    0.2393664  35.83  0.001891771    2.288    0.563
       128  -8.9924     71.4600     91.4931   7.6458325771e+01   4.9956707693e+01    0.2429413    0.1418307 -60.35 0.0006837844    2.136    0.532
       129  -8.7487     61.9640     91.5109   7.9914010731e+01   5.1386673009e+01    0.2475682    0.1356389  35.19 0.0003627263    1.885    0.470
       130 -10.3587     58.2163     87.8895   8.0307381069e+01   5.2716011553e+01    0.5296528    0.3783076 -82.39  0.002362442    2.343    0.573
       131  -9.8614    116.7790     89.7654   6.1454542533e+01   4.1806835117e+01    0.2946811    0.2740521 -75.19  0.001587513    1.205    0.170
       132 -10.7248    131.3713     83.6776   5.5838527815e+01   3.9808635738e+01    0.5769145    0.3799918   2.90  0.002230369    2.791    0.642
       133 -11.0434    124.2715     86.0390   5.8343099146e+01   4.0925046817e+01    0.5293832    0.4489082  50.64   0.00135897    1.168    0.144
       134 -10.3862    119.3731     83.7846   5.9010473616e+01   4.2416241175e+01    0.4624343    0.2733802  48.46  0.002025921    1.664    0.399
       135  -8.9055    104.2217     90.2663   6.5261681768e+01   4.4295149554e+01    0.1884882    0.1743392  85.41  0.000329134    1.275    0.216
       136  -9.9957     86.0619     89.2493   7.0756025073e+01   4.7966443501e+01    0.4340037    0.3073587 -15.26  0.001185627    1.705    0.413
       137  -8.9302     87.0389     83.8147   6.8817529841e+01   4.8910144903e+01    0.2090592    0.1987154  72.99 0.0004336782    1.262    0.208
       138  -9.6296     39.7455     88.9347   8.7727066326e+01   5.4762159494e+01    0.3176877    0.1516347 -44.67  0.001407528    1.838    0.456
       139  -9.8597     97.6112     88.7952   6.6873092301e+01   4.5900025025e+01    0.3172151     0.245793  49.26 0.0009641101    1.375    0.273
       140 -10.6025     64.8228     85.8127   7.7244867759e+01   5.2211049778e+01    0.6112142     0.345961 -28.75  0.002625228    2.037    0.509
       141  -8.6323     68.5124     78.4532   7.3687812813e+01   5.3175062359e+01    0.1450715    0.1269801  -7.42 -1.896679e-05    1.056    0.053
       142  -9.5017    150.0199     80.0212   5.0464379569e+01   3.6266505250e+01    0.3421598     0.238222 -80.17  0.001280854    2.017    0.504
       143 -11.1190    155.1804     85.0955   5.0709354282e+01   3.4187378897e+01    0.2676768     0.255165  65.13  0.000285649    1.038    0.036
       144 -11.1575    155.8896     78.9505   4.8932763428e+01   3.5116585043e+01    0.5318445    0.3782954  40.84  0.001842648    1.526    0.345
       145  -9.5855    110.6484     85.4834   6.1960169465e+01   4.3937733388e+01    0.3047803     0.211373  47.49  0.001436533    1.438    0.305
       146 -11.2203     80.0795     83.2049   7.0999106675e+01   5.0278440062e+01    0.7678127     0.427567  21.51  0.001340962    2.261    0.558
       147 -10.9381     73.8185     80.0651   7.2252548863e+01   5.1984271902e+01    0.8376867    0.4462529 -21.89  0.003102202    2.935    0.659
       148  -8.8758    138.4433     84.1834   5.4246372726e+01   3.8135129546e+01    0.3333628    0.1876332  26.97  0.001199301    2.939    0.660
       149  -8.9421     99.4676     84.5226   6.5029233524e+01   4.6397959934e+01    0.2971251    0.2139371 -76.55  0.001161166    2.267    0.559
       150 -10.9942     38.8932     81.6380   8.6153969613e+01   5.6479383868e+01    0.3221443    0.2459435 -42.20 0.0006129606    1.168    0.144
       151 -10.7017     51.8408     82.1299   8.1128156122e+01   5.4824753415e+01    0.3811453    0.2811256 -27.11 0.0009988078    1.284    0.221
       152  -9.7370     45.5653     69.4763   7.9892295973e+01   5.8253627000e+01     0.455488     0.382787  68.79 0.0009927934    1.834    0.455
       153 -10.1223     47.8000     63.7770   7.7156277521e+01   5.9083262678e+01    0.3872028    0.2200862  43.34  0.001580343    2.195    0.545
       154 -12.3558     53.1314     75.3265   7.8617923550e+01   5.6081412094e+01    0.5122479    0.2820696 -36.46 0.0003011827    1.753    0.429
       155 -11.2719     52.2379     69.5438   7.7188357197e+01   5.7367033687e+01    0.6089493      0.49928 -86.24  0.001590818    1.984    0.496
       156  -9.1106     92.4700     79.9798   6.5870900003e+01   4.8653422045e+01    0.3469389    0.2243918   3.68  0.001223894    2.375    0.579
       157  -9.1096     44.7089     79.0979   8.3096691462e+01   5.6365459921e+01    0.2657754    0.1970815  10.28  0.001459315    1.361    0.265
       158 -10.6870    165.1770     71.0318   4.5031232500e+01   3.4329459535e+01    0.3985799    0.2627279 -37.97 0.0003176339    1.573    0.364
       159 -10.5759    166.8548     77.8632   4.6472147557e+01   3.2808787571e+01    0.2540218    0.2309115  65.39 0.0002720656    1.085    0.079
       160 -10.5582    169.5406     74.1309   4.5018963558e+01   3.2826676079e+01    0.3539652     0.305455  43.94  0.001372792    1.269    0.212
       161 -10.2316    110.3279     75.5588   5.9089803878e+01   4.5877493858e+01    0.5955181    0.3168932 -58.71   0.00217456    3.058    0.673
       162  -8.9698     12.9094     77.8553   9.5995033391e+01   5.9569510292e+01    0.1977813    0.1342899 -37.61 0.0003143918    1.224    0.183
       163  -9.5221    144.9776     76.2030   5.0529025336e+01   3.8082808476e+01    0.2842648    0.2204187 -24.22  0.001439333    1.495    0.331
       164 -10.2298    134.1106     76.2068   5.3041778385e+01   4.0547153757e+01     0.403395    0.2331692  61.53 0.0009495983    1.951    0.487
       165  -9.1752    126.5817     76.8346   5.5086404069e+01   4.2119996172e+01    0.3486939    0.2193814 -13.14  0.001387736    2.586    0.613
       166  -9.8263    100.1016     76.1647   6.2297796897e+01   4.7879144984e+01    0.3213693    0.2193543 -34.06  0.001546663    1.524    0.344
       167  -9.7570     75.0773     66.0413   6.7343342094e+01   5.4464097629e+01    0.2732024    0.1880711  29.27 0.0006680732    1.399    0.285
       168  -9.9571     77.3361     61.9487   6.5177905176e+01   5.4790475398e+01    0.3224981    0.2541939   7.64  0.001024549    1.281    0.220
       169 -10.6896     88.4263     74.0760   6.5356359833e+01   5.0552239542e+01     0.770225    0.4126607 -21.93 0.0006971403    2.880    0.653
       170  -9.8735     94.4891     71.7619   6.2668500786e+01   4.9808682371e+01    0.4301823    0.3334201  46.22   0.00127346    1.302    0.232
       171 -11.0486     87.2381     67.5129   6.3647928002e+01   5.1978747283e+01    0.6374646    0.3086419  33.60 0.0007766487    2.176    0.540
       172  -9.6121     83.5190     65.4218   6.4205606118e+01   5.3050215070e+01     0.258845    0.2275636  44.64 9.650135e-05    1.227    0.185
       173  -9.7894     82.0252     62.2513   6.3659439010e+01   5.3881075992e+01    0.2821613     0.194339  30.05 0.0005928755    1.398    0.285
       174 -10.0742     64.2280     74.6922   7.4124276673e+01   5.4602026926e+01    0.3221182    0.2722737  74.77  0.001731036    1.766    0.434
       175  -8.2432     21.5053     76.5120   9.2034850599e+01   5.9239856418e+01    0.1323271    0.1091704 -33.35 -9.287347e-05    1.004    0.004
       176  -9.5470    174.8186     75.3598   4.4377156617e+01   3.1430051826e+01    0.1859033    0.1722323  14.60 0.0004100495    1.322    0.244
       177 -10.6439    177.6403     72.3879   4.3149176230e+01   3.1283989290e+01    0.4198554    0.2636499 -83.40  0.001105756    2.236    0.553
       178  -9.9556    173.4079     68.8921   4.3008052869e+01   3.2801810214e+01    0.2554207    0.1976065  67.97 0.0004072156    1.260    0.206
       179  -8.9495    141.5089     75.5446   5.1125222471e+01   3.8986871716e+01    0.1440125    0.1381013  55.50 0.0002415049    1.023    0.023
       180  -9.9287    143.1466     83.4727   5.2944202889e+01   3.7206336147e+01    0.3497758    0.2392908 -41.06 0.0009799409    1.491    0.329
       181  -9.2056     59.7155     82.6143   7.8230279299e+01   5.3642834929e+01    0.2972088    0.2082118  53.67    0.0014337    1.970    0.493
       182 -10.0293     29.0817     74.8876   8.8395884594e+01   5.8932699276e+01    0.3327476    0.2004322 -30.49 0.0009914407    1.548    0.354
       183  -9.5796     18.8038     72.6471   9.2211944399e+01   6.0288098090e+01    0.3058126    0.2087776 -40.45  0.001455247    1.207    0.171
       184  -8.7845    151.7785     73.2007   4.8245890163e+01   3.7039257520e+01    0.1954437    0.1667232  29.40 0.0005314022    1.342    0.255
       185  -9.8407    117.6902     71.9553   5.5964295454e+01   4.4937493751e+01    0.4553198    0.2606938 -39.71  0.001628033    1.825    0.452
       186 -10.3208    157.2166     69.2011   4.6072915918e+01   3.6451105896e+01    0.5271199    0.1763623 -39.55  0.001870817    2.992    0.666
       187  -9.0919    136.5945     72.2330   5.1321316078e+01   4.0671806237e+01    0.1940496    0.1412703 -26.08 0.0009443793    1.582    0.368
       188 -10.0500     22.5059     63.7814   8.8164644729e+01   6.1841506555e+01    0.4247114    0.1992823 -31.54  0.001454655    2.074    0.518
       189 -11.3395     24.9139     67.7875   8.8235387316e+01   6.0808778143e+01    0.3610718    0.2696545 -14.03 0.0004563395    1.229    0.187
       190 -10.2067     29.9570     68.9850   8.6372454735e+01   6.0091052681e+01    0.4106821    0.2280896 -40.79  0.001481696    1.553    0.356
       191 -10.2812    218.7249     69.8891   3.6547852633e+01   2.2872271988e+01    0.2117999    0.1805425 -88.51  0.000283727    1.128    0.113
       192  -9.3226    143.3385     65.6718   4.7956811743e+01   4.0212194936e+01    0.1987368    0.1795236 -77.76 0.0008234302    1.156    0.135
       193 -10.3311    145.7115     69.8861   4.8621988242e+01   3.8982555149e+01    0.3802204    0.3465408  60.00  0.002173279    1.049    0.046
       194 -10.0260    140.6870     68.1876   4.9243707750e+01   4.0413252561e+01    0.2673025    0.2386339  75.79 0.0005011908    1.131    0.116
       195  -9.1025    102.1032     69.8799   5.9735712095e+01   4.8610481560e+01    0.2121142    0.2040459 -83.45 0.0007646393    1.210    0.174
       196  -9.8089     34.0580     58.4998   8.1357803231e+01   6.1751955503e+01    0.5198582    0.2472083 -15.07  0.001969127    3.465    0.711
       197 -11.5287      7.6126     51.4547   9.1561232885e+01   6.5411994563e+01    0.7059955    0.4906217   1.63  0.003574722    1.395    0.283
       198 -11.3784      2.4269     66.2432   9.7859686482e+01   6.2694180095e+01    0.3494854    0.2380146 -42.72  0.001267176    1.145    0.127
       199 -11.3668      4.9775     60.7011   9.5344970386e+01   6.3717497678e+01    0.6877341    0.3531823  11.24  0.001971953    2.054    0.513
       200 -10.1215     35.7238     53.1888   7.8842383985e+01   6.2554498369e+01    0.4117204    0.2998684   9.76   0.00202094    1.278    0.218
       201 -10.6999     19.7894     55.3977   8.6912038244e+01   6.3738226863e+01    0.4052838    0.3306143  65.50  0.001170546    2.054    0.513
       202 -10.9553     24.6988     54.7697   8.4418253176e+01   6.3418705401e+01    0.3743259    0.2791014 -49.00  0.001340002    1.400    0.286
       203  -9.1081     11.2757     67.4400   9.4196071493e+01   6.1930181567e+01    0.3123375   0.07677386 -48.12  0.001228211    2.770    0.639
       204 -10.3384     15.8555     64.6985   9.1421370309e+01   6.2185479894e+01    0.3108565    0.1950233 -17.40 0.0004879128    1.531    0.347
       205  -9.2797    248.9836     66.9264   3.2558237806e+01   1.7537847357e+01    0.1751286    0.1389586 -60.67 0.0003157002    1.023    0.023
       206  -8.6808     36.0686     67.3004   8.3234111352e+01   5.9803845246e+01    0.1800833    0.1515345  -5.34 0.0003934612    1.092    0.084
       207  -8.8423    215.2385     65.9814   3.6154831385e+01   2.4178437739e+01    0.1745286    0.1439353 -60.02 0.0002315902    1.065    0.061
       208 -11.4323    134.4476     63.5240   4.9311811085e+01   4.2591139794e+01    0.7359548    0.5075533 -71.43  0.001463943    2.019    0.505
       209  -9.6601    129.6438     58.2804   4.8876439536e+01   4.4500320011e+01    0.2680089    0.2004204  72.81 0.0007225626    1.487    0.328
       210  -9.4461    125.4763     56.9698   4.9462318000e+01   4.5643502199e+01    0.3094928    0.2267073 -84.74  0.001143176    1.902    0.474
       211  -8.2216    205.9653     65.7757   3.7310549670e+01   2.6138017218e+01    0.1545707    0.1025736  65.72 0.0002174038    1.521    0.342
       212 -10.1286     97.7084     64.1175   5.9224334526e+01   5.0504674036e+01    0.2619973    0.2422677 -42.61 0.0002579058    1.203    0.168
       213  -9.1912     94.5226     59.3276   5.8634330421e+01   5.1944490725e+01    0.3064293    0.1855838  17.11  0.001288724    2.391    0.582
       214  -7.9814    106.0416     66.0000   5.7360667631e+01   4.8459662320e+01    0.2402447   0.07756559  47.73  0.000800683    2.930    0.659
       215  -9.8840     64.4688     62.1447   6.9958007652e+01   5.6946757944e+01    0.4930517    0.2188538  30.33  0.002038854    2.339    0.572
       216  -9.4551     71.3732     60.4634   6.6809697623e+01   5.6097068362e+01    0.2694512    0.2486388 -43.95 0.0009258743    1.298    0.230
       217  -9.6327     28.5990     52.1667   8.1751702815e+01   6.3521952892e+01    0.2257508    0.1540628  11.79 0.0009994272    1.398    0.284
       218  -9.4086    193.6356     60.8185   3.7887452150e+01   2.9536333793e+01    0.3127745     0.195927 -33.93 0.0009608178    1.753    0.430
       219  -9.0755    175.9576     61.3347   4.0695933436e+01   3.3398020093e+01    0.2261377    0.1700937 -53.77  0.001244206    1.305    0.234
       220 -10.3242    167.1003     61.3833   4.2198986468e+01   3.5409032721e+01    0.3583324    0.1502491 -48.08  0.001424719    2.531    0.605
       221 -10.0487    101.6507     60.7640   5.6962523941e+01   5.0248235323e+01    0.4215696    0.3366663  75.77  0.002199942    1.658    0.397
       222  -8.9868     48.6032     52.1906   7.2872914385e+01   6.1086390732e+01    0.1937975    0.1503214 -20.11 0.0005860112    1.170    0.145
       223 -10.4815     53.3272     60.3764   7.3752712601e+01   5.8960458186e+01    0.3873655    0.3129356  66.74   0.00153477    2.039    0.509
       224 -11.9912     56.1871     56.5952   7.1298771629e+01   5.9220309112e+01    0.3805643    0.3284142  55.70  0.000338784    1.613    0.380
       225  -8.2517    239.2900     61.7369   3.2551440624e+01   2.0080174605e+01    0.1208367   0.07668464 -68.65            0    1.497    0.332
       226 -10.1077    155.4865     60.6925   4.4131548133e+01   3.8187288795e+01    0.2880888    0.2486492 -85.46  0.000868523    1.174    0.148
       227  -8.3076    213.2324     59.9723   3.5119131411e+01   2.5488188586e+01      0.15903    0.0961245 -43.67  0.000309616    1.533    0.348
       228 -10.9157    225.8100     55.4166   3.2722838235e+01   2.3596297472e+01    0.2256059    0.1795658 -66.84 0.0002587669    1.039    0.038
       229 -11.1225    160.6742     54.5080   4.1537212397e+01   3.7906035260e+01    0.5335385    0.2838556  67.10  0.002416773    1.914    0.477
       230  -9.1522    136.5927     56.2325   4.6719853781e+01   4.3219038419e+01    0.1842864     0.136944 -18.29 0.0007260176    1.659    0.397
       231 -10.6303    185.4033     53.5960   3.7371095745e+01   3.2409844284e+01    0.5834808    0.2867356 -67.19  0.002283462    3.097    0.677
       232  -9.4853    181.0608     51.7567   3.7561995535e+01   3.3643408703e+01    0.2138774    0.1770935 -50.66 0.0002646722    1.209    0.173
       233  -9.0374     92.5063     54.4806   5.7637618772e+01   5.3122316091e+01    0.2520764    0.2147559  25.82 0.0007866312    1.081    0.075
       234  -9.6596     95.4633     52.4955   5.6067784689e+01   5.2826017716e+01    0.4292248    0.3047452  76.69  0.002026485    2.253    0.556
       235 -11.4879     69.8417     49.6507   6.3579965083e+01   5.8155272112e+01     0.615048    0.5572185 -20.45  0.003482795    1.191    0.160
       236 -12.9497     61.4881     44.3057   6.4760156529e+01   6.0404657129e+01     0.487527    0.3283945  37.39  0.002714509    1.416    0.294
       237  -9.3782     45.5429     42.6698   7.0685667324e+01   6.3097421353e+01    0.3426364    0.1965007  -1.84  0.001611357    2.296    0.565
       238 -10.1413     46.8032     47.1446   7.1813476907e+01   6.2192983752e+01    0.3892287    0.2312482  16.65 0.0009902684    1.728    0.421
       239  -9.6634     43.8330     54.2441   7.5631665488e+01   6.1367455393e+01    0.2966258    0.2372618  64.17  0.001337773    2.163    0.538
       240  -9.2538     42.4919     50.4836   7.4891767940e+01   6.2205362990e+01    0.2213403    0.1894886 -10.88  0.001112976    1.077    0.072
       241  -8.8089     83.7003     53.9568   6.0276762093e+01   5.4935140779e+01    0.1913118     0.165888 -16.43 0.0008464743    1.166    0.142
       242  -9.6032    141.8768     59.0527   4.6400910214e+01   4.1579739192e+01     0.277624    0.1651787  36.03  0.001036721    2.059    0.514
       243 -10.0149    192.9895     52.2727   3.6006301805e+01   3.0918944578e+01    0.2812626    0.2309121 -64.09  0.001731192    1.116    0.104
       244  -9.0763    107.6085     53.4503   5.2911566855e+01   5.0124548032e+01    0.3372684    0.1286099  51.65  0.001282428    2.459    0.593
       245  -9.9664    145.9036     52.0431   4.3609469444e+01   4.1677793447e+01    0.2099007    0.1928971  60.75 0.0007174108    1.047    0.045
       246  -9.0832    123.3420     51.3717   4.8265475388e+01   4.6949360608e+01    0.2232401    0.2169013  21.17  0.001369715    1.087    0.080
       247  -9.4180     61.4722     52.1613   6.7641208988e+01   5.9155970893e+01    0.2361191    0.1733693  28.02 0.0005885936    1.261    0.207
       248  -9.7147    175.5836     49.2474   3.7765080031e+01   3.5231593484e+01    0.3384408    0.2712896  16.41  0.001514812    1.832    0.454
       249  -9.4961     56.7630     50.2741   6.8822724771e+01   6.0210904822e+01    0.2145249    0.2002612 -52.51 0.0006456577    1.456    0.313
       250 -11.0169    136.7792     49.4502   4.4711939382e+01   4.4151392838e+01    0.4906202    0.2488893  54.90  0.001412584    1.776    0.437
       251  -9.8132    141.7974     49.4278   4.3683010572e+01   4.2995627565e+01    0.2519671    0.2230952  39.18  0.001492954    1.192    0.161
       252 -10.0278     86.4430     49.1050   5.7699960023e+01   5.5148277010e+01    0.5621073    0.2230183  43.03  0.002283163    2.297    0.565
       253  -8.3746    228.4442     49.4763   3.1252916387e+01   2.3906350259e+01    0.1214977   0.09938125 -69.15 0.0001368527    1.025    0.025
       254 -10.0393    153.8882     47.8840   4.0973179499e+01   4.0406453639e+01    0.2970206    0.2601257 -67.55 0.0008481201    1.163    0.140
       255 -10.5262    128.1270     47.9906   4.6141683488e+01   4.6338489155e+01    0.5953036    0.2903086  65.18 0.0004600322    2.308    0.567
       256  -9.7977    125.4934     44.5044   4.5671024350e+01   4.7411154373e+01    0.5911115    0.2020861  51.87  0.001873442    2.524    0.604
       257  -9.9962    115.0801     45.7603   4.8504864921e+01   4.9585537678e+01    0.3624747    0.2881436  38.52  0.001988987    1.196    0.164
       258  -9.8562     78.4002     19.5773   4.9355197277e+01   6.0467417071e+01    0.7389205    0.2251763  58.19  0.002463064    4.360    0.771
       259 -10.9602     79.0062     44.9054   5.8649460061e+01   5.7201969911e+01    0.6155691    0.3709569 -28.97  0.002507226    1.776    0.437
       260  -9.4224     83.5256     41.0859   5.5789331577e+01   5.6869189147e+01      0.22697     0.193082  15.24 0.0003812828    1.100    0.091
       261 -11.3117     78.3258     34.1609   5.4926497074e+01   5.8797533498e+01     0.752526    0.3661817  37.98  0.003552958    1.880    0.468
       262  -8.8413     57.0186    249.0120   1.0673350109e+02   1.3457761083e+01    0.1437242    0.1221955  63.71            0    1.032    0.031
       263  -9.0011     31.3053    248.6570   1.1204905068e+02   1.6553713657e+01    0.1314981   0.07136091  62.80 0.0004182479    1.686    0.407
       264  -8.9678      1.4779    243.9906   1.1764283872e+02   2.0551675409e+01    0.1660187   0.09518667 -86.54 0.0004107247    1.531    0.347
       265  -9.4834     32.0972     47.4925   7.8513802948e+01   6.3987547570e+01    0.1988793    0.1641068 -13.27  0.001084862    1.046    0.044
       266  -9.8108     22.3349     46.1447   8.2675634249e+01   6.5239105442e+01    0.2844291    0.2186918  27.88 0.0005392436    1.504    0.335
       267  -9.7626     25.2822     38.1307   7.8342439876e+01   6.6329419366e+01    0.5286123    0.2540585 -10.05  0.001846472    3.133    0.681
       268 -11.0037     13.4336     38.6020   8.4487903792e+01   6.7363405284e+01    0.6531752    0.4794499 -21.12  0.004352489    1.068    0.064
       269 -11.3125      7.3657     35.9985   8.6742551376e+01   6.8286862715e+01    0.4529026    0.3039973  -1.75  0.001772693    1.326    0.246
       270 -11.1805      9.6048     31.6293   8.3968162656e+01   6.8864677961e+01    0.2725742    0.1936899   7.10 0.0001992133    1.289    0.224
       271  -9.7982      4.3113     31.9377   8.6948675233e+01   6.9204843742e+01    0.3528051    0.1744481 -31.52  0.000931228    1.662    0.398
       272  -9.1109    242.2606     46.6065   2.9370908237e+01   2.1641532424e+01    0.1692566     0.131012  59.20 0.0006071941    1.612    0.380
       273  -9.4119    245.4732     44.5063   2.8693635893e+01   2.1324911228e+01    0.1571817    0.1004708  62.83 0.0009862676    1.764    0.433
       274  -8.8176    235.1318     47.1823   3.0143553403e+01   2.2917205749e+01    0.1660201    0.1106373 -68.50  0.000412985    1.311    0.237
       275  -9.5297    145.8431     46.1833   4.1982355063e+01   4.2502091687e+01    0.2240972    0.1935245  75.77 0.0004581314    1.089    0.082
       276  -9.3169     38.4832     46.9726   7.5407393186e+01   6.3320589919e+01    0.2117468     0.171472  33.42 0.0008520766    1.452    0.311
       277  -8.9757    164.1963     46.6337   3.8887599387e+01   3.8194019688e+01    0.1889928    0.1107262  54.58 0.0006516051    1.623    0.384
       278  -9.4092      3.8352     45.8041   9.1759592311e+01   6.6731197087e+01    0.1882212    0.1339529 -38.97  0.000266975    1.143    0.125
       279  -8.7605      2.4966     42.5049   9.1434830017e+01   6.7430283304e+01    0.1734616    0.1482352  -3.23 0.0005497089    1.255    0.203
       280  -9.3439    191.0454     43.0814   3.4149103900e+01   3.2603013001e+01      0.20342    0.1711429 -51.82 0.0007048505    1.205    0.170
       281  -8.8959    184.9471     44.0746   3.5180741168e+01   3.3823748813e+01    0.1908493    0.1486518  40.60 0.0005619043    1.634    0.388
       282  -8.9979    179.5869     44.3067   3.5975594719e+01   3.4995473190e+01    0.2839513    0.1500623  82.33 0.0009358081    2.272    0.560
       283 -10.2525    108.3398     41.5849   4.8846990190e+01   5.1630458495e+01     0.506876    0.3004988 -20.94   0.00117709    2.084    0.520
       284  -9.7073    103.6134     42.1686   5.0278772794e+01   5.2578837939e+01     0.467692    0.2179293 -40.69  0.002057425    2.431    0.589
       285  -9.9750    244.9324    242.1761   6.6101953751e+01  -1.0823870853e+01    0.2111435    0.1516961  20.92  0.001034729    1.426    0.299
       286  -8.9211    200.9383     43.1824   3.2954947570e+01   3.0435954830e+01    0.2272214      0.15238  59.81  0.001310629    1.531    0.347
       287  -9.5344    203.8582     39.4509   3.1802978363e+01   3.0299884064e+01    0.2233594    0.1674494 -51.71 0.0004859342    1.258    0.205
       288  -9.8543     90.7452     41.7150   5.3776214186e+01   5.5338579827e+01    0.3893743    0.2855583  68.73  0.001580992    1.790    0.441
       289 -10.1851     97.5401     35.0438   4.9496612458e+01   5.4788226043e+01    0.2971937     0.201311  41.66 0.0004117498    1.304    0.233
       290  -9.6712     93.8426     38.1486   5.1614978846e+01   5.5172795494e+01    0.3027123    0.1968456 -20.48 0.0002536148    1.769    0.435
       291 -10.1534     27.9532     42.6162   7.8711518481e+01   6.5289044734e+01    0.2319715    0.1712813  -6.88 0.0003073189    1.155    0.134
       292 -10.1922    143.9594     41.2478   4.0950154727e+01   4.3587024500e+01    0.3107826    0.2104781  73.42 0.0007447399    1.478    0.323
       293  -8.8229     71.7905     42.2491   6.0171102890e+01   5.8923353487e+01    0.1915589    0.1365471  16.70 0.0007493808    1.403    0.287
       294  -8.7655     35.1065     41.6413   7.4977118778e+01   6.4631219769e+01    0.2065433    0.1209364  -4.02 0.0009934939    1.952    0.488
       295 -10.4426    228.5484     39.1389   2.9201610266e+01   2.5268463203e+01    0.3780484    0.2535808 -67.60 0.0005334555    1.279    0.218
       296  -9.5919    225.3178     33.4650   2.8388253469e+01   2.6633629999e+01    0.3822428    0.1425072  62.78  0.001780662    2.609    0.617
       297  -9.2853    222.8652     40.9162   3.0101726688e+01   2.6168605587e+01    0.1856928    0.1443297 -70.39 0.0005135999    1.054    0.051
       298  -9.0703     50.8161     40.2501   6.7513378421e+01   6.2708392076e+01    0.1951797    0.1732479 -35.80   0.00122483    1.402    0.287
       299  -8.4972     53.4927     38.5106   6.5732188466e+01   6.2558845100e+01    0.1281866    0.1089394   9.37 0.0008098151    1.061    0.057
       300  -8.5880    213.9833     40.0005   3.0819710429e+01   2.8101071930e+01    0.1459757    0.1185617 -67.43            0    1.059    0.056
       301  -9.3565    129.5025     33.0150   4.1342026416e+01   4.7932679539e+01    0.3581545    0.1177694 -34.82  0.001402847    3.210    0.689
       302  -9.9379    128.8456     40.1110   4.3611258348e+01   4.7217381295e+01    0.3727283    0.2017038  61.02  0.001043663    1.711    0.415
       303  -8.6855    131.2636     36.5410   4.2043101014e+01   4.7106969322e+01    0.2582178    0.1807975  39.72  0.001337245    1.483    0.326
       304  -9.3608    158.4339     38.9788   3.7823291909e+01   4.0522818931e+01    0.2416996    0.1657787  84.45 0.0002837811    1.515    0.340
       305 -12.1914    107.6356     29.3536   4.4972814048e+01   5.3277162730e+01    0.4411639    0.3193113  16.15  0.001196712    1.650    0.394
       306  -9.4322    177.9098     37.5724   3.4582682183e+01   3.6245519704e+01    0.2433746    0.1862694 -71.02 0.0007563713    1.258    0.205
       307  -9.6523    152.4561     37.3048   3.8360359952e+01   4.2114342799e+01    0.4636109    0.1629555  55.29  0.001873917    2.464    0.594
       308  -9.4153    238.1127     36.6185   2.7859683382e+01   2.3738754152e+01    0.3301082    0.1538723 -73.87  0.001606615    2.558    0.609
       309  -9.4088    138.6057     36.5072   4.0602060718e+01   4.5419082111e+01    0.3891333    0.1753342  49.19  0.001058616    2.077    0.519
       310 -10.8682     86.0884     22.1788   4.8079875592e+01   5.8645940564e+01    0.3342355    0.2325723  69.83 0.0004831445    1.805    0.446
       311  -9.8327    146.0758    242.1625   8.6108569587e+01   2.2822643738e+00    0.2104726    0.1682822   4.38 0.0006272799    1.254    0.202
       312  -9.3808     94.0021     30.0079   4.8702675365e+01   5.6136862255e+01    0.2790591    0.2231243 -83.20  0.001289542    1.804    0.446
       313  -8.8008    200.3534     36.2265   3.1496218898e+01   3.1462590155e+01    0.2357217    0.1322104  59.30 0.0008608666    1.784    0.440
       314  -9.6502     61.1203     34.6665   6.1209278081e+01   6.1860708376e+01    0.2523056    0.2284549 -52.01  0.001098757    1.568    0.362
       315  -9.6053     56.8663     35.7283   6.3283440192e+01   6.2421842578e+01    0.2295689    0.1729882 -31.49 0.0002876427    1.422    0.297
       316  -9.3938     46.9427     34.5209   6.6904297908e+01   6.4136686269e+01    0.3746464    0.2008056  45.15  0.001534897    2.238    0.553
       317  -8.8051     54.7072     31.6446   6.2520175782e+01   6.3335903401e+01    0.2079636    0.1538964  -4.10 0.0006080336    1.293    0.227
       318  -8.2999     50.5095     35.5496   6.5802945089e+01   6.3451776575e+01    0.1717994    0.1166788 -30.14 -4.154403e-05    1.481    0.325
       319  -9.0435     50.9772     32.5263   6.4398620470e+01   6.3807725108e+01    0.2686831     0.178481  33.13 0.0008223401    1.367    0.269
       320  -8.8957     18.1088     22.1425   7.5583371898e+01   6.9572486358e+01    0.1401117     0.116172   6.92 0.0009998047    1.257    0.204
       321  -9.5233     19.0212     34.4632   8.0093401578e+01   6.7567272122e+01    0.2248713    0.1390956 -19.67 0.0005040615    1.428    0.300
       322  -9.0983     46.7810    113.9230   9.0942042150e+01   4.8039275326e+01    0.2299995    0.1762497 -37.74 0.0006439622    1.223    0.182
       323  -8.4164    242.4067     34.5152   2.7108228552e+01   2.3194720473e+01    0.1150009   0.08805865 -67.56 0.0001370234    1.020    0.019
       324  -9.1236    145.6426     34.2244   3.8680000176e+01   4.4066414901e+01    0.3404848    0.1467276  53.81  0.001509463    2.048    0.512
       325  -9.0265    159.1728     32.6842   3.6055849737e+01   4.1122324581e+01     0.209721    0.1491851  88.53  0.000702648    1.419    0.295
       326  -9.2561    153.4249     32.1472   3.6812914584e+01   4.2511950040e+01    0.3099162    0.1661601  86.04 0.0009038195    2.463    0.594
       327 -11.4138    145.1713     29.0456   3.7320108215e+01   4.4777092622e+01    0.6032339    0.2987673  48.48 0.0009997523    1.981    0.495
       328  -9.9152    133.7570     30.8108   3.9860235770e+01   4.7210593055e+01    0.3675016    0.3075853 -33.37  0.001603401    1.359    0.264
       329  -9.1645    119.0905     31.4895   4.3045701035e+01   5.0479507390e+01     0.226611    0.1760468  17.35 0.0008983473    1.527    0.345
       330 -10.4141    187.6102    235.3694   7.6022857460e+01  -2.5393830692e+00    0.3011487    0.1495009  28.36 0.0009177022    1.899    0.473
       331 -10.2722     17.1063     46.5177   8.5356178436e+01   6.5640342854e+01    0.3714411    0.2217042 -45.73  0.001277183    1.518    0.341
       332  -9.7616     24.2738     31.1744   7.6137119155e+01   6.7555753070e+01     0.258687    0.1969465   2.98  0.001315379    1.096    0.087
       333 -10.1225    247.9688     30.1306   2.5873728760e+01   2.2711149314e+01     0.264517    0.1377679 -46.15  0.001112468    1.614    0.380
       334 -10.1618    233.7470     30.6796   2.7111901074e+01   2.5325029899e+01    0.2911641    0.1640195  61.55 0.0007855007    1.931    0.482
       335  -9.5806    125.3370     30.6832   4.1477025183e+01   4.9154572874e+01    0.2306438    0.1961922  37.51 0.0002321385    1.199    0.166
       336  -9.7412    178.7093     29.2014   3.2473235145e+01   3.7083149612e+01    0.2959814    0.2084285  64.40  0.001766848    1.315    0.240
       337 -10.1077     43.5439     15.6539   6.0371092113e+01   6.7097398489e+01    0.4722695    0.1530431  38.28  0.001840583    2.661    0.624
       338  -9.0474     32.0468    232.2529   1.1070368315e+02   2.0000775994e+01    0.1722916    0.1409393  63.56 0.0004279793    1.044    0.042
       339  -9.3047    221.9887    233.9459   6.8914336108e+01  -6.8889943361e+00    0.1645228    0.1617229  82.34 0.0007829461    1.692    0.409
       340  -8.3831    207.4573    226.5104   7.0453791190e+01  -3.7658978259e+00    0.1332777    0.1071734  -7.48  0.000117939    1.041    0.039
       341  -8.7161    163.4595    226.5387   7.9761837516e+01   2.6407008725e+00    0.1374266    0.1233228  10.91 0.0002583068    1.043    0.041
       342 -10.9147     48.7182     26.8914   6.3029242047e+01   6.4918295073e+01    0.3772194    0.2471076  45.25 0.0003724495    1.732    0.423
       343  -8.7361    224.0016    225.2314   6.7023507441e+01  -5.7394119884e+00     0.176239    0.1392964   0.74 0.0005646212    1.102    0.092
       344  -9.2328    211.8330     27.0658   2.8364229284e+01   3.0161829155e+01    0.2401669    0.1498976 -33.65  0.001416125    1.836    0.455
       345  -9.0501    188.9461     28.4596   3.1066882115e+01   3.4894404703e+01    0.3298265    0.1091643  68.37  0.001367301    2.765    0.638
       346  -8.5270    229.5843     27.1950   2.6800083361e+01   2.6562428926e+01    0.1379127    0.1058151 -35.14 0.0004058342    1.586    0.369
       347  -9.5966    161.2351     26.7929   3.4225321972e+01   4.1328700896e+01    0.1913137    0.1568956 -85.24 0.0007941592    1.141    0.123
       348  -8.6296    101.2923     26.0472   4.5407124478e+01   5.5027204313e+01    0.1744781    0.1471459  45.56 0.0007317005    1.012    0.012
       349  -9.1460    132.0345    225.0216   8.6719703780e+01   7.8387193522e+00    0.2131794    0.1659611  64.87  0.000456704    1.617    0.382
       350 -10.0945      2.0711     25.2767   8.5733838131e+01   7.0474654862e+01    0.2382869    0.1517228 -40.87 0.0007196903    1.400    0.286
       351  -8.4261    125.5017    225.5055   8.8330798201e+01   8.7565773366e+00    0.1404511    0.1287785  32.37 0.0008104612    1.032    0.031
       352  -9.6277     89.3985    220.8210   9.6313812744e+01   1.5262362813e+01    0.2615011    0.2233349   2.09 0.0009382464    1.383    0.277
       353  -8.6140    174.8264    218.3669   7.5847841727e+01   2.4684048635e+00    0.2568837     0.102863 -48.72 0.0009966686    2.674    0.626
       354  -8.6495     28.3280    213.3339   1.1001086780e+02   2.4728027238e+01    0.1263904   0.09288733 -42.78 0.0007051792    1.720    0.419
       355  -8.2365    117.6920    212.2703   8.8171417055e+01   1.2882935978e+01    0.1432834    0.1078431  60.83 0.0003384229    1.541    0.351
       356  -9.1795    242.8297    210.1008   6.0912087585e+01  -5.6472287790e+00    0.1784315    0.1528617 -33.93 0.0006614339    1.328    0.247
       357  -8.6573    230.6032    210.1588   6.3104777063e+01  -4.0935704901e+00    0.1865343    0.1003484 -30.48 0.0009462193    1.654    0.395
       358  -9.3488    109.4944     23.4743   4.2589680958e+01   5.3504967654e+01    0.2029115    0.1944257  82.94 0.0006003874    1.174    0.148
       359  -8.3511    221.3829    198.8126   6.2717806855e+01  -8.6012534122e-01    0.1843038    0.1068692 -31.12 0.0004466162    1.557    0.358
       360  -9.5074    225.2157     16.8283   2.5180151387e+01   2.8635714566e+01    0.1890485     0.163645 -38.17 0.0007091979    1.497    0.332
       361  -8.5670     96.0120    195.9398   9.1079356602e+01   2.0154342425e+01    0.1741662    0.1689536 -85.56 0.0004030144    1.035    0.034
       362  -9.2263    230.9776     22.7460   2.5842876735e+01   2.6821063393e+01    0.2821283    0.1582956 -89.74  0.001692413    1.666    0.400
       363  -9.5623    233.3949     20.2384   2.5185342715e+01   2.6645456898e+01     0.262936    0.1547885 -62.96  0.001529369    1.410    0.291
       364  -8.7381    208.7300     22.9921   2.7820836486e+01   3.1286525463e+01     0.175869    0.1036063 -78.84 0.0004569826    1.630    0.386
       365  -9.3990    188.5861     22.3302   2.9723671531e+01   3.5678372094e+01    0.2518775    0.1438247 -31.91  0.001384901    2.020    0.505
       366  -8.6652    152.8287     13.6036   3.1982512870e+01   4.4628634579e+01    0.1834378    0.1413277  81.60 0.0008216725    1.130    0.115
       367  -9.8813    153.7008     22.8624   3.4296828467e+01   4.3489163398e+01    0.2559265    0.1972166  80.93  0.000381473    1.165    0.142
       368  -9.3530      7.5273    194.9403   1.1336550019e+02   3.1081455404e+01    0.3633806    0.1825926  52.40  0.001840934    1.927    0.481
       369 -10.0726    220.4855     20.5119   2.6275454784e+01   2.9160752054e+01    0.3836436    0.1945189 -88.90  0.002088911    1.977    0.494
       370  -9.4898    216.9141     17.8384   2.6051963036e+01   3.0187761563e+01     0.226634    0.2095769 -77.90 0.0009106016    1.304    0.233
       371  -9.2472    248.4819    191.4793   5.6557243267e+01  -3.2854763788e+00    0.2347018    0.1030129 -48.87  0.001033161    2.555    0.609
       372  -8.7645     16.4431    188.4881   1.1069944091e+02   3.1892014228e+01    0.1317753    0.1099516  86.92 8.478323e-05    1.025    0.024
       373  -9.3138      6.0568    175.1993   1.1214163799e+02   3.6047694763e+01     0.245081    0.1556326  52.03   0.00129422    1.603    0.376
       374  -9.5078     17.9251    174.1933   1.0898297390e+02   3.5344103586e+01    0.2099766    0.1393929 -29.17  0.001079249    1.986    0.496
       375  -9.7312     11.5257    166.9830   1.0996518460e+02   3.7695444767e+01    0.2094695    0.1120633 -73.87  0.001029019    1.583    0.368
       376  -8.7105    199.6729     19.8990   2.8042873729e+01   3.3550882722e+01    0.2125443    0.1148923 -25.23  0.001100036    2.566    0.610
       377  -8.5669    140.0147     20.4620   3.5772579904e+01   4.6888234990e+01     0.195654    0.1080707  63.87 0.0005122314    1.535    0.348
       378  -9.9152     15.8057     17.2907   7.4702659749e+01   7.0504379202e+01    0.2413671    0.1342688  -5.09  0.001090198    1.822    0.451
       379  -8.6376    248.6996    165.3237   5.1610451948e+01   1.1669838318e+00    0.1214649   0.09339615 -60.51 0.0002714133    1.631    0.387
       380  -9.5451     15.4610    165.4785   1.0875349190e+02   3.7765937326e+01     0.134198    0.1139636 -77.08 2.697966e-05    1.020    0.020
       381 -10.0580     24.5051    163.2486   1.0601265093e+02   3.7566639799e+01    0.2378079    0.1994101 -38.63   0.00062341    1.319    0.242
       382 -10.9760     21.3471    149.9260   1.0529995517e+02   4.1280597018e+01    0.6304229    0.2369569 -41.18  0.002299045    3.260    0.693
       383 -11.9687     39.3797    160.4659   1.0141184612e+02   3.6839523896e+01    0.7830793    0.3956178  52.18  0.003289229    2.328    0.570
       384  -9.4046    205.0325     18.8978   2.7319961007e+01   3.2526955160e+01    0.2262215    0.1696474 -27.64 0.0008805647    1.738    0.424
       385 -12.1679     30.7794    154.4308   1.0310399674e+02   3.9274446465e+01    0.7218882    0.4842015  70.57  0.003219104    1.700    0.412
       386 -10.4730     20.5396    158.7842   1.0660792844e+02   3.9062481911e+01    0.3709046    0.1732394 -60.87  0.001017941    1.796    0.443
       387 -10.4639      2.4382    156.9940   1.1145558955e+02   4.0870563260e+01    0.3995447    0.2268318 -49.03  0.001624706    1.736    0.424
       388  -9.8440      2.3605    153.2092   1.1111347134e+02   4.1830010078e+01    0.2850924    0.2317768   0.64  0.001775727    1.542    0.352
       389  -9.4853    249.0928    154.1051   4.9399961166e+01   3.0692196139e+00    0.1999473    0.1533368 -25.30 0.0006361551    1.231    0.188
       390 -10.6999     10.1541    151.9066   1.0878515201e+02   4.1634280846e+01    0.3483565     0.256677  22.30  0.001629687    1.596    0.373
       391  -9.5453     14.9338    150.5224   1.0725221461e+02   4.1636543634e+01    0.2191678    0.1666838  36.73 0.0007829182    1.471    0.320
       392  -8.9317     62.6164    147.1125   9.2272107491e+01   3.7580298591e+01    0.3101807    0.1910624 -82.91  0.001104922    2.096    0.523
       393 -10.0853     10.7895    147.0394   1.0805711448e+02   4.2831601367e+01     0.316945     0.204035 -20.56   0.00126741    1.984    0.496
       394 -10.6186     13.2226    142.0412   1.0674011709e+02   4.3936294816e+01     0.384217    0.2051286 -48.32 0.0008719905    1.745    0.427
       395  -8.8887     55.4878    146.0029   9.4286679646e+01   3.8786220888e+01    0.2070883    0.1247035  86.18 0.0005094503    2.434    0.589
       396  -9.8850      5.1333    143.9958   1.0937041329e+02   4.3984589563e+01    0.3377387    0.2187536 -31.64  0.001006395    1.780    0.438
       397  -9.7837    240.7989    144.0595   4.8705722157e+01   6.1203984799e+00    0.1684833     0.130599 -39.92 0.0005790076    1.065    0.061
       398  -9.2269     29.2276    144.0138   1.0212291257e+02   4.2127355066e+01    0.1948158    0.1598583 -69.03  0.001101878    1.078    0.072
       399  -9.3432      1.6240    139.2597   1.0988599016e+02   4.5394837020e+01    0.2599399    0.1091333 -77.62  0.001129732    2.117    0.528
       400  -8.1663    121.7233    139.6815   7.3042745680e+01   2.9639847322e+01    0.1599879    0.1231121 -16.97 0.0002106359    1.573    0.364
       401 -10.5610     41.6453    137.7295   9.7231053696e+01   4.2538649093e+01    0.3085284    0.2607964 -30.80  0.001714092    1.234    0.190
       402  -9.1200    235.7766    136.6165   4.7993742982e+01   8.2757396602e+00    0.1587135    0.1281807  66.32 0.0003696508    1.577    0.366
       403  -9.8004     58.2896    135.8088   9.1513648371e+01   4.1087177664e+01    0.2885226    0.2269218 -35.71 0.0002892902    1.289    0.224
       404  -8.7230     62.5392    133.5512   8.9689276208e+01   4.1111879901e+01    0.2412571    0.2280968 -50.04 -3.181178e-05    1.019    0.018
       405  -8.3479     22.7156     12.6119   6.8858483035e+01   7.0348017018e+01    0.1231118   0.07127952  -3.99 0.0006108418    1.747    0.428
       406  -9.4113     60.4981    131.1708   8.9873014067e+01   4.1994887935e+01    0.3307061    0.2459618 -23.21  0.001606099    1.520    0.342
       407 -11.0156      7.6509    133.4157   1.0737571645e+02   4.6506298891e+01    0.4166653    0.2591249  10.08  0.002223038    1.963    0.491
       408  -9.9460     41.5203    130.5982   9.6026223469e+01   4.4396091184e+01     0.330422     0.199835 -66.07 0.0009923335    1.548    0.354
       409  -9.0496     87.0862    129.9689   8.1037420743e+01   3.8325673521e+01    0.2271851    0.2052588 -84.25 0.0006111546    1.238    0.192
       410  -9.4935     18.2120    128.0063   1.0327632806e+02   4.7154928849e+01    0.3483424    0.1707528 -48.41  0.001610253    1.800    0.445
       411  -9.4571     11.6980    128.2681   1.0542430170e+02   4.7546965645e+01    0.3744114    0.1357621 -43.76  0.001484476    2.684    0.627
       412  -9.2402     50.7357    126.3491   9.2146172571e+01   4.4451920153e+01    0.2409257    0.1872088 -52.35 0.0003184474    1.162    0.140
       413  -9.7146     33.9029    126.9281   9.7910412049e+01   4.6102351348e+01    0.2613448    0.1828376 -71.89  0.001337705    1.386    0.278
       414  -9.2337    241.6996    124.0217   4.4592593392e+01   9.5288979086e+00    0.1985186      0.14301 -44.44  0.001156712    1.147    0.128
       415 -10.2619     38.9480    123.4700   9.5581915365e+01   4.6486692809e+01     0.317067    0.2501554 -18.43  0.001713782    1.377    0.274
       416  -9.3074     71.8047    122.2662   8.4205172012e+01   4.2661624530e+01    0.3336546    0.1863686 -45.81  0.001159168    1.696    0.410
       417  -8.8642     83.9788    122.3077   8.0228922042e+01   4.0738730579e+01    0.2133969    0.2024367   4.22 0.0005148019    1.067    0.063
       418  -9.6209      8.2120    121.9440   1.0568542708e+02   4.9358822261e+01    0.2093561    0.1892088 -27.46 0.0007599937    1.205    0.170
       419  -9.0634      2.9558    122.7745   1.0751483605e+02   4.9454326794e+01    0.1451747    0.1092505   6.34 0.0006361133    1.590    0.371
       420  -9.7615     30.2542    121.2393   9.8145906518e+01   4.7885862931e+01    0.2676391    0.1965888  40.50  0.001183247    1.556    0.357
       421 -10.2329     28.4073    117.2633   9.8072332220e+01   4.9050083218e+01    0.3120755    0.2320389  70.68   0.00114484    1.697    0.411
       422 -11.1554     21.2428    118.9985   1.0085030225e+02   4.9201900312e+01    0.5191013    0.4436186  66.46  0.003096771    1.363    0.266
       423 -11.3696     21.4824    109.9052   9.9189803874e+01   5.1445212238e+01    0.7132521    0.3915319 -52.94  0.002885945    1.500    0.333
       424  -9.9432    221.3621    119.3980   4.6690881516e+01   1.3942368700e+01    0.2973316    0.2454631  39.86 0.0006983019    1.439    0.305
       425 -10.6006     45.0937    119.5711   9.2710730170e+01   4.6818332241e+01    0.3331599    0.2529882  28.30  0.001278387    1.430    0.301
       426  -9.4922     93.6994    119.1361   7.6356818835e+01   3.9842441927e+01    0.2869929    0.2250217  17.84  0.000819016    1.394    0.283
       427  -8.8232     57.7629    119.0116   8.8218782720e+01   4.5432777954e+01    0.2077967    0.1779657 -46.10 0.0004590274    1.070    0.065
       428 -10.1137     13.5475    113.4554   1.0260389951e+02   5.1134227506e+01    0.3229153    0.2431199 -64.89   0.00187854    1.154    0.133
       429 -10.5026      5.4847    116.1562   1.0578019384e+02   5.0957382576e+01    0.4799422    0.2641217 -29.49   0.00137775    1.984    0.496
       430 -10.5019      9.9435    114.5104   1.0401727769e+02   5.1102738465e+01    0.7675395    0.3471504  57.30  0.002910011    3.783    0.736
       431 -10.7363     31.6427    106.3101   9.4802770845e+01   5.1471073256e+01    0.5405874    0.3165721 -29.88  0.002552396    1.818    0.450
       432  -9.0355     36.5937    100.2053   9.1644728856e+01   5.2467566815e+01    0.2846191    0.1226884 -39.19  0.001136776    2.312    0.567
       433  -9.0463     36.7075    116.3012   9.4985495965e+01   4.8519934758e+01    0.2231735    0.1338671 -65.68 0.0004491626    1.593    0.372
       434  -9.9180     33.7654    114.4035   9.5653448389e+01   4.9278503560e+01    0.2034164    0.1891042 -67.73 0.0005815213    1.125    0.111
       435  -8.5891    104.2184    115.3816   7.2154604274e+01   3.8792114696e+01    0.2091253     0.145476  47.31 0.0002365669    1.529    0.346
