#   1 NUMBER                 Running object number                                     
#   2 MAG_AUTO               Kron-like elliptical aperture magnitude                    [mag]
#   3 X_IMAGE                Object position along x                                    [pixel]
#   4 Y_IMAGE                Object position along y                                    [pixel]
#   5 X_WORLD                Barycenter position along world x axis                     [deg]
#   6 Y_WORLD                Barycenter position along world y axis                     [deg]
#   7 A_WORLD                Profile RMS along major axis (world units)                 [deg]
#   8 B_WORLD                Profile RMS along minor axis (world units)                 [deg]
#   9 THETA_WORLD            Position angle (CCW/world-x)                               [deg]
#  10 FWHM_WORLD             FWHM assuming a gaussian core                              [deg]
#  11 ELONGATION             A_IMAGE/B_IMAGE                                           
#  12 ELLIPTICITY            1 - B_IMAGE/A_IMAGE                                       
         1 -10.4011     60.8164     47.7661   5.1614160907e+01   5.9914449188e+01     1.073857    0.4682073 -24.85     0.004306    3.087    0.676
         2 -10.6617    110.1793     40.5659   3.3477781870e+01   5.1628918907e+01      1.06172    0.5780649  23.85  0.004448785    2.701    0.630
         3 -12.1783    164.2949     27.7447   1.8959010915e+01   4.0682778767e+01    0.4446954     0.291619  44.31 0.0004740636    1.677    0.404
         4 -12.1301    104.7919     13.5111   2.5735049418e+01   5.5683251603e+01    0.4220407    0.3342291  16.19  0.002720645    1.352    0.260
         5 -11.1048      6.2835     10.8568   6.1292308389e+01   7.1596273935e+01    0.5021148    0.4204157  -6.58   0.00405816    1.386    0.279
         6 -10.2511     12.8517      8.8337   5.6918264598e+01   7.1253767614e+01    0.4103363    0.1799132 -41.37  0.001904141    2.582    0.613
         7 -11.7752     26.3773     28.5009   5.8693901099e+01   6.7257949410e+01     0.424113    0.2894835 -26.73  0.002033076    1.281    0.219
         8 -12.0104     20.2409     22.0783   5.8990126840e+01   6.8797958952e+01    0.5939258    0.2795402 -26.69   0.00197359    1.957    0.489
         9 -11.7998     16.4164     13.7621   5.7316188158e+01   7.0284696432e+01    0.6414436    0.2676633 -19.81  0.003094397    2.914    0.657
        10 -10.8558    135.3683     21.0393   2.1885982807e+01   4.8154335098e+01    0.4657724    0.4382651 -74.63  0.002251926    1.191    0.160
        11 -11.1575    127.0113     16.5837   2.2106740034e+01   5.0494643054e+01    0.5460643    0.3287527 -14.66  0.001499402    2.155    0.536
        12 -10.5093    134.9702     14.9441   2.0176076494e+01   4.8830080104e+01    0.6676599    0.4197836  63.73  0.003562828    1.327    0.246
        13 -11.4612     36.1549     18.5371   5.0112571636e+01   6.7411017578e+01     0.555432     0.320842 -31.23  0.003322257    1.734    0.423
        14 -12.0930     47.6123     12.7278   4.2814297694e+01   6.6438967271e+01    0.6140041    0.2804608  41.44  0.003324187    1.965    0.491
        15 -11.9559     22.4129     11.4193   5.3304166748e+01   6.9934470155e+01    0.4560463    0.2578743   9.19  0.002069819    1.627    0.385
        16 -12.8704    164.0631     18.7684   1.6688631567e+01   4.1701974946e+01    0.4668321    0.2578948  45.27  0.002369716    2.006    0.502
        17 -11.8701    228.6908     15.9462   9.0728885460e+00   2.7558502956e+01    0.3499441    0.2760622 -80.05  0.001466916    1.048    0.046
        18 -11.0148    225.6779     13.7058   8.8938070978e+00   2.8441729900e+01     0.250368    0.1918018 -63.76 0.0007868914    1.168    0.144
        19 -11.3426     67.6391     18.1665   3.7799393222e+01   6.2581410782e+01    0.4135298    0.3857562  52.43  0.002848817    1.442    0.307
        20 -10.0741    147.7505     16.1755   1.8415283635e+01   4.5761709495e+01    0.3761582    0.1574121  44.13  0.001620054    2.653    0.623
        21 -11.3412     85.8538     13.9548   3.0634029415e+01   5.9559553167e+01    0.3976593     0.339275  -8.03  0.001772523    1.292    0.226
        22 -10.4469     87.5386      7.4851   2.7790756757e+01   5.9775805474e+01    0.5136604    0.2437675  52.46  0.002143539    1.688    0.408
        23 -10.3059    190.6272     11.7993   1.1792933856e+01   3.6300176281e+01    0.3188428    0.1145593 -32.38  0.001439477    3.084    0.676
        24 -10.8101    193.1036      7.2676   1.0542128786e+01   3.6199758675e+01    0.3487312    0.2456888 -10.40  0.001796658    2.275    0.560
        25  -9.9865    219.3432     12.4859   9.1928865807e+00   2.9915347937e+01     0.226834    0.1752086  70.93  0.001070195    1.319    0.242
        26 -11.0219    206.7722      3.1173   8.4037171131e+00   3.3599027972e+01    0.4368471    0.2250054  79.52  0.002474739    1.621    0.383
        27 -11.6723    212.3633      8.8232   9.0700042821e+00   3.1805732094e+01    0.5019042    0.3472342 -13.21  0.002969092    2.472    0.595
        28 -10.8128    218.5550      3.8255   7.5674524051e+00   3.1004043759e+01     0.290827    0.2110214  74.33 0.0009516655    1.283    0.221
        29 -11.5195    223.8207      2.7713   6.9563152418e+00   3.0008091007e+01    0.3602418    0.2026833 -86.95 0.0002213028    1.507    0.337
        30  -9.6575    120.7036     11.7381   2.1821804919e+01   5.2348975360e+01    0.2798883    0.1176857  58.57 0.0007903698    1.879    0.468
        31 -12.3625    105.5755     20.5245   2.7924865121e+01   5.4865633476e+01    0.3493111     0.309143 -89.95 0.0005848451    1.392    0.281
        32 -11.0078    169.8156      9.2521   1.3567911067e+01   4.1302868055e+01    0.3986513    0.1587645  58.32  0.001887266    2.102    0.524
        33  -9.7551    164.0443      5.5219   1.3362275242e+01   4.2971589142e+01    0.3286955    0.1768091  22.61  0.001408486    3.954    0.747
        34 -10.5982    145.4457      9.4602   1.6930625389e+01   4.6912111479e+01    0.2255214     0.172177  48.95  0.001422163    1.274    0.215
        35 -11.7522    245.8541      5.9145   5.9495483284e+00   2.5215982122e+01    0.5552879    0.2816218 -77.46  0.003290119    1.744    0.426
        36 -10.2154      1.0000      7.0543   6.2477258425e+01   7.2520608945e+01    0.2585953   0.08504316 -40.91  0.001367748    2.700    0.630
        37 -10.9082      2.6353      1.9249   5.9185366176e+01   7.3028365704e+01    0.3440529    0.1678455   8.24   0.00213188    1.922    0.480
        38 -10.9792    232.6280      7.3696   7.1503990077e+00   2.7703388800e+01    0.2693681    0.1720285 -87.41  0.001022356    1.265    0.209
        39 -12.0633    233.2276      2.5594   6.2260308185e+00   2.8096085276e+01    0.3631258    0.1871286 -72.24 0.0003236792    1.715    0.417
        40 -10.5129    122.2706      6.6823   1.9965578045e+01   5.2418519869e+01    0.3276703    0.1679526 -36.52  0.001730277    2.306    0.566
        41 -10.1037     62.0860      7.0618   3.5123080439e+01   6.4607533725e+01    0.2473822    0.1515442  36.81  0.001148971    1.297    0.229
        42 -10.6663    184.8345      6.3704   1.1189960625e+01   3.8146850910e+01    0.3387184    0.1990058 -71.82  0.001238605    1.736    0.424
        43  -9.4845     78.1806      7.4196   3.0301660936e+01   6.1622127500e+01     0.218477    0.1527763  62.17  0.001027147    1.599    0.375
        44 -10.5699     74.4006      3.3697   2.9800270540e+01   6.2666049804e+01    0.5205994    0.2124126  48.89  0.002669851    1.891    0.471
        45 -10.8002    176.8952      5.8182   1.1923705001e+01   4.0001571634e+01    0.3456221    0.1692583  82.75 0.0006653736    1.936    0.484
        46 -10.1169     41.3424      4.1139   4.1491477772e+01   6.8226435224e+01     0.266458     0.147265   9.77  0.001159149    1.871    0.466
        47  -9.9277    141.5138      3.4987   1.5880104892e+01   4.8315552138e+01     0.239901    0.1777373  66.72  0.001530503    1.086    0.080
        48 -11.5334    133.9865      2.7492   1.6816798523e+01   5.0088229517e+01    0.4145522    0.2343145  68.84   0.00144431    1.475    0.322
        49  -9.3426    128.6572      1.2813   1.7244441399e+01   5.1403697387e+01    0.1660389    0.1088884  81.21  0.000559391    1.526    0.345
        50 -11.1991    113.8621      2.5643   2.0243464038e+01   5.4597134979e+01    0.4025269    0.2109767  55.12  0.002222373    1.479    0.324
        51 -10.7325    105.6288      2.3115   2.1791643104e+01   5.6401982299e+01    0.3201196    0.2314127  88.24  0.001940974    1.734    0.423
        52  -9.8139     25.8814      3.8272   4.8121840483e+01   7.0367294831e+01    0.1486209    0.1136813  10.70 0.0002446235    1.141    0.124
        53 -10.4274     22.2495      3.1222   4.9515443234e+01   7.0883224543e+01    0.2159256     0.159665   2.44  0.001081905    1.071    0.066
        54  -9.2410    157.3364      3.6659   1.3742395596e+01   4.4673903819e+01    0.1863192     0.107459  87.18 0.0009939432    1.731    0.422
        55 -10.2831    153.1242      1.4262   1.3713393522e+01   4.5825871336e+01    0.3243011    0.1035735  70.67  0.001300097    2.665    0.625
        56 -10.2708     12.7893      1.9685   5.3714572656e+01   7.2062475268e+01    0.2095939    0.1198492  13.78 0.0007754194    1.445    0.308
        57  -9.1524     33.5289      1.5247   4.3572688404e+01   6.9588330159e+01    0.1127961   0.08212393  13.38 8.062922e-05    1.001    0.001
        58 -10.5274     30.0849    132.8813   8.4722961128e+01   4.5422022672e+01    0.3672756     0.269819 -23.99   0.00102867    1.589    0.371
        59 -10.7061     50.1494    249.3707   9.3369778528e+01   1.5323298831e+01    0.3330988    0.1205557  56.54  0.001401499    2.792    0.642
        60  -9.6412     47.4471    134.6926   7.9738029175e+01   4.3198401904e+01    0.2973622    0.1231182 -61.05  0.001114934    2.106    0.525
        61  -9.2953     73.4724    133.4803   7.1486663019e+01   4.0099693236e+01    0.1496487    0.1381321 -47.97 0.0003341288    1.020    0.020
        62  -9.6170     39.3381    133.4408   8.1998403336e+01   4.4387364536e+01    0.2176997    0.1405854  15.92 0.0006053846    1.886    0.470
        63  -9.1854    103.9498    131.0692   6.1763022269e+01   3.5585192901e+01    0.1889658    0.1726733 -50.14 0.0006778336    1.065    0.061
        64  -9.2804     62.6309    131.1579   7.4351221006e+01   4.2207240637e+01    0.2290874    0.1147592 -48.56 0.0009512376    1.826    0.452
        65 -11.0897     10.4299    127.3924   8.9812893383e+01   4.8308413079e+01    0.5618114    0.2302611 -58.57  0.001804803    1.845    0.458
        66  -9.5785     13.1745    122.5821   8.8277036276e+01   4.9281896320e+01    0.1671654    0.1303754   7.23 0.0009967231    1.560    0.359
        67  -8.5830     93.3002    129.6619   6.4587314402e+01   3.7845815536e+01    0.1557463    0.1221126  82.84 0.0005412227    1.663    0.399
        68 -10.0100     26.9263    126.2510   8.4600705767e+01   4.7332774784e+01    0.4185712   0.08323957 -55.78  0.001143436    3.258    0.693
        69  -9.7652     22.9080    127.0275   8.5970862507e+01   4.7478213466e+01    0.1951301    0.1617466 -62.16 0.0003571152    1.015    0.014
        70 -10.2891      2.2867    126.0500   9.2047108657e+01   4.9134152998e+01    0.2633505    0.1840165  81.26  0.001408494    1.560    0.359
        71  -9.9496     33.0861    125.9016   8.2614744309e+01   4.6865657142e+01    0.2274245    0.1471447  82.48  0.001084431    2.071    0.517
        72  -9.5403     82.8746    124.7044   6.6606191394e+01   4.0805710597e+01    0.4079327    0.2278707  -9.86  0.001146874    4.998    0.800
        73 -11.6346    104.2846    122.2989   5.9511887026e+01   3.7620473679e+01    0.3852796     0.347575  51.58 0.0008129031    1.173    0.147
        74 -10.3429     49.4039    123.0338   7.6873527295e+01   4.5864687478e+01    0.2917233    0.2020987   6.02  0.001459272    1.785    0.440
        75  -9.2365     56.4710    122.4728   7.4481444577e+01   4.5150217382e+01    0.1425182    0.1303275 -56.18  0.000370052    1.050    0.048
        76 -10.1996     48.5929    112.1822   7.4842296490e+01   4.8578270745e+01    0.4623091     0.247732 -47.07  0.002140838    1.642    0.391
        77 -10.1495     44.8949    120.1170   7.7740613665e+01   4.7083358249e+01    0.2608809    0.2226255 -69.02 0.0005842128    1.165    0.142
        78 -10.1100     43.5295    116.4819   7.7445781860e+01   4.8110855689e+01    0.2614117    0.2495977 -71.24 0.0007941805    1.136    0.119
        79  -9.3522     33.3442    119.3242   8.1337205850e+01   4.8444770849e+01    0.1463179   0.08744071 -35.64 0.0007050507    1.737    0.424
        80 -10.4904      6.9649    115.8985   8.9200650981e+01   5.1271876765e+01    0.4156531    0.1739995 -55.32  0.001169966    1.798    0.444
        81 -12.3690      2.5840    111.8519   8.9978328896e+01   5.2470164820e+01    0.4038144    0.2496805 -61.96 0.0008099184    1.255    0.203
        82 -11.4903      5.1964    105.3269   8.8113437709e+01   5.3841620361e+01    0.4310943    0.3326516  -1.96  0.002800111    1.526    0.345
        83  -9.4877     58.2514    115.5315   7.2375881612e+01   4.6604416231e+01    0.2969453    0.1705974 -70.31 0.0007473374    2.152    0.535
        84  -9.8202     79.0664    114.6814   6.5385827845e+01   4.3815755702e+01    0.2974561    0.2051463 -42.65  0.001062678    1.377    0.274
        85  -9.1856     67.7486    114.9815   6.9126916944e+01   4.5448977458e+01    0.2089094     0.159497  58.58  0.001034486    1.643    0.391
        86 -11.3849     30.3902     97.9598   7.8002800751e+01   5.3735844373e+01     1.313721    0.6410178  44.88  0.005806744    2.863    0.651
        87 -12.1018      9.5751     97.1646   8.5204340250e+01   5.5454988285e+01    0.5213647    0.4357709 -11.05            0    1.316    0.240
        88 -11.9806     41.3752     86.2655   7.1171968010e+01   5.5251927448e+01     1.169723    0.6259844  -4.93  0.004971355    2.787    0.641
        89 -12.7091     17.7787    100.5741   8.2990216480e+01   5.4142921386e+01    0.3414993     0.308904 -46.85 0.0004992443    1.110    0.099
        90 -11.9990     20.8328     92.3503   8.0223277846e+01   5.5780041145e+01    0.9037592    0.5834022 -87.72    0.0028717    2.292    0.564
        91 -11.1435     26.8677     85.5535   7.6439714427e+01   5.6792990305e+01    0.5736682    0.5104221  -9.78  0.002613682    1.170    0.145
        92 -11.9834     25.3337    107.1956   8.1679378361e+01   5.2033657794e+01    0.9820271    0.5618504 -22.40  0.004834621    2.102    0.524
        93 -11.4623     21.6877    114.5708   8.4262922098e+01   5.0580748771e+01    0.5045295    0.2480235   4.13  0.002263566    2.865    0.651
        94 -11.7282     28.6247    112.6170   8.1618603520e+01   5.0478197150e+01    0.4107928    0.2790789 -37.18   0.00178901    1.405    0.288
        95  -9.7850    104.4656    112.5746   5.6952580242e+01   3.9839166350e+01    0.2230102    0.1851492  83.70 0.0004656792    1.548    0.354
        96  -9.3368     85.8884    113.2983   6.2863586761e+01   4.3024320137e+01    0.2471221    0.1653354  77.64 0.0009458021    2.773    0.639
        97 -11.2543     16.5295    109.5823   8.5079465920e+01   5.2140760529e+01    0.2834474    0.2439471  66.64 0.0004683286    1.414    0.293
        98  -9.5135    120.4614    109.3552   5.1457551937e+01   3.7345838633e+01    0.3177649    0.2164548 -12.62  0.001267963    2.201    0.546
        99 -11.3372     79.8209    108.3089   6.3527118778e+01   4.5177759808e+01    0.5223341     0.324922  28.16  0.001456819    1.734    0.423
       100 -10.6436    182.2388    104.7485   3.5480573789e+01   2.4416628306e+01     0.352599    0.3036451  26.72  0.001342975    1.382    0.276
       101  -9.4843    143.0139    105.9474   4.4562635141e+01   3.3158615321e+01    0.2537962    0.1957212 -87.90  0.001132255    1.722    0.419
       102  -8.9111    118.2542    105.3563   5.0992642071e+01   3.8675147784e+01    0.1560656    0.1200139 -12.63 0.0003167144    1.609    0.378
       103 -10.8098     87.8308    104.4309   5.9919584841e+01   4.4716973440e+01    0.4547427    0.2589494  48.38  0.001043283    2.043    0.511
       104  -9.1742     45.4976    105.5735   7.4412854897e+01   5.0481020590e+01    0.1381865    0.1202605 -38.88  4.73535e-05    1.018    0.018
       105  -9.3017     64.6964     98.6806   6.6071522720e+01   4.9642801473e+01    0.1961681    0.1139273 -49.32 0.0003735822    1.594    0.373
       106 -11.4638     68.9473     95.5717   6.3774910395e+01   4.9714702565e+01    0.3752787    0.2978562  20.69 0.0005124517    1.302    0.232
       107 -10.5694     51.9609     99.0957   7.0614352797e+01   5.1218511157e+01    0.6811399    0.2075219 -43.50  0.002332811    3.123    0.680
       108  -8.9304    120.4346    101.4884   4.9313730292e+01   3.9041072274e+01    0.1531335    0.1476118  -2.66 0.0001060658    1.035    0.034
       109 -11.0524     89.8738     88.4311   5.4748277817e+01   4.7775502334e+01    0.6972773    0.3452366 -37.14  0.002827351    2.105    0.525
       110 -11.2698     80.3089     93.3297   5.9302625944e+01   4.8414016808e+01    0.8818421    0.7531967  -3.43  0.004830225    1.182    0.154
       111 -10.3666     79.5582     84.2790   5.6919258162e+01   5.0412311017e+01    0.3995965    0.3156748 -35.85  0.001654161    1.215    0.177
       112 -10.7854     76.4597     80.0289   5.6692479544e+01   5.1771028473e+01    0.6797661    0.3613733 -44.13  0.003056351    1.840    0.457
       113 -10.2098     72.5655     77.8464   5.7374651791e+01   5.2827476389e+01    0.3715395    0.3122889 -48.79  0.002104844    1.314    0.239
       114 -12.5015    125.1687     94.5180   4.6058160551e+01   3.9458410199e+01    0.5548466    0.3939628  64.89  0.002490034    1.727    0.421
       115 -10.9538     42.7769     94.1446   7.2659773710e+01   5.3379589700e+01    0.4026405     0.345778 -47.72  0.002260997    1.108    0.097
       116 -11.2743     99.4526     91.3044   5.2572155858e+01   4.5402444431e+01    0.6108504    0.2521224  46.61   0.00220448    2.598    0.615
       117 -10.5328     49.4804     91.2063   6.9485523148e+01   5.3268098609e+01    0.3225465    0.3063765  16.75    0.0012636    1.196    0.164
       118 -11.7791      6.9878     88.7136   8.4517974512e+01   5.7490625808e+01    0.5154793    0.3791992   3.10  0.002295027    1.546    0.353
       119  -9.1308    156.2180     89.5622   3.7039555212e+01   3.3360717330e+01    0.2061865    0.1397647  42.02 0.0006319504    1.542    0.352
       120  -9.8360     66.4503     88.6380   6.2713649783e+01   5.1570853040e+01    0.3494776    0.2168745  -4.34  0.001433538    2.291    0.564
       121  -8.9288    199.5163     88.4542   2.8376422563e+01   2.3512800989e+01    0.1435663    0.1314564 -74.47 0.0002370055    1.008    0.008
       122  -9.9483    103.8617     87.1411   5.0005893428e+01   4.5376348922e+01    0.2091889    0.1732242   1.74  0.001067242    1.321    0.243
       123 -10.5194    143.2599     84.4942   3.8628321966e+01   3.7315088423e+01    0.2560382    0.2547528 -26.49 0.0003528109    1.045    0.043
       124  -9.1814    133.7712     85.1622   4.1143416980e+01   3.9361345729e+01     0.252188    0.1668674 -85.16 0.0009444217    2.813    0.645
       125  -9.9991    120.3306     85.1963   4.4693653195e+01   4.2330029146e+01     0.382943     0.185663  34.80  0.001407801    2.451    0.592
       126 -10.4456    113.3752     83.2412   4.6059825526e+01   4.4183730472e+01    0.3210307    0.2579155  63.05  0.001380913    1.439    0.305
       127  -9.9660     66.9361     81.7774   6.0549647882e+01   5.2915487702e+01    0.3520948    0.2599679   7.28    0.0018598    1.447    0.309
       128  -9.4126     60.6730     82.0232   6.2871748407e+01   5.3768044224e+01    0.2023587    0.1642992 -35.98 0.0006288672    1.135    0.119
       129  -9.2924      1.3444     79.6979   8.4817750239e+01   5.9737122357e+01    0.3368979   0.09030332 -63.33  0.001355381    2.993    0.666
       130 -11.3063      1.9740     71.6226   8.2860652974e+01   6.1399855682e+01    0.6641555     0.152552 -60.45  0.002616161    3.234    0.691
       131 -11.6075      9.4500     62.2313   7.7518268040e+01   6.2874305834e+01    0.5000015    0.2324645 -54.62  0.002448556    1.804    0.446
       132 -12.7439      4.3938     61.5461   7.9476058139e+01   6.3304119316e+01    0.6879359    0.3839537 -30.09 0.0006812771    1.530    0.346
       133  -9.3286    103.5132     79.9923   4.7964062452e+01   4.6822196140e+01    0.2132535    0.1429614 -39.27 0.0003591811    1.519    0.342
       134  -9.2728     46.5864     76.1901   6.6419104582e+01   5.6762773055e+01    0.2027097    0.1514902 -34.86  0.001166458    1.171    0.146
       135 -12.0814     53.1599     74.1076   6.3300931545e+01   5.6362974085e+01    0.5815184    0.3131943 -50.05 0.0009178669    1.853    0.460
       136 -10.3922     58.0520     77.9863   6.2638931629e+01   5.4944474796e+01    0.2545528    0.1911051 -31.33 0.0005807942    1.211    0.174
       137  -8.8890     88.5988     73.5016   5.0602854366e+01   5.0893872607e+01    0.2121911    0.1776334  37.79 0.0001964345    1.202    0.168
       138  -9.7775     92.6861     72.1473   4.8864139906e+01   5.0375656795e+01    0.3371757    0.2431939 -64.51  0.001408373    2.060    0.515
       139 -10.3060     88.2015     77.4261   5.1961233528e+01   5.0237545520e+01    0.4491395    0.3195684  58.36  0.002168109    1.859    0.462
       140 -10.0178     93.8959     76.6394   4.9891794731e+01   4.9325912902e+01    0.5494931    0.2221238  42.81  0.002092479    2.430    0.589
       141 -11.9282     13.2478     73.9373   7.8913692500e+01   6.0272903258e+01    0.4995046    0.3641675 -63.58  0.001882467    1.431    0.301
       142  -8.8637    134.6796     77.3122   3.8659525732e+01   4.0579317945e+01    0.1490139     0.117214 -84.57 0.0007037567    1.650    0.394
       143  -9.0803    158.9517     76.4830   3.2925511166e+01   3.5059702991e+01    0.2115678    0.1396481  55.96 0.0003377427    1.453    0.312
       144  -9.2330    112.2202     75.3841   4.4018809708e+01   4.5872428197e+01      0.19964    0.1352246  54.77 0.0004368895    1.577    0.366
       145  -9.7962    103.5004     74.9938   4.6432348596e+01   4.7744378885e+01    0.2853111    0.1999811  56.91  0.001366645    1.654    0.396
       146 -10.6284    186.9533     72.1897   2.6567023159e+01   2.9169109184e+01    0.4054444    0.3324433 -44.63  0.002239705    1.245    0.197
       147  -9.1403     80.9939     73.7634   5.3202243729e+01   5.2203522626e+01    0.1944849    0.1708302  13.04 0.0006337703    1.066    0.062
       148 -11.9191     40.7052     70.1127   6.6916124710e+01   5.8640487739e+01      1.26976    0.5192185  17.39  0.001628153    3.184    0.686
       149 -10.2765     35.6794     71.7004   6.9371275435e+01   5.8859774921e+01    0.2741308    0.2171922 -22.04  0.000941602    1.087    0.080
       150 -10.1400    153.5190     72.8278   3.3072228278e+01   3.6962638462e+01    0.3959617    0.1732308  42.01  0.001432313    2.657    0.624
       151  -9.4954     15.0417     67.4806   7.6566583961e+01   6.1466451690e+01    0.3559225    0.1846648  11.12  0.001920773    2.119    0.528
       152  -9.1291    162.1674     71.3517   3.0890214322e+01   3.5159011533e+01    0.2105805    0.1307793  68.83 0.0006928856    1.750    0.429
       153 -11.3026    123.0618     68.9431   3.9116365230e+01   4.4633049944e+01    0.5137531    0.2845732  44.49  0.001697724    1.712    0.416
       154 -10.8344     32.7669     74.0408   7.1184679201e+01   5.8677165259e+01    0.4171988    0.3458943  82.71  0.001506589    1.888    0.470
       155 -10.6686     79.1826     67.9194   5.1943142375e+01   5.3579109499e+01    0.4710338    0.3557994  65.76  0.002367651    2.050    0.512
       156 -10.3525    219.7115     66.9055   2.0482250792e+01   2.2612397606e+01    0.4682624    0.1848081  65.84   0.00190946    2.700    0.630
       157  -8.8894    192.3343     65.6748   2.4111809849e+01   2.8958481151e+01     0.148846   0.09912231 -74.48 0.0006458078    1.714    0.416
       158 -11.3714    157.2564     63.5369   2.9753189537e+01   3.7576120767e+01    0.4651229    0.3029735  47.90  0.001047492    1.509    0.337
       159  -9.8198     96.3517     65.0446   4.5442844926e+01   5.0900025404e+01    0.2628685    0.1970767  33.26 0.0006704205    1.260    0.207
       160 -10.5993     91.6715     62.5468   4.6082556765e+01   5.2223622338e+01     0.346127    0.2454151  46.40  0.001179605    1.427    0.299
       161  -9.2458     52.0190     65.5806   6.1083045233e+01   5.8138342755e+01    0.1905732    0.1209417  25.47 0.0007908925    1.576    0.365
       162  -9.9195    200.6138     64.2597   2.2525737638e+01   2.7274584069e+01    0.3968507     0.182821  77.69   0.00145073    3.192    0.687
       163 -10.1906     59.2219     63.8889   5.7783797756e+01   5.7458558486e+01    0.2885515    0.2624579 -30.67  0.001057342    1.223    0.182
       164  -9.8467     65.0025     61.5342   5.4850980843e+01   5.7015656385e+01    0.3239661    0.3004666  16.68  0.001182875    1.202    0.168
       165  -9.4899    106.4817     63.5112   4.1944967868e+01   4.9100812469e+01    0.2736493    0.1177329  37.92  0.001034129    2.459    0.593
       166 -10.1738     51.0530     56.6541   5.8512937675e+01   5.9862270477e+01    0.6538852     0.189164 -44.88   0.00244079    3.363    0.703
       167 -10.9551     52.0891     48.2007   5.5144226234e+01   6.1122845161e+01    0.8617229     0.277489  28.69  0.003152956    3.680    0.728
       168  -9.2238    113.4662    249.4766   8.0276910214e+01   6.1189535498e+00     0.132444    0.1157272  45.44 0.0003935346    1.035    0.034
       169 -10.0962     55.7922     50.5116   5.4520165450e+01   6.0229203493e+01    0.2171782     0.174512  12.61 0.0004442359    1.113    0.102
       170 -11.1240     40.4479     56.9659   6.2889587405e+01   6.1125897725e+01    0.6031191    0.3594775  -4.93  0.001128827    1.935    0.483
       171 -11.2311     43.0574     62.2415   6.3545996636e+01   5.9867505064e+01    0.2790091    0.2134713 -27.45 0.0005152078    1.126    0.112
       172 -11.3650     46.0329     59.0198   6.1303145736e+01   6.0092538937e+01    0.5240672    0.3342778  53.88  0.002502881    2.882    0.653
       173 -11.3397     44.0337     43.9833   5.6875759873e+01   6.2864120118e+01     0.512703    0.2565324 -41.25 0.0003119635    1.979    0.495
       174 -11.4364     40.0158     43.9696   5.8553244961e+01   6.3366715323e+01    0.5543154    0.2764533  12.48  0.001907725    2.493    0.599
       175 -10.5869    234.0417     61.9904   1.7689658140e+01   2.0327738943e+01    0.2062739    0.1678241 -70.01 0.0008050447    1.019    0.018
       176 -10.0704    125.0859     56.6472   3.4854773017e+01   4.6118806106e+01    0.3386234    0.2634903  -3.09  0.001415874    1.568    0.362
       177 -11.2658    118.0035     55.7391   3.6348576598e+01   4.7833505195e+01    0.8833848    0.4999268 -63.24  0.003244268    3.621    0.724
       178  -9.9653    213.6468    248.2628   5.9041486916e+01  -9.3385999660e+00    0.2164879    0.1586366  17.52  0.001009421    1.180    0.152
       179 -10.9953    116.0232     48.9902   3.4717073479e+01   4.9237355216e+01     0.368626    0.3025034  14.41 0.0004200432    1.320    0.243
       180 -11.3162    117.7951     44.6348   3.2886262727e+01   4.9434617393e+01      0.62336    0.3715001  66.73  0.002753117    1.981    0.495
       181 -11.9182    120.1848     40.8651   3.1114702662e+01   4.9388244990e+01    0.5446805    0.3632382  44.12 0.0007049561    1.354    0.262
       182 -11.6987    119.5179     37.4744   3.0196620359e+01   4.9956632950e+01     0.350855    0.3282558  45.07  0.001276536    1.069    0.064
       183  -9.6794    113.9127     60.9330   3.9061392866e+01   4.7934538371e+01    0.2600099    0.1955218 -41.24  0.001364737    1.447    0.309
       184  -9.5448     84.5252     61.5212   4.8043900712e+01   5.3730019973e+01    0.2461506    0.1259992  51.89  0.001028991    2.417    0.586
       185 -12.6252     74.4305     51.9283   4.8172663432e+01   5.7056758683e+01    0.7911937    0.3743313 -46.86   0.00247023    2.694    0.629
       186  -9.8159     30.1897     53.3868   6.6014624803e+01   6.2863727518e+01    0.4475435    0.1451642  27.16  0.001916111    3.115    0.679
       187 -10.1251     33.5450     51.9695   6.4110461701e+01   6.2768387638e+01    0.4850496    0.2398397 -26.48  0.002381821    2.093    0.522
       188  -9.9053     24.7895     59.6152   7.0277213329e+01   6.2229686655e+01    0.7047256    0.2028535  26.82  0.002909319    3.498    0.714
       189 -11.0591     25.0639     55.9760   6.9042941821e+01   6.2881100480e+01     0.511382    0.2822696  17.65  0.002206327    1.861    0.463
       190 -10.1793    105.6435     57.9210   4.0385114062e+01   5.0160112252e+01    0.2840956    0.1851395  65.08  0.001310229    2.033    0.508
       191  -9.7842     91.8140     57.1766   4.4253827543e+01   5.3060383423e+01    0.2611067    0.1914477  57.77 0.0006415388    1.644    0.392
       192 -10.2712     88.0774     56.0399   4.5049084490e+01   5.3952774123e+01     0.445715    0.1915545 -31.53  0.001564323    2.597    0.615
       193 -11.2639     83.1910     47.1737   4.3557348215e+01   5.6197431426e+01    0.3793285    0.2577963  12.88  0.001992209    1.635    0.388
       194 -11.0171    157.8191     55.0086   2.7317196088e+01   3.8721797358e+01    0.5657313    0.4140734 -77.75  0.002887756    1.618    0.382
       195  -9.2619    219.8706     56.1769   1.8148470000e+01   2.4200295439e+01    0.1566027    0.1497868  79.81 0.0002652155    1.277    0.217
       196  -9.1794    135.2094     59.2389   3.3238295258e+01   4.3417199758e+01    0.2393771    0.1451087  20.92 0.0008380566    2.726    0.633
       197  -9.6234    201.3261     53.2154   1.9875327864e+01   2.8760645128e+01    0.2181308    0.1672587  59.04 0.0005678978    1.347    0.257
       198 -10.1580    145.5750     49.4679   2.8162905027e+01   4.2404106174e+01    0.5117723    0.2764126 -12.75  0.001939868    3.466    0.712
       199 -10.4183    112.2204     50.8094   3.6284143596e+01   4.9812280273e+01    0.3027483    0.2316911 -25.94 0.0008321552    1.421    0.296
       200 -10.2188    240.4378     50.5349   1.4698963917e+01   2.0691008288e+01    0.2140856    0.1656052  69.71 0.0009352748    1.371    0.271
       201  -9.4917    174.6701     49.3066   2.2872224223e+01   3.5523000164e+01    0.1427557   0.09776255 -76.85 0.0007038343    1.659    0.397
       202 -10.4519     26.4336     48.3590   6.5973841151e+01   6.4110072329e+01    0.2723447    0.1434471 -23.25  0.001132623    1.888    0.470
       203  -9.9913     12.7888     47.3767   7.1764028017e+01   6.5429268789e+01    0.3949398    0.1107437 -33.28  0.001459871    3.992    0.750
       204  -9.9487      2.0212     49.0137   7.7146619624e+01   6.5817239317e+01     0.192191    0.1600688 -28.37 0.0008868219    1.151    0.131
       205 -10.3357     20.2524     46.4375   6.8081757572e+01   6.5002411270e+01     0.475971    0.2572841 -18.98  0.002615971    1.840    0.456
       206 -10.3891     26.3192     42.9971   6.4173808270e+01   6.5026276560e+01    0.2495686    0.1850197 -34.10  0.000988725    1.244    0.196
       207  -9.9576     23.0743     37.2909   6.3593524006e+01   6.6264339261e+01    0.3826841      0.23175  41.42  0.002157346    2.491    0.599
       208 -10.2492    200.2868     45.0683   1.8152610653e+01   3.0137884189e+01    0.3905784    0.1976925  79.13  0.001764109    2.168    0.539
       209 -10.2122    135.3852     45.8232   2.9218084595e+01   4.5279539616e+01    0.4625489    0.1678373  56.58  0.001637129    2.448    0.592
       210  -9.7635    139.7905     43.6618   2.7659905893e+01   4.4536933713e+01    0.2756877    0.1854289  39.73 0.0007645187    1.543    0.352
       211  -9.6326    161.2721     43.7848   2.3664116097e+01   3.9446991221e+01    0.3594116     0.176038  79.65  0.001356041    2.972    0.663
       212 -10.5106    155.8374     42.6180   2.4301308951e+01   4.0888558855e+01    0.3013933    0.2634511  26.99  0.001372388    1.348    0.258
       213 -10.0216      4.7126     43.1713   7.4169032093e+01   6.6713756452e+01    0.3712626     0.115391 -40.80  0.001463999    2.369    0.578
       214 -11.2244      4.6064     36.1562   7.1954061821e+01   6.7926280574e+01    0.3619358    0.2486203  -5.88  0.001735409    1.284    0.221
       215  -9.9906      9.4864     30.0030   6.7393897374e+01   6.8581673872e+01    0.5397404    0.2550617   1.57  0.002897076    2.345    0.574
       216 -10.1517    234.4664     41.4916   1.3518045975e+01   2.3168559113e+01    0.2897666    0.1300471 -89.64  0.001207028    3.101    0.677
       217  -9.6212    231.4307     37.7538   1.3077582856e+01   2.4299370247e+01    0.1852083    0.1100937 -43.78  0.001051193    1.607    0.378
       218  -9.3192    189.0000     41.0156   1.8710849403e+01   3.3275522610e+01     0.204508    0.0738368 -34.65 0.0008072378    2.976    0.664
       219  -9.4314     91.2230     41.3980   3.9019281098e+01   5.5452364424e+01      0.17562    0.1188844  54.68 0.0005201017    1.574    0.365
       220 -10.6049     80.0370     39.0370   4.1666966362e+01   5.7901228103e+01      0.38118    0.2801176  69.71  0.002006241    2.200    0.545
       221 -11.3211     79.0922     33.6496   3.9994384891e+01   5.8762285275e+01    0.5734547    0.2964351  31.75   0.00279324    1.904    0.475
       222  -9.3577     70.6372     34.1450   4.2998287509e+01   6.0220419286e+01    0.1917292    0.1772887  28.22  0.001285652    1.265    0.210
       223 -10.8773     61.2887     35.9291   4.7029024666e+01   6.1548750259e+01    0.4308401    0.2829712  -1.00   0.00170737    1.621    0.383
       224  -9.5117     67.2166     32.2067   4.3452554966e+01   6.1054284957e+01    0.3059962    0.1826569  14.40  0.001455789    1.899    0.474
       225 -11.0990     56.9031     30.9044   4.6727946252e+01   6.2901673537e+01    0.3755578    0.2588349   5.00 0.0008181026    1.389    0.280
       226 -11.4614     48.7418     30.6325   4.9824034150e+01   6.4158208392e+01    0.6790717     0.230107  34.88  0.002963826    2.753    0.637
       227 -10.7353     43.0072     28.0650   5.1154152833e+01   6.5297287305e+01    0.1844072    0.1401521  10.76  0.001231009    1.076    0.070
       228  -9.2951    206.3047     37.4453   1.5708916221e+01   2.9789146566e+01     0.167495    0.1087384  84.67 0.0004143529    1.437    0.304
       229 -10.1363    170.5645     30.9454   1.8849655293e+01   3.8840202349e+01    0.3764271    0.2714965 -85.20  0.001217869    1.402    0.287
       230 -10.6804    176.5866     35.7041   1.9165971958e+01   3.6851670213e+01    0.4188643    0.2288034 -50.29 0.0009516929    1.930    0.482
       231 -10.5720    175.9602     31.0000   1.8092062027e+01   3.7567195377e+01    0.3348973    0.1474586  70.85  0.001469327    2.150    0.535
       232 -10.4084    153.1382     36.1940   2.3018809735e+01   4.2330315363e+01    0.2251688    0.1956705 -73.53            0    1.206    0.171
       233  -9.6085    132.4275     36.9510   2.7189827732e+01   4.7085381710e+01    0.3403527    0.1830508  82.13  0.001289224    3.286    0.696
       234  -9.2199    139.3321     36.1079   2.5546356511e+01   4.5584703037e+01     0.180772    0.1154245 -45.21 0.0003931366    1.774    0.436
       235  -9.1424     94.6003     36.2881   3.6240054704e+01   5.5427583855e+01    0.1263085    0.1029417  84.72 0.0006996002    1.788    0.441
       236 -12.0152    160.0338     29.7722   2.0143589957e+01   4.1456486370e+01    0.3690546    0.3086838 -44.22 0.0004223938    1.329    0.248
       237  -9.9873    174.6414    246.8606   6.6782255413e+01  -3.2403953070e+00    0.2508015    0.1656636  24.47  0.001341711    1.407    0.289
       238 -12.1210    126.7063    241.8896   7.6393404102e+01   5.4862788210e+00     0.492793    0.4130362  53.42  0.002911434    1.138    0.121
       239 -11.5720    106.4063     32.4781   3.1751038886e+01   5.3418038096e+01    0.6088115    0.3477382  18.52  0.002533131    2.533    0.605
       240 -12.1755    114.6712     25.0356   2.7314805018e+01   5.2431547463e+01    0.7226377    0.2492712  53.27  0.002156799    2.311    0.567
       241 -10.1353    240.8965     32.2552   1.1129204127e+01   2.3067869208e+01    0.2095936    0.1470881  62.12  0.001196925    1.616    0.381
       242 -10.9479    188.9631     28.5397   1.5789351358e+01   3.4836376180e+01    0.4064302    0.3014574  -4.52  0.002269007    2.171    0.539
       243 -10.7586     32.5409     31.0574   5.6900887983e+01   6.6203666879e+01    0.2029538    0.1556101   2.41 0.0003225587    1.067    0.062
       244 -10.4602    198.0903     28.8277   1.4759513547e+01   3.2716521427e+01    0.3846352    0.2439446 -38.66  0.002181163    1.696    0.410
       245 -10.6571     72.8558    237.8651   8.7622571395e+01   1.4674500441e+01    0.5983266    0.2842146  59.04  0.002655413    2.271    0.560
       246 -10.9709    167.3447    237.7233   6.6866552292e+01  -4.3262686021e-01    0.2530284    0.2203732   3.18 0.0008498756    1.128    0.113
       247  -9.1552     15.3863    233.7880   9.8946807666e+01   2.2673929102e+01    0.1622528   0.09091666 -69.16 0.0009433454    1.684    0.406
       248  -8.9202    205.6561    233.7158   5.8133755153e+01  -5.8247779926e+00    0.1371373   0.09187143   1.20 0.0004036411    1.641    0.391
       249 -11.1926     67.8457    240.8763   8.8993785792e+01   1.4736286698e+01    0.3494519    0.2497558  20.38  0.001467957    1.889    0.471
       250 -11.9585    126.0191     28.4113   2.5924759359e+01   4.9529828448e+01     0.492189    0.3421738  66.83  0.002742164    1.373    0.272
       251  -9.8574     59.8984     23.7207   4.2743350484e+01   6.3297477785e+01    0.2811278    0.1422682 -27.91 0.0009225538    2.053    0.513
       252 -10.5494    147.4357     22.8219   2.0298580525e+01   4.5171643782e+01    0.4038727     0.115188  61.17  0.001528591    2.780    0.640
       253  -9.7240    147.9954     28.4680   2.1773774500e+01   4.4435489169e+01     0.375914    0.1748805  54.22  0.001350359    1.839    0.456
       254 -10.8555    144.1066     25.3951   2.1585112593e+01   4.5678698785e+01    0.3749453    0.2383124  75.10  0.001391539    1.548    0.354
       255  -9.7279    230.1568     27.0648   1.1094092780e+01   2.5930351342e+01    0.1704543     0.152361  88.78 0.0009835879    1.268    0.212
       256 -10.7553    183.4274     25.6094   1.5796315815e+01   3.6454222435e+01    0.2832638    0.2533267  79.65   0.00156578    1.124    0.110
       257  -9.5151    187.3344     22.9913   1.4702939109e+01   3.5849874276e+01    0.1859592    0.1552697  59.35 0.0005274089    1.284    0.221
       258 -10.1434    155.1998     24.5217   1.9507240941e+01   4.3174340180e+01    0.3332668    0.1686666  85.04  0.001123099    2.651    0.623
       259  -9.8795    246.8141    231.3970   4.9807349447e+01  -1.1257572415e+01    0.1663215    0.1021879  16.82 0.0009423993    1.611    0.379
       260  -8.9820    181.2973    228.3450   6.2275349907e+01  -1.0050496418e+00    0.1426505    0.1007478  -5.41 0.0007034395    1.673    0.402
       261  -9.3844    200.5052    226.4853   5.7901795948e+01  -3.7804361509e+00    0.1373659    0.1171301   2.19 7.273654e-05    1.034    0.033
       262  -9.9207     90.9436     22.9247   3.2515948033e+01   5.7674733814e+01    0.2540674    0.1958106  19.23   0.00157831    1.258    0.205
       263  -9.9836     47.5246     18.8590   4.5476176931e+01   6.5786148766e+01    0.2857403    0.1613767 -14.64 0.0008373098    1.841    0.457
       264 -10.5490    197.2682    232.0190   5.9553370200e+01  -4.2383879985e+00    0.1924836    0.1656203 -10.59   0.00116903    1.090    0.083
       265 -11.3752    147.2609    237.9776   7.1292256894e+01   2.8518091520e+00    0.5311357    0.3510058  44.19  0.002138405    1.413    0.292
       266  -9.9725    233.8278    223.2024   5.0722762353e+01  -8.2225714352e+00    0.1840025    0.1308051  -6.87 0.0004826397    1.333    0.250
       267  -9.6718    223.3875     21.9948   1.0713590764e+01   2.7969542889e+01    0.2074499    0.1355095 -88.70  0.000627938    1.316    0.240
       268 -10.7494    178.6930     20.9732   1.5291791469e+01   3.8065677292e+01    0.4404928    0.1987103  46.99  0.001962035    2.662    0.624
       269  -9.3235      5.2643     22.2001   6.6557178215e+01   7.0089469631e+01    0.1304747    0.1103196 -10.62 0.0004805553    1.319    0.242
       270 -10.8066    246.6128     20.2122   8.4325435368e+00   2.3421227101e+01    0.1898488    0.1384042 -43.42  0.001294002    1.499    0.333
       271  -9.5816     65.6632    222.3247   8.7496253572e+01   1.9134447300e+01    0.1459851   0.08814365  66.54 0.0007051267    1.719    0.418
       272 -10.8859    235.8962     19.9291   9.2315461653e+00   2.5607706810e+01    0.2021375      0.17274  67.88 0.0009408315    1.446    0.309
       273 -11.5270    238.9365     16.3230   8.3178833485e+00   2.5413907579e+01    0.2602194    0.1711583  81.23  0.001712409    1.326    0.246
       274  -9.6448     49.6770    222.6631   9.1044056071e+01   2.1182798792e+01    0.1230159   0.09791803 -40.43 0.0007050824    1.715    0.417
       275  -9.5006    164.5168    211.9792   6.3058314592e+01   5.0725788261e+00      0.21525    0.1849134  30.35 0.0004311241    1.099    0.090
       276  -9.2113    216.5156     20.5155   1.1054977761e+01   2.9614970786e+01     0.122022   0.09762087 -84.29 0.0001202444    1.028    0.027
       277  -9.4787    152.8354    207.6047   6.4943283082e+01   8.0913067913e+00    0.2171185      0.13002  47.10 0.0009474383    1.712    0.416
       278 -10.0106     75.3652     19.0678   3.5653685128e+01   6.1088436031e+01     0.375118    0.1856562  26.66   0.00175369    2.246    0.555
       279  -9.6250     81.0179     19.4903   3.4091623403e+01   5.9977580763e+01    0.2327748    0.1455155  58.86  0.001124994    1.779    0.438
       280  -8.9259      1.4865     20.5252   6.7871019433e+01   7.0607299484e+01    0.1124749   0.07745565 -18.31  0.000809559    1.046    0.044
       281  -8.9359    206.3061     17.2869   1.1374899015e+01   3.2211452400e+01    0.1120677   0.08617096  53.04 0.0002733945    1.568    0.362
       282  -9.6190     17.0031    206.1614   9.6588494088e+01   2.8683154841e+01    0.3000316    0.1259848  75.97  0.001243983    2.898    0.655
       283  -9.1608     61.4852    206.5255   8.6622327152e+01   2.3403088418e+01    0.1382841    0.1198082  79.10 0.0005126897    1.013    0.013
       284 -10.9342      5.9018    199.0997   9.8399284253e+01   3.1353295983e+01    0.4419375   0.09286632 -64.23   0.00167559    3.465    0.711
       285  -9.5436    120.3419     15.8677   2.3183449330e+01   5.2063357726e+01    0.1618894    0.1158975   1.51 0.0004457041    1.762    0.433
       286  -9.8447    187.0113     15.0468   1.2917740254e+01   3.6784465738e+01    0.1911653    0.1562746  83.00 0.0005874863    1.039    0.038
       287  -9.6625     78.6208    203.9911   8.2212873595e+01   2.1570951596e+01    0.2434979    0.1766016  54.49 0.0006838968    1.325    0.245
       288  -9.7709    233.8644    196.8944   4.5745782594e+01  -3.7606718252e+00    0.2414085    0.1659314 -40.58  0.000752536    1.373    0.272
       289  -9.2384     79.4877    190.4885   8.0060814482e+01   2.4742450593e+01    0.1461691    0.1327431  82.40 -1.023886e-05    1.022    0.022
       290 -11.9179      4.5708    184.3064   9.7518807184e+01   3.4938305207e+01    0.5956241    0.3651184  89.50  0.002776098    1.384    0.277
       291  -9.7262    250.3988    176.7703   3.8874677072e+01  -2.7342483238e+00    0.1982242    0.1065897 -32.28 0.0009559717    1.693    0.409
       292  -9.4382     51.9703    174.2300   8.4792450202e+01   3.2626874099e+01    0.2968418    0.1599184  83.92  0.001174864    2.591    0.614
       293  -9.3636     39.4223    173.7823   8.7992374516e+01   3.4206312697e+01    0.1967827     0.108879 -59.15 0.0009432518    1.615    0.381
       294  -9.5517     28.2003    175.8032   9.1077887260e+01   3.4878673370e+01    0.1812518    0.1384468 -55.40 0.0005340267    1.322    0.243
       295 -10.6934     14.1659    159.3289   9.2785041703e+01   4.0217783129e+01    0.3433855    0.2038787 -67.22  0.001211927    1.369    0.269
       296 -11.9298      8.8467    166.9341   9.4931733051e+01   3.8777565426e+01    0.4458704    0.3298975  37.75  0.001941291    1.548    0.354
       297 -11.3773     11.4171    162.7192   9.3857544601e+01   3.9604560614e+01    0.3789411    0.2080851 -86.17  0.001833619    1.695    0.410
       298 -10.3289     18.6355    164.9185   9.2262504523e+01   3.8465029491e+01    0.2717267    0.2293928 -48.45  0.001313567    1.300    0.231
       299  -9.3092     65.9802     10.5147   3.5259296113e+01   6.3614892038e+01     0.180212   0.09877039  46.09  0.000588322    1.559    0.359
       300  -9.8493    205.0033    163.2267   4.4422467758e+01   7.6572220060e+00     0.258545    0.1997869 -37.14 0.0006342742    1.206    0.171
       301 -10.8505     28.1671    161.4321   8.9364841401e+01   3.8464336181e+01    0.3880947    0.2536279 -58.04  0.001565897    1.366    0.268
       302  -9.6094     38.0450    160.3074   8.6562325811e+01   3.7753129501e+01    0.1866269    0.1762926  82.84 0.0008985635    1.120    0.107
       303 -10.6050      9.3429    155.5356   9.3615971725e+01   4.1522706045e+01    0.2632314    0.1950571 -72.27  0.001204448    1.089    0.082
       304  -9.8218    104.2886    154.9401   6.7025450329e+01   2.9609929305e+01    0.2852727    0.2560233 -45.67  0.001459049    1.110    0.099
       305 -10.6582     16.5843    147.8371   9.0773862579e+01   4.2860473871e+01    0.2715644    0.1945912 -71.19 0.0003527365    1.149    0.130
       306 -10.5092      4.0860    153.7498   9.4786483066e+01   4.2334599197e+01    0.2421122    0.1524154  44.89  0.001395728    1.778    0.438
       307 -11.2015     47.1242    147.3421   8.2035925369e+01   4.0043290033e+01    0.7674714     0.374179 -45.98  0.003283629    2.059    0.514
       308 -10.2653     30.3272    152.2426   8.7560243724e+01   4.0563312584e+01    0.2681485    0.2209071 -59.21   0.00120777    1.115    0.103
       309  -9.9296     62.2778    151.5416   7.8360820251e+01   3.7096880933e+01    0.3736267    0.2440902  -5.32  0.001603991    2.410    0.585
       310 -12.2536     12.3370    136.2049   9.0460635572e+01   4.6037742521e+01     1.559021    0.3636214 -58.71  0.005903533    2.843    0.648
       311 -10.3422      3.1096    147.6678   9.4392196331e+01   4.3875941426e+01    0.2476495     0.146608 -64.47 0.0009034554    1.341    0.254
       312 -11.2609      5.7204    142.3318   9.3085050758e+01   4.4999001491e+01    0.3685985    0.2624406  84.47 0.0005688618    1.394    0.282
       313 -10.8575      2.1926    141.2090   9.3919528224e+01   4.5497674690e+01    0.4506892    0.1461146 -69.28    0.0019211    2.322    0.569
       314 -12.6516     22.8504    149.3017   8.9234466221e+01   4.1978470185e+01    0.7220049    0.3751256 -43.12  0.001633927    2.068    0.516
       315  -8.9262     74.3081    146.2932   7.3866262778e+01   3.6744126486e+01    0.1499998    0.1119692 -27.91 0.0004975601    1.584    0.369
       316 -11.0831     33.2250    144.2977   8.5585461102e+01   4.2279862188e+01    0.3249445    0.2744523  71.93  0.001261496    1.271    0.213
       317  -9.3656    217.6531    138.9998   3.6734140210e+01   1.0070325988e+01    0.2092969     0.171158 -43.76 0.0004627542    1.106    0.096
       318 -10.1282     80.1904    138.3619   7.0490002302e+01   3.7854768228e+01     0.332544    0.2493642  50.63 0.0008446499    1.468    0.319
       319 -10.4406     40.2623    137.9274   8.2488576533e+01   4.3170113265e+01    0.2864071    0.2298324 -81.23 0.0009231551    1.240    0.193
       320 -10.0822     31.9353    137.8511   8.4964299655e+01   4.4015991770e+01    0.3608953     0.236924  41.51 0.0009271238    1.724    0.420
       321 -12.0452     23.7354    136.6782   8.7209753249e+01   4.5037820082e+01    0.4441965    0.3850992  83.18 0.0004489265    1.212    0.175
