#   1 NUMBER                 Running object number                                     
#   2 MAG_AUTO               Kron-like elliptical aperture magnitude                    [mag]
#   3 X_IMAGE                Object position along x                                    [pixel]
#   4 Y_IMAGE                Object position along y                                    [pixel]
#   5 X_WORLD                Barycenter position along world x axis                     [deg]
#   6 Y_WORLD                Barycenter position along world y axis                     [deg]
#   7 A_WORLD                Profile RMS along major axis (world units)                 [deg]
#   8 B_WORLD                Profile RMS along minor axis (world units)                 [deg]
#   9 THETA_WORLD            Position angle (CCW/world-x)                               [deg]
#  10 FWHM_WORLD             FWHM assuming a gaussian core                              [deg]
#  11 ELONGATION             A_IMAGE/B_IMAGE                                           
#  12 ELLIPTICITY            1 - B_IMAGE/A_IMAGE                                       
         1 -11.0118     55.7934     33.3661   7.5044665577e+01   6.3027633436e+01    0.8339293    0.4374912  50.52  0.003735128    2.890    0.654
         2 -10.6179     41.4333     22.4063   7.6379302321e+01   6.6723187950e+01    0.5223585    0.2243035 -42.00  0.002454144    2.560    0.609
         3  -9.9819     37.1694     18.8988   7.6709284723e+01   6.7790960361e+01    0.3842211    0.2164128  -6.99  0.001334929    2.026    0.506
         4 -10.1174     43.7724     15.5751   7.2161196292e+01   6.7315633564e+01    0.4762066    0.2171087  39.01  0.002405882    2.154    0.536
         5 -12.1904    106.7144     29.2577   5.6653506388e+01   5.3862662940e+01    0.6175769    0.5607355  86.29  0.001270976    1.355    0.262
         6 -10.5095     26.2854     21.9341   8.3334671919e+01   6.8661399065e+01    0.4972018     0.324163 -12.87  0.002433266    1.352    0.261
         7 -11.5671     19.1190     29.1374   8.9974101125e+01   6.8205365363e+01      0.46279    0.3649002 -44.34 0.0004281853    1.408    0.290
         8 -10.7084    182.4431     17.9965   3.9447121639e+01   3.7121174880e+01    0.5526944    0.3491762  22.86  0.001422882    2.492    0.599
         9 -10.3694    174.4088     11.8417   3.8776327146e+01   3.9663688421e+01     0.467425    0.3241955  40.93   0.00260634    1.653    0.395
        10 -11.9942    166.6998     16.9706   4.1185427454e+01   4.1002552204e+01    0.5429482    0.3490996   9.82  0.002649757    2.353    0.575
        11  -9.8236    208.6152     15.2946   3.5962327300e+01   3.1331458655e+01    0.3597423    0.3054028  32.34  0.002177543    1.556    0.357
        12  -9.6275    219.1634     12.1341   3.4286518215e+01   2.9324169731e+01    0.3065884    0.2197232 -44.19  0.001921423    1.330    0.248
        13 -11.0420    218.2274     18.8586   3.5880181369e+01   2.8794076548e+01     0.693181     0.281038  80.45   0.00298971    2.734    0.634
        14  -9.4507    225.9150     16.6986   3.4716648606e+01   2.7359369515e+01    0.2337852    0.1643529 -38.87 0.0007466469    1.402    0.287
        15 -10.8132    172.3132     23.4144   4.2221529304e+01   3.8963195479e+01    0.5643474    0.3652051  58.99  0.002763441    1.429    0.300
        16 -12.1750    117.1108     22.1448   5.1550265206e+01   5.2320596821e+01    0.3757689    0.2766189  51.17 0.0004728109    1.208    0.172
        17  -8.8337     68.5915     11.5497   6.0643512036e+01   6.3629864244e+01    0.2457546    0.1452844  49.74  0.001334771    1.668    0.400
        18 -10.8291     62.0503     16.7231   6.5315223672e+01   6.4239675608e+01     0.551001    0.3130029  17.38  0.002597903    1.951    0.488
        19 -10.5106     67.6648     16.0884   6.3006281290e+01   6.3310897736e+01    0.3688557    0.3162262 -59.76  0.001642785    1.833    0.455
        20  -9.4028    150.8844     19.3265   4.4212817355e+01   4.4587629497e+01     0.469157    0.2202453  36.70  0.001895792    2.807    0.644
        21 -10.8248    145.8549     12.0967   4.2783966112e+01   4.6510230487e+01    0.5549465    0.3057416  77.40  0.001618035    1.901    0.474
        22 -11.1665    231.9600     16.7951   3.4231897430e+01   2.6058384477e+01    0.5651973    0.2536701 -62.22  0.002689873    2.337    0.572
        23 -10.2191    198.5397     17.6063   3.7529703769e+01   3.3384581426e+01    0.3762572    0.2449151 -77.75  0.002062152    1.557    0.358
        24  -8.8425      5.5453      8.4357   8.8255111945e+01   7.2683973674e+01    0.2412024    0.2132925  61.42  0.001687592    2.403    0.584
        25  -9.4974     23.3359      1.4192   7.4718774455e+01   7.1809494515e+01    0.1904352    0.1313864 -29.14 0.0007308208    1.502    0.334
        26 -11.5416      5.5960     15.8439   9.1614760249e+01   7.1527622532e+01     0.339339    0.2718103 -45.28 0.0004029192    1.508    0.337
        27 -11.1398     12.9571     11.9436   8.5717947209e+01   7.1517813224e+01    0.6641563    0.2832607 -18.62  0.002989496    3.089    0.676
        28 -10.6047     14.6966      4.0678   8.0805904658e+01   7.2455975210e+01    0.2473242    0.1615623 -25.73 0.0003997364    1.292    0.226
        29 -10.3072     18.0287      1.5702   7.7631629266e+01   7.2416716911e+01     0.243184    0.1460929  24.60  0.000897549    1.548    0.354
        30 -11.6267     24.9302      6.9390   7.6813353038e+01   7.0934247152e+01    0.2067973    0.1697299  -4.09 0.0002865304    1.210    0.174
        31 -11.6066     20.5682      6.4623   7.8848080225e+01   7.1504529847e+01     0.342134    0.2260641  -2.52 0.0005850363    1.265    0.210
        32  -9.9389    117.0372     15.1703   4.9064708514e+01   5.3044886436e+01     0.366314    0.2005295  39.41  0.001138581    1.771    0.435
        33  -9.2326    112.0229     15.0414   5.0104825315e+01   5.4206417525e+01     0.233293    0.1843138 -15.74  0.001379997    1.379    0.275
        34 -10.2950    244.2870     12.8719   3.2468397135e+01   2.3944077649e+01    0.4107941    0.2594973  31.96  0.002030705    3.153    0.683
        35 -10.8051    133.0910     12.7453   4.5116842466e+01   4.9506268454e+01    0.2252773    0.2160747  51.76 0.0003017264    1.085    0.078
        36 -10.1423     99.2294     13.2403   5.2430032359e+01   5.7233247463e+01     0.327026    0.2465835 -76.15  0.001756152    2.003    0.501
        37  -9.2625     98.0982      7.0735   5.0278721136e+01   5.8037431573e+01    0.2387742    0.1777505   7.44  0.001020418    1.409    0.290
        38  -9.5772     32.5493     12.5561   7.5854590250e+01   6.9254246698e+01    0.2123386    0.1821486 -18.01 0.0009241916    1.354    0.261
        39  -9.3484     88.0476      6.6356   5.2638197774e+01   6.0228916771e+01    0.2575469    0.1461444  46.16  0.001377802    1.471    0.320
        40  -9.6914     89.0281     12.9495   5.4989037404e+01   5.9441923336e+01    0.2306228    0.1810446   9.58 0.0004211289    1.241    0.194
        41  -9.2537     91.4781      8.4408   5.2481212896e+01   5.9345568244e+01    0.3562019    0.1808434  33.89  0.001468182    1.926    0.481
        42  -9.0603     75.3459     12.8772   5.9017053820e+01   6.2209069128e+01     0.229368    0.2072734  15.87  0.001024881    1.148    0.129
        43  -8.7542     81.2070      1.8753   5.2467028447e+01   6.2045296149e+01    0.3155935    0.1683892  59.67 0.0009517366    1.867    0.464
        44 -10.1883     78.7057     10.8195   5.7075408262e+01   6.1754777764e+01    0.4063751    0.1827676 -32.14  0.001655383    2.411    0.585
        45  -9.1565     74.4897      7.5360   5.6925162695e+01   6.2898398215e+01    0.2452173    0.1792414  30.96 0.0009451602    1.145    0.127
        46 -10.5914     74.3963      2.6769   5.4779471783e+01   6.3348264329e+01    0.3337954    0.2669545  32.62  0.001328168    1.037    0.036
        47 -10.0260     69.3833      2.0186   5.6022349798e+01   6.4379703310e+01      0.34404    0.1579575  37.44  0.001507363    1.883    0.469
        48  -9.2495     52.0613     11.0321   6.6502133419e+01   6.6578415194e+01    0.4982416    0.2717724 -34.05  0.002722621    1.993    0.498
        49 -10.0673     55.9823     11.4532   6.5161851899e+01   6.5880521292e+01    0.2648135    0.1772427 -13.53 0.0007836441    1.419    0.295
        50 -10.1838    224.4452      8.7571   3.3110171322e+01   2.8534514407e+01    0.4168061     0.170304 -38.45   0.00142838    2.175    0.540
        51  -9.8396    198.6939      1.9718   3.3740020684e+01   3.4926061195e+01    0.3338797    0.2621556  24.47  0.002077268    1.780    0.438
        52 -10.6868    191.8156      8.9485   3.6090429509e+01   3.5839838176e+01    0.4412045    0.3563703  56.47  0.001872121    1.308    0.236
        53 -10.4770    194.2292      3.8247   3.4594762939e+01   3.5775051318e+01    0.4526291    0.2113613  64.82  0.001810788    1.896    0.473
        54  -9.0498    128.0266      8.9435   4.4749323747e+01   5.1047414409e+01    0.3070148       0.2853 -24.40  0.002003847    1.218    0.179
        55 -10.1949     42.5310     10.1716   7.0080374978e+01   6.8164335738e+01    0.3115608     0.163145  27.99 0.0007124124    1.768    0.434
        56 -10.1104    213.3907      8.2343   3.3905644940e+01   3.1004508387e+01    0.4463873    0.2199342  50.55  0.001749304    2.449    0.592
        57  -9.4746    120.0826      9.1569   4.6307732957e+01   5.2889639951e+01    0.2827237    0.1902082 -12.22 0.0003939619    1.706    0.414
        58 -11.0146    201.9541      8.0353   3.4880825620e+01   3.3596071877e+01    0.3233835    0.2244613 -76.14  0.001929582    1.343    0.255
        59  -8.8189    165.4647      8.9752   3.9096949281e+01   4.2078942843e+01    0.1850229    0.1249278 -31.47  0.001031903    1.616    0.381
        60 -10.2272    107.1115      6.2486   4.7908552149e+01   5.6106562467e+01    0.5071547    0.3518181 -12.72  0.002927541    1.604    0.377
        61 -10.1484    111.9162      4.6567   4.6311476708e+01   5.5147499389e+01    0.2844102    0.2558189  27.81 0.0003716708    1.113    0.101
        62  -9.5791    119.3423      2.2715   4.4024868068e+01   5.3626499091e+01    0.2361122     0.158049  44.47 0.0005731598    1.330    0.248
        63 -10.5444    115.7943      1.8943   4.4551340944e+01   5.4475211634e+01    0.2350186    0.1647437  56.40 0.0003493298    1.204    0.169
        64  -7.8687     37.5377      9.5924   7.2034555698e+01   6.8956082146e+01    0.1194009   0.09334257   4.45 0.0001897753    1.038    0.036
        65 -10.7266    208.4813      4.0055   3.3362612234e+01   3.2521201184e+01    0.4121753    0.3129414 -49.08  0.001742455    1.267    0.211
        66  -8.4465     69.5003      7.5337   5.8515440243e+01   6.3858596680e+01    0.1269917    0.1020395  23.15 0.0001985608    1.010    0.010
        67 -10.6334    248.4550      4.4325   3.0509356861e+01   2.4018929441e+01    0.2725615    0.2508022  16.64  0.002035866    1.642    0.391
        68  -9.8731    238.2986      3.0397   3.0900084534e+01   2.6215030500e+01    0.1936798    0.1351075 -38.78  0.001226383    1.432    0.301
        69 -10.2140    231.9396      4.8744   3.1719620224e+01   2.7345725680e+01    0.3337364      0.15246 -32.06  0.001750483    2.206    0.547
        70 -10.0608     61.0145      4.5782   6.0023328699e+01   6.5707729431e+01    0.2738556    0.2450089  56.39  0.001007359    1.502    0.334
        71  -9.9118     39.1897      4.1917   6.8532521057e+01   6.9341679993e+01    0.3097652    0.2425804 -25.40  0.002125073    1.457    0.314
        72 -10.3311    152.8968      3.7083   3.9222654997e+01   4.5560181431e+01    0.2233863    0.1949261 -20.27 0.0005402223    1.331    0.249
        73  -8.4259     45.2212      5.6150   6.6642614141e+01   6.8268323918e+01    0.1630663   0.09092627  29.07 0.0004079243    1.582    0.368
        74 -10.1027     30.9284      3.1671   7.1841554010e+01   7.0626083995e+01     0.248057    0.1951895 -41.52  0.001094744    1.944    0.486
        75 -10.9146    160.1907      2.7764   3.8009990063e+01   4.3892403706e+01    0.4324584    0.2597274  65.98  0.001611784    1.426    0.299
        76  -8.7971    168.1822      1.4268   3.6681946266e+01   4.2101006461e+01    0.2370034    0.1096777  74.36  0.001111926    1.946    0.486
        77 -10.1469    218.5114      2.6963   3.2257896863e+01   3.0436773351e+01    0.2822673    0.1904641  82.51  0.001127983    1.321    0.243
        78 -11.0168    179.7279      2.1150   3.5605123694e+01   3.9309656787e+01    0.3031568    0.1882436  79.68  0.001263055    1.442    0.306
        79  -8.5319    134.4913      3.4721   4.1842505941e+01   4.9974901420e+01    0.1300972    0.1107746  57.66 0.0008098203    1.026    0.026
        80 -10.1911     89.9918      1.8790   5.0162807307e+01   6.0210906345e+01    0.4514079     0.183542  60.68  0.001669927    2.323    0.570
        81  -9.0253      2.3928      3.0595   8.7480185245e+01   7.3725932711e+01     0.190712    0.1101248 -14.64 0.0009232284    1.450    0.310
        82  -9.2800     50.5911      1.8945   6.2581052095e+01   6.7776047668e+01    0.2891425    0.1356786  38.13 0.0008704055    1.819    0.450
        83  -8.5586    143.1351      2.5440   4.0233436206e+01   4.7991636534e+01    0.2303401     0.137109  21.67  0.001140273    2.242    0.554
        84  -8.3191    185.9916      1.0000   3.4689216304e+01   3.7943067251e+01    0.1968221   0.06230849  72.44 0.0003719823    2.781    0.640
        85  -8.2907    136.6695    112.6916   7.5371753360e+01   3.2573811760e+01    0.1617531    0.1243581  -0.01 0.0007040373    1.664    0.399
        86  -9.4255    201.5355    249.5377   8.8681800170e+01  -5.4545635255e+00    0.2136887    0.1642149  15.88 0.0005862285    1.030    0.029
        87  -9.0550    122.0446    112.1006   7.9124497952e+01   3.5761526806e+01    0.2352686    0.2304993 -30.74  0.000587547    1.032    0.031
        88  -9.9554     62.9909    110.8430   9.6753815983e+01   4.6159009244e+01    0.2460061    0.1857428 -49.07  0.001285832    1.188    0.158
        89 -10.8498      5.4494    108.5234   1.1501727451e+02   5.2085498976e+01    0.5479705     0.346183 -32.68  0.003168636    1.738    0.424
        90  -8.9898    232.3266    109.6708   5.5145335937e+01   1.2543633694e+01    0.1422166    0.1017647 -64.01 0.0007050733    1.705    0.413
        91 -10.8314     37.4089    106.0161   1.0417194009e+02   5.0264090825e+01    0.7576102    0.3007492 -53.98  0.003223527    2.019    0.505
        92  -9.9128     34.2238     98.0883   1.0364176480e+02   5.2467896811e+01    0.3215076    0.2319186  64.08  0.000390741    1.853    0.460
        93 -10.0195     33.2674     91.6835   1.0260178441e+02   5.4067513659e+01    0.6464187    0.2875489 -33.22  0.002641767    2.710    0.631
        94  -9.7015     27.5106     91.9414   1.0472114204e+02   5.4509058680e+01    0.2137927    0.1753166  42.79 0.0005522213    1.482    0.325
        95 -10.3344     47.7982     89.0639   9.6743158830e+01   5.3185176011e+01    0.6724169    0.1593387 -48.92 0.0006634568    3.295    0.697
        96 -10.3679     43.5708     88.1477   9.8045430574e+01   5.3864218958e+01     0.347948    0.2331598  21.61 0.0004899935    1.675    0.403
        97 -10.2246     22.0747     87.6270   1.0578289966e+02   5.5945805185e+01     0.422531    0.2216708  25.05  0.001348242    2.195    0.544
        98 -11.2251     29.9707     85.1886   1.0233947152e+02   5.5868328250e+01    0.4935153    0.3207981 -38.97   0.00120434    1.375    0.273
        99 -10.4560    117.4989    106.5075   7.8883081812e+01   3.7927856347e+01    0.4712007    0.2747969 -33.77   0.00133823    1.875    0.467
       100 -10.8785    101.7514    100.5874   8.1848390014e+01   4.2320310081e+01    0.6781496     0.640407  42.93  0.001898668    1.134    0.118
       101 -10.7539     94.2885    104.9350   8.5315873309e+01   4.2698996793e+01    0.5179847    0.4298295  71.27  0.001511565    1.531    0.347
       102  -9.8095    105.6781     90.9764   7.7905507472e+01   4.3655710694e+01    0.4272965    0.2726059  44.88     0.001903    1.641    0.391
       103  -9.8258     88.7795    103.5652   8.6666594978e+01   4.3971561232e+01    0.2778116    0.2323112 -54.16 0.0002142654    1.195    0.163
       104  -9.4034     84.9981    102.2867   8.7524719018e+01   4.4902197658e+01     0.287732    0.2088021  13.24 0.0007018358    1.652    0.395
       105 -10.1701    110.4625     99.5166   7.8958514425e+01   4.0874024588e+01    0.3801846    0.2906424  46.01  0.001242536    1.379    0.275
       106 -10.8291    108.6173     95.5740   7.8374040618e+01   4.2094276332e+01    0.5523313    0.3722188 -25.68   0.00102547    1.702    0.412
       107 -10.5698      3.5733    116.5739   1.1664412032e+02   5.0265030641e+01    0.2886722    0.2486139 -59.35  0.001860768    1.129    0.115
       108  -9.8144     73.6707    105.2413   9.1942416339e+01   4.5995997167e+01    0.3432374    0.2979639  82.18  0.001841812    1.410    0.291
       109  -9.1718     62.9827    104.7728   9.5343843600e+01   4.7619237085e+01    0.2512768    0.1906118  -6.28  0.001051749    1.571    0.364
       110  -8.7357     67.0016    102.9968   9.3577404667e+01   4.7490917673e+01     0.245444    0.1644631  29.75  0.001195448    1.625    0.385
       111 -11.1443     21.0727    119.7131   1.1177702165e+02   4.8337230138e+01    0.6049914     0.346198  73.21  0.002867127    2.338    0.572
       112 -10.9024     49.3160    101.3226   9.9144286302e+01   5.0137780248e+01    0.4794676    0.3348437 -45.85  0.001374639    1.263    0.208
       113  -9.7247     42.8303     99.7068   1.0100874408e+02   5.1233527689e+01    0.3440059    0.1947373  36.89  0.001185934    2.013    0.503
       114  -9.0914      3.4741    102.9284   1.1486298461e+02   5.3524545672e+01    0.2437075    0.1330648 -82.17   0.00100919    1.783    0.439
       115 -10.3782      5.5624     97.8826   1.1342718381e+02   5.4604876011e+01    0.4439901    0.3616215 -57.20  0.002886642    1.052    0.049
       116  -9.3165    149.0004    101.0628   6.9119089639e+01   3.2305083039e+01    0.2380342    0.2265304 -25.21 0.0005080454    1.029    0.028
       117  -9.5673     78.5206     99.5239   8.8883284157e+01   4.6587406731e+01    0.4205362    0.3165712  85.07  0.001949542    2.013    0.503
       118 -10.3579    124.2988     98.7700   7.4831239563e+01   3.8196147917e+01    0.4644861    0.3265254  29.84  0.002084827    1.567    0.362
       119  -9.8410     72.4948     99.0078   9.0735890245e+01   4.7631327797e+01    0.3273556    0.1719215 -50.86   0.00140237    1.744    0.427
       120  -8.7424     73.5258     95.4384   8.9443303815e+01   4.8298256131e+01    0.2415608    0.1343218 -50.24 -2.681575e-05    1.662    0.398
       121  -9.8669     57.1772     99.3979   9.6006092769e+01   4.9649671225e+01    0.2533056    0.1700748 -46.57 0.0008509818    1.318    0.241
       122  -9.5097     16.6430     98.7624   1.0982961421e+02   5.3717354183e+01    0.2825007    0.1563257 -41.95  0.001478336    1.671    0.402
       123 -10.3173    117.6217     97.9454   7.6454030223e+01   3.9766080716e+01    0.2658089    0.2345468  35.96  0.000295784    1.153    0.133
       124  -9.4798    141.7498     96.0916   6.9503304441e+01   3.4938287672e+01    0.2917545    0.2136679 -20.67  0.001055783    1.576    0.365
       125  -9.4937    130.0468     96.6632   7.2679029209e+01   3.7405393529e+01    0.2765102    0.2200246 -28.39  0.000335858    1.288    0.223
       126  -8.9437     86.7344     96.8001   8.5477296881e+01   4.5861676608e+01     0.252645    0.1788154 -28.78  0.001186886    1.497    0.332
       127  -8.5039     63.8111     96.8037   9.3092284536e+01   4.9385173545e+01    0.1874711    0.1691978  86.33 0.0008313158    1.340    0.254
       128  -9.0204     38.9872     94.5250   1.0119731539e+02   5.2854022028e+01     0.336835    0.1144997  31.01  0.001320719    3.140    0.681
       129  -9.4418     12.9207     95.0064   1.1044998123e+02   5.4850847384e+01    0.3491337    0.1669195 -70.19  0.001690499    1.853    0.460
       130  -8.9663     80.6898     94.9871   8.6939616127e+01   4.7275621046e+01    0.2152318    0.1849551 -41.22 0.0007038338    1.084    0.077
       131  -9.3916     22.9485     94.9166   1.0693950053e+02   5.4172358934e+01     0.262969    0.2085684  33.43  0.000920132    1.507    0.336
       132  -8.4909    166.5369     94.4655   6.3300544758e+01   2.9590052764e+01    0.1524962    0.1471319 -10.16 3.754695e-05    1.050    0.047
       133  -8.8607    172.4044     92.7348   6.1593359741e+01   2.8557681259e+01    0.2163365    0.1446144 -27.33 0.0009489813    1.626    0.385
       134  -9.3817      1.8936     92.9677   1.1390614490e+02   5.5947044960e+01    0.1865182    0.1491462 -64.60 0.0006423561    1.052    0.049
       135  -8.9063    116.9955     91.5151   7.4764027266e+01   4.1250376955e+01    0.2268164    0.1513209  41.38 -8.751627e-05    1.523    0.343
       136  -9.9176     58.5793     88.5641   9.2751394171e+01   5.1978859377e+01    0.3855112    0.2061405 -62.75  0.001633647    2.177    0.541
       137 -10.8005     56.8011     81.5503   9.1457479611e+01   5.3780069024e+01     1.433129     0.398876 -37.60  0.003522063    6.325    0.842
       138 -12.6936     53.0588     74.9356   9.0933941479e+01   5.5699485417e+01    0.5338903    0.3132951 -49.59 0.0005234483    1.546    0.353
       139  -9.3797     46.9734     81.9425   9.5192679463e+01   5.4895370033e+01    0.2360878    0.1979225  68.70 0.0005023464    1.627    0.385
       140  -9.1314     41.1929     80.8906   9.7078880707e+01   5.5766202604e+01     1.092775    0.1903482  36.77  0.003082641    6.261    0.840
       141  -9.5270      6.6598     89.1128   1.1161591788e+02   5.6597456068e+01    0.2023841    0.1852811  54.38 0.0008489162    1.358    0.263
       142 -10.5720    118.2198     83.5286   7.2019257017e+01   4.2611635925e+01    0.3948434    0.3530653  20.42  0.002078424    1.126    0.112
       143 -10.0938    123.3441     87.0877   7.1678671448e+01   4.0805621971e+01    0.3782347    0.3444433  78.99  0.001389092    1.287    0.223
       144 -11.4072    129.7489     84.9606   6.9323905885e+01   3.9823774310e+01    0.6793157     0.441662  15.15  0.002681737    2.337    0.572
       145  -9.2562     97.8706     88.6169   7.9589754538e+01   4.5658365638e+01      0.39944    0.2607582 -70.71 0.0002944667    2.589    0.614
       146  -8.5255     94.1539     87.6380   8.0464341957e+01   4.6557692739e+01    0.1957541    0.1378102  23.94 0.0001077655    1.572    0.364
       147 -10.8851     86.4237     87.5897   8.2938400781e+01   4.7948442252e+01    0.4585254    0.3316299 -39.07 0.0005221637    1.304    0.233
       148 -10.4237     80.8904     83.9532   8.3690595803e+01   4.9671578642e+01    0.3882895    0.3271269 -17.30  0.001400878    1.168    0.144
       149  -9.0215     70.4863     86.9392   8.8120198181e+01   5.0669818237e+01    0.2168866     0.208888 -84.77  0.001146885    1.238    0.192
       150 -10.7572     73.6235     81.1303   8.5326795308e+01   5.1452505983e+01     0.625705    0.3881975 -49.88  0.002955917    1.575    0.365
       151  -9.8162     16.4994     86.8883   1.0766651203e+02   5.6514894982e+01    0.3331215    0.2069257 -44.18  0.001057455    1.366    0.268
       152 -10.0857     64.7788     86.2183   8.9911027951e+01   5.1661672708e+01    0.4008425    0.2938895 -16.00  0.001263483    1.511    0.338
       153 -10.9604    143.6019     81.5278   6.4819982314e+01   3.7336295033e+01    0.4687988    0.3243312 -87.58  0.001878565    2.432    0.589
       154 -10.5393    155.1455     84.5863   6.3035497745e+01   3.4087114796e+01    0.3889021    0.2488063 -38.11 0.0004781192    1.546    0.353
       155 -11.1665    150.2568     80.4765   6.2951845215e+01   3.5982489610e+01    0.5031227    0.2818745  49.20   0.00153924    1.776    0.437
       156  -8.5284      1.5193     88.0123   1.1324571777e+02   5.7115322175e+01    0.1925732   0.05412674 -50.36 0.0007484552    2.500    0.600
       157 -10.5048     20.5626     79.5538   1.0459994809e+02   5.7910007328e+01    0.3968925    0.2339738 -62.36  0.000615665    1.492    0.330
       158  -9.3462     18.2863     73.9396   1.0419586099e+02   5.9335042183e+01    0.4211317    0.2273037 -67.48  0.002131775    1.855    0.461
       159  -9.1469      2.4311     80.3012   1.1158875610e+02   5.8838639473e+01    0.2011019    0.1853137  55.76  0.001286037    1.379    0.275
       160  -9.9169    167.2533     79.5091   5.9000048237e+01   3.2151855112e+01    0.3257149      0.19594 -20.46   0.00131129    2.176    0.541
       161  -7.8585    102.2958     80.6887   7.5803708594e+01   4.6446045339e+01    0.1435008    0.1217786 -83.55 0.0002133342    1.595    0.373
       162  -8.3931     90.6419     79.2861   7.9033674529e+01   4.8944002896e+01    0.1425097    0.1197872  80.58  0.000386151    1.678    0.404
       163 -11.9036     79.6765     70.0153   7.9719739489e+01   5.2744495629e+01    0.3426435    0.2664458  16.79 0.0002149013    1.327    0.247
       164  -9.7237     75.0874     66.0258   7.9994089884e+01   5.4296489246e+01    0.3119298    0.1941766 -30.33 0.0003268647    1.598    0.374
       165 -11.0566     94.5737     72.0543   7.5451385490e+01   4.9646393394e+01    0.6595497    0.4079282 -33.23  0.001477887    1.615    0.381
       166 -10.7008     81.0312     75.9498   8.1173799044e+01   5.1322739577e+01      0.47184    0.3137693  12.97  0.001896343    1.863    0.463
       167 -10.7409     88.4825     72.6845   7.7628848461e+01   5.0661805677e+01    0.7256132    0.4213975 -14.72  0.002680935    2.761    0.638
       168 -10.0095     63.7237     75.2483   8.7065599954e+01   5.4190969838e+01    0.4160581    0.3411479  -4.78  0.002338512    1.229    0.186
       169 -10.1113     69.0166     74.4982   8.4916646615e+01   5.3563322432e+01    0.2539373    0.2251121 -19.86 0.0004327903    1.011    0.011
       170  -9.4550    110.5214     76.7072   7.2094257160e+01   4.5563105813e+01    0.2820589    0.2143847 -37.83  0.001054559    1.299    0.230
       171 -10.0914    184.9291     75.9227   5.4641627042e+01   2.8595914109e+01    0.2160338    0.2078895 -53.62 0.0003706748    1.014    0.014
       172  -9.1952     28.6248     75.4730   1.0051024111e+02   5.8181549008e+01    0.2828496    0.1497506 -42.47  0.001426338    1.595    0.373
       173 -10.6118    145.9217     70.8143   6.1065584440e+01   3.8709529758e+01    0.6238916    0.3843214  19.84  0.002387105    2.620    0.618
       174 -10.9345    144.0252     66.4561   6.0169650830e+01   3.9894671285e+01    0.5076995    0.3134212  39.40  0.001981451    1.718    0.418
       175  -8.7578     13.5141     75.0152   1.0631070833e+02   5.9415174053e+01    0.1881297    0.1045069 -61.70 0.0003893554    1.514    0.340
       176 -11.1133    170.7870     73.4436   5.6593122547e+01   3.2354033174e+01    0.5871783    0.2751525  63.38  0.002174842    2.536    0.606
       177  -9.5085    173.3690     69.1277   5.4892543344e+01   3.2451972989e+01    0.3008866     0.224688  39.70 0.0007972455    1.459    0.315
       178 -10.1617    137.4802     72.5686   6.3591272171e+01   4.0374358208e+01     0.475275    0.1492545 -36.42  0.001485862    3.246    0.692
       179  -9.9628    199.3330     72.1321   5.1224878321e+01   2.5870346391e+01    0.2667423    0.2419536   6.49  0.000745728    1.299    0.230
       180  -9.5032    152.1818     73.0952   6.0344217833e+01   3.6838331950e+01    0.2640187     0.224828  79.84 0.0008024738    1.327    0.247
       181  -8.8407      2.7438     73.4096   1.1016693138e+02   6.0375418305e+01    0.1552895    0.1033945 -19.62 0.0008800602    1.600    0.375
       182  -8.9237    215.8695     70.8308   4.8429146629e+01   2.2354770562e+01    0.1894417    0.1840248 -30.97 0.0002689409    1.137    0.121
       183  -8.9890    111.8227     70.7257   6.9796520813e+01   4.6414981241e+01    0.2648976    0.1931158 -24.70 0.0008272279    1.435    0.303
       184 -10.1089    102.1973     69.8918   7.2367090027e+01   4.8559659790e+01    0.3191075    0.2542559  40.36  0.000663097    1.263    0.208
       185  -8.9935     64.8106     69.8281   8.4964267230e+01   5.5155233077e+01    0.2063048    0.1677319 -25.60  0.000392934    1.111    0.100
       186 -10.5800     10.6389     69.2035   1.0614834747e+02   6.0881283303e+01      0.23779    0.1573838 -44.11 0.0001302986    1.201    0.167
       187 -10.5188     17.5248     46.7733   9.7069412818e+01   6.5095804861e+01    0.5962799    0.2332239 -57.55  0.002680244    2.548    0.607
       188 -11.0461      5.1636     35.5652   9.9352866021e+01   6.8098579700e+01    0.7015699    0.3409526 -53.74  0.003909331    1.760    0.432
       189  -9.3043     14.4084     55.2828   1.0102776539e+02   6.3610537549e+01    0.3805946    0.1503078 -52.00   0.00107181    1.925    0.481
       190 -11.0157      2.3569     66.8514   1.0897541604e+02   6.1842558555e+01    0.4765878    0.1847633 -56.12  0.001866245    1.829    0.453
       191 -10.7726      5.0996     60.2818   1.0635487105e+02   6.3123703728e+01    0.5483503    0.4085978   7.82   0.00345803    1.542    0.352
       192  -8.8936      8.4670     43.9184   1.0040562231e+02   6.6288624760e+01    0.1687345     0.132589 -28.94 0.0003879213    1.070    0.065
       193 -11.2672     14.6653     38.4120   9.5636032952e+01   6.6914368567e+01    0.5656354    0.3790351 -54.21  0.002562671    1.533    0.348
       194 -11.0433      8.8681     51.0272   1.0230329903e+02   6.4841490003e+01    0.5076387    0.3687792 -18.21  0.001594904    1.301    0.231
       195  -9.7593     11.9925     45.4847   9.9231042312e+01   6.5750401901e+01    0.3030525    0.1555779 -54.25  0.000774878    1.680    0.405
       196 -10.1593    120.1969     66.7236   6.6164897290e+01   4.5318366702e+01    0.5499679    0.3599067 -15.78  0.002404838    1.921    0.479
       197 -11.8203     31.7951     64.1903   9.6170886860e+01   6.0335720869e+01    0.6705179    0.3590996 -39.45  0.003433721    1.593    0.372
       198 -10.0650     25.0831     54.2842   9.6042205375e+01   6.2984030524e+01    0.2897592      0.16019 -52.98 0.0005263866    1.623    0.384
       199 -10.3901     22.9535     63.5389   9.9659063487e+01   6.1246842052e+01    0.5410462    0.2552053 -20.81  0.002245507    2.776    0.640
       200 -10.4359     22.3282     58.4543   9.8488894677e+01   6.2363315827e+01    0.3624022    0.2696125 -54.00  0.001346106    1.277    0.217
       201  -8.8743    157.5357     68.2352   5.7761764312e+01   3.6386179403e+01    0.2043719     0.145742 -19.67 0.0009446717    1.626    0.385
       202 -10.6440    135.3918     65.3132   6.1837135723e+01   4.2108588915e+01    0.4912956    0.3738051  42.99  0.001935957    1.289    0.224
       203 -10.9944     45.8001     69.0819   9.1981921115e+01   5.7826213855e+01    0.5781053    0.3630513 -27.13 0.0008790958    1.598    0.374
       204  -9.4667    106.5448     66.0557   6.9791830866e+01   4.8370592121e+01    0.2746857      0.21055  39.57 0.0005895245    1.285    0.222
       205  -9.4522     83.4815     65.4130   7.6878188902e+01   5.2965798486e+01    0.2895225    0.1984384  42.92  0.001199859    1.552    0.356
       206  -9.5376     82.3039     62.0111   7.6110282198e+01   5.3809976897e+01    0.2749867    0.1960752 -38.97  0.000544459    1.375    0.273
       207  -9.7707    202.6606     62.9634   4.8380623853e+01   2.6531750989e+01    0.2944403    0.2584018 -48.99  0.001131835    1.078    0.072
       208 -10.8747     97.1886     63.6174   7.1804339286e+01   5.0709325652e+01     0.308035    0.2609521 -20.01 0.0002335766    1.142    0.124
       209  -9.7260     66.5409     63.1984   8.2133476660e+01   5.6210599819e+01    0.3483478    0.2717359 -60.63  0.001027082    1.666    0.400
       210 -10.4718     70.7866     60.1998   7.9540984458e+01   5.6110347382e+01     0.331149    0.2716204  48.11 0.0008732424    1.496    0.331
       211  -9.0247     15.6223     63.9457   1.0283061497e+02   6.1704312626e+01    0.3205341    0.1791124   8.25   0.00078905    2.071    0.517
       212  -9.8326    193.9709     60.7671   4.9124034267e+01   2.8877556685e+01    0.3523708    0.2263668 -29.31 0.0006938187    1.646    0.393
       213 -10.3728    163.0541     57.2012   5.3427029620e+01   3.6805042181e+01    0.4085124    0.2561963 -15.45 0.0008627411    2.118    0.528
       214  -9.8510    171.1433     58.8044   5.2394330298e+01   3.4609548366e+01    0.3369163    0.2283602 -54.54  0.001394649    1.606    0.377
       215 -10.0536    167.0587     56.4853   5.2473258801e+01   3.5944751047e+01    0.2578251    0.2346819  76.29 0.0003159483    1.089    0.082
       216  -9.6227    175.1850     50.5754   4.9376300840e+01   3.4842299125e+01    0.3227144    0.2591847  35.53 0.0009154789    1.410    0.291
       217  -9.7234    141.3284     60.4085   5.8907977178e+01   4.1519011546e+01    0.3168152    0.2303026  37.80 0.0007890757    1.418    0.295
       218  -8.9404    128.1809     57.3731   6.1046222517e+01   4.5073911733e+01    0.2647839    0.1825932  61.83 0.0009406766    1.587    0.370
       219 -10.1365    132.3519     59.4404   6.0699572208e+01   4.3779161917e+01    0.4024877    0.3030714  15.78 0.0007934488    1.587    0.370
       220 -10.0449    136.6162     56.4238   5.8725019641e+01   4.3258011342e+01    0.3556765    0.2748863 -19.88  0.001023476    1.403    0.287
       221  -9.1315     53.7077     60.7219   8.6200575500e+01   5.8539730705e+01    0.3703529    0.2568663 -63.04  0.001033469    1.998    0.499
       222  -8.7501     56.5784     49.5403   8.1110294568e+01   6.0237504895e+01    0.2244893    0.1630623  23.40 0.0005236756    1.368    0.269
       223  -8.4056     53.6755     49.7290   8.2342980361e+01   6.0616187457e+01    0.2048267    0.1404978 -23.81 0.0003644596    1.353    0.261
       224  -9.0803     53.2935     54.3411   8.4163414835e+01   5.9820650959e+01    0.2659837    0.1976618 -19.62 0.0008830699    1.236    0.191
       225  -8.6146     56.2850     52.7305   8.2395056625e+01   5.9702557978e+01     0.187935     0.138325  -4.86 0.0003496663    1.361    0.265
       226  -9.9221    171.9887     53.3089   5.0687878515e+01   3.5221609790e+01    0.2475942    0.2225075 -68.55 0.0003284318    1.124    0.110
       227  -9.7384    152.0024     60.2199   5.6526015221e+01   3.9004037121e+01    0.3379221    0.1994721  55.42 0.0008478101    1.650    0.394
       228 -11.0608     39.6436     57.7943   9.0933456858e+01   6.0839641618e+01    0.2738347    0.2136233 -45.51 0.0007808492    1.236    0.191
       229  -9.2698     15.8263     59.9517   1.0169620716e+02   6.2539132549e+01    0.1850123     0.145061 -39.49 0.0006182665    1.002    0.002
       230 -10.1523    105.2925     57.8288   6.7362726083e+01   5.0057741871e+01    0.2719231    0.2254591 -20.37 0.0002946606    1.200    0.167
       231  -8.5233    180.4564     58.5012   5.0691271078e+01   3.2418486012e+01    0.1402583    0.1359563 -82.15 0.0001681179    1.022    0.022
       232  -8.9115    208.3630     57.0800   4.6100972950e+01   2.6101561697e+01    0.2170013    0.1761616  58.49 0.0006755353    1.296    0.228
       233 -10.4845     63.2812     54.3248   8.0251642467e+01   5.8377572180e+01     1.099025    0.7165704 -78.36  0.003302641    6.871    0.854
       234 -10.0798    115.8916    248.6610   1.0542738582e+02   7.3238392520e+00    0.2154316    0.1941907  18.72 0.0007535504    1.230    0.187
       235 -11.0507     50.1321     27.7798   7.4992782245e+01   6.4711003213e+01    0.6078097     0.398172  61.92 0.0002680755    3.799    0.737
       236  -8.6386    192.2879    248.3425   9.0259742821e+01  -3.9738277029e+00    0.1246127   0.08199833   1.88 0.0005870576    1.646    0.392
       237  -9.9553     71.6059     51.2023   7.6003829768e+01   5.7593198730e+01    0.7395262     0.308663 -32.80  0.002948338    2.513    0.602
       238  -9.2422    163.4647    246.5119   9.5628235066e+01   5.5420560134e-01    0.1257263    0.1036553  24.12 -8.880761e-06    1.016    0.016
       239  -8.6302      1.3803    244.2175   1.2653102255e+02   2.2142461826e+01    0.1427438   0.07503683  81.72 0.0003755907    1.566    0.361
       240 -10.8039     68.2947     45.9989   7.5259913749e+01   5.9026366350e+01    0.6005667    0.3358507 -37.26  0.002322534    1.729    0.422
       241 -12.8187     61.8945     44.1059   7.6957818255e+01   6.0373219841e+01    0.4425852    0.3123242 -40.20 0.0006660882    1.465    0.318
       242 -10.6792     31.4085     52.9066   9.2840304333e+01   6.2670767588e+01    0.6060036     0.232085  31.35   0.00268944    2.839    0.648
       243  -9.8380     46.8229     47.6266   8.4385646575e+01   6.1915979818e+01    0.2439135    0.1938931 -20.13 0.0004696072    1.062    0.058
       244 -10.2636     45.6094     55.1501   8.7571491175e+01   6.0661691247e+01    0.3925622    0.2865594  55.11  0.002086394    2.184    0.542
       245  -9.1305     42.6012     44.6577   8.5074372604e+01   6.2982746892e+01    0.2281516    0.2005759 -21.99 0.0006788866    1.162    0.140
       246 -10.1796     42.2027     50.8915   8.7512720669e+01   6.1884840224e+01    0.5475422    0.1954704 -41.68  0.001899584    2.437    0.590
       247  -9.9225     38.4375     46.5989   8.7594527113e+01   6.3124953228e+01    0.3158655    0.2570061  32.53  0.001982111    1.487    0.328
       248 -10.5605    124.0853     30.0741   5.2790584181e+01   4.9811549368e+01     1.446088    0.3797175  57.40  0.004781264    3.369    0.703
       249 -10.4045    126.6652     38.8979   5.5235373119e+01   4.8107714812e+01    0.4729762    0.3354149 -39.40 0.0009191735    1.521    0.343
       250 -10.8752    118.0956     52.6208   6.2022376022e+01   4.8111376819e+01    0.4247285    0.2722418 -33.89 0.0005634853    1.599    0.375
       251 -10.2947    123.8309     51.7452   6.0259617489e+01   4.6945956196e+01    0.7024118    0.2750522  46.52  0.002620788    2.418    0.586
       252 -10.5609    136.1370     37.2533   5.2614799119e+01   4.6083580315e+01    0.6405422    0.2722993 -47.32  0.002381149    3.049    0.672
       253 -10.5546    131.9928     35.9828   5.3072720499e+01   4.7229764692e+01    0.4272099     0.326037 -42.45 0.0003172633    1.432    0.302
       254  -9.6192    127.7345     48.0239   5.8061097305e+01   4.6597348423e+01    0.2271086     0.213086 -38.62 0.0003075279    1.141    0.124
       255 -10.9305    124.7741     46.0703   5.8113707520e+01   4.7564176520e+01    0.4920055    0.3708447   8.68  0.001193053    1.558    0.358
       256  -8.0659    111.4921     56.5056   6.5136511560e+01   4.8952064332e+01    0.1455195    0.1352061  15.11 0.0002311284    1.003    0.003
       257  -8.6828     59.5239     56.4867   8.2467980694e+01   5.8539817989e+01    0.1367904    0.1182996 -15.25 6.322888e-05    1.019    0.018
       258  -9.6486    191.6111     54.2251   4.7768995031e+01   3.0396453900e+01    0.2816766    0.2383683 -14.60 0.0009860104    1.383    0.277
       259  -9.9517    148.9488     53.9992   5.5263748708e+01   4.0689900187e+01    0.6046129    0.2823924  64.82  0.002280502    2.505    0.601
       260  -8.8491     93.8097     54.1751   6.9560356600e+01   5.3012127734e+01    0.3917084    0.2632822  -1.52  0.001267758    1.892    0.472
       261  -9.9349     83.0836     52.3195   7.2387542867e+01   5.5376592956e+01    0.3607954    0.2312216 -40.64 0.0007486154    1.606    0.377
       262  -8.8296    106.6962     52.9212   6.5246301577e+01   5.0560921707e+01    0.1908376    0.1768989  -9.18 0.0001989174    1.069    0.064
       263  -8.9583    212.3051     51.9109   4.4313741478e+01   2.5948250858e+01    0.1786196    0.1579538 -48.01 0.0001990506    1.097    0.088
       264  -9.7272    164.3315     51.6888   5.1581256810e+01   3.7309541659e+01    0.2700577    0.2329569  60.47 0.0002325594    1.121    0.108
       265 -10.6007    153.9590     49.1501   5.2775299237e+01   4.0187272788e+01    0.4649959    0.3513599  79.29  0.002224307    1.478    0.324
       266 -10.3207    180.8542     47.5623   4.7630033861e+01   3.3899244692e+01    0.4827713    0.2311696 -51.36  0.001966439    2.370    0.578
       267  -8.9758     98.5444     54.9167   6.8357920273e+01   5.1938062929e+01    0.2049515    0.1369182 -33.73 0.0004412337    1.497    0.332
       268  -9.4154     96.9537     48.9728   6.6707393680e+01   5.3219045506e+01    0.2063693      0.17668  12.21 0.0004024298    1.106    0.096
       269 -10.9462     93.9431     45.0773   6.6195492788e+01   5.4430197386e+01    0.2932971    0.2383977  29.76            0    1.146    0.127
       270 -10.0265     90.4997     40.7937   6.5650922171e+01   5.5758128630e+01    0.4828057    0.4738342 -51.23  0.003006191    1.276    0.216
       271  -9.2509     88.0970     48.4450   6.9296830563e+01   5.5063912407e+01    0.2830766    0.2342591 -37.58  0.001592696    1.304    0.233
       272  -9.9331     25.0341     47.9388   9.4022169236e+01   6.4241725324e+01    0.3335495    0.2627606  46.62  0.001432005    1.849    0.459
       273  -9.4466     27.0752     44.2933   9.1845556717e+01   6.4747712186e+01    0.2138699    0.1469081 -21.96  0.000302698    1.275    0.216
       274  -8.2909    224.4813     48.5450   4.2044181011e+01   2.3719228063e+01    0.1294851    0.1159634 -64.74 7.471346e-05    1.036    0.035
       275  -9.2759     79.0000     47.5229   7.2000296432e+01   5.6917092942e+01    0.3146347    0.1185998 -37.23 0.0006739695    2.616    0.618
       276  -8.3110     76.6743     44.6777   7.1726615814e+01   5.7793583540e+01     0.218423    0.1308224  37.10 0.0006684313    1.620    0.383
       277 -10.1045     32.0437     47.7951   9.0832951703e+01   6.3595090057e+01    0.1976987    0.1649981 -12.97 0.0007051485    1.091    0.084
       278  -8.4907    234.7819     46.8387   4.0527798680e+01   2.1749042417e+01    0.1723632    0.1253418 -64.27 0.0002379098    1.273    0.215
       279 -10.3283    114.6106     46.1368   6.0695178734e+01   4.9864063451e+01    0.3066237    0.2383128 -13.06 0.0008606304    1.374    0.272
       280  -8.8698    112.9162     41.2945   5.9428460389e+01   5.0929201356e+01      0.20608     0.180508 -13.10 0.0002141636    1.165    0.142
       281  -9.1179    165.8704     45.6832   4.9561928570e+01   3.7779498210e+01    0.3937628    0.1698916  42.80 0.0008829794    2.793    0.642
       282  -8.9864     82.3712     44.3268   6.9637074693e+01   5.6803099230e+01    0.3273983    0.2037472 -51.81  0.001512959    2.259    0.557
       283 -10.2584    103.6132     43.0971   6.2606418124e+01   5.2709018299e+01     0.623389    0.2993942  54.57  0.002353395    2.198    0.545
       284 -11.9675    103.7378     38.6020   6.0920664245e+01   5.3313229245e+01    0.4304619    0.2924578  56.15 0.0003279242    1.539    0.350
       285  -9.7934    244.0879     43.8272   3.8933922679e+01   2.0227604079e+01    0.3053363    0.2321351  46.91  0.000993947    1.698    0.411
       286  -9.1733    185.3992     44.0744   4.5997217226e+01   3.3285545697e+01    0.2460592    0.1764771  56.26 0.0007129165    1.381    0.276
       287  -9.1464    149.9677     44.0294   5.1983205984e+01   4.1865104240e+01    0.2166098    0.1600635  28.82 0.0003198233    1.557    0.358
       288  -9.7011    133.3595     44.4431   5.5576586785e+01   4.5786446528e+01    0.3809778    0.1716498  57.86  0.001522794    2.164    0.538
       289  -8.1833    199.6938     43.2734   4.3803173161e+01   3.0020135070e+01    0.1372422   0.09479434 -69.47 0.0002702026    1.544    0.352
       290  -8.9962     32.5262     42.4853   8.8714299236e+01   6.4531834100e+01    0.2197422    0.1633607  -4.41 0.0005126656    1.250    0.200
       291 -12.1088     41.3732     38.2107   8.3123849951e+01   6.4259786806e+01    0.4911323    0.2726255  -0.73 0.0005691033    2.434    0.589
       292 -10.2702    190.9441     40.2192   4.4189692900e+01   3.2476250927e+01    0.2929209    0.2409715  -2.89 0.0004225392    1.556    0.358
       293  -9.9326    186.1743     36.5425   4.3875988141e+01   3.4080502202e+01    0.3150995    0.2434946 -77.16 0.0007873772    1.324    0.245
       294 -10.1459    187.5560     30.6989   4.2147471691e+01   3.4470423364e+01    0.6134752    0.2696367  43.04  0.002392044    3.100    0.677
       295  -9.9577    182.6448     28.1192   4.2108233315e+01   3.5946383052e+01    0.2661849    0.1763238  61.49 0.0007702324    1.418    0.295
       296  -8.3541     48.9451     40.9732   8.0959167812e+01   6.2800018806e+01     0.152769    0.1262734  -3.65  0.000340329    1.049    0.047
       297  -9.0206     24.5023     39.3440   9.1262848813e+01   6.5906714087e+01      0.28807    0.1412836 -27.14  0.001244266    2.028    0.507
       298 -10.2581    178.2009     37.0196   4.5141877497e+01   3.5931885922e+01    0.6233074    0.3408603 -89.76  0.002562053    2.589    0.614
       299  -8.9875    157.6159     38.6846   4.8940084533e+01   4.0713947434e+01    0.2480237    0.1395296 -22.52 0.0007244318    2.084    0.520
       300  -8.8419    120.7371     38.8283   5.6602492505e+01   4.9490614868e+01    0.1885139    0.1640153 -63.64 0.0008405427    1.385    0.278
       301  -9.3881    238.4392     37.8890   3.8197496893e+01   2.2161245350e+01    0.2176832    0.1903779  35.06  0.001169271    1.553    0.356
       302  -8.5093     82.4450     38.4536   6.7338957117e+01   5.7671678647e+01    0.1354639     0.120213   9.69 4.812427e-05    1.035    0.033
       303 -11.6246    105.7118     21.0897   5.3841851854e+01   5.5012206798e+01    0.4386997    0.2769205  64.38  0.000394415    1.703    0.413
       304 -11.5205    114.0042     32.3413   5.5945939682e+01   5.1856314809e+01     0.443167     0.362888 -53.77 0.0003297274    1.489    0.328
       305  -9.4366    202.9407    242.3136   8.7282765730e+01  -4.6483224138e+00    0.1767249    0.1262736  20.39 0.0004229601    1.158    0.137
       306  -9.6171     86.8361     34.3127   6.4288999078e+01   5.7399143903e+01    0.4650946    0.2608549 -21.66  0.002208845    1.926    0.481
       307  -8.6452     83.9956     31.2936   6.3989691082e+01   5.8363290672e+01    0.3181787     0.174628  -9.46  0.001001566    2.451    0.592
       308 -10.6369     77.8293     34.0808   6.7148298717e+01   5.9165411580e+01    0.4911138    0.4021397  26.12  0.001200004    1.111    0.100
       309  -9.7590     71.5784     29.7698   6.7547510834e+01   6.0905071434e+01    0.2392883    0.2231959   9.66 0.0006888387    1.209    0.173
       310  -9.7394     74.6252     27.1224   6.5377509632e+01   6.0697250482e+01    0.2999212    0.2882172 -81.49  0.001561647    1.487    0.328
       311 -10.0533    209.3875     34.1040   4.0353184987e+01   2.8971105560e+01     0.412877    0.3111185  24.74  0.002270044    1.928    0.481
       312  -8.2716    161.6668     36.2981   4.7535187558e+01   4.0030826069e+01    0.1429008    0.1023673 -72.28 0.0007030895    1.647    0.393
       313  -8.7502     94.9994     35.7088   6.2337543117e+01   5.5554049512e+01    0.1896805    0.1708268  13.46  0.001137981    1.033    0.032
       314  -9.9965    222.2956     34.3436   3.9011240603e+01   2.6058821956e+01    0.3109818    0.1762925  89.94  0.001545017    1.993    0.498
       315  -9.0764    143.7765     35.2259   5.0425886914e+01   4.4505660275e+01    0.2467734    0.2231419   5.85 0.0005496835    1.204    0.170
       316  -9.7252    141.6490     31.7098   4.9713748728e+01   4.5446366478e+01    0.2830593    0.2003803  36.75  0.001146886    1.477    0.323
       317  -9.5316    145.9825     29.2646   4.8129193811e+01   4.4687968831e+01    0.4339553    0.2416742  54.31  0.001222234    1.615    0.381
       318 -10.7424    228.5586     38.4337   3.9294552327e+01   2.4179586538e+01    0.4157746    0.2278101 -51.99  0.001108481    1.669    0.401
       319  -9.8093    248.0313     31.1394   3.5909477607e+01   2.1051008561e+01    0.2770204    0.1456759 -42.63  0.001528809    1.607    0.378
       320  -9.4970    233.3970     31.0934   3.7195021943e+01   2.4072209768e+01    0.3398509    0.1952727  55.16  0.001832055    1.979    0.495
       321  -9.1544    154.9422     31.1716   4.7141963633e+01   4.2291271128e+01     0.332547    0.1702487  46.78  0.001175364    1.951    0.487
       322  -9.0038    222.4355     40.4331   4.0396980592e+01   2.5249447118e+01    0.2083561    0.1508768 -51.05 0.0008994408    1.240    0.194
       323  -8.3077    189.6591    240.3127   8.9528294004e+01  -2.4233730003e+00    0.1162342   0.09507297  54.53  0.000704658    1.699    0.412
       324  -9.2131     22.0880     23.8316   8.6272828252e+01   6.8802791079e+01    0.2208734    0.1573903   5.67 0.0005749133    1.285    0.222
       325  -8.7015     34.4715     31.4966   8.3518412821e+01   6.6215311963e+01    0.2403078    0.2224563 -75.53  0.001079508    1.825    0.452
       326 -10.7733     37.0191     26.9121   8.0391602553e+01   6.6634178385e+01    0.6056625    0.3372831  20.51  0.002465549    1.808    0.447
       327 -11.4158     24.5902     30.8480   8.7954532082e+01   6.7394646959e+01    0.4552205    0.2920029  15.75   0.00129201    1.552    0.356
       328  -9.0010    101.6859    240.3095   1.0734166244e+02   1.0885837144e+01    0.1282913   0.08318011  61.97 0.0003348227    1.630    0.387
       329  -9.0947    246.8050    239.1727   7.8764397147e+01  -1.0122535995e+01    0.1709906    0.1098008   1.90 0.0007545074    1.340    0.254
       330 -10.3389    164.2286     26.5752   4.4287893671e+01   4.0566778187e+01    0.5179104    0.3450921  56.61   0.00220714    1.391    0.281
       331  -9.4088    221.4950    237.4710   8.3010426073e+01  -6.5805275034e+00     0.215463    0.1337979   1.49 0.0006680113    1.641    0.391
       332  -9.4190    179.5005     13.1026   3.8505438049e+01   3.8325204952e+01    0.2671553    0.1638333  76.76 0.0005197271    1.508    0.337
       333  -9.4065    161.0090     22.4395   4.3572354577e+01   4.1805369919e+01    0.2366681    0.2158837  84.07  0.000666653    1.042    0.041
       334  -9.1077    139.9789    236.9834   9.9054539484e+01   5.7219812334e+00    0.1571402    0.1332103  33.98 0.0005878464    1.011    0.011
       335  -8.7551     31.8556    232.5980   1.2045582024e+02   2.1325486184e+01    0.1586595   0.08219816  49.21 0.0003446933    1.602    0.376
       336  -9.3739    187.0202    231.4863   8.8639383884e+01  -6.7863228244e-01    0.1870776   0.09820534  15.94 0.0008100573    2.514    0.602
       337 -10.5968    221.5854     26.8635   3.7377105611e+01   2.7129261030e+01    0.4346747    0.3151742 -37.51  0.002625857    1.376    0.273
       338  -8.6596    177.3109    231.3247   9.0560236749e+01   8.4567216540e-01    0.1323162   0.09118754   2.04            0    1.657    0.396
       339  -8.9484    162.3916    225.2025   9.2651658848e+01   4.2294243232e+00    0.3286748    0.2381957  88.32  0.001590336    2.679    0.627
       340  -8.9217    211.8464     27.6863   3.8552929612e+01   2.9196863840e+01    0.2206155    0.1735834   2.03  0.000872442    1.833    0.455
       341  -9.0202    207.9874     26.6510   3.8716555554e+01   3.0193435773e+01    0.1882012    0.1786184 -40.44 0.0004748711    1.212    0.175
       342 -10.2412    207.0126     22.4749   3.7820325573e+01   3.0899204810e+01    0.3594393    0.2201291  83.64    0.0019276    1.607    0.378
       343  -8.9200    223.8732    225.1364   8.0465293561e+01  -5.1862743330e+00    0.1777467    0.1495289   9.30 0.0006222692    1.146    0.128
       344  -9.7227    242.1467     24.3093   3.4981679826e+01   2.3070368918e+01    0.3432386    0.2625663  18.38  0.002042667    2.212    0.548
       345 -11.7486      2.0292     25.1565   9.7329104300e+01   7.0190530949e+01    0.2379277    0.1448803 -45.83  0.000565124    1.355    0.262
       346 -10.5311    153.6623     22.9846   4.4878266263e+01   4.3528891829e+01    0.2374229     0.218167  66.17 0.0003114481    1.016    0.015
       347  -8.5953    124.5349     23.4569   5.0402721210e+01   5.0455316615e+01    0.2425407    0.1703811 -77.39 0.0009797022    2.017    0.504
       348  -8.8058    131.9729    225.3450   9.9108073359e+01   9.0771229104e+00    0.1880572    0.1522841  38.87 0.0004895302    1.091    0.084
       349  -8.1920      1.7083    224.2948   1.2555262807e+02   2.5960016652e+01    0.1145272   0.06002244  65.25 0.0002091045    1.555    0.357
       350 -10.2281     62.3010     22.8554   6.7969599849e+01   6.3444390178e+01    0.4352796    0.2605204  34.80  0.002377358    1.530    0.346
       351  -9.0532    196.5049    222.5081   8.5255282204e+01  -7.2511399287e-01     0.131875    0.1093194   9.10 2.056491e-05    1.017    0.017
       352  -9.3058     88.6334    221.1064   1.0787957447e+02   1.6503876191e+01     0.233104     0.177821  34.67 0.0005745566    1.301    0.232
       353  -9.7096    189.0062     22.0699   3.9722165940e+01   3.5123724189e+01    0.3068863    0.2314941  19.57  0.001626537    1.850    0.460
       354  -8.3023     85.7819     23.0268   6.0076040417e+01   5.9033081555e+01    0.1577056     0.103294 -23.47 0.0004260922    1.574    0.365
       355  -8.3219     79.7596     22.7031   6.1820403657e+01   6.0265810546e+01    0.1888418   0.09495747 -38.92 0.0008711103    2.322    0.569
       356  -9.7063    131.9645     21.3473   4.8186580248e+01   4.8925718374e+01    0.3011753    0.2317911  66.33 0.0009275184    1.239    0.193
       357  -8.2470     10.6510     22.3300   9.1591893980e+01   7.0074050308e+01   0.09724108   0.09323168  57.88 -0.0001550109    1.765    0.433
       358  -9.0030    203.1376    217.7979   8.3127843363e+01  -1.0053809772e+00    0.1799337    0.1562846  15.03 0.0002614813    1.123    0.110
       359 -10.1381    144.8247     17.4211   4.4610220265e+01   4.6244790228e+01    0.4034076    0.2509658  55.07   0.00176888    1.423    0.297
       360  -9.2220    230.9501    209.3936   7.6330500727e+01  -3.8957720781e+00    0.2278912    0.1495746 -14.38 0.0003658184    1.436    0.304
       361  -8.1898    145.4745    210.4445   9.3907863374e+01   9.7096198907e+00    0.1369395    0.1239353  32.47 0.0001192928    1.026    0.025
       362  -8.2147     95.3118    205.2875   1.0442022195e+02   1.8845868811e+01    0.1263562    0.1058712 -13.24 0.0003209104    1.580    0.367
       363 -10.5646     16.5955     17.5775   8.6359463109e+01   7.0322972765e+01    0.4405803    0.1861804  17.20  0.001589845    2.615    0.618
       364  -9.4324     35.0497    201.0190   1.1739935258e+02   2.7617303652e+01    0.2104646    0.1186922  64.84  0.001131127    1.715    0.417
       365  -8.3405    120.3826    199.2291   9.7766365335e+01   1.6176583072e+01    0.1823528    0.1335027 -71.54 0.0006469495    1.609    0.378
       366  -8.1725     73.6472    187.6910   1.0713256686e+02   2.5929153190e+01    0.1333144    0.1047978 -26.32 0.0007043632    1.720    0.419
       367  -9.1809      5.8373    182.8624   1.2227847600e+02   3.4447920652e+01    0.1653789    0.1336933 -80.01 0.0002778752    1.144    0.126
       368  -9.1005     55.3511    181.1905   1.1071510530e+02   2.9836771464e+01    0.1931414    0.1803165  37.90 0.0004441011    1.225    0.183
       369  -9.7896      7.1585    174.8328   1.2139444326e+02   3.6172837649e+01    0.1921807    0.1377301  74.09  0.001236565    1.224    0.183
       370  -9.9188     17.8394    174.3817   1.1891489383e+02   3.5384868049e+01    0.2053919    0.1595713  -5.80  0.001269909    1.892    0.471
       371 -10.3088      6.9619    166.8026   1.2080297312e+02   3.8049512713e+01    0.2781312    0.1929242 -11.41  0.001641743    2.240    0.554
       372 -10.6952     15.5697    165.7576   1.1867407698e+02   3.7606568529e+01    0.3896781    0.2298291 -15.95  0.001891552    3.092    0.677
       373 -11.6671     37.3043    159.5130   1.1258223094e+02   3.7090602519e+01    0.6097714    0.3870406  56.34  0.002394951    1.659    0.397
       374  -8.2513    103.3566     16.2961   5.2596335508e+01   5.6028871979e+01     0.143591   0.08523788  31.96 0.0007033477    1.697    0.411
       375 -12.1277     30.5981    154.9656   1.1377422266e+02   3.8863290207e+01    0.6132693    0.4447958  61.43  0.002443004    1.420    0.296
       376  -8.9643    139.1183     13.8779   4.4442047143e+01   4.7961110002e+01    0.1979454    0.1680338 -87.03 0.0005338759    1.253    0.202
       377 -10.5293     24.5586    162.9206   1.1620043899e+02   3.7498737095e+01    0.2204371    0.1972856  58.91 0.0002905002    1.202    0.168
       378 -10.7769      2.1392    155.3004   1.2099600622e+02   4.1098180526e+01    0.6239834    0.1859895 -76.41  0.002572012    2.739    0.635
       379 -10.5638      4.5784    146.9455   1.1964352879e+02   4.2913932100e+01    0.4105772     0.229082  84.42  0.001439682    1.726    0.421
       380  -8.3756     84.7694     14.3312   5.6771365593e+01   6.0184518634e+01    0.1802984   0.09853645  43.40 0.0006145374    1.575    0.365
       381  -9.8097      4.7825    141.1517   1.1903073346e+02   4.4286089666e+01    0.4524151    0.1834449  41.49  0.002176207    2.654    0.623
       382  -9.4309     92.8151     20.3003   5.6923812772e+01   5.7889145623e+01    0.3974347    0.1756849  45.46  0.001792484    1.964    0.491
       383 -10.4478      2.8786    134.3690   1.1885236359e+02   4.6034059822e+01    0.4477029    0.2333588 -85.74  0.002326077    1.740    0.425
       384 -11.2959      3.3902    129.7981   1.1822883871e+02   4.7100058464e+01    0.6892866    0.1933722 -59.69  0.002911242    2.538    0.606
       385  -9.4975     45.9608    151.3732   1.0921170092e+02   3.8168577567e+01    0.2316088    0.1696439 -63.47 0.0003153445    1.214    0.177
       386 -10.1678     20.1634    151.7974   1.1612642374e+02   4.0567095944e+01    0.2818705    0.1571661 -48.15 0.0009118986    1.883    0.469
       387 -10.8912     11.9881    150.9701   1.1814285807e+02   4.1419093357e+01    0.3783127     0.271657  -7.79  0.002251692    1.990    0.497
       388  -8.8197    230.2020    147.6329   6.3982118668e+01   6.3643136780e+00    0.1809252    0.1264958  29.46 0.0004915334    1.591    0.371
       389 -10.3013     13.2662    145.4424   1.1724121734e+02   4.2654552203e+01    0.3788818    0.2418513 -54.50   0.00159261    1.474    0.322
       390 -10.7226     18.8096    140.9832   1.1525500031e+02   4.3308796488e+01     0.430501    0.2460887  23.62  0.002301475    2.101    0.524
       391  -8.8312    236.6393    146.2732   6.2591237154e+01   5.4624653642e+00    0.1274613     0.107174 -70.75 0.0007002542    1.655    0.396
       392  -9.3756     54.2259    145.9733   1.0611802203e+02   3.8558498472e+01    0.2056365    0.2007553  45.28 0.0002760998    1.150    0.131
       393  -8.9509     41.7113    139.0882   1.0859111150e+02   4.1674993320e+01     0.200599    0.1552646 -67.50 0.0007747718    1.123    0.110
       394  -9.1487    236.1192    136.8609   6.0629865659e+01   7.1675027241e+00    0.2017487    0.1766137 -50.08 0.0005031124    1.249    0.199
       395  -9.8259     34.1561    136.7356   1.1040409583e+02   4.3014112256e+01    0.3277364    0.2126724  33.48   0.00111727    1.725    0.420
       396  -8.8872     74.9895    135.5298   9.8288513259e+01   3.8421183848e+01     0.338176    0.1488329 -43.08  0.001250992    2.493    0.599
       397  -9.8155     14.5508    135.9821   1.1583325445e+02   4.4854318113e+01     0.257311    0.1481965 -23.63   0.00127442    2.527    0.604
       398 -11.1306     43.4975    131.0270   1.0679007101e+02   4.3492830472e+01      0.73071    0.3647315 -44.70  0.002370425    2.043    0.510
       399  -9.1637    230.6737    137.0280   6.1572535866e+01   8.1283567276e+00    0.2030831    0.1628416 -30.52 0.0006071649    1.092    0.084
       400 -12.0672     28.5602    132.0229   1.1133991606e+02   4.4693275649e+01    0.2666916    0.2417589   2.68 0.0001325407    1.341    0.254
       401 -10.7034      9.8981    131.1942   1.1656849319e+02   4.6346018634e+01    0.5056869    0.1556447 -54.70  0.001942459    2.595    0.615
       402  -9.6497     61.9628    131.3409   1.0133038765e+02   4.1246867316e+01    0.2637239     0.192346 -70.93 0.0005381095    1.347    0.258
       403  -9.6475     20.2895    130.6392   1.1354301307e+02   4.5722722828e+01    0.2419631    0.1479848 -70.68 0.0005921005    1.358    0.263
       404 -10.3252     34.4904    128.0546   1.0899641045e+02   4.5133053346e+01    0.3372819    0.2205327 -68.11  0.001138597    1.323    0.244
       405 -10.1601     32.5983    122.8025   1.0873027688e+02   4.6607244805e+01    0.3489697    0.1770666 -80.03  0.001515189    2.234    0.552
       406  -8.9787     88.5317    127.9665   9.2705934891e+01   3.8202378012e+01    0.2094872    0.2064537  -1.68 0.0003783941    1.065    0.061
       407  -8.7321     59.5622    125.5253   1.0093560910e+02   4.2998678579e+01    0.1428461    0.1279116 -59.87  -6.9489e-06    1.011    0.010
       408  -9.7176     72.5084    123.3116   9.6507623673e+01   4.1798856679e+01     0.403307    0.2762965 -24.28  0.001424535    1.839    0.456
       409  -9.5783     72.6747    118.7067   9.5445633666e+01   4.2903150202e+01    0.4493653    0.2826046  76.87  0.001743605    2.859    0.650
       410  -9.3100    249.5043    153.5123   6.2020610422e+01   2.0885716584e+00    0.1347458     0.110642 -21.14 0.0001948565    1.023    0.023
       411  -8.9217     64.7691    122.6243   9.8746463750e+01   4.3040288093e+01    0.1980013    0.1298278  43.43 0.0004732987    1.687    0.407
       412  -9.1989    236.9710    120.9894   5.6980859235e+01   9.7285932904e+00    0.2169377    0.1628341   1.13  0.001134003    1.683    0.406
       413  -9.2366    123.6680    121.0612   8.1011732235e+01   3.3410509430e+01    0.2462063    0.2129732  53.74 0.0003402985    1.245    0.197
       414  -8.3553     94.6133     30.2535   6.0343950908e+01   5.6344756519e+01    0.1267064     0.106954  85.73 0.0005713413    1.672    0.402
       415 -10.6009     20.0618    110.0299   1.1059351123e+02   5.0769898241e+01    0.5317583    0.2470302 -72.69  0.002437607    2.000    0.500
       416 -10.4878     13.9803    113.4660   1.1304710803e+02   5.0368711357e+01    0.3018388    0.1926752  31.39   0.00142589    1.848    0.459
       417  -9.5167     13.8618    109.8381   1.1254625345e+02   5.1252425171e+01    0.2559391    0.1589758 -76.22  0.000719754    1.452    0.311
       418 -10.3963     42.9168    119.0738   1.0488081742e+02   4.6517355646e+01    0.2995648    0.2499619  52.62 0.0005506444    1.364    0.267
       419 -10.0398     94.0798    118.5086   8.8845459948e+01   3.9555816228e+01    0.4361468    0.3029605 -12.41  0.001871926    2.029    0.507
       420  -9.4813     83.4659    117.0859   9.1727199587e+01   4.1656258626e+01    0.3075212     0.179447 -54.04  0.001249776    1.617    0.382
       421  -8.9082     67.8179    118.5937   9.6938799513e+01   4.3617435531e+01    0.1981899    0.1322951  45.05 0.0009424057    1.679    0.404
       422  -9.4849     54.7372    118.0033   1.0093945039e+02   4.5453106815e+01    0.2095668      0.20127  11.05 0.0003409958    1.161    0.138
       423 -10.6673     28.9186    116.8831   1.0890126354e+02   4.8390001760e+01    0.4448015    0.2885014 -62.58  0.001331973    1.281    0.219
       424 -10.0238     32.1796    111.9127   1.0700553785e+02   4.9318720584e+01     0.361428    0.1972084  89.02  0.001503844    2.752    0.637
       425  -8.1150     76.6671    116.7363   9.3752449156e+01   4.2793547125e+01    0.1469503    0.1106872 -19.36 0.0004667769    1.578    0.366
       426  -8.8826     48.5460    115.5558   1.0242105164e+02   4.6774429181e+01    0.4590185    0.1536004  39.78  0.001672726    3.333    0.700
       427  -8.7975     49.3611    112.1944   1.0147914263e+02   4.7505979495e+01     0.296332    0.1756362 -70.99  0.001055015    1.789    0.441
       428  -8.7962     62.1888    115.1492   9.7968816610e+01   4.5217305304e+01    0.1921576    0.1637578 -89.07 0.0002947245    1.330    0.248
