#   1 NUMBER                 Running object number                                     
#   2 MAG_AUTO               Kron-like elliptical aperture magnitude                    [mag]
#   3 X_IMAGE                Object position along x                                    [pixel]
#   4 Y_IMAGE                Object position along y                                    [pixel]
#   5 X_WORLD                Barycenter position along world x axis                     [deg]
#   6 Y_WORLD                Barycenter position along world y axis                     [deg]
#   7 A_WORLD                Profile RMS along major axis (world units)                 [deg]
#   8 B_WORLD                Profile RMS along minor axis (world units)                 [deg]
#   9 THETA_WORLD            Position angle (CCW/world-x)                               [deg]
#  10 FWHM_WORLD             FWHM assuming a gaussian core                              [deg]
#  11 ELONGATION             A_IMAGE/B_IMAGE                                           
#  12 ELLIPTICITY            1 - B_IMAGE/A_IMAGE                                       
         1 -13.8551     55.3205    146.8020   1.0554019962e+02   3.8477548384e+01     5.608554    0.9978555 -61.70   0.01588308    4.382    0.772
         2 -14.9169     68.6030    144.2951   1.0133547627e+02   3.7372782249e+01     5.235496      2.00883  56.62  0.009368907    6.124    0.837
         3 -14.4143    200.5739     40.9323   4.2721807471e+01   3.0254678090e+01     1.527635     1.290648  -3.20  0.004076462    1.566    0.361
         4 -14.4925    211.5558     29.9087   3.8762854524e+01   2.9131232870e+01     1.239823    0.9874897  -5.51  0.002200143    1.772    0.436
         5 -11.8790      2.0000     10.4953   9.1146028052e+01   7.3072887564e+01    0.4771434     0.133198 -50.13  0.002067662    3.564    0.719
         6 -13.4908    236.7211      5.0098   3.1118602538e+01   2.6486774362e+01     0.818864    0.5197307  84.63  0.005162463    1.424    0.298
         7  -9.8777     44.3213      7.3230   6.7349304138e+01   6.8618332832e+01    0.1270213   0.07636175  11.28 0.0007045954    1.677    0.404
         8 -10.4580    120.3259    194.3678   9.6447785568e+01   1.7184146758e+01    0.2664049    0.1702603 -82.87 0.0008041604    2.363    0.577
         9 -12.0730    140.4332    248.2317   9.9877507553e+01   3.5417861379e+00     0.454726    0.3473348 -61.50  0.002849789    1.646    0.392
        10 -13.4028     84.4207    219.0164   1.0805125135e+02   1.7508211461e+01    0.9533303    0.6463306  66.24  0.001310216    1.493    0.330
        11 -14.1082     53.6476    188.1211   1.1152068857e+02   2.8562601756e+01     1.803234     1.058104  77.30  0.008809286    1.898    0.473
        12 -13.0345     55.6102    248.9560   1.1672707205e+02   1.5391044585e+01    0.3414506    0.2063687  89.55  0.002087466    1.693    0.409
        13 -17.5798     18.0244    242.9583   1.2325626287e+02   2.0812679700e+01     7.644552     2.373493  27.53   0.02045874    4.807    0.792
        14 -15.2708      9.6644    206.9362   1.2278159738e+02   2.8994305912e+01    0.9980417    0.9343887 -21.41  0.003625175    1.592    0.372
        15 -15.9782      3.4266    188.2864   1.2289616641e+02   3.3651641164e+01     9.995912          nan -71.94   0.02410731    7.054    0.858
        16 -15.1492     41.7427    197.2783   1.1521523634e+02   2.7854471661e+01     4.809872     1.966432  73.51   0.01464046    3.977    0.749
        17 -10.8871    149.5980    187.7392   8.8455389836e+01   1.3444117462e+01    0.3304177    0.2673226 -80.65 0.0009864224    1.611    0.379
        18  -9.3583     72.2347    188.2725   1.0708753586e+02   2.6085504805e+01    0.1847006    0.1401607  71.87 0.0003551946    1.302    0.232
        19  -9.1748     77.2501    185.6344   1.0551485142e+02   2.5996467681e+01    0.1870146    0.1260014  53.35 0.0004741353    1.451    0.311
        20  -9.5952     79.9941    183.3348   1.0451835826e+02   2.6142002178e+01    0.2303344    0.1798312  75.52 0.0008397613    1.301    0.231
        21 -10.7200     92.4963    249.9669   1.0967827024e+02   1.0306300541e+01    0.3334886    0.1869035  22.36  0.001639226    2.485    0.598
        22  -9.3619     69.1503    182.9553   1.0713981948e+02   2.7768083486e+01    0.2119213    0.1661278  80.55 0.0005069735    1.245    0.197
        23 -10.3141     99.4831    180.8556   9.9302132939e+01   2.3718723857e+01     0.262862    0.2295595  35.33 0.0006009191    1.179    0.152
        24  -9.8672     90.8065    180.2741   1.0137461486e+02   2.5234626853e+01    0.4036435    0.2736682 -22.81  0.001541022    2.347    0.574
        25 -10.7556    189.3786    177.5120   7.7683328474e+01   8.1888649655e+00    0.4734822    0.3431382 -56.42  0.002338091    1.705    0.413
        26  -9.5777    148.5356    175.5190   8.6364674212e+01   1.6237913220e+01     0.253344    0.1454934 -60.44 0.0006158916    2.196    0.545
        27 -10.6034    146.4925    172.0710   8.6162672725e+01   1.7372682662e+01    0.2913041    0.2409201 -81.48 0.0007741503    1.508    0.337
        28 -12.2164    111.8450    197.1462   9.8885881952e+01   1.7993464008e+01    0.9885197    0.5338557  11.13   0.00290969    5.419    0.815
        29 -13.7519     69.2280    155.1642   1.0301728380e+02   3.4559880726e+01    0.6383628    0.4937091 -48.17  0.001918683    1.329    0.248
        30 -11.8192    112.0490    204.6263   9.9966247880e+01   1.6338045284e+01    0.4401433    0.2774126 -78.63  0.002018195    2.120    0.528
        31 -10.0331     34.7009    171.4492   1.1426362966e+02   3.4702730343e+01    0.2632562    0.1654616  67.73 0.0006915936    1.609    0.378
        32  -9.6082    185.6033    169.7887   7.6876826623e+01   1.0388066411e+01    0.2036243    0.1358793 -51.27 0.0006326619    1.664    0.399
        33 -11.7633    107.7949    203.8524   1.0083280977e+02   1.7190234402e+01    0.3903367    0.2597329  53.71  0.001552311    1.493    0.330
        34  -9.5431    110.9697    167.9830   9.4163798855e+01   2.4821478843e+01    0.2357422    0.1766409  77.02  0.000463662    1.646    0.392
        35  -9.6695    135.6129    165.1113   8.7394068397e+01   2.0987650656e+01    0.3093045    0.1981885  51.84  0.001349309    1.696    0.410
        36 -13.8284     22.0584    223.1322   1.2135011451e+02   2.4355467507e+01     0.923925    0.4339496  68.09  0.002928077    1.987    0.497
        37 -12.3642     88.3234    153.2737   9.7438467581e+01   3.2187348007e+01    0.6729071    0.4850965 -22.29  0.003097092    1.913    0.477
        38 -11.2964    134.1293    146.6464   8.3824140844e+01   2.5515016391e+01    0.8290022    0.2709633 -53.26  0.002437227    3.481    0.713
        39 -11.1738    133.0000    141.0083   8.2831824735e+01   2.7044808762e+01    0.6880969    0.2167913 -51.36  0.002026936    3.364    0.703
        40 -10.8638    174.4865    148.8928   7.4710539330e+01   1.6813743427e+01    0.3359273    0.2771082 -64.41  0.001252729    1.424    0.298
        41  -9.2827    111.1940    149.3486   9.0433519990e+01   2.9245221263e+01    0.3369106    0.1717924  58.89  0.001131288    3.041    0.671
        42 -10.5367    143.5574    145.3089   8.1147317914e+01   2.3928289866e+01    0.3105264    0.1514759 -51.91  0.001144959    2.150    0.535
        43 -11.3632     28.4812    143.3736   1.1259383808e+02   4.2212900366e+01    0.3924556    0.3016872  -9.68  0.002265176    1.751    0.429
        44 -11.0530     38.0416    145.9996   1.1027878896e+02   4.0628386219e+01    0.3884341    0.1928219  47.66  0.001774962    2.200    0.545
        45 -10.3610    198.3406    140.1194   6.7699152669e+01   1.3724275659e+01    0.3225696    0.2366194 -58.54 0.0009076766    1.609    0.378
        46 -11.0495    102.0605    139.0838   9.0755949295e+01   3.3378687385e+01    0.5609518    0.3671806 -21.70  0.002253915    2.303    0.566
        47 -12.4623     89.5244    138.6930   9.4236649302e+01   3.5611667934e+01     0.299815    0.2631856 -37.61 0.0005461766    1.184    0.156
        48 -12.2438     68.0405    173.5657   1.0613280710e+02   3.0179688889e+01    0.4290659     0.294088 -35.50  0.002105976    1.921    0.480
        49 -11.8962     38.9040    127.1285   1.0718132394e+02   4.5266760394e+01    0.4398688    0.2176764 -66.39  0.001998282    1.767    0.434
        50 -11.3156    135.7679    128.4180   7.9109086538e+01   2.9371380054e+01    0.6539364    0.1921482 -48.88  0.001863965    3.486    0.713
        51 -10.8013    105.9418    130.8228   8.7803678501e+01   3.4686469370e+01    0.3728602    0.3469091 -80.35  0.001341352    1.121    0.108
        52 -10.5424    111.4237    129.7386   8.6002197674e+01   3.3923859657e+01    0.3451762    0.2612914  16.54 0.0006004346    1.618    0.382
        53 -11.7579     28.5892    129.0627   1.1060114775e+02   4.5764537592e+01    0.4347756    0.2868514 -64.74  0.002383577    1.267    0.211
        54 -10.4749    160.6203    128.0027   7.2895639410e+01   2.4161183170e+01    0.3965046      0.24099 -48.84  0.001655528    1.661    0.398
        55 -10.9706     98.7055    125.6275   8.8675975116e+01   3.7251805691e+01    0.3086019    0.2582561  -3.04 0.0008283244    1.424    0.298
        56 -11.2832    118.8465    123.0229   8.2298056991e+01   3.4068172241e+01    0.6116584     0.391856   2.70  0.002139224    3.038    0.671
        57  -9.9401     88.4010    121.7270   9.0828916169e+01   3.9977161049e+01    0.4897038     0.278264  66.28  0.001671374    3.346    0.701
        58 -12.0554     33.5454    118.5083   1.0740804616e+02   4.7935720347e+01    0.4074864    0.2372489 -47.95  0.001610609    1.581    0.368
        59 -10.1091    107.8171    118.8178   8.4364428509e+01   3.7202512455e+01    0.2226403    0.2014673 -18.61 0.0003776688    1.167    0.143
        60 -11.0743     45.1205    117.7547   1.0357764393e+02   4.6951189736e+01    0.2477272    0.1758181 -74.13  0.000574771    1.386    0.278
        61 -10.7421    135.0000    112.1038   7.5119058815e+01   3.3186610982e+01    0.5626367   0.09862021 -44.70  0.001252841    5.593    0.821
        62 -10.0358    134.5513    105.7695   7.3522466761e+01   3.4660332812e+01    0.3883554    0.1508919 -46.07  0.001286218    2.564    0.610
        63 -12.1491     34.5940    109.5182   1.0546407226e+02   5.0053092179e+01    0.3694596    0.3513433   9.32  0.002373088    1.215    0.177
        64  -9.2655    168.1681    112.9939   6.7377467255e+01   2.5634126401e+01    0.2642992    0.1772294 -66.85  0.001073714    2.049    0.512
        65 -10.2889    205.4309    110.1180   5.9254397782e+01   1.7951784689e+01    0.3026846    0.2224287  44.83 0.0009230064    1.483    0.326
        66 -11.1232    116.6950    108.9858   7.9257926651e+01   3.7725089794e+01    0.5127616    0.3855422  54.90  0.002383936    1.474    0.322
        67 -11.4982    246.8106    107.2734   5.2100436593e+01   1.0129342179e+01    0.2930841    0.1731128 -30.37  0.001453542    1.636    0.389
        68 -13.5099     80.7324    159.9006   1.0068081445e+02   3.1719853844e+01     1.926728    0.7477669  55.44 0.0005239606    4.526    0.779
        69  -9.4448    139.1100    105.9186   7.2388200408e+01   3.3626271942e+01    0.2357283    0.2116364 -85.61 0.0005139381    1.266    0.210
        70 -12.1764     41.4153    103.9220   1.0205320579e+02   5.0741370386e+01    0.4872299    0.3288431  42.37  0.001793759    1.719    0.418
        71 -11.0456    241.9885    101.5200   5.1503112819e+01   1.1992165103e+01     0.186996    0.1357849  56.63 0.0007999238    1.594    0.373
        72 -11.0784     32.7770     99.6665   1.0416258028e+02   5.2612166546e+01    0.3440419    0.2115899  36.33  0.001550039    1.873    0.466
        73 -12.1658     72.4557    168.8671   1.0430957523e+02   3.0714705174e+01    0.4584477    0.2993515 -56.13 0.0008846973    1.487    0.328
        74  -9.7348    126.1917     93.6764   7.2328602910e+01   3.9044167611e+01    0.2387056    0.1952184  67.98 0.0009607468    1.434    0.303
        75 -11.0671    242.5024     93.0023   4.9547030942e+01   1.3286848908e+01    0.2174875    0.1162462 -38.47   0.00104015    1.611    0.379
        76 -10.3987     52.8699     91.1292   9.5058003098e+01   5.2482548395e+01    0.2099806    0.1865386 -70.99 0.0004879336    1.236    0.191
        77  -9.9762    156.3972     88.4346   6.3354799429e+01   3.3200656561e+01    0.3507203    0.2311469 -75.98  0.001357012    2.454    0.593
        78  -9.4154     15.2341     89.5294   1.0842544012e+02   5.6400456015e+01    0.2156585    0.1195587  25.16  0.001143046    2.109    0.526
        79  -9.2829     75.1630     85.1528   8.5522412442e+01   5.0674639691e+01    0.1848532    0.1711047 -83.00 0.0003637747    1.301    0.231
        80  -9.4437    113.9160     83.3930   7.2680084403e+01   4.3783901728e+01    0.3162027    0.1986647 -75.98  0.001053085    3.590    0.721
        81 -10.1784    158.9747     82.4950   6.1102732024e+01   3.3699461270e+01    0.2365545    0.2077968 -38.67 0.0006041936    1.134    0.118
        82  -9.1409     70.0246     81.9906   8.6384633289e+01   5.2169031192e+01     0.197392    0.1719232  74.01 0.0004366343    1.510    0.338
        83  -9.1142    184.5982     77.1601   5.4587645928e+01   2.8552070241e+01    0.2005137    0.1407173 -24.22 0.0004813311    1.634    0.388
        84 -10.0292     54.5781     65.6023   8.7049150404e+01   5.7838328954e+01    0.2282345    0.2224986  21.88 0.0007323613    1.242    0.195
        85 -10.7454     13.4445     59.8150   1.0249110262e+02   6.3162784850e+01     0.231717     0.193379 -54.32 0.0004150025    1.177    0.150
        86 -13.7394    190.5769     48.0891   4.5906108774e+01   3.1639432684e+01      1.16149    0.7585289  44.95 0.0009594813    1.764    0.433
        87 -11.1466    204.3508    200.1114   7.9077947670e+01   1.5035014269e+00    0.2485741    0.1713183  21.08   0.00132717    1.428    0.300
        88  -9.8267    169.0640    236.0637   9.2363259788e+01   1.1376291748e+00    0.1863092    0.1638795  16.17 0.0004411789    1.053    0.051
        89 -10.3770     13.5346     31.7571   9.3584470594e+01   6.8652505542e+01     0.253037    0.1436481  29.68   0.00148036    2.058    0.514
        90 -10.8384    187.8687     31.1208   4.1828455260e+01   3.4511749466e+01    0.2150743    0.1677206 -69.98 0.0005981284    1.242    0.195
        91 -11.4215    140.5699     46.0946   5.4059090983e+01   4.4067459846e+01    0.3491314    0.2734227 -85.13 0.0007170941    1.538    0.350
        92 -10.3660    198.0569     23.7715   3.8740383473e+01   3.2976309780e+01    0.2533739    0.1972781 -13.95 0.0009724137    1.669    0.401
        93  -9.6212    189.6585     15.0157   3.7470166157e+01   3.5919918687e+01    0.1755254    0.1547684 -59.13 0.0006125481    1.137    0.121
        94 -10.0658     90.0038    212.6795   1.0606406627e+02   1.8035772722e+01    0.2617539     0.182401  72.90 0.0008870663    1.559    0.359
        95 -12.0319    194.2675    196.7588   8.0465549462e+01   3.7704797516e+00     1.196909    0.6978628 -64.94  0.004297195    4.213    0.763
