#   1 NUMBER                 Running object number                                     
#   2 MAG_AUTO               Kron-like elliptical aperture magnitude                    [mag]
#   3 X_IMAGE                Object position along x                                    [pixel]
#   4 Y_IMAGE                Object position along y                                    [pixel]
#   5 X_WORLD                Barycenter position along world x axis                     [deg]
#   6 Y_WORLD                Barycenter position along world y axis                     [deg]
#   7 A_WORLD                Profile RMS along major axis (world units)                 [deg]
#   8 B_WORLD                Profile RMS along minor axis (world units)                 [deg]
#   9 THETA_WORLD            Position angle (CCW/world-x)                               [deg]
#  10 FWHM_WORLD             FWHM assuming a gaussian core                              [deg]
#  11 ELONGATION             A_IMAGE/B_IMAGE                                           
#  12 ELLIPTICITY            1 - B_IMAGE/A_IMAGE                                       
         1 -13.6411    118.6697     65.3941   4.7571408121e+01   4.5550336265e+01     1.491525     1.159839  74.24  0.007717718    1.447    0.309
         2 -12.0449    163.1320     21.2483   2.7535330251e+01   4.1293960966e+01    0.8340051    0.3443821 -52.09   0.00363404    2.547    0.607
         3 -12.7966    187.9933     34.0583   2.7734575565e+01   3.4559389822e+01     1.605084    0.6488518  64.17   0.00542682    2.303    0.566
         4 -14.0641    193.3184     56.3655   3.2018059201e+01   3.0624625143e+01      1.92367     1.071834 -26.26  0.009571459    2.422    0.587
         5 -13.3628    230.9947     48.1445   2.6489938950e+01   2.4619256239e+01     1.074225    0.6190669 -75.84  0.002755183    1.817    0.450
         6 -12.7193    154.2182     62.5503   3.9274316051e+01   3.8035073731e+01     1.681663    0.6447399 -51.96   0.00613383    3.314    0.698
         7 -14.2415     56.2584     65.8677   6.8567125853e+01   5.7933224730e+01     2.087419    0.8914858 -47.45  0.008395392    2.477    0.596
         8 -14.7941     34.4727     60.9582   7.7017152534e+01   6.2011924144e+01     2.762115     2.056832 -45.44   0.01540846    1.378    0.274
         9 -13.3064     52.4971     43.5499   6.2144172573e+01   6.2548740228e+01     1.069936     0.649163  -5.72   0.00260661    2.352    0.575
        10 -14.2314     64.0500     34.1725   5.3630813132e+01   6.1835502255e+01     2.021598     1.883859  74.47   0.01282949    1.400    0.286
        11 -13.3372     81.8421     40.0232   4.9625038021e+01   5.7420545495e+01    0.9188585     0.554917 -39.31   0.00464246    1.890    0.471
        12 -13.2327     63.9071      8.9555   4.3070084893e+01   6.4756352138e+01     1.400224     1.262807  68.75  0.009591004    1.306    0.234
        13 -13.0446    161.7038     38.8718   3.2066989411e+01   3.9597601954e+01     1.012627    0.7619468  67.61  0.006213725    1.228    0.185
        14 -13.4127      3.6506     53.7867   9.1418933771e+01   6.6296656691e+01     1.167114    0.6323524 -64.97  0.005917093    1.998    0.500
        15 -14.4032     12.6916     35.7246   8.0192991710e+01   6.9219130237e+01     2.870916     1.463033  -9.45  0.004806096    2.243    0.554
        16 -11.4069    148.4840     24.0377   3.0104946669e+01   4.4259797019e+01    0.3092894    0.2488384  18.77  0.001912598    1.750    0.429
        17 -11.5262    130.6711     48.5890   3.9928781268e+01   4.5345518748e+01     1.463845     1.248226 -53.65  0.008777574    1.247    0.198
        18 -10.6609    209.8647     21.2992   2.3087068246e+01   3.1662698621e+01    0.2851937     0.210206 -22.63  0.001410336    1.898    0.473
        19 -10.3787    139.1434     17.3882   2.9624720973e+01   4.7062931640e+01    0.2906935    0.2253682  49.96   0.00140402    1.361    0.265
        20  -9.3826    154.5879     13.8389   2.6696443834e+01   4.3930540615e+01    0.4000255    0.1705921  44.66  0.001308579    3.338    0.700
        21  -9.9769    147.5750     10.4615   2.6663354666e+01   4.5816626375e+01    0.2138418    0.1538063 -74.71 0.0007647137    1.333    0.250
        22 -13.0379     80.8133     22.9118   4.3513264309e+01   5.9758642184e+01     1.172773    0.2933256  49.41  0.004229416    3.063    0.674
        23 -10.3421    179.8665     12.3789   2.3746706186e+01   3.8609649051e+01    0.2074694    0.1327167 -70.77  0.001303523    1.412    0.292
        24 -12.6685     76.0681     17.3685   4.2752401612e+01   6.1369892522e+01    0.8354006    0.4240797 -18.06  0.003723682    2.594    0.614
        25 -10.7865    221.6502     11.5368   2.0401163282e+01   3.0494497320e+01    0.1876303    0.1585574 -67.08 0.0005588869    1.201    0.167
        26 -10.1078    125.7572     11.3492   2.9883097776e+01   5.0698899828e+01    0.1790053    0.1643814  67.00 0.0002245652    1.142    0.124
        27 -11.5145    115.4271      9.4187   3.0963271089e+01   5.3245554684e+01    0.3930971    0.3547029 -44.33  0.001359047    1.303    0.232
        28  -8.7041    109.4797      8.5424   3.1722140798e+01   5.4688136157e+01    0.1632189    0.1252199 -23.95 -4.448363e-05    1.596    0.374
        29 -11.4788    108.3338      4.2372   3.0524228680e+01   5.5306480410e+01    0.3959117    0.1985366  74.14 0.0008402735    1.821    0.451
        30 -10.1630     88.4851     11.4868   3.7134409045e+01   5.9205601647e+01    0.2191703    0.1720149  60.87 0.0008085378    1.092    0.084
        31 -11.5645     85.0196      8.0443   3.6683119931e+01   6.0281183147e+01     0.299634    0.2055963 -33.66  0.001429612    1.753    0.430
        32  -9.7036    129.7446     10.9432   2.9166218964e+01   4.9820725269e+01    0.1586097     0.147534 -78.96 0.0008482477    1.166    0.142
        33 -12.4635    242.2148      8.3168   1.8645070524e+01   2.7217458997e+01    0.4294204    0.1673612 -78.30  0.002083936    2.808    0.644
        34 -10.5630    227.8264      9.0273   1.9568667928e+01   2.9637565720e+01    0.1765945    0.1468251 -34.97 0.0009168954    1.557    0.358
        35 -10.6868     26.0585      9.7316   6.0154912568e+01   7.1591227333e+01    0.2426936    0.1523924  21.65            0    1.351    0.260
        36  -9.7459    168.2906      9.5919   2.4201111447e+01   4.1338782470e+01    0.1508884   0.09341317  68.74 0.0005984824    1.430    0.301
        37 -10.0543    150.4290     12.5072   2.6849745027e+01   4.4985586514e+01    0.2151869    0.1241124 -65.87 0.0007254514    1.856    0.461
        38 -10.6448     47.7842      7.9953   4.8610571733e+01   6.8054828098e+01     0.217366    0.2036567   6.87  0.001548979    1.274    0.215
        39 -10.5402    193.5533      7.8214   2.1633199444e+01   3.6251588299e+01    0.2078978    0.1446068  55.37  0.000947888    1.741    0.426
        40 -11.3070    100.9071      6.0960   3.2510624926e+01   5.6855704203e+01    0.3020349    0.2127691  50.29 0.0009795054    1.255    0.203
        41  -9.9576    100.4250      2.4497   3.1354144377e+01   5.7254905879e+01    0.1839306    0.1435817 -57.89 2.344911e-05    1.511    0.338
        42 -10.1208      3.1555      6.5095   7.3608541476e+01   7.4916151612e+01    0.3064314    0.1483755  14.43  0.001663295    1.863    0.463
        43  -9.7347    212.4214      5.7456   1.9908756325e+01   3.2787013186e+01    0.1193748   0.09581178 -42.01 0.0003144644    1.420    0.296
        44  -9.5813    146.5324      5.4130   2.5471743712e+01   4.6503236523e+01    0.1194339    0.0959554  71.42 0.0002170117    1.126    0.112
        45 -10.1668    183.4152      3.8065   2.1575359009e+01   3.8694213551e+01    0.1827021     0.123859  89.83 0.0005349112    1.215    0.177
        46 -11.1407     88.3507      2.9477   3.3991469927e+01   5.9951000071e+01     0.275151    0.1726157  35.45 0.0009721881    1.659    0.397
        47 -10.6712     85.2536      1.3653   3.4090020727e+01   6.0765693138e+01    0.2183987    0.1334039  47.99 0.0005656639    1.375    0.273
        48  -9.8399    217.9574      3.2208   1.9098808082e+01   3.2002748188e+01    0.1330284    0.0994484 -70.91 0.0003370843    1.017    0.017
        49 -11.0203    208.9583      2.2001   1.9454060530e+01   3.3784747361e+01    0.1679445    0.1191276 -60.70 0.0003418609    1.160    0.138
        50 -10.4498    155.0136      2.3160   2.3772600264e+01   4.4887978267e+01    0.2282354    0.1473899  71.94 0.0008784279    1.300    0.231
        51 -10.7468     45.8437      1.9210   4.6425067859e+01   6.8998078329e+01    0.2998971    0.1706011  52.49  0.001458676    1.560    0.359
        52  -9.7359    126.4582      1.7634   2.6975441721e+01   5.1350884101e+01    0.1331938    0.1157424  23.31 0.0009129229    1.466    0.318
        53  -9.2976    118.6279      1.2873   2.7944481611e+01   5.3178474599e+01    0.1257771   0.08057849 -77.77 0.0007020015    1.714    0.417
        54 -12.9741    142.3213     60.7212   4.1008148761e+01   4.0962348968e+01     1.112413    0.8116665 -86.11  0.003689427    1.629    0.386
        55 -10.8159    248.6646    249.9953   5.9804785061e+01  -8.1229884840e+00    0.1765642   0.09889423  16.18  0.001185917    1.698    0.411
        56 -11.0555    228.9379    249.2095   6.3014987345e+01  -6.2874096005e+00     0.225765    0.1258854 -29.51 0.0004112311    1.449    0.310
        57 -10.8947    212.1042    249.8627   6.6153213886e+01  -4.7738796037e+00    0.2762928    0.1057238  31.62  0.001362379    2.700    0.630
        58 -12.8043     37.6055    249.2882   1.0516451926e+02   1.5369416110e+01    0.6873464    0.2983113  24.11   0.00324454    2.111    0.526
        59 -11.8444    155.6145     41.7104   3.3671247417e+01   4.0595531005e+01     0.279238    0.2551546  68.46 0.0003784526    1.132    0.116
        60 -12.2241    172.7972     44.3615   3.1894244419e+01   3.6490677933e+01    0.4228415    0.2894308  73.18  0.001034635    1.373    0.271
        61 -12.0287    174.0334     39.8070   3.0657694215e+01   3.6798979850e+01    0.2979211    0.2227598  72.17 0.0002696384    1.242    0.195
        62 -10.9979     86.8556     98.4047   6.6732093002e+01   4.5802592258e+01    0.3898231    0.3147715  17.45   0.00194301    1.270    0.213
        63 -11.8348     53.4893     99.6919   7.9570852937e+01   5.0917464359e+01    0.3296961     0.242408  13.58 0.0001712286    1.376    0.273
        64 -10.0597    217.5891     99.1961   3.7871739954e+01   1.9669395881e+01     0.172931    0.1060639 -33.77 0.0007097725    1.628    0.386
        65 -10.4321    193.7035     99.0248   4.1290473353e+01   2.4009869105e+01    0.2506409    0.1910388  55.24  0.001408379    1.435    0.303
        66 -11.3491    169.5479     97.5500   4.5101543757e+01   2.9009868475e+01    0.3939895    0.3174942  82.97  0.001906069    1.428    0.300
        67 -13.2089    127.2205     90.7315   5.2603403529e+01   3.9196840099e+01    0.8607109    0.4509887 -35.46  0.003525429    2.128    0.530
        68 -11.4235    135.0125     98.0163   5.2601879112e+01   3.6137178598e+01    0.2983199     0.283471  56.02  0.001403293    1.052    0.049
        69 -12.7923    130.8472     96.1179   5.3131131051e+01   3.7388032590e+01    0.5137573    0.4101868 -11.54  0.002395504    1.545    0.353
        70 -12.3124    104.4585     86.9999   5.7839553426e+01   4.4731351430e+01    0.6013539    0.3320218 -50.81  0.002021535    2.035    0.509
        71 -13.2087    105.9261     93.9969   5.9384323586e+01   4.3022579601e+01    0.8205439    0.5956346 -40.79  0.003833911    1.421    0.296
        72 -10.8044     81.0636     99.1275   6.8944342673e+01   4.6690536104e+01    0.2470426    0.2056546  -2.82  0.001239601    1.272    0.214
        73 -11.1378    200.4973     96.6941   3.9753277851e+01   2.3126819602e+01    0.3020341    0.1956236 -49.62 0.0008595917    1.393    0.282
        74 -11.3201    140.8896     97.0241   5.0949392846e+01   3.5083387125e+01     0.322304    0.2984193  66.60  0.001227238    1.103    0.093
        75 -11.1857     11.9540     97.5921   9.6782223285e+01   5.5576689906e+01    0.2775321    0.1874308 -58.96 0.0005578111    1.326    0.246
        76 -10.9994     73.2256     96.7619   7.1135409770e+01   4.8582443310e+01    0.2180168    0.1734013 -13.28  0.001070002    1.351    0.260
        77 -11.4430     62.9323     95.3654   7.4681532658e+01   5.0565013735e+01    0.2858832    0.2133789 -40.50 0.0005174093    1.319    0.242
        78 -11.7812     50.2539     95.3529   7.9792753780e+01   5.2390323428e+01    0.2579249     0.252152  20.48 0.0002609598    1.147    0.128
        79 -10.9893    246.9902     94.8187   3.3540853073e+01   1.5575361653e+01    0.1923914    0.1451005 -43.63 0.0002304587    1.113    0.102
        80 -10.4324     68.6887     94.8118   7.2304951180e+01   4.9778089602e+01    0.2790581    0.2007504  36.67 0.0004588383    1.381    0.276
        81 -11.2234    100.8274    101.6351   6.3047816424e+01   4.2432562028e+01    0.2654253    0.2121147 -41.29 0.0002086996    1.276    0.216
        82 -12.3038    188.4835     92.9292   4.0778606487e+01   2.6031014717e+01    0.3590348    0.2593955 -59.72  0.001165619    1.388    0.280
        83 -11.0225    195.0459     93.5231   3.9890246941e+01   2.4670546342e+01    0.1829498    0.1275699  58.12 0.0004567724    1.560    0.359
        84 -11.4915    183.4983     91.8156   4.1333793425e+01   2.7195795208e+01    0.2767662    0.2095255  12.80  0.001360971    2.040    0.510
        85 -11.9086     95.6573     89.5185   6.1300516535e+01   4.6008999554e+01    0.5079489    0.3862526  65.02 0.0005050743    1.667    0.400
        86 -11.8625     48.6834     85.0631   7.7707391773e+01   5.4990768507e+01    0.3260489    0.2918386 -67.38  0.001098345    1.340    0.254
        87 -12.3811     52.6137     89.7261   7.7325698860e+01   5.3384316238e+01    0.4386593    0.3264216  71.21  0.001553904    2.078    0.519
        88 -12.1859     53.1404     86.3220   7.6165083271e+01   5.4085853687e+01    0.4928716     0.222297  23.50  0.001661452    2.367    0.578
        89 -11.4625    174.2125     89.9730   4.2481228363e+01   2.9374084154e+01    0.4010041    0.3083208 -61.16  0.001510052    1.319    0.242
        90 -11.4978    176.2915     85.3413   4.1044643404e+01   2.9724051559e+01    0.4807783    0.3129885 -23.10  0.002284113    2.060    0.514
        91 -11.6278     61.8201     90.4899   7.3782258377e+01   5.1850986061e+01    0.2759752     0.211892 -45.47  0.001088176    1.311    0.237
        92 -11.1751    213.7320     89.8748   3.6499565121e+01   2.1810688457e+01    0.2539457    0.1410546  57.52  0.001368772    2.029    0.507
        93 -12.9240     66.9979     83.0620   6.9590210148e+01   5.2648417690e+01    0.8615106    0.6533051  74.99   0.00266804    2.102    0.524
        94 -12.2922     24.7384     43.3701   7.6002618654e+01   6.6570957369e+01    0.6780752    0.4291303 -25.42  0.002776459    1.518    0.341
        95 -11.8260     26.5170     36.0758   7.2158415340e+01   6.7652501661e+01    0.3936386    0.2589875  -6.77 0.0006050695    1.518    0.341
        96 -11.2034    180.0133    242.9747   7.1410729579e+01  -2.6992354645e-01    0.1740974    0.1545453  42.39 0.0007331063    1.686    0.407
        97 -11.4737    243.4814    242.5088   5.9517589767e+01  -6.6650116116e+00    0.1942947   0.08759549  11.01  0.001044187    2.471    0.595
        98 -13.7498     79.4174     60.1425   5.7570237132e+01   5.4799290796e+01     1.549066    0.8572671 -41.96  0.006426276    1.970    0.492
        99 -11.6184    219.2053    240.3122   6.3378769945e+01  -4.0675923615e+00    0.3200961    0.2082749  -7.76  0.002067012    1.270    0.213
       100 -10.2328    110.4479    240.4921   8.6806225170e+01   8.7600431102e+00    0.1355093    0.1162003  15.08 5.499251e-05    1.005    0.005
       101 -12.9576     74.7418     42.8455   5.3057127217e+01   5.8487844437e+01     0.486752    0.3677062  20.05  0.002691763    1.366    0.268
       102 -11.3670     15.7605    238.5880   1.0953337856e+02   1.9707302289e+01    0.2701818    0.1784279 -59.48 0.0007093738    1.693    0.409
       103 -11.9860    169.2455     79.6344   4.0893839997e+01   3.2120497818e+01    0.5225597    0.4322121 -66.68  0.002367672    1.201    0.167
       104 -10.0816    166.2382     89.4336   4.3786988176e+01   3.1110420179e+01    0.2609404    0.1950037  85.56 0.0008379061    1.622    0.383
       105 -11.9386    162.5505     84.2805   4.3221254726e+01   3.2763720053e+01    0.5130454    0.4105418  67.72  0.002206747    1.284    0.221
       106 -11.8459    148.2769     85.1707   4.6267614308e+01   3.5666397460e+01    0.6275257    0.4293908  86.17  0.002871856    2.081    0.520
       107 -11.1353    148.5191     81.1096   4.5169867788e+01   3.6316374191e+01    0.4362363    0.2915614 -66.48  0.001648861    1.886    0.470
       108 -12.1934    137.4721     87.7047   4.9310398982e+01   3.7551300240e+01    0.5110267     0.291793  56.73  0.001566929    1.841    0.457
       109 -12.1223    139.5681     80.6985   4.6972155979e+01   3.8341804472e+01    0.4334024    0.3044236 -46.96 0.0008634776    1.456    0.313
       110 -14.2920      8.6652     67.8922   9.2260958502e+01   6.2895080250e+01     1.167009     1.048233 -37.11  0.007459516    1.126    0.112
       111 -10.0947    232.9931     85.9922   3.3424517689e+01   1.9091008472e+01    0.1781504     0.144364 -50.39 0.0004629277    1.047    0.045
       112 -10.3354    223.8397     87.3667   3.4741563186e+01   2.0427004326e+01    0.1508905    0.1092367  48.09 0.0007348824    1.719    0.418
       113 -12.2297      5.2903     85.4114   9.7594702172e+01   5.8965303316e+01    0.5408429    0.1703355 -60.77  0.002123921    2.487    0.598
       114 -11.5475    212.4861     83.8833   3.5439669113e+01   2.2956335571e+01    0.2765138     0.201982  25.21  0.001281001    2.241    0.554
       115 -12.5742    195.5177     84.6377   3.7892730375e+01   2.6012765844e+01    0.3581413    0.2886572 -31.08 0.0004804707    1.353    0.261
       116 -12.0648    114.5462     80.7303   5.3140474321e+01   4.3796215966e+01    0.4698031    0.3440898  40.61  0.002341753    1.327    0.247
       117 -10.3596     98.0392     80.8903   5.8010787911e+01   4.7245069801e+01    0.5652571    0.3261877 -23.45  0.002215115    2.536    0.606
       118 -10.9417     95.7274     74.5889   5.6821947929e+01   4.8911491571e+01    0.3843046    0.3433008  82.60  0.001043607    1.352    0.260
       119 -12.5092     94.9220     67.4386   5.4834703740e+01   5.0367176445e+01    0.9304615    0.7102708 -72.90  0.004569089    1.870    0.465
       120 -11.3708     93.6351     59.9318   5.2808540528e+01   5.1913023837e+01    0.3689291    0.3049566 -63.25  0.001364387    1.506    0.336
       121 -10.5973     82.0350     79.1979   6.2815379851e+01   5.0748971117e+01    0.2969689    0.2383766   7.35 0.0005084182    1.346    0.257
       122 -12.1791     87.8097     73.7298   5.9126665908e+01   5.0681277637e+01    0.6436398    0.4725682 -16.37 0.0007815235    1.638    0.390
       123 -12.0533    104.1399     75.3198   5.4488784928e+01   4.7013971383e+01    0.5016469    0.3488603  23.98 0.0002701169    1.712    0.416
       124 -10.3248    100.0118     74.2865   5.5406109734e+01   4.8074342869e+01     0.206835     0.179055  41.62 0.0001711461    1.085    0.078
       125 -11.2636     90.5845     52.0263   5.1107278270e+01   5.3818116313e+01    0.5202323    0.2853377 -27.47  0.001358206    2.241    0.554
       126 -10.1626     94.0437     49.5545   4.9223440486e+01   5.3446983294e+01    0.2643075    0.1858388 -45.82  0.001005731    1.641    0.390
       127 -10.7328    159.8924    219.7166   7.2086362284e+01   6.3480870153e+00     0.217948    0.1820164 -33.42  0.000302211    1.236    0.191
       128 -11.3150    237.3987     86.1304   3.2969265038e+01   1.8350682613e+01    0.2384423    0.1866623  88.49 0.0005742784    1.427    0.299
       129 -12.6866    215.8865     77.5512   3.3738734924e+01   2.3290642347e+01    0.4319979      0.28323 -50.51  0.001697422    1.303    0.233
       130 -11.6035    226.1817     75.3775   3.2138714217e+01   2.1786512200e+01    0.2175566    0.1580444 -44.21 0.0006263312    1.213    0.176
       131 -11.9303    219.2374     75.3627   3.2910313597e+01   2.3009663798e+01    0.2797887    0.1937321  86.85  0.001300919    1.634    0.388
       132 -11.6323    232.2823     76.0051   3.1608226604e+01   2.0654613053e+01    0.3755213    0.1763062 -29.43  0.001759489    2.886    0.653
       133 -11.1151    217.0114     84.4912   3.4997921424e+01   2.2052832195e+01    0.2503313    0.1610524 -81.25  0.001373077    2.010    0.503
       134 -10.8129    155.0299     76.8969   4.2798253990e+01   3.5607093174e+01     0.379435    0.2289465  47.19  0.001339244    1.717    0.418
       135 -11.6829     79.9675     73.0741   6.1634130238e+01   5.2340107262e+01     0.509007    0.4092792  10.91  0.002518008    1.309    0.236
       136 -11.5325     66.1378     74.5043   6.7300676909e+01   5.4572839302e+01     0.597542    0.2005941  34.15  0.002020816    2.942    0.660
       137 -11.3795     72.9303     75.3162   6.4929664435e+01   5.3212747425e+01    0.3506587    0.3101703 -55.63   0.00121562    1.325    0.245
       138 -10.6130     71.0245     71.1979   6.4338816483e+01   5.4366975709e+01    0.3500443    0.2208556  51.22  0.001586722    1.858    0.462
       139 -13.8670    176.6819     70.2116   3.7444660450e+01   3.2041774794e+01     1.304672    0.7339129  74.97  0.006163742    2.175    0.540
       140 -12.2441    161.2118     67.1576   3.9221438738e+01   3.5806088683e+01    0.5526636    0.2894855 -44.42  0.000214706    1.877    0.467
       141 -11.1661    165.5386     64.7644   3.7903462266e+01   3.5229757545e+01    0.3770045    0.2550358 -60.07  0.001205648    1.544    0.352
       142 -14.1884    192.2764     78.1712   3.6943749810e+01   2.7655175616e+01     1.318186     0.694515  53.76  0.006640491    2.028    0.507
       143 -10.2800    249.9532     67.5357   2.8367686839e+01   1.8942281020e+01    0.2031515    0.1382974 -33.39  0.001376079    1.585    0.369
       144  -9.7099    237.2633     72.9604   3.0530406289e+01   2.0251191839e+01    0.1526463    0.1197387 -51.77 0.0002229984    1.064    0.060
       145 -11.5668    223.0156     77.5219   3.2907334619e+01   2.2028120489e+01    0.2426883     0.160403 -65.97  0.001295754    1.517    0.341
       146 -10.0890    152.6933    124.0091   5.4828749036e+01   2.7324332907e+01    0.2383071    0.2011488  79.45 0.0006645407    1.466    0.318
       147 -11.7874    241.9809     62.4713   2.8163438111e+01   2.0899122320e+01    0.3702954    0.2420569  36.00  0.002047356    2.924    0.658
       148 -10.4266    240.5975     68.7071   2.9425046993e+01   2.0287749278e+01     0.295823    0.1533456 -35.43  0.001694062    1.900    0.474
       149  -9.4754    243.8369     65.3404   2.8516501261e+01   2.0213672977e+01    0.1635546   0.09562338  53.08 0.0008253431    2.223    0.550
       150 -12.2152    236.5484     62.2835   2.8620416248e+01   2.1827890447e+01    0.3693949    0.2681461 -17.33   0.00232757    2.159    0.537
       151 -11.1220    102.6936     67.3525   5.2469528357e+01   4.8731029729e+01    0.3378043    0.2481561   4.88 0.0009067217    1.844    0.458
       152 -10.9710    104.7749     60.5864   4.9756656977e+01   4.9402213604e+01    0.4323399    0.2781842  68.23   0.00196844    1.964    0.491
       153  -9.7161    147.6756    123.1051   5.5778466316e+01   2.8494477681e+01    0.2011061    0.1816845 -33.22 0.0003097401    1.081    0.075
       154 -10.3943    243.3975     55.0277   2.6701290729e+01   2.1637685848e+01    0.2251859    0.1768075  17.23   0.00126535    2.508    0.601
       155 -10.4004    249.2643     56.2586   2.6440022491e+01   2.0527222287e+01    0.2694387    0.1279491  52.20  0.001531597    2.955    0.662
       156 -11.4938    101.3294     53.3795   4.8405040587e+01   5.1282891423e+01    0.6039951    0.2176877  48.28  0.001245298    2.465    0.594
       157 -10.3278    249.9072     50.0069   2.5298176396e+01   2.1214095123e+01    0.1921772     0.139939  81.96  0.001279438    1.454    0.312
       158 -10.9312    100.5324     46.5984   4.6393068405e+01   5.2450507627e+01    0.4817891    0.2057978  52.15  0.001738616    2.068    0.516
       159  -9.5444    104.8409     43.3535   4.4187017150e+01   5.1935875157e+01    0.2110854    0.1068662  46.73 0.0009482589    1.791    0.442
       160 -10.6675    242.0994     43.9510   2.4828764736e+01   2.3242111718e+01    0.1697699    0.1194505 -53.21 0.0003350947    1.128    0.113
       161 -10.0511    217.4755    120.3936   4.2108745387e+01   1.6218275522e+01    0.2283615    0.1614073 -78.51 0.0005345782    2.055    0.513
       162 -10.8406    213.6698     42.6434   2.6978381214e+01   2.8451738185e+01    0.2831943    0.1827629 -65.63 0.0008861977    1.381    0.276
       163 -10.4325    211.0059     38.3010   2.6359118911e+01   2.9488509400e+01    0.1907406    0.1439817 -68.69 0.0002733878    1.097    0.088
       164 -10.3715    112.4443     39.6985   4.1164856671e+01   5.0692809100e+01    0.3257728    0.2243682   8.85  0.001079109    2.180    0.541
       165  -9.2103    101.3331     40.3038   4.4079188336e+01   5.3129699076e+01    0.1404906   0.09580109  30.36 0.0007037277    1.660    0.398
       166 -10.0532     90.9656     38.9643   4.6461043839e+01   5.5603023664e+01    0.2670409    0.2012001 -71.33  0.001339497    1.889    0.471
       167 -12.0416     92.5754     32.3587   4.3670941400e+01   5.6087187832e+01    0.4773568    0.3294367 -10.87  0.002548424    1.871    0.465
       168 -10.3413     39.5546     39.8209   6.6758375605e+01   6.5231312758e+01    0.2439834    0.1677764  26.53  0.001038685    1.282    0.220
       169  -9.3179     97.2766     39.2920   4.4811378476e+01   5.4168113186e+01    0.1328092   0.09630275  28.15            0    1.523    0.343
       170  -9.7818    226.1732     37.8647   2.4969279540e+01   2.6739200144e+01    0.1762292    0.1141336 -62.53 0.0006171952    1.277    0.217
       171 -10.2160    135.3015     37.3753   3.5835194083e+01   4.5737971079e+01    0.2151782    0.1403298 -57.14 0.0005469212    1.717    0.418
       172 -10.8133    232.3927     35.3313   2.4013485249e+01   2.5939524154e+01     0.302704     0.144568 -67.32   0.00102793    2.124    0.529
       173  -9.7558    235.4492     34.4699   2.3629752683e+01   2.5509600792e+01    0.1604781   0.09539246 -66.60 0.0004872105    1.446    0.308
       174 -10.6743    111.9791     33.7097   3.9358931744e+01   5.1540444797e+01    0.3440677    0.2429328  -3.44  0.001819555    1.989    0.497
       175 -11.3105    113.5462     28.0767   3.7223389009e+01   5.1831530217e+01    0.4393456    0.2624909  70.60  0.001478379    1.634    0.388
       176 -10.8147    132.0381     33.5316   3.5317377882e+01   4.6948225228e+01     0.252938    0.2108521  70.26 0.0007960625    1.052    0.049
       177 -12.1655    218.7676     30.0992   2.4091940704e+01   2.9002002808e+01    0.3369856    0.2788615  86.21  0.001196641    1.225    0.184
       178 -10.3146    219.7957     23.9323   2.2839712744e+01   2.9509747788e+01    0.2158307    0.1591041  86.84 0.0009569185    1.250    0.200
       179  -9.6673    206.3086     31.9339   2.5503583490e+01   3.1147813004e+01    0.1544011    0.1261481 -61.71 0.0004296152    1.102    0.093
       180 -12.8761    191.1275     67.5670   3.4762598673e+01   2.9478409960e+01    0.6057484    0.5050999 -72.17  0.002339863    1.100    0.091
       181 -10.4068     39.0093     31.0043   6.3344946391e+01   6.6705906214e+01    0.4271403    0.2115615  31.79  0.002082001    1.787    0.440
       182 -10.9517     43.0392     28.3673   6.0211961788e+01   6.6441724611e+01    0.4677745    0.2347626  49.02  0.001798375    2.392    0.582
       183 -11.0897     35.8828     25.0591   6.2298822250e+01   6.8061063178e+01    0.4710159    0.2695116  21.66  0.002460203    1.684    0.406
       184 -13.3299    138.9248     71.4327   4.4615259694e+01   4.0045553519e+01     1.347571    0.7272378  55.23   0.00610451    1.785    0.440
       185  -9.8570    146.4177     28.2581   3.1519717542e+01   4.4266287294e+01    0.3246104    0.1938026 -42.35  0.001642411    1.751    0.429
       186  -9.5587    227.7537    119.2449   4.0432752358e+01   1.4767626670e+01    0.1773044   0.09799493  37.62 0.0009153857    2.471    0.595
       187 -10.2426    140.3891     29.1532   3.2680817852e+01   4.5537573610e+01    0.2350836    0.1582076  78.77 0.0006323392    1.400    0.286
       188 -11.5560     97.5619     21.2259   3.8475682064e+01   5.6219305332e+01    0.2584002    0.2373359 -61.04 0.0009195654    1.271    0.213
       189  -9.8000    102.4732     19.9882   3.6929614683e+01   5.5229282934e+01    0.1995721    0.1457207  28.15 0.0003747428    1.580    0.367
       190 -10.4506    105.6964     28.0646   3.8924682300e+01   5.3631838546e+01    0.3806945    0.2350429  85.32  0.001809601    2.207    0.547
       191 -10.4277    102.4406     24.2920   3.8399005893e+01   5.4788411311e+01    0.2336506    0.1774261   6.73  0.001010895    1.692    0.409
       192 -11.0650     86.5304     28.6609   4.4020009473e+01   5.7860555659e+01    0.2887225     0.195374  47.18 0.0008565095    1.255    0.203
       193  -9.9962    123.3967     26.6676   3.4858663910e+01   4.9717216286e+01    0.2988744     0.178323 -49.58  0.001563227    1.904    0.475
       194  -9.1163    131.6419     27.3012   3.3588360464e+01   4.7748392097e+01    0.2107899    0.1445207  84.76 0.0006560368    1.479    0.324
       195 -10.5648    133.3425     24.8449   3.2600291006e+01   4.7624054863e+01    0.3148898    0.1961588  84.94  0.001666547    1.688    0.408
       196 -10.2071    155.4367     24.8179   2.9373470971e+01   4.2615574767e+01     0.268378    0.1742139  40.66 0.0007350893    1.989    0.497
       197 -10.7082    164.3961    118.9093   5.1097050256e+01   2.6056231968e+01     0.237866     0.201408  37.12  0.001142967    1.255    0.203
       198 -10.6624    191.7651     23.7458   2.5126553393e+01   3.4964031984e+01    0.2950758    0.1737727 -67.72  0.001164954    1.597    0.374
       199 -10.0317    186.7820     22.9972   2.5435265774e+01   3.6066356456e+01    0.2778746    0.1208872  61.54  0.001442287    2.192    0.544
       200 -10.2084    176.0573     23.8029   2.6699500826e+01   3.8226491757e+01    0.1972322    0.1547518 -49.79 0.0005882291    1.276    0.216
       201 -10.8375    242.1069     22.2321   2.1023227183e+01   2.5762987815e+01    0.2429541    0.1504666  67.87  0.001547833    1.798    0.444
       202 -11.5311    226.4125     22.6582   2.2127303922e+01   2.8447308762e+01    0.2529118    0.1617976  79.72  0.001730795    1.495    0.331
       203  -9.9241    182.7987    115.9527   4.6845349421e+01   2.3089726482e+01    0.2329752    0.1504191 -64.50  0.001088775    1.997    0.499
       204  -9.9716    212.0496     15.0947   2.1717859890e+01   3.1909547851e+01    0.1579645    0.1282898 -53.59 0.0003800805    1.236    0.191
       205  -9.7490    134.2919     19.6733   3.0978912662e+01   4.7943798090e+01    0.2171878    0.1073749  72.62 0.0006689244    1.855    0.461
       206 -10.4807     90.9281    115.9731   6.9972359076e+01   4.1042429815e+01    0.2272956    0.2172109   4.82 0.0002879981    1.009    0.009
       207 -10.2947    119.1513     22.3647   3.4330001476e+01   5.1154345524e+01    0.5219844    0.1731903  66.94  0.001994798    2.894    0.654
       208 -10.3686    117.5018     19.1223   3.3628803832e+01   5.1863906783e+01    0.4863511    0.1984131  44.22   0.00205852    2.717    0.632
       209 -10.1999    200.5600     20.8471   2.3747140519e+01   3.3518486823e+01    0.3164758    0.1705939  53.43  0.001810917    2.288    0.563
       210  -9.7479    180.1627     21.1867   2.5682781255e+01   3.7640368324e+01    0.1754979    0.1146526 -71.07  0.001076213    1.416    0.294
       211 -10.7496    126.1132     20.5269   3.2541678402e+01   4.9737432164e+01    0.2225187    0.1753216 -86.21 0.0006291834    1.269    0.212
       212  -9.8087    154.5836     20.3176   2.8337892372e+01   4.3282371809e+01    0.1531081    0.1215014 -11.44 0.0006732246    1.739    0.425
       213  -9.6616     14.4918     20.1125   7.2455625551e+01   7.1679282898e+01    0.1717649    0.1109444 -36.91  0.001028302    1.577    0.366
       214 -10.1045    129.8684     19.1412   3.1518459117e+01   4.9012695367e+01    0.2109395     0.150049  64.98  0.001261211    1.196    0.164
       215 -10.1892    225.5436     18.2831   2.1384631134e+01   2.9079554630e+01    0.2883498    0.1309991 -86.35  0.001609667    2.335    0.572
       216  -9.8942    112.2040     17.4819   3.4102552649e+01   5.3245787592e+01    0.2866991    0.1628156  88.85  0.001344962    2.321    0.569
       217  -9.8549    167.4612     15.9482   2.5780470348e+01   4.0896055671e+01    0.2743653    0.1290722 -86.12  0.001282453    2.509    0.601
       218 -10.2386    204.5124    116.7192   4.3333463872e+01   1.9026231428e+01    0.2100131    0.1803478  56.10 0.0006256366    1.332    0.249
       219 -11.9039    133.1811    111.8850   5.6596813700e+01   3.3730673956e+01    0.3707447    0.3385609 -72.91  0.001929582    1.206    0.171
       220  -9.8121    160.0906     14.1094   2.6136540999e+01   4.2687590829e+01    0.1599527    0.1383008  79.04 -0.0009232552    1.123    0.110
       221  -9.1621    102.6134     14.7904   3.5132590580e+01   5.5703352477e+01     0.132891   0.07488361  47.35 0.0006820735    1.603    0.376
       222 -10.7990     96.7520    110.4248   6.6667280629e+01   4.1261635483e+01     0.393375    0.2042823 -38.84  0.001202621    2.090    0.521
       223 -10.8601     65.4777    110.0449   7.7470603361e+01   4.6684177422e+01    0.2362897    0.1473724 -52.48  0.001032373    1.593    0.372
       224 -10.1271    134.6890     12.9739   2.9030684921e+01   4.8503131147e+01    0.2111924    0.1414353  57.41 0.0006593787    1.362    0.266
       225 -10.0034    216.8486    109.1115   3.9955131544e+01   1.8194582285e+01    0.1941119    0.1458309 -56.89  0.000556843    1.266    0.210
       226  -9.8195     26.6385    108.8335   9.2615248002e+01   5.1627033958e+01    0.1919427    0.1333641 -77.88  0.000268836    1.617    0.382
       227  -9.2954    245.5905    108.5492   3.6190109184e+01   1.3735568239e+01    0.1165975   0.09043467 -46.97 7.522382e-05    1.019    0.018
       228 -10.7902    195.3749    105.7353   4.2472732463e+01   2.2556947464e+01    0.3319317    0.1913235 -52.12 0.0008316251    1.694    0.410
       229 -10.6937     91.9864    107.0179   6.7328167726e+01   4.2923832548e+01    0.2250016    0.2164287  10.48            0    1.024    0.024
       230  -9.9997    184.1413    105.8383   4.4368595225e+01   2.4655409366e+01    0.2032236    0.1732719 -67.46 0.0005510995    1.210    0.173
       231 -10.6737    158.9368    104.0585   4.8740752386e+01   2.9988808988e+01    0.2280593    0.1795446   0.94 0.0008376086    1.714    0.416
       232 -11.2110    110.0250    103.6965   6.0812785909e+01   4.0163109169e+01    0.2834548    0.2243531 -34.07 0.0004209441    1.312    0.238
       233 -10.8910    165.7204    102.6379   4.7034475696e+01   2.8869888325e+01    0.2682282    0.1692313 -32.45  0.001230295    1.722    0.419
       234 -10.3876    144.2301    102.9870   5.1690187483e+01   3.3235566639e+01     0.298173    0.2159028  37.46  0.001461472    1.465    0.317
       235  -9.7426     29.2970    103.3161   9.0432941016e+01   5.2793816417e+01    0.1547114   0.09567192 -32.46 0.0003283478    1.608    0.378
       236  -9.4375    240.5213    102.4917   3.5663565156e+01   1.5420636329e+01    0.1178621    0.0938515 -48.51 0.0002564663    1.001    0.001
       237 -11.0136    208.5505    100.7920   3.9440071430e+01   2.0993626755e+01    0.2995296    0.1951269 -28.30  0.001398491    1.746    0.427
       238 -11.2526     75.7100    102.0204   7.1643332570e+01   4.6958374713e+01    0.2189925    0.1974233 -30.85 0.0005521441    1.096    0.088
       239  -9.0041    226.2632    101.3510   3.7172054695e+01   1.7868588023e+01    0.1150328   0.08862462 -19.72 0.0003565064    1.614    0.381
       240 -11.8064    151.3506     98.0720   4.8877950417e+01   3.2679626196e+01     0.519962    0.3961999 -22.57  0.002634567    1.556    0.357
       241 -12.7147    207.4540     45.7094   2.8196603524e+01   2.9248567360e+01    0.7697687    0.4361731 -60.98 0.0004756846    1.660    0.398
       242 -11.2152    147.8259     38.4771   3.4032359815e+01   4.2749252111e+01    0.8233547    0.3976136 -41.11   0.00306382    2.119    0.528
       243 -13.9830    124.2178     83.2433   5.1308220375e+01   4.1242306971e+01     2.093503     1.304994 -12.87  0.008107195    2.896    0.655
       244 -11.2922    160.0818    249.2007   7.6569713870e+01   1.0072114462e+00    0.2431493     0.161538  35.66  0.001381616    1.633    0.388
       245 -13.5450    170.6998     54.4366   3.4594453619e+01   3.5600403311e+01     1.403717     0.595737  59.41  0.006374572    2.243    0.554
       246 -12.7573    185.3442     47.9508   3.1127718409e+01   3.3377887072e+01    0.9213628    0.5516015 -86.05  0.002932705    1.911    0.477
       247 -11.4264    112.6989    246.9206   8.7077891856e+01   7.2182000782e+00    0.4430646    0.1531442 -42.23  0.001685474    3.432    0.709
       248 -11.5603     12.6695    248.2252   1.1073347445e+02   1.7935134769e+01    0.2393699    0.2082129 -74.90  0.001638184    1.288    0.224
       249 -13.3190    204.2217     69.9620   3.3590910626e+01   2.6567165523e+01    0.7314759     0.498629  85.15  0.002588007    1.626    0.385
       250 -14.3436    211.8581     59.6802   3.0582722061e+01   2.6571152617e+01     1.787923     1.023768  70.64   0.00824844    1.849    0.459
       251 -10.9257    214.5621    246.6913   6.5214455885e+01  -4.5508093957e+00    0.2124552   0.09146784 -35.78  0.001033002    2.012    0.503
       252 -11.9884      3.1393    247.8434   1.1279556505e+02   1.8823125653e+01    0.5131268    0.2942768  84.46  0.003012767    1.728    0.421
       253 -11.8534    227.4670    242.5931   6.2258870638e+01  -5.2078489920e+00    0.2308344    0.1903665 -27.87  0.001478866    1.453    0.312
