#   1 NUMBER                 Running object number                                     
#   2 MAG_AUTO               Kron-like elliptical aperture magnitude                    [mag]
#   3 X_IMAGE                Object position along x                                    [pixel]
#   4 Y_IMAGE                Object position along y                                    [pixel]
#   5 X_WORLD                Barycenter position along world x axis                     [deg]
#   6 Y_WORLD                Barycenter position along world y axis                     [deg]
#   7 A_WORLD                Profile RMS along major axis (world units)                 [deg]
#   8 B_WORLD                Profile RMS along minor axis (world units)                 [deg]
#   9 THETA_WORLD            Position angle (CCW/world-x)                               [deg]
#  10 FWHM_WORLD             FWHM assuming a gaussian core                              [deg]
#  11 ELONGATION             A_IMAGE/B_IMAGE                                           
#  12 ELLIPTICITY            1 - B_IMAGE/A_IMAGE                                       
         1 -14.9606     68.3729    144.2976   1.0390679293e+02   3.7516904389e+01     4.685867     2.390165  74.98   0.00516342    4.423    0.774
         2 -13.7839    229.4306     16.1178   3.5258587512e+01   2.6287866644e+01     1.025389    0.8330306  47.05  0.002692667    1.571    0.363
         3 -13.5713    202.6051     39.8852   4.3766967370e+01   2.9626943761e+01     1.277645     1.052062  13.65  0.005018569    1.637    0.389
         4 -13.5903    210.7370     34.4486   4.1405317344e+01   2.8389171206e+01     1.139528    0.8361722 -43.40  0.004709742    1.322    0.244
         5 -12.6999    218.2016     27.2797   3.8861229883e+01   2.7531691002e+01    0.5763007    0.4498202  46.09  0.001254233    1.557    0.358
         6 -10.6324    124.4258      4.7805   4.5476208044e+01   5.2805158689e+01    0.2547284    0.2037829  80.14 0.0006344248    1.303    0.233
         7 -10.3094      2.0000      3.9423   9.2613598804e+01   7.4005640758e+01    0.2919706   0.05109842 -48.99  0.001056863    4.985    0.799
         8 -10.1560    249.3715      1.6599   3.0766088294e+01   2.3591131002e+01    0.2950309    0.1340037  83.22  0.001559621    2.098    0.523
         9  -8.9915     61.3714      1.2982   6.0887422706e+01   6.6701188095e+01    0.1353424   0.07444634  24.17 0.0007029378    1.740    0.425
        10 -11.8574     64.9542    173.8327   1.0924897156e+02   3.0793931257e+01    0.3369136    0.2695531 -45.42 0.0006015038    1.438    0.304
        11 -13.4923     38.6630    232.5634   1.2066211104e+02   2.1231079601e+01     1.088935    0.6326087  74.19  0.003824046    1.556    0.357
        12 -13.8354      4.4982    185.3983   1.2446123982e+02   3.4451204517e+01     1.411784    0.7845446  87.17  0.008440686    1.502    0.334
        13 -14.3202     85.7528    228.5564   1.1087242771e+02   1.5973057562e+01     2.252745     1.206574  40.32  0.007923615    1.596    0.373
        14 -15.6336     69.8555    247.6860   1.1582302369e+02   1.4536602435e+01     9.241347     2.703928  28.95   0.01969452    7.319    0.863
        15 -14.6273      9.0155    207.2141   1.2482610400e+02   2.9395524510e+01     1.146436     1.023409   3.93   0.00530295    1.696    0.410
        16 -11.6848     75.0106    164.0760   1.0527235693e+02   3.1753019857e+01     0.356837    0.2904118  47.81 0.0003781111    1.215    0.177
        17 -13.0301     81.7488    157.8120   1.0247117232e+02   3.2286711191e+01     1.242633    0.9166192  69.44  0.001382111    1.505    0.336
        18  -9.3360    174.6163    248.8369   9.5148602616e+01  -1.2012805456e+00    0.1449382    0.1207715 -60.21 0.0006083624    1.738    0.425
        19  -9.5828    125.1181    154.3275   9.0195530730e+01   2.5679986314e+01    0.2088178    0.1881438  51.53 0.0003444162    1.107    0.097
        20 -10.8048    133.7795    144.8422   8.5889997212e+01   2.6166672792e+01     1.133959      0.27065 -54.50  0.002303313    7.545    0.867
        21  -9.0384    174.6972    149.3203   7.6928223235e+01   1.6729151577e+01     0.149693    0.1248601 -87.86 0.0003786585    1.629    0.386
        22 -11.1800     54.1751    148.0815   1.0851245665e+02   3.8390039515e+01    0.3313283    0.1788895 -74.58  0.001502893    1.868    0.465
        23 -12.3467     30.7047    143.8754   1.1443619309e+02   4.1890084358e+01     0.464233    0.3620707   1.87  0.002766317    1.691    0.409
        24 -10.7177     96.9807    143.3145   9.5583784178e+01   3.3387981312e+01    0.2976719    0.2884891   3.69 0.0009554831    1.104    0.094
        25  -9.7390    100.2339    140.1293   9.4010484029e+01   3.3602467202e+01    0.3768511    0.2494799 -23.94  0.001564522    2.164    0.538
        26 -12.1725     85.0947    141.8034   9.8666381003e+01   3.5691614530e+01    0.3120342    0.2665907 -47.46 0.0003930604    1.176    0.149
        27 -11.9059     74.5595    135.7185   1.0056665894e+02   3.8773499868e+01     0.543654    0.3204238  62.15  0.002263311    2.310    0.567
        28 -12.0005     66.9534    127.3283   1.0123984876e+02   4.1909328649e+01    0.6464808    0.3162753 -70.99  0.002508523    2.450    0.592
        29 -10.9367    107.4317    131.4728   9.0069692615e+01   3.4396967468e+01    0.4882219    0.3587802  37.16  0.001671724    1.382    0.276
        30 -10.6388    137.5947    170.6811   9.0316771741e+01   1.9613098598e+01    0.2623592    0.2415521  31.90  0.001011634    1.045    0.044
        31 -11.1844    135.6161    127.3177   8.1287228131e+01   2.9772519799e+01    0.7065691    0.1586424 -48.75  0.001722566    4.829    0.793
        32 -13.5109     31.2900    206.9329   1.2031705019e+02   2.7278894624e+01    0.7418762    0.5035586 -45.54  0.004350411    2.067    0.516
        33 -10.6466     96.1460    127.7168   9.2504931214e+01   3.7315160005e+01    0.3308747    0.2584388 -14.94 0.0007769192    1.597    0.374
        34 -10.2704    115.5513    125.3249   8.6310234236e+01   3.4311115850e+01    0.2683479    0.1959373  13.93 0.0009091081    1.749    0.428
        35 -13.4315     62.1172    160.1497   1.0810810817e+02   3.4451134719e+01    0.5423428    0.3096762 -45.06  0.001830464    2.004    0.501
        36  -9.6763    106.0688    119.9952   8.7757799291e+01   3.7375573114e+01    0.2245739    0.2104297 -16.95 -0.001320134    1.098    0.089
        37  -9.4304    168.0443    113.0336   6.9594619757e+01   2.5642823119e+01    0.2593078    0.1989447 -81.51  0.001132831    1.816    0.449
        38 -10.0132    205.2203    110.6179   6.1309020264e+01   1.7675744942e+01    0.3346587    0.2484942  34.51  0.001143429    1.497    0.332
        39 -10.5174    134.5430    104.7602   7.5683914986e+01   3.4978496606e+01    0.4952425    0.1552403 -41.93  0.001463201    3.240    0.691
        40 -10.4336     52.8151     93.1707   9.8540183430e+01   5.1957905683e+01    0.2034574    0.1513617 -30.76 0.0009230032    1.347    0.258
        41  -8.9571    183.7088     78.0494   5.6910773020e+01   2.8478545028e+01    0.2762181    0.1531169  25.70 0.0008984178    3.565    0.720
        42 -11.0824     13.5401     60.3013   1.0591724460e+02   6.2810528781e+01    0.2255357    0.1961353 -54.41 0.0004639518    1.170    0.145
        43 -10.5350     40.8023     58.8504   9.3795616417e+01   6.0854329757e+01    0.3414982    0.2087066  44.35   0.00173029    2.219    0.549
        44  -9.2082     21.8366     56.6475   1.0135297906e+02   6.3027378550e+01    0.1610727    0.1071788  29.56 0.0009415699    1.778    0.437
        45  -9.1357     17.6555     55.2842   1.0282596342e+02   6.3608315619e+01    0.1090596   0.09407735  64.60 0.0006919109    1.643    0.391
        46 -13.6756     17.9344    218.6941   1.2375525808e+02   2.6195576622e+01    0.9941674    0.4341666  49.39  0.002534566    1.867    0.464
        47 -16.2506     34.5647    187.9882   1.1807081449e+02   3.1093454667e+01     9.316257     3.452564  82.89   0.03006984    5.018    0.801
        48  -9.9111    113.1066    207.8329   1.0236254446e+02   1.5967276769e+01    0.2131714    0.1693155  61.50 0.0007084013    1.252    0.202
        49 -10.8429    192.8731    194.7347   8.2422440157e+01   4.5281821493e+00    0.8588865    0.4440766 -62.60  0.002271652    7.589    0.868
        50 -10.9089    134.7885     41.5184   5.6016670670e+01   4.6262331322e+01    0.3890506    0.2722063 -77.71 0.0008201303    2.104    0.525
        51  -9.6735    189.5223     15.0985   3.8990436192e+01   3.5742168281e+01     0.185267    0.1287285 -32.84 0.0006705598    1.558    0.358
        52 -15.3818      7.3599    240.3490   1.2676961971e+02   2.3010717899e+01     2.056419     1.699283  78.53   0.01687346    1.234    0.190
        53  -9.8109    109.6385    193.4438   1.0106776161e+02   1.9581790852e+01    0.2583008    0.1302089 -74.72 0.0008329572    3.248    0.692
        54 -11.8689     59.4093    179.5410   1.1134209528e+02   3.0165781443e+01    0.4099391    0.3076377 -29.22  0.001138552    1.884    0.469
