#   1 NUMBER                 Running object number                                     
#   2 MAG_AUTO               Kron-like elliptical aperture magnitude                    [mag]
#   3 X_IMAGE                Object position along x                                    [pixel]
#   4 Y_IMAGE                Object position along y                                    [pixel]
#   5 X_WORLD                Barycenter position along world x axis                     [deg]
#   6 Y_WORLD                Barycenter position along world y axis                     [deg]
#   7 A_WORLD                Profile RMS along major axis (world units)                 [deg]
#   8 B_WORLD                Profile RMS along minor axis (world units)                 [deg]
#   9 THETA_WORLD            Position angle (CCW/world-x)                               [deg]
#  10 FWHM_WORLD             FWHM assuming a gaussian core                              [deg]
#  11 ELONGATION             A_IMAGE/B_IMAGE                                           
#  12 ELLIPTICITY            1 - B_IMAGE/A_IMAGE                                       
         1 -11.6378    175.9864     44.0128   5.9445299778e+01   3.5568214057e+01     1.256844    0.8962939  36.08  0.005875842    1.557    0.358
         2 -11.9611    193.3681     13.5445   4.7569272273e+01   3.4794509150e+01    0.8920553    0.8468837   5.83  0.005345775    1.194    0.162
         3  -7.9078    222.3078      9.3420   4.3307793866e+01   2.7887004700e+01    0.1340784   0.09974141  36.35 0.0002297226    1.690    0.408
         4  -7.8429    120.7572      8.4311   5.7650053770e+01   5.3825915524e+01    0.2094277    0.1095716  48.75 0.0009585979    1.690    0.408
         5  -9.1598    179.0575      4.3560   4.6589211817e+01   3.9441855030e+01    0.2468919    0.1834843  33.02  0.000757255    1.520    0.342
         6  -8.8260    138.0781      3.6638   5.2431743806e+01   5.0040834134e+01    0.2795636    0.1941973 -22.02  0.001467957    1.539    0.350
         7  -9.0448    171.5366      3.8854   4.7405196910e+01   4.1443511799e+01    0.2512481    0.2109906 -84.95 0.0007163022    1.192    0.161
         8  -9.9666    184.8278    222.5281   1.0003362443e+02   2.4246385097e+00    0.5123306    0.1905828 -50.15  0.002090178    4.036    0.752
         9  -8.2328    237.0918    250.6066   9.5236163181e+01  -9.2065478977e+00    0.1637702   0.08195855  35.57 0.0003181745    1.534    0.348
        10 -18.0957     49.7945    231.2454   1.2538923145e+02   2.1728045007e+01     3.305628     2.516403  59.65   0.01166126    1.189    0.159
        11  -8.7239     31.1598    181.6783   1.2509819974e+02   3.3399033284e+01    0.2308709    0.1735172  51.36 0.0005766255    1.357    0.263
        12  -8.7033     26.6832    180.5352   1.2588594979e+02   3.4096807911e+01    0.1927909    0.1612393  67.32  0.000814685    1.228    0.185
        13  -7.9617     17.5723    179.9415   1.2761039158e+02   3.5108047777e+01    0.1950861      0.16822 -14.24  0.001431602    2.026    0.506
        14  -7.9938    189.4243    177.6910   9.1428265808e+01   8.5602347391e+00    0.3091904    0.2026922 -51.46   0.00152068    1.857    0.462
        15  -8.6467    221.5097    177.0655   8.5187473536e+01   2.5083828865e+00    0.1944386    0.1284364 -32.39 0.0005885007    1.551    0.355
        16  -9.1268    148.5883    175.4586   9.9420449201e+01   1.6926549464e+01    0.2449929    0.2219459  25.87 0.0009172278    1.182    0.154
        17  -9.8799    195.8137    173.8008   8.9404442485e+01   7.9627479875e+00    0.2499124    0.2370175  22.57 0.0003639659    1.077    0.071
        18  -9.2332     30.8409    173.0878   1.2444480106e+02   3.5237141670e+01    0.3032732    0.2276932  82.84 0.0009602003    1.029    0.028
        19  -8.1764    240.5100    209.7243   8.7998044967e+01  -5.2198176485e+00    0.1679916    0.1444283  29.65 0.0008046679    1.275    0.216
        20 -11.0292    167.3003    225.6066   1.0370206505e+02   4.9691584733e+00    0.4105397     0.334909 -33.13  0.001868002    1.511    0.338
        21  -9.7774    103.8981    171.2174   1.0846791363e+02   2.5838466512e+01    0.3111872    0.2722124  55.83  0.001757076    1.116    0.104
        22  -7.8124      7.7224    173.1383   1.2904866258e+02   3.7395419953e+01    0.1747037     0.129488 -42.30  0.001210234    2.094    0.522
        23  -9.5596     22.4520    173.6069   1.2618268736e+02   3.5962560866e+01     0.483581    0.2494438  33.72  0.002808222    2.247    0.555
        24 -10.5968    202.9347    201.6106   9.3256001961e+01   2.2619332068e+00     0.633289    0.2821813  29.53  0.002593603    2.696    0.629
        25  -9.9063     93.4420    167.5058   1.1024260354e+02   2.8327671763e+01    0.3850651    0.3263802 -37.46  0.001084058    1.537    0.349
        26  -9.2359     95.3335    163.3266   1.0917810997e+02   2.8939969766e+01    0.2392043    0.2217768 -40.06  0.001465111    1.342    0.255
        27  -8.5920     58.2294    166.1800   1.1792385634e+02   3.3611264016e+01    0.2009485    0.1725471  79.06 0.0007311005    1.086    0.079
        28 -11.1594     44.8486    147.8321   1.1876369878e+02   3.9302536913e+01     1.063496    0.4239984  31.01  0.004692235    3.019    0.669
        29  -9.8264     24.1496    163.0774   1.2496437848e+02   3.8046342774e+01    0.4759636    0.2553965  74.46  0.002721634    1.752    0.429
        30  -8.6671     31.4477    161.8708   1.2330096520e+02   3.7592310103e+01     0.235482    0.1400846  46.76  0.001430294    1.675    0.403
        31 -11.4989     25.1202    155.6485   1.2408467160e+02   3.9573597966e+01    0.7937561    0.6978739 -40.21  0.005435294    1.601    0.375
        32 -10.2453      8.8978    161.9161   1.2803739047e+02   3.9651116660e+01    0.4165973     0.189633  44.45  0.002460879    2.130    0.531
        33 -10.6295     15.0061    160.0382   1.2663007862e+02   3.9534538808e+01    0.4284993    0.3294234 -76.55  0.002395036    1.209    0.173
        34  -9.6908    215.8071    200.9035   9.0765695761e+01   8.0959155129e-02    0.3435097    0.1557649  48.29  0.001515126    2.293    0.564
        35 -10.7982    113.8913    158.6410   1.0412953550e+02   2.6834999051e+01    0.9480909    0.3416482 -53.79  0.003532589    2.783    0.641
        36  -9.9278    100.6229    155.4477   1.0667185592e+02   2.9817783587e+01    0.3582818    0.2805841  51.22 0.0005820369    1.246    0.198
        37 -10.1233    109.7986    161.3149   1.0553537839e+02   2.6970456693e+01    0.5104755     0.301515  69.73  0.002210171    2.272    0.560
        38  -9.8945    105.6170    157.7840   1.0590078622e+02   2.8460144450e+01    0.4042424    0.2300821 -68.96  0.001287059    1.966    0.491
        39 -10.5944    104.2425    150.5290   1.0495596982e+02   3.0304586373e+01     0.649154     0.275617 -52.90  0.002021205    2.310    0.567
        40 -10.9210    108.6746    149.2011   1.0365388560e+02   2.9833969693e+01    0.6218869    0.3987809  64.81   0.00236615    1.813    0.448
        41 -10.0995     50.5134    155.7769   1.1841548910e+02   3.6862104735e+01    0.6093201    0.4039387   9.45  0.003142405    2.784    0.641
        42  -9.6923     42.2170    155.8012   1.2030155386e+02   3.7798760628e+01    0.3387741    0.2369362 -73.35  0.001916137    1.225    0.184
        43 -10.1147     38.7001    155.6987   1.2108135202e+02   3.8201433786e+01    0.4463218    0.3096995 -22.55  0.002415988    2.723    0.633
        44  -8.7432    215.9959    156.9984   8.2019761126e+01   6.7311956954e+00    0.2038891    0.1898237  12.20            0    1.057    0.054
        45  -8.3178     36.3426    162.3497   1.2229126184e+02   3.6981972215e+01     0.237711    0.1736645 -47.72  0.001498276    1.776    0.437
        46  -9.3989    192.1356    192.7109   9.3710250951e+01   5.5861978425e+00    0.3657639      0.22956 -65.58  0.001585264    3.088    0.676
        47  -9.9285     13.1285    152.2096   1.2638715610e+02   4.1389414308e+01    0.4783925    0.2563649  11.52  0.002492959    3.575    0.720
        48  -7.6499    153.6319    151.7686   9.3720477586e+01   2.0635941016e+01    0.2050126    0.1379308 -58.40 0.0005736987    1.686    0.407
        49  -8.8487    144.0258    152.3547   9.6003694794e+01   2.2466577709e+01    0.2055492    0.1796248  51.05  0.001106648    1.100    0.091
        50 -10.8047     90.5239    149.2881   1.0803591234e+02   3.2839209457e+01    0.5020068    0.3761449  59.51 0.0008941356    1.322    0.243
        51  -9.5482    133.7532    146.6185   9.7196128087e+01   2.5722948549e+01    0.5905287    0.2041464 -58.01  0.001706848    4.286    0.767
        52  -7.4820    130.5179    148.4644   9.8329956644e+01   2.5957329137e+01    0.1476359    0.1356065  77.92 0.0008084008    1.069    0.064
        53  -8.5983    126.4132    145.7413   9.8748213876e+01   2.7339541266e+01    0.1987529    0.1375523 -43.85 0.0004859802    1.539    0.350
        54  -8.5851    243.0034    144.9982   7.4560751802e+01   3.2975763735e+00    0.2198437    0.1533765   8.88 0.0004235067    1.620    0.383
        55  -9.0033     28.3776    145.0502   1.2229113405e+02   4.1621779116e+01     0.171799    0.1651871  87.93 0.0005964896    1.319    0.242
        56  -9.7105    111.9737    142.4162   1.0156264025e+02   3.0765632340e+01    0.3452282    0.2387433 -81.86  0.001564579    1.777    0.437
        57 -10.0542    118.5111    129.2986   9.7200738443e+01   3.2501122589e+01    0.8254939    0.3842867 -33.31  0.002562768    3.964    0.748
        58  -8.8714    149.1847    148.3580   9.4002161567e+01   2.2248965512e+01    0.2608573    0.1849363  53.83 0.0006114771    1.422    0.297
        59  -8.7073    108.4410    141.0139   1.0215364711e+02   3.1713249142e+01    0.2113539    0.1358678 -56.75 0.0003533178    1.517    0.341
        60  -9.2735    108.8239    190.7426   1.1024486207e+02   2.1007153837e+01    0.3459015    0.2140859  84.66 0.0009736058    2.118    0.528
        61  -9.5943    103.1563    135.8302   1.0244577117e+02   3.3817914093e+01    0.3382434    0.2467524  48.65  0.000551814    1.390    0.281
        62 -10.1149    112.8429    136.4463   1.0014627000e+02   3.1951151702e+01     0.369304    0.3107318 -44.03  0.001390906    1.261    0.207
        63  -8.8330     45.3807    130.3570   1.1631202520e+02   4.3259466640e+01    0.2524368    0.1458604  72.61  0.001255688    2.062    0.515
        64  -7.2967    172.6858    130.7413   8.4757763988e+01   2.0775564687e+01    0.1509455    0.1188635  14.37 0.0002127984    1.534    0.348
        65  -8.4613    103.9370    130.2998   1.0112074157e+02   3.4947006396e+01    0.2414043   0.09885284  57.54 0.0007034841    4.302    0.768
        66 -10.5224    158.5679    220.1722   1.0455359498e+02   7.2861593535e+00     0.364021    0.2692896   2.24  0.002068999    2.012    0.503
        67  -7.8814    106.9449    123.9983   9.8990296095e+01   3.5853565399e+01    0.2190834    0.1793015 -13.81 0.0006161357    1.627    0.386
        68  -9.2311     39.6706    124.3556   1.1692526096e+02   4.5253326108e+01    0.3024078    0.1665226 -66.08 0.0009436709    1.488    0.328
        69 -10.5258    117.1082    138.9031   9.9598666824e+01   3.0611486095e+01    0.4384724    0.3364454  46.55  0.001442728    1.307    0.235
        70 -10.2009     50.0000    122.7545   1.1394633085e+02   4.4518795611e+01    0.3967005    0.2857111 -72.16  0.002328765    1.183    0.154
        71  -9.2588     82.9097    121.2160   1.0478580518e+02   4.0511799450e+01    0.2414039     0.217573 -86.91 0.0007055992    1.071    0.066
        72  -8.7517    152.5686    216.9973   1.0523547857e+02   8.8215767006e+00    0.3020835    0.1379008  38.45  0.001418225    1.983    0.496
        73  -9.3070     61.7369    119.1328   1.1014987034e+02   4.3961070578e+01    0.2800865    0.1883195  40.83 0.0008919513    1.643    0.391
        74 -10.0531     44.5575    116.6697   1.1443550055e+02   4.6536429665e+01    0.3891253    0.2846177 -37.81  0.002276359    1.630    0.386
        75  -7.7870     71.6312    117.3299   1.0708783476e+02   4.3068585528e+01    0.1457373   0.09964741  77.21 0.0007032786    1.821    0.451
        76 -10.3162     54.4167    110.1192   1.1053081452e+02   4.6968098107e+01    0.3314825    0.2866274 -56.88    0.0020784    1.114    0.102
        77  -8.5710    160.0178    107.5276   8.1698350428e+01   2.8332527255e+01    0.2536767    0.2113679 -21.67 0.0004413435    1.303    0.233
        78  -9.1227    130.9952    188.5655   1.0531911190e+02   1.7640811675e+01    0.2346493    0.1854736 -77.88 0.0005222472    1.404    0.288
        79  -7.7661    122.3623    104.8678   9.0288566734e+01   3.7186088266e+01    0.2104628    0.1902439 -42.61 0.0004884677    1.083    0.077
        80  -7.9301    151.4046    187.8470   1.0097796032e+02   1.4059825656e+01    0.1797342     0.128016 -33.30 0.0009335615    1.750    0.428
        81  -9.3394    216.1954    102.4210   6.8964759672e+01   1.5981830739e+01    0.2517961    0.2355646 -21.27 0.0003006841    1.021    0.020
        82  -7.7235    221.1821     98.7914   6.7170338497e+01   1.5440210555e+01    0.2040945    0.1721353   6.25 0.0003945612    1.313    0.238
        83  -7.5733     39.4823     93.4997   1.1176774550e+02   5.2431752090e+01    0.1299092    0.1055525 -60.02 0.0008102363    1.031    0.030
        84  -8.9457      5.2332     91.0768   1.2178473847e+02   5.5605214818e+01     0.171133     0.155463 -73.69 0.0006888116    1.208    0.172
        85  -8.4867    104.0493     85.9712   9.0116899813e+01   4.4905857191e+01    0.2121131    0.1987863 -44.74            0    1.019    0.019
        86  -7.4238     48.6767     86.2786   1.0733761989e+02   5.3130421320e+01    0.1244369   0.09647442  80.26 0.0002298624    1.586    0.370
        87  -7.5594    160.8539     81.1868   7.4027754853e+01   3.3281557894e+01    0.2079462    0.1817056  17.87 0.0003534219    1.255    0.203
        88  -7.1409     12.6957     81.2826   1.1795806786e+02   5.7346085431e+01    0.1111554   0.08089978  79.93 0.0002614288    1.556    0.357
        89  -7.7021     19.2740     72.7440   1.1416857120e+02   5.8802470850e+01    0.1640961   0.09753122  -6.33 0.0008995881    2.404    0.584
        90  -8.2963     64.6050     70.8179   9.8045955521e+01   5.4600902677e+01    0.1891245    0.1188808 -60.30 0.0004337931    1.655    0.396
        91  -7.8132    135.7795     69.2509   7.6265045520e+01   4.1525108266e+01    0.2754737    0.1820902  10.44  0.001067766    2.373    0.579
        92 -10.0830    118.6116     64.6574   7.9275012555e+01   4.6241997937e+01     0.262549    0.2488166  -3.91 0.0002698618    1.027    0.026
        93  -7.5826    129.8185     62.3513   7.5510156928e+01   4.4160687518e+01    0.2057107     0.136836  40.10 0.0001346185    1.553    0.356
        94  -9.7659    160.9709     59.3454   6.7230293310e+01   3.7094628154e+01    0.4022454    0.3120867 -28.27  0.001069335    1.311    0.237
        95  -8.9136    214.4135     54.0204   5.6254155101e+01   2.4205084913e+01     0.359771    0.2471019 -23.03  0.001497997    1.552    0.356
        96  -9.6893    226.9619    186.4832   8.6055715778e+01   1.3546250046e-01    0.3488068    0.2251563  40.09  0.001007305    1.448    0.310
        97  -9.9186    179.4991     37.0858   5.6678608080e+01   3.5605206751e+01     0.392477    0.3324031  37.02 0.0007861008    1.250    0.200
        98  -9.8014    228.4601    177.1081   8.3936810372e+01   1.2171652711e+00    0.3508434    0.2958692  76.79 0.0004542409    1.856    0.461
        99  -7.3834    141.4241     15.5147   5.6161295714e+01   4.8055117506e+01    0.1415553    0.1302717  39.29 7.948365e-05    1.021    0.020
       100  -9.3775    238.2482    191.3146   8.4993577257e+01  -2.5010464659e+00    0.3051095    0.2661532 -67.23  0.001200321    1.891    0.471
       101  -9.4023    227.6596    181.7311   8.5001605169e+01   6.9059303371e-01    0.2896003    0.2191126  23.47 0.0003633006    1.198    0.165
       102  -9.7365    182.8918    208.3082   9.8154668904e+01   4.8501846488e+00    0.5708284    0.1530131 -48.22  0.001865665    5.344    0.813
       103 -10.0742    139.4911    229.0058   1.0926936215e+02   9.1048658481e+00    0.2315302      0.19564 -10.70  0.001527571    1.709    0.415
