#   1 NUMBER                 Running object number                                     
#   2 MAG_AUTO               Kron-like elliptical aperture magnitude                    [mag]
#   3 X_IMAGE                Object position along x                                    [pixel]
#   4 Y_IMAGE                Object position along y                                    [pixel]
#   5 X_WORLD                Barycenter position along world x axis                     [deg]
#   6 Y_WORLD                Barycenter position along world y axis                     [deg]
#   7 A_WORLD                Profile RMS along major axis (world units)                 [deg]
#   8 B_WORLD                Profile RMS along minor axis (world units)                 [deg]
#   9 THETA_WORLD            Position angle (CCW/world-x)                               [deg]
#  10 FWHM_WORLD             FWHM assuming a gaussian core                              [deg]
#  11 ELONGATION             A_IMAGE/B_IMAGE                                           
#  12 ELLIPTICITY            1 - B_IMAGE/A_IMAGE                                       
         1  -7.6585    190.5747      8.2522   1.8725182736e+01   3.5783602542e+01    0.1695252    0.1345896  -0.61  0.000472605    1.519    0.342
         2  -8.0324    116.5187    248.0729   8.6283981982e+01   1.0259211469e+01    0.1373605    0.1079798 -72.17 0.0004281842    1.503    0.335
         3  -8.9389    150.2707    249.5447   8.0719113754e+01   4.8155497432e+00    0.1673166    0.1583561 -77.54 0.0006572395    1.333    0.250
         4  -7.4257    125.7888    249.8963   8.4909551744e+01   8.5838617407e+00    0.1193937   0.09065872 -60.93 0.0005611037    1.645    0.392
         5  -8.8279     54.0119    249.0998   9.6494085235e+01   1.8650292757e+01    0.1836498    0.1145116  70.89  0.000375958    1.253    0.202
         6  -8.1417     50.5032    246.5190   9.6868657604e+01   1.9490069385e+01    0.1805467     0.101095  57.30  0.001274578    1.328    0.247
         7  -9.8034     27.0917    247.3794   1.0045762529e+02   2.2014434614e+01    0.3277068    0.1550032  53.86  0.002306974    1.558    0.358
         8  -9.6388     12.6269    239.9915   1.0221854825e+02   2.4720552011e+01    0.2973609    0.1203914  49.36  0.002001359    1.878    0.468
         9 -10.1190     16.5106    250.0063   1.0212182782e+02   2.2703533655e+01    0.5178785    0.2607626  31.53   0.00326331    3.114    0.679
        10 -10.2265      4.8320    249.5743   1.0375072923e+02   2.3933197801e+01    0.5122507     0.234071  44.70  0.003744676    1.902    0.474
        11 -10.0029     13.2557    244.6360   1.0234258583e+02   2.3897513011e+01    0.3999183      0.19487  71.50   0.00105212    1.557    0.358
        12  -9.0158     39.9858    244.4937   9.8360606118e+01   2.1052429990e+01     0.163997    0.1605647  72.72  0.001461344    1.748    0.428
        13  -7.9248     21.3656    242.7528   1.0106606823e+02   2.3374908688e+01    0.1214358   0.07391834 -77.70 0.0005780699    1.586    0.370
        14  -8.1734      1.3146    241.2227   1.0390563526e+02   2.5612270466e+01    0.1270564   0.06182002  85.89 0.0005036222    1.603    0.376
        15  -8.8160     56.5376    239.5187   9.5444023298e+01   1.9905552612e+01     0.192473   0.09136104 -73.74  0.000993461    2.124    0.529
        16  -8.8802      4.6828    239.3753   1.0334579779e+02   2.5596273630e+01    0.2274415   0.09529893  76.65  0.001139036    1.965    0.491
        17  -7.9491    150.1580    238.8126   7.9451561220e+01   6.3493460598e+00    0.1560259    0.1250743  30.55   0.00100426    1.307    0.235
        18  -7.9689     37.7588    239.2273   9.8386693629e+01   2.2176149448e+01    0.1239006    0.1049309  77.61   0.00105296    1.335    0.251
        19  -9.5319     51.6331    237.8680   9.6113972037e+01   2.0780644688e+01    0.1810339     0.138747  39.72  0.001033797    1.633    0.387
        20  -9.6507     47.3274    236.9731   9.6740154470e+01   2.1446279357e+01    0.2612755    0.2043361  16.49  0.001824369    2.523    0.604
        21  -8.9813    119.2300    235.7889   8.4535735726e+01   1.1738506684e+01    0.1992828     0.181451  64.77 0.0006011029    1.195    0.163
        22  -8.1034     41.5115    233.9325   9.7465760136e+01   2.2640762589e+01    0.1875476    0.1597494 -29.83  0.001370495    2.383    0.580
        23  -8.8179     36.3678    233.1808   9.8233631483e+01   2.3353637136e+01    0.2691786    0.1281015  65.77 0.0009707054    1.747    0.427
        24 -10.8334     17.6780    220.0031   1.0041813225e+02   2.7635591877e+01     0.884912    0.4095564  73.72  0.004337798    1.856    0.461
        25 -11.0525     31.7694    188.7556   9.5876511176e+01   3.2039888429e+01    0.5351776    0.4112628  84.85  0.003996787    1.041    0.039
        26 -10.4804      2.2882    205.5998   1.0210976053e+02   3.1683853420e+01    0.7575363    0.2805917 -79.15  0.004506064    2.189    0.543
        27 -11.6863     21.9387    195.0511   9.8133904832e+01   3.1818363943e+01    0.7467803    0.4579265  68.95  0.004322718    1.330    0.248
        28 -10.5121     12.6086    202.1443   1.0020829304e+02   3.1378041758e+01    0.2923711    0.2484186  34.01 0.0007920827    1.710    0.415
        29 -10.9088     10.1714    208.2195   1.0096702172e+02   3.0485850220e+01    0.4339232    0.2932028 -78.03 0.0005206541    1.374    0.272
        30  -8.8464     90.6783    230.2652   8.8960740218e+01   1.6910889718e+01    0.1914228    0.1602627  73.72 0.0005628573    1.121    0.108
        31  -8.3518     61.6860    229.3560   9.3840084636e+01   2.0986136830e+01     0.174524    0.1150519  65.23 0.0009393239    1.185    0.156
        32  -8.4045     63.7826    227.0457   9.3301611891e+01   2.1120092801e+01    0.1658161    0.1148692  72.16  0.001175041    1.161    0.139
        33  -8.7904     27.1006    228.3286   9.9403393441e+01   2.5202011571e+01    0.2106221    0.1771288  31.78  0.001201261    1.847    0.459
        34  -8.8699    102.6227    228.1704   8.6651713815e+01   1.5515127281e+01    0.1461423    0.1046406 -54.17 0.0009515746    1.751    0.429
        35  -8.3265    106.5119    227.4825   8.5886920509e+01   1.5044484570e+01    0.1173863   0.09483888  59.11 9.158078e-05    1.040    0.038
        36  -7.7021     69.8500    227.0884   9.2270892571e+01   2.0323311875e+01     0.163388    0.1113862  71.35 0.0002954055    1.213    0.175
        37  -7.6066    141.9700    224.4625   7.9104264413e+01   9.8758648045e+00    0.1730847   0.08681509  59.54 0.0005263312    2.354    0.575
        38  -7.7250     63.4963    237.4625   9.4166831618e+01   1.9375694740e+01    0.1094751   0.07934351  67.05  0.000104381    1.019    0.019
        39  -7.5137     90.6738    223.7254   8.8321532038e+01   1.8032694915e+01   0.09927936    0.0895068  24.93 0.0002139063    1.585    0.369
        40  -8.4381    247.0865    222.1460   6.0064595252e+01  -7.4119580839e+00    0.1861317    0.1291197  14.49 0.0005223825    1.246    0.198
        41  -8.0339     87.0853    222.1995   8.8809363816e+01   1.8813795909e+01     0.158821    0.1343203  56.12  0.000234079    1.200    0.167
        42  -7.3534     36.6698    221.7217   9.7445002577e+01   2.5317586179e+01   0.08585653   0.08000576 -73.00 0.0002431719    1.600    0.375
        43  -7.6612     92.7411    219.1761   8.7485891133e+01   1.8529602322e+01    0.2943698    0.0816714  39.03  0.001144095    3.603    0.722
        44  -8.0747     50.9418    219.0162   9.4852460582e+01   2.4144216277e+01    0.2304505    0.1450453  15.49  0.001054904    4.391    0.772
        45  -9.3821     31.2003    217.5773   9.8073595342e+01   2.6661201177e+01    0.2435187    0.2086263  13.22  0.001394895    2.109    0.526
        46  -9.1047     27.4659    212.8579   9.8386147949e+01   2.7915729062e+01    0.1943793    0.1513797  63.97 0.0009035642    1.203    0.169
        47  -8.4300     32.7021    210.2483   9.7324813632e+01   2.7835571387e+01    0.2247516    0.1756511 -35.35  0.001558188    2.427    0.588
        48  -6.9258     91.7167    204.6751   8.6096518583e+01   2.1318821523e+01    0.1042365   0.09647039 -24.46 0.0004922555    1.599    0.374
        49 -10.1667      9.4243    229.8843   1.0221356704e+02   2.6730441162e+01      0.42939    0.2873555  34.35  0.003325622    2.028    0.507
        50  -7.2796    116.2199    203.5634   8.1236011572e+01   1.7707158067e+01    0.1252548   0.08596199  83.74 0.0006835433    1.717    0.417
        51  -7.6444     97.0049    200.4413   8.4581022964e+01   2.1321352880e+01    0.1827429     0.106576  45.38 0.0006569954    1.540    0.351
        52 -11.0688      3.8982    222.6044   1.0270361906e+02   2.8506944311e+01    0.8356279    0.4021817  85.47  0.005784275    1.650    0.394
        53  -7.7964     47.7855    198.9877   9.3773804393e+01   2.8258248199e+01    0.1915102    0.1490473  -1.16   0.00118372    2.657    0.624
        54  -7.3940    100.9964    198.0804   8.3509462648e+01   2.1155109579e+01    0.1468512    0.1259293  78.07 0.0008970296    1.064    0.060
        55  -7.5855     82.3225    197.3369   8.7072065066e+01   2.4081928769e+01    0.1083206    0.0962659 -27.52 0.0007050651    1.713    0.416
        56  -8.9415      6.0719    190.3293   1.0061189521e+02   3.4205275240e+01    0.1857041    0.1129996  86.42 0.0004096945    1.244    0.196
        57  -7.7177     64.6720    186.7957   8.9369863626e+01   2.8571218776e+01     0.164984   0.09667543 -81.29 0.0006144228    1.666    0.400
        58  -9.6290      3.6743    180.6815   1.0043571787e+02   3.6275572192e+01    0.4105671    0.1749204 -52.73  0.002196665    3.250    0.692
        59  -9.5916     25.8158    181.4271   9.6401389461e+01   3.4103379024e+01    0.2588622    0.1849052 -67.23 0.0002529502    1.420    0.296
        60  -8.1592     29.7433    180.4265   9.5571830478e+01   3.3908107704e+01    0.1862266    0.1224135  88.86 0.0005225826    1.240    0.194
        61  -8.4708     18.4444    182.6192   9.7872307330e+01   3.4580342277e+01    0.2182162   0.08541515 -75.26 0.0007303401    2.113    0.527
        62  -9.3009     12.2960    182.4250   9.8988530774e+01   3.5185222433e+01    0.2276006    0.1782486 -40.52  0.001673976    2.031    0.508
        63 -10.1078     45.4862    176.7772   9.2151832738e+01   3.2950139073e+01     0.466095    0.3317871 -32.06  0.002748764    2.491    0.598
        64  -7.6520     80.8501    179.2077   8.5196462193e+01   2.7904157168e+01    0.1493662    0.1460335 -67.68  0.000369775    1.316    0.240
        65  -7.5394    116.9925    177.9622   7.7420975964e+01   2.2467890255e+01     0.155992    0.1417923  86.60 0.0003765173    1.072    0.067
        66  -7.8821     64.0539    177.0288   8.8406576140e+01   3.0640941360e+01    0.1450993    0.1200199  83.06 0.0004033776    1.007    0.007
        67  -8.4668     27.9672    173.6467   9.5335232815e+01   3.5461021877e+01    0.2272002    0.1124181 -75.52 0.0005032445    1.695    0.410
        68  -8.7608      1.4352    173.1411   1.0035720629e+02   3.7941918340e+01    0.3383582   0.08190842 -77.25 0.0009091742    3.343    0.701
        69  -9.0741    175.2871    172.3728   6.4256708752e+01   1.2620866084e+01    0.2548183    0.2360936  38.44 0.0006763228    1.018    0.018
        70  -9.2972     52.9515    170.7651   8.9994703907e+01   3.3324771568e+01    0.2441089    0.1905293 -72.82 0.0004513146    1.202    0.168
        71  -8.0445     35.5295    172.9838   9.3776784633e+01   3.4822037442e+01    0.1651288   0.09421418 -76.25 0.0003647973    1.489    0.328
        72  -8.3535    153.1077    171.9086   6.8751496562e+01   1.7049061997e+01     0.203512    0.1846845  49.19 0.0003557891    1.016    0.015
        73  -9.3140     16.3588    170.5424   9.7342490369e+01   3.7193651335e+01    0.2076102    0.1718289  51.23  0.001190346    1.382    0.277
        74  -9.7672     25.8684    162.8089   9.4780600866e+01   3.7902323642e+01    0.3735265    0.2096861 -75.30  0.001432649    1.462    0.316
        75  -8.4453    241.7774    163.3701   4.9877600722e+01   1.0732801399e+00    0.1971732    0.1121374  34.29 0.0008058245    1.734    0.423
        76  -7.2976     96.4785    163.5744   7.9630407125e+01   2.8809987550e+01    0.1325829    0.1166175  77.67 0.0008053562    1.030    0.029
        77  -8.9934     65.2200    161.5157   8.6255361319e+01   3.3754915265e+01     0.222228    0.1879339 -84.86 0.0003377769    1.046    0.044
        78 -10.2061      9.7905    163.3557   9.8060913134e+01   3.9227307355e+01    0.2869311    0.1950424 -50.34  0.001977816    1.860    0.462
        79  -8.2846    245.6015    161.1931   4.8770500978e+01   6.8087368475e-01    0.1935075    0.1170938 -18.66 0.0009532291    1.731    0.422
        80  -8.3603     51.0832    157.1946   8.8817509416e+01   3.6424515587e+01    0.2013656    0.1755251 -89.84  0.000918969    1.085    0.079
        81 -10.2078     73.6657    155.3660   8.3522308113e+01   3.3951068741e+01    0.3994339    0.3344952 -19.04  0.001755017    1.754    0.430
        82  -7.8941     67.8993    156.5099   8.4987117905e+01   3.4481646724e+01    0.1703581    0.1200244  43.19 0.0003378516    1.483    0.325
        83  -9.4767     19.2374    155.6834   9.5492680041e+01   4.0003590913e+01    0.2132839     0.137909 -78.72   0.00142105    1.229    0.186
        84  -7.5949      3.6514    154.3095   9.8579164176e+01   4.1573011104e+01    0.1146307   0.06257476  70.10  0.000502744    1.710    0.415
        85  -8.8867     22.0422    149.5990   9.4313968667e+01   4.1038108537e+01    0.2559189    0.1795754 -25.46  0.001089219    2.411    0.585
        86  -9.0051     51.5011    150.3142   8.7862715538e+01   3.7864298342e+01    0.3291909    0.2207664 -23.61  0.001670068    2.795    0.642
        87  -8.2855    248.3321    149.9851   4.5932546922e+01   1.8006542917e+00    0.2227239    0.1044055 -12.61 0.0007047464    4.299    0.767
        88 -10.8055     68.2325    144.3855   8.3149642677e+01   3.7087691689e+01    0.5933447    0.3813064  69.01  0.002295425    1.758    0.431
        89  -9.7347    240.1878    143.7517   4.5945795170e+01   4.3000575279e+00    0.3245811    0.1972912  63.98   0.00142765    2.515    0.602
        90  -8.3455     89.3977    143.2020   7.7912323590e+01   3.4316577986e+01    0.1992801    0.1212837 -70.97 0.0009601392    1.750    0.428
        91  -9.6813    243.6831    139.4166   4.4396816104e+01   4.2736506082e+00    0.4039543     0.171289  35.47  0.001540615    2.847    0.649
        92  -8.8329     72.5113    142.4375   8.1828248603e+01   3.6942164795e+01    0.1993521    0.1671728 -77.29 6.804062e-05    1.064    0.060
        93  -9.0681     78.3554    140.4899   8.0105367343e+01   3.6555880664e+01    0.2222864    0.2140506 -64.50 0.0004574167    1.167    0.143
        94  -8.1801      5.9681    138.0000   9.6702903589e+01   4.4802721195e+01    0.1466102   0.06301445  27.02 0.0008013732    2.935    0.659
        95  -8.1591     24.7404    136.0650   9.2260367192e+01   4.3704015600e+01    0.1609726    0.1233585 -74.25 0.0004094123    1.078    0.072
        96  -7.4365     81.6750    134.7199   7.8297042883e+01   3.7355058365e+01     0.126505    0.1036921 -25.66 0.0002264978    1.593    0.372
        97  -8.1316     30.1958    133.0899   9.0624107611e+01   4.3856984317e+01    0.1728755    0.1356289 -63.27 0.0004071518    1.196    0.164
        98  -8.3510     10.5272    133.4834   9.5245829051e+01   4.5423485677e+01    0.1138358   0.08657162 -83.60 0.0008097418    1.021    0.020
        99  -9.4810    250.3323    130.1953   4.1246447560e+01   4.3619223185e+00    0.4186775    0.1489726 -33.82  0.001591457    2.599    0.615
       100  -7.6277     67.3146    129.6593   8.0997345106e+01   4.0480115452e+01    0.1356622   0.09327529  79.69 0.0004800123    1.703    0.413
       101  -7.4437     17.7844    129.1251   9.3093704871e+01   4.5794842925e+01    0.1479048    0.1127469 -57.40 0.0002878549    1.311    0.237
       102  -8.1883    163.2961    126.4538   5.6967152912e+01   2.3811601502e+01    0.3223872    0.2221887 -13.13  0.001019384    2.090    0.522
       103  -7.9032     37.1908    124.3444   8.7747893458e+01   4.5112926171e+01    0.1604293    0.1014561  47.64 0.0005978961    1.739    0.425
       104  -9.4050    244.7716    131.0157   4.2333369106e+01   5.3404616885e+00    0.2602128    0.1695419  31.94  0.001286952    1.648    0.393
       105  -7.7633     21.8473    122.1658   9.1275326079e+01   4.6976137084e+01    0.1532584    0.1183288 -54.67 0.0005380095    1.298    0.229
       106  -8.7831    246.4830    115.4920   3.8496061886e+01   7.3804592620e+00    0.1405109    0.1270702 -10.60 0.0008101686    1.033    0.032
       107  -9.8877     17.7346    110.9895   9.0856022516e+01   4.9738772942e+01    0.2399263    0.2082797 -78.59 0.0004138775    1.113    0.101
       108  -9.5792     69.0175    110.3253   7.6949868683e+01   4.4575397849e+01    0.2256621    0.2038321 -65.87 0.0002507367    1.019    0.019
       109  -8.7848    249.6268    106.2104   3.5843896225e+01   8.1516111787e+00    0.2000616     0.124733 -22.44 0.0009449932    1.640    0.390
       110  -8.2622     18.3283     96.8670   8.8645101502e+01   5.2763687560e+01    0.2674833    0.1152631 -42.19  0.001311047    2.557    0.609
       111  -7.3739     60.4857     93.5214   7.5790196444e+01   4.9381087640e+01    0.1306245    0.1143685 -57.91 0.0001096676    1.028    0.027
       112  -8.2607      4.1791     94.3990   9.2228334407e+01   5.4230404107e+01    0.1336608   0.09716693  48.38 0.0005447197    1.668    0.401
       113  -7.2280     41.0259     86.9967   8.0192992360e+01   5.2961418051e+01    0.1464944    0.1235692 -55.77 0.0003310481    1.016    0.016
       114  -8.6432      3.1625     80.9049   9.0539157828e+01   5.7148306276e+01    0.1708323    0.1310691 -88.15 0.0008392389    1.325    0.245
       115  -8.2406      1.8500     72.1234   8.9504824932e+01   5.9053975119e+01    0.1926771   0.09537317 -43.75  0.001141794    1.806    0.446
       116  -7.4031    211.5208     65.4996   3.1573728328e+01   2.3162342239e+01    0.1442593    0.1426631 -46.38 3.395269e-05    1.020    0.020
       117  -7.8486    223.5869     62.1861   2.8864819112e+01   2.0722986678e+01    0.1930813    0.1378685 -15.72 0.0003757229    1.618    0.382
       118  -7.4693    208.6573     50.3357   2.7927986770e+01   2.6092044220e+01    0.1571977    0.1064691 -66.02 0.0007050233    1.764    0.433
       119 -10.7015    227.3810     39.5648   2.2531150792e+01   2.2944222021e+01    0.7361026    0.5567924 -72.15  0.003931054    1.394    0.283
       120 -10.5315    232.7393     34.6714   2.0654884703e+01   2.2285502952e+01    0.5563053     0.328204  51.22  0.001340429    1.811    0.448
       121  -8.5787     29.7050     40.9997   7.2239106286e+01   6.3334589736e+01    0.1753656     0.146054 -21.64 0.0003758361    1.130    0.115
       122  -7.9663    250.5110     15.5318   1.4274657534e+01   2.0440140305e+01    0.2483316   0.08586269 -41.03  0.001038224    2.447    0.591
