#   1 NUMBER                 Running object number                                     
#   2 MAG_AUTO               Kron-like elliptical aperture magnitude                    [mag]
#   3 X_IMAGE                Object position along x                                    [pixel]
#   4 Y_IMAGE                Object position along y                                    [pixel]
#   5 X_WORLD                Barycenter position along world x axis                     [deg]
#   6 Y_WORLD                Barycenter position along world y axis                     [deg]
#   7 A_WORLD                Profile RMS along major axis (world units)                 [deg]
#   8 B_WORLD                Profile RMS along minor axis (world units)                 [deg]
#   9 THETA_WORLD            Position angle (CCW/world-x)                               [deg]
#  10 FWHM_WORLD             FWHM assuming a gaussian core                              [deg]
#  11 ELONGATION             A_IMAGE/B_IMAGE                                           
#  12 ELLIPTICITY            1 - B_IMAGE/A_IMAGE                                       
         1 -15.7375    211.0568     69.9226   5.7433534512e+01   2.2930472488e+01      10.7639     4.254621 -52.22   0.03434587    3.372    0.703
         2 -13.3684    230.1167     30.3237   4.4661640713e+01   2.4014601850e+01     1.512374      1.30754  88.85  0.009148031    1.118    0.106
         3 -13.9057    237.7089     14.2901   4.0075200775e+01   2.4173533581e+01      1.41693     1.008878 -12.14   0.00688737    1.877    0.467
         4 -15.0664    236.6324     80.1792   5.6279113221e+01   1.5303221935e+01     5.505633      1.33989 -42.90  0.009227668    3.732    0.732
         5 -15.6959    242.2586     38.4180   4.5373520438e+01   2.0140955607e+01      4.67365     3.319346 -21.15   0.02513516    1.626    0.385
         6 -10.4823    203.5094     18.3167   4.4445126535e+01   3.1982428722e+01     0.410348    0.2954736  86.69  0.002193467    1.337    0.252
         7 -11.0351    135.0033     13.5197   5.3072576747e+01   4.9986717223e+01    0.4952143     0.196429 -23.89  0.001957892    2.690    0.628
         8  -9.8968    207.6027     12.2905   4.2393083677e+01   3.1629262024e+01     0.241711    0.2077489  67.72 0.0008157073    1.176    0.150
         9 -11.3674    216.5066      6.2558   3.9979691226e+01   3.0082873523e+01    0.3331516    0.2379366 -15.97  0.001493511    1.732    0.423
        10 -11.8104      7.3143    178.9238   1.2754392763e+02   3.6012777049e+01    0.5625852    0.2823916  42.51    0.0033441    1.936    0.483
        11 -12.3854      7.8570    172.9054   1.2704196609e+02   3.7257903748e+01    0.7023648    0.4170885  48.48  0.004577636    1.622    0.383
        12  -8.6486     71.3182    180.0553   1.1403177630e+02   2.8637580039e+01    0.1729459    0.1414829 -90.00 0.0003286877    1.080    0.074
        13 -10.4829    223.5632    173.2754   8.0077428733e+01   2.5120154578e+00    0.2705218    0.2285105  72.30  0.001079189    1.744    0.427
        14  -8.6074    206.5187    166.9739   8.2001793131e+01   6.7829913471e+00     0.195154    0.1360905 -36.14   0.00013525    1.446    0.308
        15  -8.3758     71.5925    164.4854   1.1195796858e+02   3.2124275434e+01    0.1335501    0.1151959 -89.76 0.0001063995    1.027    0.026
        16 -12.1461     53.6562    152.1023   1.1463556771e+02   3.7353191221e+01    0.7157214    0.4449443 -79.37  0.001828301    1.475    0.322
        17 -11.7414     40.2228    159.5046   1.1876006535e+02   3.7163885824e+01    0.3966541    0.3552772 -42.90  0.001213764    1.467    0.319
        18 -12.1487     46.9643    155.5732   1.1670646906e+02   3.7325482605e+01    0.7135398    0.5236345 -81.75   0.00273207    1.159    0.137
        19 -10.4106    248.9078    249.1638   8.9234278767e+01  -1.1386376514e+01    0.1659653    0.1334601  22.85  0.001260641    1.289    0.224
        20 -11.8000     68.0434    144.1523   1.0984247640e+02   3.7398074892e+01    0.7730627    0.4535472  68.54  0.003556627    2.093    0.522
        21 -10.0541    222.6674    145.0316   7.4153212961e+01   7.3636460246e+00    0.2029092    0.1744621 -21.76 0.0004216824    1.086    0.079
        22 -10.8639    180.2961    143.4132   8.2190710658e+01   1.6554932980e+01    0.3958323    0.3037037 -78.00  0.000950683    1.838    0.456
        23  -9.4065    191.9789    144.0251   7.9877584900e+01   1.3927243065e+01    0.1802242    0.1726085   1.08  0.000460419    1.002    0.002
        24  -9.6854    208.4767    126.5109   7.2465734848e+01   1.3622102071e+01    0.1494328    0.1418069 -21.17 1.302495e-05    1.017    0.016
        25  -9.6676    118.6326    243.9422   1.1174575845e+02   9.1727435049e+00    0.1795563      0.13632  41.62 0.0004111147    1.195    0.163
        26 -10.4150    162.5789    120.2915   8.0539815226e+01   2.5205749027e+01    0.4044949    0.2717034 -64.07   0.00117928    1.927    0.481
        27  -8.9217    151.9989    116.0115   8.1931607912e+01   2.8504598109e+01    0.1842661     0.182197  54.66 0.0009654042    1.021    0.020
        28 -13.2850    206.5160    111.6606   6.9160296810e+01   1.6773457398e+01     1.038941     0.552397  45.20  0.002655085    1.974    0.494
        29  -9.4891    168.2597    114.0133   7.7628183253e+01   2.5197832873e+01    0.2084652    0.1352255 -40.34 0.0008228404    1.525    0.344
        30 -10.7370    134.8986    108.4681   8.4208458539e+01   3.3932370672e+01    0.4877536    0.1675771 -44.09  0.001532549    2.864    0.651
        31 -11.8126    203.5329    103.7719   6.7697182018e+01   1.8899524869e+01    0.4259828    0.4099506  -6.78  0.001459171    1.056    0.053
        32  -9.5202    148.1037    102.1876   7.9174411366e+01   3.2319732895e+01     0.244935    0.2168408  13.65 0.0008445043    1.265    0.209
        33 -10.3809    186.6815     98.6495   6.9600283376e+01   2.3849852836e+01    0.2537456    0.1920446  13.60  0.001122913    1.730    0.422
        34 -10.7448    158.4453     96.9001   7.5227517328e+01   3.0983748045e+01     0.502668    0.2826155  33.50  0.001861176    2.288    0.563
        35 -10.0878    134.4351     98.1017   8.1481726757e+01   3.6277261948e+01    0.2519146    0.2184889  81.68 0.0007102559    1.327    0.246
        36  -8.6019    230.4537    219.4925   8.7530482734e+01  -5.3080561634e+00    0.1225842   0.09930733  14.64 3.181787e-06    1.030    0.029
        37 -11.9497    173.9149     88.8501   6.9514581186e+01   2.8805248809e+01    0.7838359     0.441056  33.26  0.002893446    2.394    0.582
        38  -9.9201    141.9267     92.3379   7.7912624994e+01   3.5788935249e+01    0.3085682    0.2786833  76.12 0.0006948829    1.210    0.173
        39  -8.9254     97.3354     92.2319   9.0256588640e+01   4.5112130342e+01    0.2040357    0.1325932 -55.44 0.0003103732    1.546    0.353
        40 -10.9945    248.7144    158.3170   7.2520311825e+01   3.0736329615e-01    0.2934699    0.2006482 -13.98  0.001560549    1.448    0.309
        41 -10.9757    156.4471     87.7378   7.3059578895e+01   3.3279792221e+01    0.3672216    0.2929115 -22.80  0.001164709    1.366    0.268
        42 -12.0829    173.0752     75.2516   6.5751340790e+01   3.1503557217e+01    0.5219342    0.4096278  15.64  0.002416619    1.599    0.374
        43 -12.9618    182.2635     82.0316   6.5871743897e+01   2.7995985166e+01    0.9844691    0.7315083 -33.30  0.002661098    1.343    0.256
        44 -11.0845    191.0199     79.5266   6.3490609165e+01   2.6263097629e+01    0.3573278    0.3086454  52.36 0.0008835451    1.187    0.158
        45  -9.1574    157.2820     72.6906   6.8351973106e+01   3.5906907884e+01    0.1564407    0.1215068 -70.27 0.0006980109    1.565    0.361
        46 -10.2920    150.9782     71.5255   6.9424622854e+01   3.7671891913e+01    0.2501861    0.2072112 -34.63 0.0008436744    1.208    0.172
        47 -10.8337    112.6002     71.6927   7.9467567285e+01   4.6460072356e+01    0.2830083    0.2600857  23.12 0.0003775326    1.107    0.097
        48 -10.4012    123.4322     69.7745   7.5795749214e+01   4.4482679429e+01    0.2193076    0.1452092 -26.98 0.0005639158    1.644    0.392
        49 -11.3966    196.1677     77.1774   6.1901308900e+01   2.5391672875e+01    0.4494134    0.3589244  40.63  0.001453511    1.360    0.265
        50 -12.4374    134.9142     65.9992   7.1542208757e+01   4.2543594597e+01    0.5926984    0.4346394 -55.08  0.002745564    1.549    0.354
        51 -11.6877    152.9892     62.8140   6.6217298107e+01   3.8708567696e+01    0.6005141    0.1844928  47.73  0.001820406    3.247    0.692
        52 -10.6096    124.2267     54.7488   7.0498199563e+01   4.7004393162e+01    0.2592336    0.2376073 -14.72 0.0003438312    1.081    0.075
        53 -10.9390    176.9461     49.6420   5.7323078312e+01   3.4705647768e+01    0.5627086    0.2863071 -54.04  0.002112711    2.440    0.590
        54 -10.7861    159.3749     50.7537   6.0994665399e+01   3.9051353437e+01    0.2860126    0.1922336  73.49  0.001262774    1.699    0.411
        55  -8.6401    216.5292    196.4829   8.5933891428e+01   1.7562713428e-01    0.1320462    0.1134873  13.87 5.703689e-05    1.012    0.012
        56 -11.1878    192.2015     42.4052   5.2684910407e+01   3.1818673243e+01    0.5869708    0.2335487 -35.60  0.001127368    2.372    0.578
        57 -13.0416    224.6686     62.7161   5.3537836341e+01   2.0781583761e+01     1.081466    0.7587808  73.60  0.001942372    1.547    0.354
        58  -9.7072    190.2330     35.8615   5.1085477138e+01   3.3211270403e+01    0.2695839    0.2264728 -73.15 0.0007828119    1.190    0.160
        59 -12.8959    248.4778     73.0584   5.2968431941e+01   1.3803195612e+01     1.099038    0.6613832 -48.37   0.00414264    1.542    0.351
        60 -12.6507    249.6623     58.0955   4.9260988632e+01   1.5757991910e+01    0.7352204    0.4476137 -33.39 0.0005400831    1.511    0.338
        61 -10.6517    248.0163    194.3134   7.9899853536e+01  -4.7516012010e+00    0.2254174    0.1859406  12.11 0.0001788711    1.078    0.072
        62  -9.8893    178.7516     23.9708   4.9238218617e+01   3.7662619305e+01    0.2852869    0.2408359  53.39  0.001578671    1.183    0.155
        63 -10.5265    213.7534     20.6792   4.3943409825e+01   2.9156740543e+01     0.273264    0.2239156  79.53 0.0003917008    1.157    0.136
        64  -8.9587    217.5526    191.5563   8.4813696010e+01   7.4121782749e-01    0.1340341    0.1136929  11.43 0.0001576284    1.031    0.030
        65  -9.2269    188.9232     17.9804   4.6096115391e+01   3.5727244973e+01    0.2014315    0.1920262 -86.98 0.0004468192    1.063    0.060
        66  -9.6293    218.2229    187.0075   8.3813022524e+01   1.3208379963e+00    0.1680525    0.1055064 -33.13 0.0003939015    1.618    0.382
        67  -9.9859    186.0120    183.1248   8.9345044050e+01   7.9249971613e+00    0.2115365    0.1983882 -16.27 0.0003306954    1.113    0.102
