#   1 NUMBER                 Running object number                                     
#   2 MAG_AUTO               Kron-like elliptical aperture magnitude                    [mag]
#   3 X_IMAGE                Object position along x                                    [pixel]
#   4 Y_IMAGE                Object position along y                                    [pixel]
#   5 X_WORLD                Barycenter position along world x axis                     [deg]
#   6 Y_WORLD                Barycenter position along world y axis                     [deg]
#   7 A_WORLD                Profile RMS along major axis (world units)                 [deg]
#   8 B_WORLD                Profile RMS along minor axis (world units)                 [deg]
#   9 THETA_WORLD            Position angle (CCW/world-x)                               [deg]
#  10 FWHM_WORLD             FWHM assuming a gaussian core                              [deg]
#  11 ELONGATION             A_IMAGE/B_IMAGE                                           
#  12 ELLIPTICITY            1 - B_IMAGE/A_IMAGE                                       
         1 -11.4522    246.1762     13.1995   9.2834777595e+00   2.5437695476e+01    0.2962548    0.1821735 -39.77  0.002051157    1.232    0.188
         2  -9.1807    237.3359    230.6980   5.0243563706e+01  -1.0310150116e+00   0.08217053   0.07261606  -1.35  0.000536565    1.662    0.398
         3  -8.8716    250.2904    227.6703   4.7980769474e+01  -1.7962012076e+00   0.08145769    0.0677903 -20.56 0.0004246328    1.623    0.384
         4  -9.6233    226.8066    173.6156   4.2974421985e+01   7.1894334506e+00    0.1353797    0.1038242  38.53 0.0009517405    1.690    0.408
         5  -9.0465    110.3286    154.3399   6.3109693875e+01   2.8079899100e+01    0.1532146    0.1140989 -14.83 0.0005150279    1.737    0.424
         6  -9.8773    244.2064    149.5622   3.6396281485e+01   8.3937554239e+00    0.1806684    0.1593042 -73.92  0.001358394    1.830    0.454
         7  -9.8412    223.4952    146.4828   3.8608097009e+01   1.1475383967e+01    0.1183163    0.0947297 -26.93 0.0008103049    1.024    0.023
         8  -9.2813     45.3288    146.6794   8.2227273123e+01   3.9687489317e+01    0.1661149   0.09919613  57.60 0.0005674368    1.689    0.408
         9  -9.4331    245.1639    141.0061   3.4742558108e+01   9.4298500281e+00    0.1509603    0.1088166   3.75 0.0006546937    1.611    0.379
        10 -10.9043    243.3746    134.2732   3.3729536400e+01   1.0572816808e+01    0.1824294    0.1333026  20.73  0.001267652    1.688    0.408
        11  -9.2861     98.5200    135.5025   6.2852300719e+01   3.4598557457e+01    0.1520182    0.1481462  53.58 0.0005463284    1.019    0.018
        12  -9.0854     70.4923    133.4692   7.1504749366e+01   3.9808071083e+01    0.1548917    0.1471121  61.26 0.0008097868    1.015    0.015
        13 -11.0835    249.3686    130.3624   3.2302546230e+01   1.0332365650e+01    0.1964379    0.1666487 -58.92   0.00149655    1.535    0.349
        14  -9.2763    222.3355    129.6629   3.5550922711e+01   1.4123561012e+01    0.1180125   0.08528409 -58.54 0.0005205026    1.748    0.428
        15 -10.2447    242.8451    128.1698   3.2657837578e+01   1.1479187888e+01    0.1562354    0.1132584 -18.25 0.0008137672    1.310    0.236
        16 -10.7096     74.6030    125.0079   6.8476912047e+01   4.1396038260e+01    0.3333747    0.1782221  20.41  0.001200735    2.455    0.593
        17  -9.2765    213.3040    122.6584   3.5399908587e+01   1.6549761827e+01    0.1228213   0.08724981 -58.19 0.0007040218    1.680    0.405
        18 -11.4073     59.7689    120.8138   7.3050351150e+01   4.4852514307e+01    0.3568944     0.294249  65.17  0.001757711    1.212    0.175
        19 -10.4758    101.0346    120.0000   5.8716705454e+01   3.7932903858e+01    0.3713325    0.2072477  24.73  0.001357566    2.460    0.593
        20 -10.6862    248.6841    119.1641   3.0299075237e+01   1.1926519426e+01    0.1851978    0.1108211 -44.38   0.00113788    1.455    0.313
        21 -10.0104     77.0142    119.7675   6.6550546991e+01   4.2372947547e+01    0.2160177    0.1287605  35.46  0.000882269    1.646    0.392
        22  -9.8368     31.0109    119.5098   8.4221773832e+01   4.8836226169e+01    0.2327938    0.1472564  23.48  0.001040534    1.613    0.380
        23 -10.9189     68.4947    112.7990   6.8139976004e+01   4.5656616490e+01    0.3076933    0.2229193  35.55  0.001401916    1.365    0.267
        24 -10.7580     98.5251    110.5021   5.7211073982e+01   4.0737371834e+01    0.3358279    0.2936142  -9.94  0.001650457    1.401    0.286
        25 -11.6938     80.9119    110.1201   6.3000506855e+01   4.4197907956e+01    0.5246181    0.2353051  26.57  0.001666842    3.069    0.674
        26 -11.4387    249.3157    107.9606   2.8105765293e+01   1.3345554774e+01    0.2335131    0.1824367 -57.98  0.001343323    1.451    0.311
        27 -12.2607    236.6073    101.7938   2.8252341194e+01   1.6027386905e+01    0.3115786    0.2186315 -59.32  0.002014275    1.600    0.375
        28  -9.4312     44.6628    102.3254   7.5626201587e+01   5.2092731411e+01    0.1697161    0.1095058  61.74 0.0007051434    1.722    0.419
        29 -10.0205    115.1679     98.8449   4.9201858069e+01   4.0004422757e+01    0.2143565    0.1937445  -0.98 0.0006649234    1.342    0.255
        30 -10.8020    248.9850     98.0222   2.6221145834e+01   1.4719133264e+01    0.1837217    0.1087759 -52.86  0.001133674    1.698    0.411
        31  -9.7097    230.3248     95.6434   2.7690769950e+01   1.7865026616e+01    0.1257699   0.07607129 -56.21 0.0007045305    1.771    0.435
        32 -11.5078    248.1804     92.2146   2.5163464261e+01   1.5607042483e+01    0.1958573    0.1427169 -64.31  0.001212093    1.584    0.369
        33 -11.8339    237.4233     90.7530   2.5932864125e+01   1.7430117499e+01    0.2284004    0.1533834 -55.74  0.001351025    1.486    0.327
        34 -10.3307     67.6540     90.6599   6.3055666193e+01   5.1643455921e+01    0.1644446    0.1250242 -19.30 0.0007047195    1.785    0.440
        35 -10.9668    232.4332     86.1480   2.5494463355e+01   1.8856638893e+01    0.2270266    0.1252448 -60.86  0.001202487    2.220    0.550
        36 -12.5430     83.6849     84.9638   5.5210965373e+01   4.9952611690e+01    0.5039135    0.3810345  22.37  0.002256168    1.660    0.397
        37 -12.4583    244.6071     83.1127   2.3689050192e+01   1.7348497026e+01    0.3964126    0.2119334 -58.78  0.002221966    2.151    0.535
        38 -10.6623    249.9961     81.3192   2.2847332000e+01   1.6765592782e+01     0.154793    0.1248006 -40.85 0.0007993459    1.094    0.086
        39 -10.7573    104.9840     79.2805   4.6390629832e+01   4.6579676027e+01     0.229439    0.2084984  66.16 0.0009839392    1.073    0.068
        40 -11.1511     77.4901     78.0150   5.5361005629e+01   5.2887247088e+01    0.3335137    0.2453966  44.17  0.001534466    1.340    0.254
        41 -11.5441    248.9726     74.4775   2.1573668771e+01   1.7802769007e+01    0.3976545     0.172187 -50.91  0.002127259    2.096    0.523
        42 -11.4906    245.7190     71.7534   2.1297561137e+01   1.8658094097e+01    0.2533365    0.1998612  89.30  0.001853397    1.559    0.358
        43 -10.2909    245.0497     77.4604   2.2509860738e+01   1.8022860699e+01    0.1394261    0.1136817  75.67  0.001022277    1.568    0.362
        44 -11.9995    235.7527     71.9469   2.2203461434e+01   2.0239227939e+01    0.3352267    0.1877278 -68.68  0.001826703    2.321    0.569
        45  -9.8966    118.5168     71.9872   4.0316407307e+01   4.4907387629e+01    0.2090555    0.1410008 -15.11  0.000809914    2.504    0.601
        46 -11.4352     97.1332     69.1560   4.5467431150e+01   5.0545451062e+01    0.2409299    0.2256739  21.84  0.001249788    1.244    0.196
        47 -11.6131     87.4484     69.1392   4.8693793081e+01   5.2765951677e+01    0.3349003     0.205143  63.88  0.001341105    1.934    0.483
        48  -9.5372     13.8259     68.6038   8.4888536275e+01   6.4628015984e+01    0.2118515    0.1205458  32.07 0.0009533222    1.763    0.433
        49 -12.4852    239.7295     51.5974   1.7607381067e+01   2.2180776504e+01    0.3704958    0.2846325 -35.03  0.002629795    1.218    0.179
        50  -9.6204    248.7508     64.9975   1.9687978713e+01   1.9039969800e+01    0.1630916     0.144598  41.63  0.001120816    1.597    0.374
        51 -10.5927    250.2515     55.9751   1.7758834303e+01   1.9918461556e+01    0.4623331   0.09819756 -38.33  0.001990891    2.828    0.646
        52 -12.2800    242.8784     59.5270   1.9023510683e+01   2.0669442770e+01    0.6969912    0.2462454 -25.37  0.002682882    4.039    0.752
        53  -9.6969    246.4995     56.0300   1.8036335726e+01   2.0513970455e+01     0.331035    0.1317284 -40.93  0.001635125    1.748    0.428
        54  -9.4461     48.4986     62.5484   6.3175326490e+01   6.2061246915e+01    0.1491622    0.1449402  63.21  6.49603e-05    1.022    0.021
        55 -11.7582     89.7214     58.7352   4.4127671158e+01   5.4416732864e+01    0.3482503    0.2715693  12.51  0.001575507    1.870    0.465
        56  -9.5995     42.6488     54.3240   6.3364488514e+01   6.4992778784e+01    0.1559972    0.1128765  67.74 0.0007048239    1.755    0.430
        57 -12.4257    231.0328     49.6887   1.7843604956e+01   2.3922774340e+01     0.522512    0.1389311 -44.66  0.002262352    2.622    0.619
        58 -13.0840     87.0533     47.7537   4.0679605552e+01   5.7158653692e+01    0.5515516    0.4522723   9.39  0.002690093    1.659    0.397
        59 -11.3750    246.9720     47.4655   1.6253431488e+01   2.1475638762e+01    0.2418235    0.1044191 -45.94  0.001367431    1.663    0.399
        60 -11.1976     61.0087     45.2895   4.9941968822e+01   6.3565116539e+01     0.221253    0.2001689  51.68  0.001194012    1.063    0.060
        61 -11.9702     72.4933     43.0214   4.3939861261e+01   6.1473524091e+01    0.3257823    0.2297681  51.62  0.001555087    1.350    0.259
        62 -12.3579     86.6854     39.2162   3.7163167892e+01   5.8742198934e+01    0.4831862    0.2795284  78.30  0.001873026    2.383    0.580
        63 -12.2406     80.7838     37.1875   3.8208825406e+01   6.0533094230e+01     0.411224    0.2540647 -69.25  0.001662658    2.339    0.573
        64 -11.0191     66.0166     36.5190   4.3558949864e+01   6.4137046546e+01    0.2357961    0.1390028  52.02 0.0007864346    1.610    0.379
        65 -10.8730    242.6484     38.3400   1.4642731899e+01   2.3275814702e+01    0.1927964   0.09299824 -54.88  0.001118032    1.705    0.413
