#   1 NUMBER                 Running object number                                     
#   2 MAG_AUTO               Kron-like elliptical aperture magnitude                    [mag]
#   3 X_IMAGE                Object position along x                                    [pixel]
#   4 Y_IMAGE                Object position along y                                    [pixel]
#   5 X_WORLD                Barycenter position along world x axis                     [deg]
#   6 Y_WORLD                Barycenter position along world y axis                     [deg]
#   7 A_WORLD                Profile RMS along major axis (world units)                 [deg]
#   8 B_WORLD                Profile RMS along minor axis (world units)                 [deg]
#   9 THETA_WORLD            Position angle (CCW/world-x)                               [deg]
#  10 FWHM_WORLD             FWHM assuming a gaussian core                              [deg]
#  11 ELONGATION             A_IMAGE/B_IMAGE                                           
#  12 ELLIPTICITY            1 - B_IMAGE/A_IMAGE                                       
         1 -11.7334     14.8493     38.4601   9.4626097819e+01   6.7559415033e+01    0.6271128    0.3962554 -52.21  0.002070769    1.517    0.341
         2  -9.6427     71.2805     51.3482   7.5090389482e+01   5.8094264122e+01    0.8266927    0.4481797 -31.59  0.003850737    1.873    0.466
         3 -10.4819     39.7736     17.4392   7.3604370972e+01   6.8172959127e+01     0.855772    0.3507782  21.31  0.003212085    4.106    0.756
         4 -11.7870    107.0857     29.6445   5.5749456297e+01   5.4053872941e+01    0.5641035    0.5439629 -56.90  0.001562387    1.195    0.163
         5 -10.8212     16.8135     17.5562   8.5118709139e+01   7.0921860128e+01    0.4685782    0.2631755   8.60  0.001514872    1.839    0.456
         6 -11.6914     18.7862     28.1793   8.8713575757e+01   6.9032809867e+01    0.5228139    0.3232919 -47.56  0.000742898    1.624    0.384
         7  -9.3234    207.5063     15.4581   3.5661345878e+01   3.1664277198e+01    0.3650289    0.1517827 -35.87  0.001717089    2.272    0.560
         8 -10.7730    217.9224     18.6571   3.5448507220e+01   2.8958291735e+01    0.5636296    0.2931857  87.65  0.002325064    1.950    0.487
         9  -9.5726    211.0213     15.0667   3.5248484847e+01   3.0908690144e+01    0.3239777     0.177308 -60.28 0.0007197299    1.739    0.425
        10 -10.3222    174.0723     22.6374   4.1175999389e+01   3.8778314667e+01    0.4189702    0.3659072  16.44  0.001758347    1.450    0.310
        11 -10.7960     26.5663     21.6166   8.1901827677e+01   6.9271037373e+01    0.4147038    0.2414214 -16.77  0.001881866    1.707    0.414
        12 -11.7823      2.0141     24.9678   9.6392502622e+01   7.0903863541e+01    0.2915627    0.1534707 -52.46 0.0007011685    1.737    0.424
        13  -9.5111    151.2104     19.1029   4.3399089924e+01   4.4740638240e+01    0.4359587    0.2394686  34.25  0.001399314    2.419    0.587
        14  -9.7951     62.2712     23.2206   6.6972372150e+01   6.3866323737e+01    0.7737507    0.3975682  41.56   0.00394358    1.814    0.449
        15 -10.7518     61.7445     16.7048   6.4229764108e+01   6.4748986758e+01    0.5049675    0.3167528   6.73  0.002480222    1.771    0.435
        16 -10.2957     67.1704     15.9095   6.1929794245e+01   6.3855513120e+01    0.3529558    0.2917931  83.66  0.002110229    1.967    0.491
        17 -11.7213    166.4182     17.3325   4.0709791455e+01   4.1211567401e+01     0.562784    0.3639497   4.51  0.002748203    2.409    0.585
        18  -6.0176      6.0692      8.6154   8.6942165041e+01   7.3243941450e+01     0.406108    0.1686057  28.65  0.002250879    2.516    0.603
        19 -11.6077      6.7880     15.6856   8.9852229172e+01   7.2107255451e+01    0.5439403    0.4241911   2.56  0.002228637    1.241    0.194
        20 -10.7345     13.6534     11.3884   8.3918450869e+01   7.2146383191e+01    0.3244289    0.2030574  -2.93  0.001207741    1.471    0.320
        21 -11.4318     15.6869      3.5298   7.8710862753e+01   7.3006754986e+01    0.5262281    0.3242988   4.82  0.002168153    1.481    0.325
        22 -11.6108     24.9329      6.9451   7.5539701266e+01   7.1493767316e+01    0.2142174    0.1735274 -17.77            0    1.263    0.208
        23 -11.6014     20.9120      6.4833   7.7415853200e+01   7.2036522625e+01    0.4016676    0.2326082  -9.18 0.0008076164    1.708    0.414
        24 -10.6370    182.6676     17.7689   3.8814877689e+01   3.7235641152e+01    0.5111547    0.3276878  30.68  0.001282017    2.314    0.568
        25 -10.2436    230.3838     14.6373   3.3529433763e+01   2.6692500977e+01    0.3493645    0.2266688 -57.60  0.001872009    1.307    0.235
        26 -10.5454    198.1324     17.0273   3.6948143832e+01   3.3655834248e+01    0.5288251     0.278396 -64.67  0.002026957    2.018    0.505
        27  -9.0951    111.1050     16.3081   4.9862065167e+01   5.4598666596e+01    0.4417295    0.2126639  28.62  0.001796566    2.883    0.653
        28  -9.9922    117.0779     15.1714   4.8178537160e+01   5.3327406503e+01    0.3607665    0.2087313  44.47 0.0007812745    1.593    0.372
        29 -10.5210    174.8589     11.8789   3.8162030597e+01   3.9721878526e+01    0.5313512    0.3536536  48.21  0.002929406    1.633    0.388
        30 -10.5779    243.9640     13.5161   3.2293431972e+01   2.3977565292e+01    0.2989525    0.1835973  46.89  0.001257881    2.446    0.591
        31 -10.2396     99.1096     13.2068   5.1459514012e+01   5.7600065588e+01    0.3521771    0.2669448 -78.72 0.0009365702    1.860    0.462
        32  -9.4111     98.2855      7.0318   4.9228136076e+01   5.8337061011e+01      0.30464    0.1760613  24.07  0.001540473    1.977    0.494
        33 -10.3011     55.9708     11.6745   6.4041674928e+01   6.6321706016e+01    0.4345473    0.3346588  69.01 0.0006564477    2.143    0.533
        34  -9.8338     52.5863     10.6015   6.4839277735e+01   6.7013737682e+01    0.4244701    0.2199668 -19.44  0.002247718    1.998    0.499
        35  -9.9443     32.5887     12.5742   7.4595541813e+01   6.9794622871e+01     0.212716    0.1930378 -13.15  0.001059373    1.397    0.284
        36  -9.3497    219.1628     11.8297   3.3817038120e+01   2.9442360815e+01    0.3090073    0.1582399 -49.66  0.001651954    1.725    0.420
        37  -9.2943    153.0388     12.4850   4.1139832821e+01   4.4955336723e+01    0.3445766    0.1974253 -87.38  0.001135462    2.055    0.513
        38 -10.5556    145.8511     12.3323   4.2147214787e+01   4.6717421822e+01    0.4872382    0.2632543  78.60  0.002304037    1.902    0.474
        39 -10.2366    133.1441     12.6982   4.4311419551e+01   4.9753585384e+01    0.2104634    0.2023938  65.69 0.0002989692    1.090    0.083
        40  -8.5235     84.5203      8.5893   5.3342573411e+01   6.1161320308e+01    0.1677009    0.1109168  59.71 0.0002702109    1.506    0.336
        41  -8.7976     88.2269      6.5677   5.1506228683e+01   6.0558798565e+01    0.3286007    0.1456212  53.89  0.001325814    1.888    0.470
        42  -9.7229     88.9832     12.8465   5.3908270239e+01   5.9825953330e+01    0.2472796    0.2095444  42.21 0.0004144154    1.063    0.059
        43  -9.5711     90.7096      9.0337   5.1885458954e+01   5.9812556024e+01    0.3619995    0.1544662  36.39  0.001370373    2.429    0.588
        44  -9.8725     78.8991     11.6618   5.6268569930e+01   6.2025864012e+01    0.2228642    0.1751619   6.45 0.0002041897    1.245    0.197
        45 -10.4757    191.9140      8.3303   3.5432451681e+01   3.6020253823e+01    0.4306507    0.3299276 -88.32  0.001321085    1.129    0.114
        46 -10.8166    194.8714      3.7456   3.4037316124e+01   3.5780121311e+01    0.6075795    0.3540133  70.32  0.002785947    1.524    0.344
        47  -9.9156     42.9661     10.0557   6.8560915460e+01   6.8617938443e+01    0.3576423    0.1562671  34.05  0.001557469    2.130    0.531
        48 -10.1544    224.5099      9.0422   3.2785003852e+01   2.8572320285e+01    0.2511199    0.1851637 -53.84 0.0005277544    1.203    0.169
        49  -9.6923    212.2854      9.1637   3.3790247673e+01   3.1257842709e+01    0.3791602    0.1925268  58.52  0.001965138    2.048    0.512
        50  -9.3050    120.0884      9.0554   4.5418689696e+01   5.3183756578e+01    0.2595712    0.1809832 -13.11 0.0006509655    1.669    0.401
        51 -10.1649    202.1186      8.3311   3.4479308206e+01   3.3652497381e+01    0.3044516    0.2183567 -76.29  0.001720603    1.233    0.189
        52  -8.7485    165.4420      9.2011   3.8554745741e+01   4.2255520671e+01     0.182295     0.108208 -44.79 0.0009510769    1.744    0.427
        53 -10.6005    231.9800      4.9085   3.1368674442e+01   2.7410609541e+01    0.4567919    0.2306861 -26.63  0.002411369    2.383    0.580
        54 -10.3922    237.8575      3.0396   3.0593239965e+01   2.6376194348e+01     0.349771    0.2029332  62.81  0.002089365    1.872    0.466
        55  -9.4262    127.7619      8.2354   4.3752158096e+01   5.1441372139e+01    0.3609841    0.1443577  65.01  0.001494757    2.160    0.537
        56  -9.9080    106.7558      6.2220   4.7042472133e+01   5.6505799316e+01    0.3603631     0.330503 -48.27  0.001507827    1.288    0.223
        57  -8.7821    108.7759      1.3448   4.4808823548e+01   5.6431924030e+01    0.2028712      0.11116  64.69 0.0006402325    1.612    0.380
        58  -9.3126    111.9353      4.5003   4.5352274494e+01   5.5461252873e+01    0.1921813    0.1727889 -41.81 0.0005824918    1.296    0.228
        59 -10.5637    115.7836      1.9473   4.3701597371e+01   5.4771554079e+01    0.2474413     0.161479  65.64 0.0003367974    1.348    0.258
        60  -8.8821    119.4805      1.5428   4.2896961888e+01   5.3940908513e+01    0.1745013    0.1669777 -47.18 0.0007550724    1.209    0.173
        61  -9.0079     74.4617      8.0067   5.5999355146e+01   6.3260080974e+01    0.2216964    0.1565217  44.04 0.0007732817    1.230    0.187
        62  -8.5326     81.2399      1.4344   5.1161537772e+01   6.2448476706e+01    0.2949889     0.143145  59.03  0.001332159    1.903    0.475
        63 -10.5656     74.2628      2.7154   5.3684836998e+01   6.3765182256e+01    0.3105562    0.2731482  31.01   0.00136108    1.097    0.088
        64 -10.2633     69.2904      1.9813   5.4848357606e+01   6.4806904675e+01    0.2890221    0.1608757  34.56 0.0008943076    1.584    0.369
        65 -10.6822    208.5039      3.9865   3.2927393663e+01   3.2638210194e+01    0.4057681    0.3498963 -40.70  0.002165342    1.312    0.238
        66  -8.8544     69.5282      7.0963   5.7131429338e+01   6.4308136588e+01    0.1681127    0.1149426 -18.27 0.0004727554    1.519    0.342
        67 -10.2037     39.1596      3.4921   6.6862036297e+01   6.9924138005e+01    0.3630126    0.2648846  15.91  0.002183253    1.115    0.103
        68 -10.2051     30.9693      3.2692   7.0549758447e+01   7.1138322743e+01    0.3100796    0.1961896 -26.41  0.000626381    1.526    0.345
        69  -8.7094     35.3188      1.9121   6.7759129653e+01   7.0665441073e+01    0.1797475    0.1138629  -4.87  0.000318199    1.478    0.323
        70 -10.5436    248.0137      4.9642   3.0331280247e+01   2.4100274579e+01    0.2419713    0.2013158 -74.54 0.0003336318    1.136    0.119
        71  -9.3500    250.3017      1.6642   2.9555573340e+01   2.3995410876e+01     0.215108    0.1317725 -73.47  0.001149298    1.353    0.261
        72  -9.3452     61.9602      5.2418   5.8783112727e+01   6.5906512422e+01    0.2352407    0.1570035  -5.80 0.0007897489    1.510    0.338
        73  -9.5050    153.0367      4.0621   3.8647082652e+01   4.5720105324e+01     0.225343    0.1748389 -38.75 0.0008902581    1.417    0.294
        74 -10.5398    218.3170      2.7693   3.1893728438e+01   3.0576906562e+01     0.302391     0.216485  79.43 0.0008861608    1.270    0.213
        75 -11.0525    160.3997      2.7907   3.7364713648e+01   4.4052187098e+01    0.4864044    0.2529271  66.54  0.001790723    1.624    0.384
        76 -11.7444    179.6334      2.0991   3.5074500414e+01   3.9509634864e+01    0.2661465    0.1833589  79.71 0.0004284617    1.251    0.201
        77  -8.0241    140.6929      3.7116   4.0233054547e+01   4.8727214536e+01    0.1313211   0.08452279  43.70 0.0002816681    1.573    0.364
        78  -8.0910    134.3358      3.3212   4.1057810704e+01   5.0284108164e+01    0.1375836   0.08252341  41.42 0.0007050121    1.707    0.414
        79 -10.4625     90.5049      1.9197   4.9011323676e+01   6.0451184383e+01    0.3962923    0.1814875  63.35  0.001384715    2.101    0.524
        80  -9.3041      2.8439      2.7979   8.5946592062e+01   7.4351856387e+01    0.2211556    0.1157456 -20.05 0.0008618564    1.707    0.414
        81  -8.5485     55.6566      2.1939   5.9536052464e+01   6.7327333225e+01    0.1579511   0.09790968  -3.09 0.0001102993    1.654    0.395
        82  -9.3126     50.1831      1.9202   6.1458623061e+01   6.8303856957e+01    0.2323599    0.1396237  36.21 0.0008053451    1.411    0.291
        83  -8.2601    228.2603      1.3727   3.0888875885e+01   2.8566547669e+01    0.1030182   0.08969709  38.92 0.0006977819    1.655    0.396
        84  -8.3392    186.0035      1.0000   3.4178975418e+01   3.8106883906e+01    0.2056426   0.06196332  73.38 0.0007535231    2.896    0.655
        85  -8.7442    121.5119    112.0181   7.8267478999e+01   3.6133823404e+01    0.2193106    0.1375659 -70.12 0.0008090406    2.431    0.589
        86  -9.5137    201.5112    249.5396   8.7687061742e+01  -5.6108408496e+00    0.2145213    0.1650708  17.66 0.0006173488    1.046    0.044
        87  -9.4396     62.9638    110.8715   9.5779196525e+01   4.6696736494e+01    0.2363717    0.1867068 -54.82 0.0002648351    1.152    0.132
        88  -9.1859      3.2161    102.8415   1.1425051829e+02   5.4317456587e+01    0.2499753    0.1462414 -82.94 0.0008377972    1.633    0.388
        89  -9.8215      6.8658     89.1274   1.1082687712e+02   5.7332064287e+01    0.2092601    0.1837939 -64.45 0.0008227007    1.106    0.096
        90  -9.2553      6.6582     94.2739   1.1176964313e+02   5.6144102759e+01    0.2720237    0.2074918 -88.36  0.001703819    1.366    0.268
        91 -10.8211      7.3414    107.8439   1.1361271668e+02   5.2886146080e+01    0.4803982     0.301512 -50.26  0.001745964    1.403    0.287
        92  -9.4996      2.4147    109.2060   1.1538061616e+02   5.2847908455e+01    0.2538027    0.1865961 -87.63  0.001044762    1.285    0.222
        93  -9.2391      8.5237     98.5647   1.1181704530e+02   5.5023562493e+01    0.2335282     0.144579 -68.35 0.0007191545    1.328    0.247
        94  -9.4490      4.4294     98.0122   1.1313157139e+02   5.5391664408e+01    0.2726343    0.2406431  23.55  0.001887852    1.395    0.283
        95 -11.3205     37.2685    105.2942   1.0317630387e+02   5.1105438154e+01     1.110077    0.3919864 -63.54  0.004267634    2.546    0.607
        96 -10.0738     22.6520     94.8457   1.0620174731e+02   5.4917133949e+01     0.308672     0.248268 -46.24 0.0005561769    1.107    0.097
        97  -9.4292     27.5047     91.9409   1.0385969239e+02   5.5198370327e+01    0.2436042    0.2119616 -63.60 0.0006101022    1.104    0.094
        98 -10.7681     22.2077     87.7618   1.0492690515e+02   5.6609425453e+01    0.4175937    0.2759882  37.03  0.002355752    1.800    0.444
        99 -11.1847     30.3610     85.3651   1.0134242962e+02   5.6469811033e+01    0.5134966    0.3062075 -52.76  0.002720389    1.391    0.281
       100  -9.4916     33.7968     90.4487   1.0123227839e+02   5.4973177144e+01    0.2607265     0.173461 -38.17 0.0009960175    1.421    0.296
       101 -10.5204    117.4736    106.6435   7.7940744029e+01   3.8172255225e+01    0.5102023    0.2920699 -33.80  0.001342445    2.006    0.502
       102  -8.3821    183.7861    107.3894   6.2388248685e+01   2.3209022368e+01    0.1895435    0.1435442  40.92 0.0001415004    1.430    0.301
       103 -10.3915     93.6933    104.6669   8.4404833942e+01   4.3256431154e+01    0.5211992    0.3775035  86.93  0.002255165    2.118    0.528
       104 -11.7740     88.6896    103.6069   8.5680374760e+01   4.4393897406e+01     0.473969    0.3195804  52.71 0.0001536501    1.727    0.421
       105  -9.5601     63.2816    104.4797   9.4176503582e+01   4.8190925221e+01    0.3057396     0.227137  -4.67 0.0009601242    1.699    0.412
       106  -8.5531     43.1865     96.0815   9.9129994555e+01   5.2686488822e+01    0.1704417    0.1372691 -53.43 0.0003803817    1.088    0.081
       107 -10.4840     49.2045    101.4237   9.8247415487e+01   5.0732003425e+01    0.5239756    0.4077738 -83.23  0.002509352    1.490    0.329
       108  -9.1694     43.1179     99.6327   9.9958189825e+01   5.1852060950e+01     0.386866    0.2045363  47.36  0.001437811    2.407    0.584
       109  -8.7237    105.8347     91.0143   7.6867044536e+01   4.3950533738e+01     0.390034    0.1886441  46.95  0.001498942    2.168    0.539
       110 -10.8401    101.9053    102.3657   8.1280219864e+01   4.2243436679e+01    0.4663828    0.3586951  12.12 0.0007735521    1.604    0.377
       111  -9.7422    101.4033     98.5016   8.0355263752e+01   4.3202663880e+01    0.2848739    0.2556845 -16.70 0.0006762776    1.160    0.138
       112  -8.7345    134.3708    103.2318   7.2460757950e+01   3.5286026253e+01    0.2145514    0.1442006 -52.84 0.0003072876    1.564    0.361
       113  -9.5183     70.1264    103.5390   9.1665234036e+01   4.7427698412e+01    0.3166848    0.1309749  40.19  0.001200812    2.589    0.614
       114 -11.3546    108.9332     96.5508   7.7563269640e+01   4.2137948655e+01    0.5820438    0.4772291 -62.35   0.00163849    1.345    0.257
       115  -9.7422     78.8437    100.2981   8.7957454853e+01   4.6824747783e+01    0.4258974    0.2575519  62.26  0.001680626    2.655    0.623
       116  -9.4606     72.2090     99.7989   9.0017097545e+01   4.7989867622e+01    0.2610955     0.191815 -64.04  0.001291074    1.449    0.310
       117  -9.9448     16.7363     98.9814   1.0905296374e+02   5.4382639608e+01    0.4063165    0.2342686 -30.27  0.002103588    1.971    0.493
       118  -9.7827    124.0865     98.2178   7.3772584440e+01   3.8600783780e+01    0.4291742    0.2954034  10.76  0.001727973    2.240    0.553
       119 -10.5864    117.6161     97.9722   7.5485219805e+01   4.0035405697e+01     0.266231    0.2410696  35.74 0.0002646494    1.124    0.111
       120  -9.9816     31.8516     93.8092   1.0268334096e+02   5.4370136595e+01    0.4591987    0.2753007 -83.51  0.001549101    2.232    0.552
       121  -9.1563    156.1352     95.7526   6.5130810454e+01   3.1847631850e+01    0.4687571    0.2115935 -44.70  0.001715836    2.199    0.545
       122  -8.7665    130.6571     96.0620   7.1409945868e+01   3.7611238352e+01    0.2193559    0.1979219 -30.80 0.0005661041    1.120    0.107
       123  -9.2525     74.4733    105.5382   9.0738462232e+01   4.6293279649e+01    0.3201094     0.134658 -52.47  0.001211987    2.187    0.543
       124  -9.0539     80.0479     95.2524   8.6194195983e+01   4.7780864638e+01    0.2855412    0.1945967 -29.35 0.0009603691    1.632    0.387
       125  -8.9782     63.4746     96.4414   9.2105620573e+01   5.0056939921e+01    0.2409253    0.1250225  44.23  0.001017767    2.234    0.552
       126  -9.1061     12.7961     95.4304   1.0980824597e+02   5.5493658948e+01    0.2573001    0.1535354 -68.38  0.001407757    1.424    0.298
       127  -8.6903    166.7769     94.4069   6.2445626932e+01   2.9618570288e+01    0.2065616    0.1429352  41.45 0.0003713782    1.557    0.358
       128 -10.4868     43.5963     88.2322   9.7100134517e+01   5.4468893440e+01    0.4231687    0.2383981  25.90 0.0005268943    1.983    0.496
       129  -9.7562     47.2941     92.1109   9.6714529192e+01   5.3150646956e+01    0.4405215    0.1690895 -50.91  0.001777413    2.190    0.543
       130  -9.4280     48.0089     88.2158   9.5476785830e+01   5.3964326206e+01    0.1998293    0.1638602 -32.85  0.001146295    1.148    0.129
       131  -9.0577      2.0127     92.7995   1.1316199021e+02   5.6742053657e+01    0.2245972    0.1493435 -84.83 0.0007418157    1.505    0.336
       132  -9.3506      1.5017     88.1042   1.1259167899e+02   5.7856579305e+01    0.2658661   0.09450865 -58.84 0.0008687737    1.989    0.497
       133  -8.2975    117.2928     91.3200   7.3649962748e+01   4.1507420196e+01    0.1545551    0.1212459  -2.31  0.000701308    1.607    0.378
       134  -9.3640     52.3932     90.1237   9.4376212169e+01   5.2992272731e+01    0.2162282    0.1825142 -15.71 0.0007013392    1.235    0.190
       135 -10.1840     65.4881     85.5442   8.8442384232e+01   5.2239839652e+01    0.2907124    0.2584476 -21.52  0.000557773    1.085    0.078
       136 -11.0672     86.2559     87.8776   8.2044986708e+01   4.8345186632e+01     0.374558    0.3372566 -16.11 0.0004888617    1.106    0.096
       137  -8.8886     70.4133     86.7713   8.7064948922e+01   5.1224404229e+01    0.2564728    0.1919677 -42.75 0.0007518145    1.236    0.191
       138 -10.7051     80.8170     83.6185   8.2575702945e+01   5.0210714217e+01    0.3712565    0.3151131  28.24 0.0007494249    1.217    0.178
       139 -10.5585     73.6025     80.9736   8.4244930273e+01   5.1977934163e+01    0.6097133    0.3787495 -52.97  0.002499846    1.643    0.391
       140 -10.1236     16.7552     87.1858   1.0683492149e+02   5.7150185645e+01    0.3344448    0.2016627 -64.17 0.0009791724    1.412    0.292
       141 -10.2739    118.0610     83.7075   7.1156997317e+01   4.2887785424e+01     0.369876    0.3522791   4.98  0.002010262    1.059    0.056
       142 -10.1481    123.4604     86.9958   7.0672495923e+01   4.1050893722e+01    0.3549074    0.3202947  84.94 0.0009293432    1.257    0.205
       143 -11.0212    128.8514     85.3462   6.8751409753e+01   4.0176129745e+01    0.6409946    0.4215252  20.08  0.002591214    2.226    0.551
       144  -9.0543     97.6656     88.1451   7.8494178882e+01   4.6170945622e+01    0.2665892    0.2174124  76.41  0.001305575    1.609    0.379
       145  -8.8816     94.0398     87.7149   7.9498850358e+01   4.6953923936e+01    0.1985436    0.1833643  22.87  0.000175369    1.100    0.091
       146  -8.8666     58.1009     87.1633   9.1533681422e+01   5.2922232776e+01    0.1759008    0.1619412  72.89  0.001023264    1.312    0.238
       147 -10.1481    155.3058     84.3121   6.2108320278e+01   3.4224606256e+01    0.3788559    0.2062157 -36.51  0.000936111    1.868    0.465
       148 -11.2680    150.0634     80.6176   6.2210304349e+01   3.6149289318e+01    0.5340381    0.2943373  56.70  0.001389292    1.875    0.467
       149 -12.7900     52.9978     74.7254   8.9873931828e+01   5.6330334788e+01    0.5595991    0.3030553 -55.23 0.0007096951    1.845    0.458
       150 -10.7143     45.4340     68.4890   9.0935630863e+01   5.8597175085e+01    0.5174708    0.2570599 -38.44 0.0009495203    1.897    0.473
       151  -9.9510     48.2685     82.4973   9.3872960302e+01   5.5226132250e+01    0.5294529    0.2643222  50.66  0.001657185    3.150    0.683
       152 -10.1703     42.6182     81.1402   9.5640656108e+01   5.6185286900e+01    0.6998884    0.2105359  38.33  0.002502047    3.813    0.738
       153 -10.2598     20.5311     80.0862   1.0389358626e+02   5.8497667899e+01     0.352682    0.2082516 -54.70  0.001930759    1.371    0.270
       154 -10.4238     56.2678     82.0121   9.0768088170e+01   5.4316667530e+01    0.5300779    0.3989934   4.57  0.002847772    1.510    0.338
       155  -9.2798      2.5646     80.4456   1.1087532066e+02   5.9554959466e+01    0.1905605    0.1791711   4.23  0.001383405    1.297    0.229
       156 -10.4895    166.9891     79.5613   5.8319575301e+01   3.2295466021e+01    0.3255956    0.2129012 -35.39  0.001476694    1.552    0.356
       157  -8.2422     63.0000     79.9853   8.7719243218e+01   5.3819222027e+01    0.2254316   0.07453149 -50.65 0.0007831482    2.810    0.644
       158  -8.9032     90.2083     78.8120   7.7993464024e+01   4.9528268311e+01    0.2820239     0.204631 -89.67  0.001032293    2.435    0.589
       159  -9.0669     80.8062     76.3382   8.0328348298e+01   5.1733527777e+01    0.4400908    0.2631748  16.28  0.001809265    2.415    0.586
       160 -10.5070     88.3757     72.7115   7.6635445280e+01   5.1090474497e+01    0.5320125    0.3691186   9.67  0.002449943    1.884    0.469
       161  -9.6991     64.6752     75.5306   8.5762354904e+01   5.4520590358e+01    0.4547403    0.2864759 -65.85  0.001661455    2.226    0.551
       162  -9.9197     69.0153     74.5316   8.3878933563e+01   5.4062499614e+01    0.2483325    0.2036395 -34.90 0.0003835924    1.128    0.113
       163  -8.0204     64.6640     69.3215   8.3800803075e+01   5.5801031212e+01    0.2282459    0.1287207 -50.68 0.0007855631    1.795    0.443
       164  -9.5908    110.8620     76.7219   7.1021116279e+01   4.5801182131e+01    0.2880611    0.2186289 -44.08 0.0006570731    1.333    0.250
       165  -9.7097    181.4048     73.1964   5.3869487509e+01   2.9933520186e+01    0.2222932    0.1904628 -15.07 0.0005643946    1.367    0.268
       166  -9.2887     28.4834     75.8979   9.9770306134e+01   5.8775542408e+01    0.2806337    0.1600175 -35.31   0.00143924    1.682    0.405
       167  -9.3703    174.8285     74.8795   5.5514648341e+01   3.1225392677e+01    0.2084211    0.1662348 -66.40 0.0004519364    1.333    0.250
       168 -11.6505     97.1799     63.8696   7.0876948555e+01   5.1036131799e+01    0.3264854    0.2739818   5.36 0.0002637196    1.256    0.204
       169  -9.7136     93.1847     74.2338   7.5577036161e+01   4.9878088531e+01    0.3037578    0.2062809 -47.73 0.0004072891    1.519    0.342
       170 -10.0087     95.0782     71.2743   7.4012209499e+01   5.0082585966e+01    0.4338623    0.3388565 -80.30  0.001631752    1.908    0.476
       171  -8.0514     37.3462     75.2872   9.6106087907e+01   5.8049891506e+01    0.1386521   0.08852725 -26.32 0.0005385493    1.653    0.395
       172 -10.4517    170.4615     73.1249   5.5849581202e+01   3.2572883566e+01    0.2803947    0.2432325  56.22  0.000538142    1.160    0.138
       173 -10.9493    144.1525     66.4191   5.9306225749e+01   4.0052510798e+01    0.4222251    0.3279847  44.56  0.001048065    1.292    0.226
       174 -10.1903    137.4888     72.6279   6.2741186352e+01   4.0563430826e+01    0.4344188    0.2309287 -31.73  0.001740898    2.063    0.515
       175  -9.4421     18.5565     72.9221   1.0301134078e+02   6.0248296575e+01     0.339225    0.2172713 -23.91  0.001919553    1.630    0.386
       176  -9.8341    199.4856     71.7058   5.0503816363e+01   2.5917344641e+01    0.2976046    0.2463936 -10.71  0.001478649    1.517    0.341
       177 -10.1103    146.0015     70.8836   6.0244267960e+01   3.8850038700e+01    0.4509002    0.3368427  28.18  0.001941704    1.597    0.374
       178  -8.8572    152.5945     73.2540   5.9501245607e+01   3.6858791128e+01     0.281702    0.1902909  71.19  0.001128313    1.731    0.422
       179  -9.8272    185.8828     70.5469   5.2391480249e+01   2.9302011335e+01    0.3564084    0.2094247 -56.61  0.001548074    1.893    0.472
       180  -9.8057    184.9519     75.9747   5.3991119135e+01   2.8624870652e+01    0.2180551    0.2053866 -62.32 0.0003670688    1.019    0.018
       181 -12.0911     79.5476     70.0258   7.8715870392e+01   5.3218204001e+01    0.3447753    0.2597806  23.71 3.293701e-05    1.387    0.279
       182 -10.2679    102.3387     70.0789   7.1383786801e+01   4.8845878572e+01    0.2958985     0.256156  32.15 0.0004876275    1.141    0.124
       183 -10.5193     10.5471     69.1847   1.0540190464e+02   6.1617131757e+01    0.2480899    0.1676258 -36.11 -7.509424e-06    1.308    0.236
       184 -11.5402      2.3032     66.7036   1.0825982023e+02   6.2622181161e+01    0.4122512    0.1895712 -57.01  0.001218442    1.624    0.384
       185  -9.7745      9.2525     61.1554   1.0401971862e+02   6.3426575580e+01    0.4120377    0.2351422 -21.44  0.002069486    1.853    0.460
       186 -10.8249      4.1660     59.7976   1.0589668671e+02   6.4007644510e+01    0.4736031    0.3359139 -42.88  0.002523002    1.117    0.105
       187  -9.5425    173.4871     69.1724   5.4189174741e+01   3.2500957848e+01    0.2659323    0.2025408  59.29 0.0006172537    1.304    0.233
       188 -10.3466    119.5865     67.7821   6.5737989565e+01   4.5542456845e+01    0.4808761    0.3393993  14.95  0.001196076    1.900    0.474
       189 -11.1952     39.6080     57.7650   8.9917860113e+01   6.1462560310e+01    0.3073003    0.2277765 -46.80 0.0008228413    1.273    0.214
       190 -10.1225     32.1103     47.8969   8.9816410742e+01   6.4194802946e+01    0.2418876    0.1873828  32.75  0.001315676    1.524    0.344
       191  -9.4873     15.7132     59.9177   1.0088495717e+02   6.3254551649e+01    0.1979104    0.1706937 -29.39 0.0005373693    1.101    0.091
       192 -10.7545     31.2181     52.9351   9.1937623063e+01   6.3321546761e+01    0.6684797    0.2236564  32.35   0.00281254    3.182    0.686
       193 -11.3811      5.2908     35.9309   9.8564600369e+01   6.8713646142e+01    0.6836262    0.3582145 -52.75  0.003981317    1.628    0.386
       194 -10.4643     17.2825     46.2605   9.6097522384e+01   6.5889243831e+01    0.3719559    0.2673037 -36.76  0.001449294    1.114    0.103
       195 -10.2114    115.7432    248.5028   1.0440301484e+02   7.3919718553e+00    0.2337436    0.2036992  43.95 0.0008182381    1.062    0.059
       196 -10.0186     45.5768     55.0440   8.6494327187e+01   6.1271247132e+01    0.3830114    0.2742785  53.25  0.002054597    2.071    0.517
       197 -11.8578     31.8072     64.1466   9.5196367836e+01   6.0995422827e+01    0.6718335    0.3691658 -39.75  0.003483278    1.586    0.369
       198 -10.5558     38.3510     46.6807   8.6602081051e+01   6.3719744763e+01    0.6563607    0.3573318   6.22  0.003060235    2.497    0.599
       199 -11.5382     23.9383     57.3455   9.6542683618e+01   6.3129636849e+01    0.9722289    0.4464045 -51.58  0.003853847    1.814    0.449
       200 -10.3745     25.3830     46.5327   9.2406291043e+01   6.5128726327e+01    0.5245387    0.3147432 -24.15  0.001904381    1.618    0.382
       201 -10.1322     14.2260     55.0525   1.0018954602e+02   6.4368623708e+01     0.454599    0.1935234 -50.93  0.001527825    1.818    0.450
       202 -11.5418      9.1733     50.6596   1.0124128985e+02   6.5603814374e+01    0.6578876     0.350198 -41.79  0.001999548    1.483    0.326
       203 -10.1030     42.1238     51.9473   8.6863557796e+01   6.2288440516e+01    0.3737277    0.2001722 -41.10  0.001095814    1.652    0.395
       204 -10.2117     46.2956     47.7636   8.3574117148e+01   6.2529256964e+01    0.4219914    0.3294386  31.69 0.0006928184    1.401    0.286
       205  -9.3391    157.0308     68.0047   5.7032735759e+01   3.6681300419e+01    0.2402923    0.1821845  20.29  0.001129723    1.725    0.420
       206 -10.6482    135.2764     65.4360   6.1041246197e+01   4.2329449826e+01    0.4370482    0.3907819  51.39  0.002320726    1.091    0.083
       207  -9.3619    105.1582     65.6351   6.9071291399e+01   4.9069842936e+01    0.5132563      0.25305  58.55  0.001902258    2.736    0.635
       208 -10.2210     83.1889     63.9099   7.5412446802e+01   5.3732451318e+01    0.5092324    0.3356619 -62.85  0.002214192    2.303    0.566
       209  -9.5393     75.4826     65.3430   7.8562996447e+01   5.4830846067e+01    0.4241703    0.2396213 -22.97  0.001241175    2.328    0.570
       210  -9.9429    203.4699     63.5387   4.7855843755e+01   2.6277943706e+01    0.4505291    0.2710257 -86.54  0.001355758    2.238    0.553
       211  -8.4292     14.2199     64.5833   1.0275312275e+02   6.2372193465e+01    0.2320602   0.09231596 -63.97  0.001021927    2.423    0.587
       212  -9.8001     66.3733     63.2341   8.1140734162e+01   5.6736637970e+01    0.3300408    0.2843203 -75.34  0.001007614    1.598    0.374
       213 -10.2226     70.7455     60.0948   7.8447438983e+01   5.6620971129e+01    0.3422943    0.2215488  44.92 0.0008395239    1.714    0.417
       214  -9.5585    193.9422     60.6344   4.8510269118e+01   2.8949133341e+01    0.3294967     0.201253 -33.89 0.0007027545    1.665    0.399
       215  -8.8139    160.3942     61.1346   5.4359370607e+01   3.6976243989e+01    0.2956392      0.16664 -48.97  0.001264032    1.890    0.471
       216  -9.4980    162.9723     57.3631   5.2776150843e+01   3.6931184571e+01    0.3859451    0.2176886 -25.46  0.001006929    2.113    0.527
       217  -9.6978    141.0190     60.1854   5.8083305282e+01   4.1825525779e+01    0.4164249    0.2188337  47.46  0.001025775    1.868    0.465
       218  -9.7328    150.8269     54.2222   5.4180411986e+01   4.0375801038e+01    0.2747744    0.2199225 -27.81 0.0009890681    1.347    0.258
       219  -9.0901    144.5442     56.5012   5.6173796118e+01   4.1555308005e+01    0.3609281    0.1348075 -37.77  0.001300342    2.667    0.625
       220  -9.1952    147.5948     52.2010   5.4213252326e+01   4.1465045898e+01    0.4408444    0.2545896  41.62  0.001926431    1.891    0.471
       221  -9.2850     54.9599     49.5320   8.0660033784e+01   6.1008658500e+01    0.3825966    0.2021375  44.56  0.001793517    2.288    0.563
       222  -9.3982     53.3241     60.5817   8.5246811576e+01   5.9179243487e+01    0.2882971    0.2604348  88.33 0.0009827523    1.561    0.359
       223  -9.5917     54.4602     53.7009   8.2389287074e+01   6.0326028076e+01    0.4946258    0.2949846  -0.33  0.001435598    2.424    0.587
       224  -8.5992    241.0042     59.7324   4.2303804689e+01   1.8626673190e+01    0.1738899    0.1467789 -63.50 0.0002756891    1.032    0.031
       225  -9.3765    151.4888     60.2749   5.5875378486e+01   3.9281309889e+01    0.2839874    0.1939106  58.69 0.0009124431    1.425    0.298
       226  -9.6229    171.1076     59.0164   5.1781070990e+01   3.4691448490e+01    0.2879614    0.2023621 -48.61 0.0008508168    1.427    0.299
       227  -9.8591    167.2472     56.3802   5.1717128527e+01   3.6034809485e+01    0.2783065    0.2247464  61.10 0.0003743293    1.201    0.167
       228 -10.1980    105.2749     57.8674   6.6396973563e+01   5.0388985994e+01    0.2661362    0.2230236 -25.35 0.0003062465    1.209    0.173
       229  -9.7074    136.4582     56.1337   5.7829730592e+01   4.3556633984e+01    0.3357612    0.2835312 -14.38  0.001154518    1.318    0.241
       230  -9.5789    128.5603     57.4715   6.0105309403e+01   4.5214641281e+01    0.2831221    0.2376625  78.05  0.000687444    1.342    0.255
       231  -9.2120     85.8962     57.5116   7.2267684454e+01   5.4378579509e+01    0.2249135    0.1858284 -29.32 0.0002894105    1.185    0.156
       232 -10.3539     83.0509     52.8232   7.1522774042e+01   5.5721091617e+01    0.4907964    0.3784029   4.63  0.002124093    1.397    0.284
       233  -9.8337     64.9242     56.4658   7.9315881714e+01   5.8237932474e+01    0.2643008    0.2299472  63.68 0.0004005347    1.577    0.366
       234  -9.3761     61.5327     52.0547   7.9006107108e+01   5.9568144860e+01    0.2535299    0.2298026  59.34 0.0009765795    1.479    0.324
       235  -8.4982    242.4646     56.0302   4.1343980831e+01   1.8857512363e+01     0.183496     0.111318 -39.57 -1.722689e-05    1.468    0.319
       236 -10.8543    118.0636     52.6599   6.1121880314e+01   4.8396235683e+01    0.5439832    0.4435323  -6.14 0.0006996834    1.372    0.271
       237  -9.9270    127.6744     48.2676   5.7288573617e+01   4.6826730298e+01    0.4295645    0.3141148 -15.83  0.001680566    1.590    0.371
       238 -10.7832    123.6175     48.1774   5.8220689911e+01   4.7790892846e+01    0.5242183    0.2750071 -37.66   0.00130762    1.975    0.494
       239 -10.4507    125.7081     45.2917   5.6752825027e+01   4.7717288126e+01    0.4349429    0.2260152  66.01  0.001771902    2.262    0.558
       240  -9.2671    191.5235     54.1824   4.7192344454e+01   3.0484660127e+01    0.2676924    0.2215345 -19.27 0.0009340543    1.439    0.305
       241  -8.8837     98.5394     54.8475   6.7325865442e+01   5.2310963708e+01     0.198177    0.1375387 -35.38 0.0003604249    1.461    0.315
       242  -9.6145     93.7946     54.2936   6.8581278249e+01   5.3375101453e+01    0.4002774    0.2530343  -5.14  0.001125367    2.335    0.572
       243  -9.6643    171.9678     53.3100   5.0029319428e+01   3.5337845783e+01    0.2259758    0.2012215 -46.30 0.0003082516    1.137    0.120
       244  -9.8382    175.1940     50.2434   4.8641129670e+01   3.4994668517e+01    0.3228732     0.246452  58.20  0.001022626    1.284    0.221
       245  -9.1349    106.8957     52.9536   6.4227037747e+01   5.0839466636e+01    0.2117736    0.1953896  25.49 0.0003173966    1.024    0.023
       246 -11.0676     55.4472     33.5526   7.4114712722e+01   6.3560587061e+01    0.5328026    0.3030411  49.11  0.002643723    2.258    0.557
       247  -8.5581    192.3081    248.3297   8.9240226135e+01  -4.1249430368e+00    0.1248494   0.08249579   3.90 0.0003073099    1.662    0.398
       248 -11.3216     50.6147     28.0881   7.3753026313e+01   6.5110964548e+01    0.6381149    0.3986631  62.71  0.002685064    4.071    0.754
       249 -10.6432     41.0574     21.7108   7.5031629588e+01   6.7412020926e+01     0.275839    0.2321829 -30.41   0.00154663    1.364    0.267
       250 -12.9214     61.9091     44.1472   7.5857119800e+01   6.0864616510e+01    0.5016344     0.401201 -16.91 0.0006426554    1.149    0.129
       251 -10.0502     68.9739     48.0117   7.4679419637e+01   5.9054064647e+01    0.2234323    0.1693194  24.69            0    1.281    0.220
       252 -10.4442     67.7038     44.2073   7.3684191357e+01   5.9895903009e+01    0.4626511    0.3213231  -3.23 0.0008730289    1.624    0.384
       253  -9.7659    164.2888     51.6910   5.0895202744e+01   3.7454100436e+01    0.2769381    0.2406371  74.53 0.0002687328    1.106    0.096
       254 -10.3083    154.0983     48.9148   5.1939694781e+01   4.0353951818e+01     0.428889    0.3274285  82.16  0.001230747    1.410    0.291
       255  -9.8136    163.1477    246.3545   9.4623865728e+01   5.2291083233e-01     0.203953     0.139444  22.10 0.0004652309    1.395    0.283
       256  -9.0607    181.5648     48.6894   4.7217992909e+01   3.3666534248e+01    0.2395722     0.162412 -85.27 0.0009948052    1.687    0.407
       257  -8.4679    137.0770     49.4939   5.5570974068e+01   4.4408901163e+01    0.2175385    0.1361257  57.51  0.001009956    1.523    0.343
       258  -8.4749     96.7801     49.0148   6.5761294644e+01   5.3612309135e+01    0.1864994    0.1697129   2.58 0.0003211492    1.057    0.054
       259  -9.1756     88.1600     48.3717   6.8202341030e+01   5.5461769298e+01    0.2454894    0.2128368  80.67  0.001044082    1.570    0.363
       260  -9.7642     82.0025     44.5327   6.8769981553e+01   5.7259565753e+01    0.3747361     0.285694 -61.83  0.001952227    1.917    0.478
       261  -8.6012     76.9510     44.5035   7.0478050271e+01   5.8211199434e+01    0.2510256    0.1289784  46.80  0.000744583    2.010    0.503
       262  -8.8785    234.8671     46.8990   4.0130113537e+01   2.1712952516e+01    0.1719572    0.1624773 -63.85 0.0002821821    1.202    0.168
       263 -10.4062    114.5098     46.0824   5.9771606507e+01   5.0191475932e+01    0.2884189    0.2436185 -10.67 0.0006342757    1.263    0.208
       264  -9.3273    164.6498     46.0014   4.9186687895e+01   3.8173621830e+01    0.3414809    0.1713289  47.96  0.001441567    2.074    0.518
       265 -10.2492     93.9914     45.0270   6.5136885447e+01   5.4800802601e+01    0.2597392    0.2144205  34.73 0.0003069495    1.137    0.120
       266 -10.1055     90.5024     40.7759   6.4603622221e+01   5.6143052301e+01    0.5854494    0.3523903  68.56   0.00246659    2.778    0.640
       267  -8.4679     90.7135     37.2692   6.3193281881e+01   5.6596193624e+01    0.1833582    0.1415005  19.41 0.0002616631    1.302    0.232
       268 -10.3723    144.1193     31.3573   4.8381099322e+01   4.5105908744e+01       0.8306    0.5446621  28.94   0.00401591    1.928    0.481
       269  -9.2485    133.9396     27.8576   4.9166270265e+01   4.7986206116e+01    0.3981659     0.213235 -20.66  0.001800065    2.238    0.553
       270  -9.7482    132.8456     44.5071   5.4877340159e+01   4.6134630124e+01    0.5269412    0.2462966  65.10  0.002052156    2.407    0.585
       271 -10.1248    127.4296     39.4849   5.4404982549e+01   4.8107057325e+01    0.4315597    0.3234986 -69.46  0.002196256    1.701    0.412
       272 -10.0993    136.3081     37.3292   5.1799776042e+01   4.6262908722e+01    0.3312075    0.2535389 -79.15  0.001058232    1.576    0.365
       273 -10.5766    131.7148     35.4481   5.2128806681e+01   4.7607300117e+01    0.4383327    0.3043196 -46.75  0.001052057    1.596    0.373
       274  -8.7847    185.8133     44.0986   4.5362329429e+01   3.3275130036e+01    0.1874117    0.1612747  41.65 0.0005351157    1.348    0.258
       275  -8.5205    149.7428     44.0332   5.1279772471e+01   4.2103970559e+01    0.1849628    0.1820082 -67.03 0.0003014673    1.070    0.065
       276  -9.1949    141.5632     43.3914   5.2681880078e+01   4.4186732187e+01    0.5910437    0.1714743  44.05  0.001684446    4.499    0.778
       277 -11.0705    103.0281     42.9543   6.1736548363e+01   5.3192312879e+01    0.6004246    0.2851501  52.31 0.0003216503    2.033    0.508
       278 -11.9337    103.6782     38.7146   6.0001175747e+01   5.3644544890e+01    0.3946616    0.2526767  54.89 0.0002949734    1.537    0.349
       279  -8.4269      8.4581     43.8929   9.9560523794e+01   6.6991325590e+01    0.1665201   0.09689626 -52.24  0.000368672    1.443    0.307
       280 -10.0324    245.8498     42.4405   3.8110371876e+01   2.0033692409e+01    0.2375709    0.1653779 -19.04  0.001329111    1.988    0.497
       281  -8.4724    200.1512     42.8411   4.3114964562e+01   3.0033642866e+01    0.1773016    0.1602072  37.56 0.0006960247    1.362    0.266
       282  -8.4576     32.5399     42.5002   8.7662505907e+01   6.5142103227e+01    0.2150228    0.1469014  -5.90  0.001256308    1.480    0.325
       283 -12.1701     41.2407     38.3073   8.2110595690e+01   6.4833040571e+01     0.505057    0.2793946   3.30 0.0005892069    2.574    0.612
       284  -9.1337    222.8045     40.2685   3.9888231784e+01   2.5213374381e+01    0.2241415     0.154651 -23.86  0.001217878    1.772    0.436
       285  -9.8140    191.3426     39.6878   4.3448271602e+01   3.2537867110e+01    0.3871858    0.2667132  12.77  0.001476981    2.472    0.595
       286  -8.4629    112.6217     41.4394   5.8621901164e+01   5.1278319123e+01    0.1373982    0.1269624  25.99 1.113615e-05    1.038    0.036
       287  -8.2279     24.2091     39.6371   9.0495633544e+01   6.6519657200e+01    0.3829791    0.1095088 -38.83  0.001481119    3.243    0.692
       288  -8.5780     48.7203     39.5897   7.9386072398e+01   6.3609565374e+01    0.3133597    0.1030366 -41.19 0.0006118108    2.866    0.651
       289  -9.4571    157.9056     38.6152   4.8171509665e+01   4.0821188694e+01    0.2215747    0.1945548 -11.09 0.0006386921    1.328    0.247
       290  -9.0141    120.7035     38.6435   5.5657201576e+01   4.9799648894e+01    0.2402281    0.1606187 -50.89  0.001168964    1.784    0.439
       291  -9.4208    238.5127     37.5942   3.7751701435e+01   2.2185132836e+01    0.2256866     0.218118  27.42   0.00108396    1.422    0.297
       292 -10.1280    177.4478     36.7825   4.4585962989e+01   3.6266513148e+01    0.3933613    0.2586309 -88.73   0.00115093    1.670    0.401
       293  -9.1347     83.7768     37.8975   6.5613901708e+01   5.7902178084e+01    0.4740673    0.1958091  30.74  0.001622684    3.657    0.727
       294 -10.6021     77.8630     34.5421   6.6228920797e+01   5.9518315829e+01     0.493625    0.3455667  21.70 0.0005531662    1.445    0.308
       295  -9.1491     87.3101     33.2951   6.2682845492e+01   5.7830112897e+01    0.2613108    0.2006946 -18.39  0.001303497    1.328    0.247
       296  -9.1470     83.8277     32.1158   6.3301625688e+01   5.8686427511e+01    0.3067093    0.1992911 -12.07   0.00112261    1.738    0.425
       297  -9.5183     71.4886     29.5800   6.6375638884e+01   6.1387627673e+01    0.2354577    0.1936468  30.85 0.0005378836    1.130    0.115
       298  -9.5057    186.4179     36.8103   4.3350381636e+01   3.4091433490e+01     0.258999    0.1862271 -71.46 0.0007061617    1.418    0.295
       299  -9.0378     95.3346     35.5797   6.1171754492e+01   5.5863320970e+01    0.2595823    0.1589604  40.20  0.001288646    1.530    0.346
       300 -10.1141    209.4678     33.6881   3.9777396658e+01   2.9065507803e+01    0.3610728      0.27354 -35.47  0.002117764    1.386    0.279
       301  -8.4786      1.3703    244.1888   1.2579998823e+02   2.2574747231e+01    0.1474625   0.07516801  81.16 0.0003643274    1.609    0.379
       302  -8.8876    101.4915     25.5251   5.5629862077e+01   5.5782851180e+01    0.2582631    0.1771966  36.66 0.0009551007    1.374    0.272
       303 -10.2512    117.2797     32.7022   5.4380759603e+01   5.1355374595e+01    0.2562279    0.2129768  10.74 0.0002020969    1.308    0.236
       304 -10.9394    113.7468     32.0434   5.4984054900e+01   5.2250786741e+01    0.2877573    0.2279706 -29.45 0.0002093273    1.353    0.261
       305  -9.9314    222.0300     34.1137   3.8563113900e+01   2.6182374539e+01    0.2769376    0.1691125  82.40  0.001028718    1.632    0.387
       306  -9.8458     74.3112     26.9587   6.4298402068e+01   6.1203446104e+01    0.2987953    0.2676929 -51.05  0.001400406    1.471    0.320
       307 -10.7537    228.7709     38.6611   3.8916058707e+01   2.4120488774e+01    0.4396365    0.2403326 -53.95 0.0009511491    1.650    0.394
       308  -9.9442    202.5286    242.3345   8.6377265962e+01  -4.7475709291e+00    0.2185209    0.1574209  20.27 0.0005384692    1.168    0.144
       309 -11.1828     34.8072     28.9757   8.1164868104e+01   6.7160608209e+01     0.570273    0.4109766   6.62  0.002406156    1.287    0.223
       310 -11.3284     25.0239     30.6655   8.6595103984e+01   6.8000039219e+01    0.3712917    0.3311725 -61.82  0.001331577    1.676    0.404
       311  -9.3083    221.7359    237.2133   8.1987989796e+01  -6.7428453447e+00    0.1709761    0.1178499   2.45  0.001035424    1.343    0.255
       312  -9.2819     21.7686     23.9446   8.5382522439e+01   6.9430726984e+01    0.1665034    0.1223507 -25.04 0.0005346439    1.118    0.105
       313  -9.7834    187.2551     31.1449   4.1755046903e+01   3.4599209872e+01    0.4436649    0.2708714  34.18  0.002047855    2.442    0.591
       314  -8.7117     43.8811     31.8517   7.8274473258e+01   6.5525104020e+01    0.1523803    0.1404818  -9.92 0.0004839224    1.260    0.206
       315  -9.6196    248.3191     31.1686   3.5554726228e+01   2.0987642654e+01    0.2108661    0.1597214 -80.07  0.001381468    1.183    0.155
       316  -9.2700    233.4741     31.1553   3.6820329054e+01   2.4070535304e+01     0.240897    0.1459225  55.60  0.001322081    1.926    0.481
       317  -9.5625    122.1818     29.3294   5.2088610424e+01   5.0617367189e+01    0.4612862    0.2933949  82.01  0.002140135    2.094    0.522
       318 -10.0997    221.6215     27.6111   3.7129063410e+01   2.7081980655e+01    0.4215112    0.2867655 -32.68  0.002438023    1.569    0.363
       319  -8.8984    168.3372    237.6731   9.2323311542e+01   1.1090897252e+00    0.1242151   0.09552696  60.98 0.0006879345    1.725    0.420
       320  -9.0867    139.9756    237.2411   9.8042860911e+01   5.6443074454e+00    0.1841072    0.1495894  38.08  0.000659136    1.054    0.052
       321  -8.5887     32.2675    232.6545   1.1954340896e+02   2.1638365839e+01    0.1237154   0.06756935  67.54 0.0002876435    1.611    0.379
       322 -10.0367    164.1371     26.8444   4.3735949424e+01   4.0727765457e+01    0.4555804    0.2844549  54.47  0.001895622    1.526    0.345
       323 -11.6342    105.5826     21.1798   5.2954580191e+01   5.5353668804e+01    0.4088788    0.2839705  76.68 0.0004207246    1.769    0.435
       324  -9.5514    182.0537     28.2874   4.1666052328e+01   3.6195109904e+01    0.2697023    0.1859663  74.21 0.0009309117    1.343    0.255
       325  -9.3920    179.3432     25.1909   4.1186663889e+01   3.7211664339e+01    0.3243279    0.1793831  82.77  0.001123789    1.900    0.474
       326  -9.5947    187.1604    230.8406   8.7506375090e+01  -7.2730782591e-01    0.1832622    0.1365704   8.24  0.001033014    1.324    0.245
       327  -9.0727    169.9981     23.4629   4.1947275209e+01   3.9677935093e+01    0.3337635    0.1848524 -54.18  0.001071644    1.959    0.489
       328  -8.9164    178.0606    231.0000   8.9341937731e+01   6.6767266164e-01    0.2200706   0.06491874  37.52 0.0008097295    2.993    0.666
       329  -9.5504    207.9622     26.6376   3.8255643063e+01   3.0278040392e+01    0.1831105    0.1444279  86.68 0.0004640021    1.151    0.131
       330  -9.8952    241.3706     25.0434   3.4850451661e+01   2.3163374325e+01     0.246719    0.1922157  56.58  0.001029741    1.596    0.373
       331  -8.2242    207.3174    226.3313   8.2849957292e+01  -3.1037757898e+00    0.1322471   0.08655541   0.86 0.0007047305    1.687    0.407
       332  -9.5044    231.7386     23.3186   3.5278326090e+01   2.5398123428e+01    0.3054453    0.1676087 -70.06  0.001609484    1.802    0.445
       333  -8.5559    227.0151     23.9911   3.5831374407e+01   2.6336120203e+01    0.1517256    0.1237825 -75.64 0.0004412894    1.036    0.035
       334 -10.5055    153.6225     22.9317   4.4180655134e+01   4.3743072634e+01    0.3037727    0.2076755  56.05 0.0002906285    1.348    0.258
       335  -9.0884    162.4198    225.2342   9.1621620679e+01   4.1450669159e+00     0.334893    0.2380195 -89.76  0.001597239    2.709    0.631
       336  -9.0115    223.8891    225.1334   7.9556953082e+01  -5.3481104850e+00     0.175147    0.1514611  13.88 0.0005732817    1.193    0.162
       337  -8.8693    132.0274    225.2854   9.8044992889e+01   9.0930008212e+00    0.1871174      0.15727  41.48 0.0004963134    1.049    0.047
       338  -8.6316    196.6578    222.6676   8.4283517366e+01  -9.0855631206e-01    0.1369721   0.09057251   1.93 0.0007051018    1.753    0.430
       339  -9.4191    206.6825     22.3779   3.7372945312e+01   3.1073396343e+01    0.3422067    0.2128987  76.00  0.001879443    1.494    0.331
       340  -9.2704    188.6486     22.1715   3.9263428681e+01   3.5320772234e+01    0.2691779    0.2176252  20.39  0.001561891    1.708    0.414
       341  -8.4142    124.9611     23.4428   4.9465257665e+01   5.0626229714e+01    0.1949317     0.121966  61.69 0.0001354239    1.460    0.315
       342 -12.1428    117.0721     22.1810   5.0685107385e+01   5.2616362287e+01    0.3128766    0.2449352  38.21 0.0005156746    1.217    0.178
       343  -8.1444     85.6749     23.2527   5.9133665703e+01   5.9412251221e+01    0.1175128    0.1030496  87.11 0.0001803059    1.545    0.353
       344  -8.5556     79.5520     22.2180   6.0583647826e+01   6.0766190440e+01    0.2307349    0.1166973 -34.09   0.00111287    2.108    0.526
       345  -8.8709     10.7469     22.7033   9.0688763742e+01   7.0652280748e+01    0.1354927    0.1228462 -32.49  0.001012892    1.391    0.281
       346  -8.6042    161.2428     22.3834   4.2871282074e+01   4.1936845217e+01    0.1856984    0.1770522 -47.07 0.0004043156    1.157    0.136
       347  -9.2499     88.7574    221.0114   1.0684435997e+02   1.6693623571e+01    0.2207801    0.1734067  44.16 0.0005696618    1.165    0.142
       348  -9.7520    132.0769     21.3569   4.7368367483e+01   4.9150129318e+01    0.2908158    0.2207886  64.49 0.0008323404    1.198    0.165
       349  -8.2543     92.7377     20.3460   5.5935296559e+01   5.8259887847e+01    0.4644741    0.2033362  53.03   0.00208772    2.028    0.507
       350  -8.7435    203.0740    217.7338   8.2183774472e+01  -1.1242732202e+00    0.1763485    0.1431329  16.19 0.0002762862    1.079    0.073
       351  -9.0703    231.0256    209.1816   7.5430366198e+01  -4.0325696589e+00    0.1915304    0.1415838   0.89 0.0004060617    1.237    0.192
       352  -9.1582     35.2219    201.2190   1.1653285590e+02   2.8019227053e+01      0.21413    0.1082759  65.26  0.001053417    1.983    0.496
       353  -8.3774    120.4145    199.4485   9.6760361407e+01   1.6235086738e+01    0.1396363    0.1282301  58.39 0.0001418201    1.042    0.040
       354  -8.6888      6.4248    194.7768   1.2223609304e+02   3.2323986655e+01    0.1626576   0.08939946 -69.18 0.0009355394    1.640    0.390
       355  -8.8533      5.7135    182.9111   1.2158985614e+02   3.5063626609e+01    0.1668958    0.1218343  87.91 0.0002808671    1.082    0.075
       356  -9.1748     55.2332    181.4288   1.0985144124e+02   3.0242668203e+01     0.230915    0.1694517 -74.02  0.000458052    1.257    0.204
       357 -10.3224    246.0889     18.5558   3.3158633796e+01   2.2965742447e+01    0.2466094    0.1593779 -20.24  0.001402098    2.194    0.544
       358  -9.7254    233.0407     18.3632   3.4112184787e+01   2.5701536381e+01    0.3514725    0.1804176 -89.03  0.001611194    1.998    0.500
       359  -9.5384      7.2015    174.7113   1.2065299796e+02   3.6833382390e+01    0.1970667    0.1277089  60.08  0.001192964    1.436    0.304
       360  -9.7698     18.6208    174.2309   1.1794402565e+02   3.5955055602e+01    0.2220996    0.1815372   8.27  0.001415203    1.697    0.411
       361  -9.6955    144.5697     17.5078   4.3954370775e+01   4.6523291232e+01    0.3032761    0.2037171  50.95  0.001155234    1.395    0.283
       362 -10.2639      6.8919    166.7750   1.2009926036e+02   3.8719152358e+01    0.2540133    0.1827548  12.78  0.001328431    1.915    0.478
       363 -10.5575     15.1041    165.3604   1.1799144781e+02   3.8377562317e+01    0.3615253     0.231026 -10.57  0.001880806    2.669    0.625
       364  -9.4799    225.9178     16.6110   3.4311622303e+01   2.7432615928e+01    0.2295391    0.1502907 -49.00 0.0007073963    1.349    0.258
       365  -9.0947     31.7955    165.5981   1.1385321625e+02   3.6752983157e+01    0.1699956    0.1099007  48.23  0.000380834    1.556    0.357
       366  -9.0776    179.4877     13.4071   3.8035444239e+01   3.8455287466e+01    0.2328347    0.1424887  73.95 0.0005786245    1.458    0.314
       367 -11.9702     37.6469    159.5480   1.1163609592e+02   3.7623558773e+01    0.8900041    0.3785515  39.26  0.003987736    2.345    0.574
       368  -8.4314    127.5451     14.4837   4.5902665656e+01   5.0924566831e+01    0.1315261    0.1175038  62.61  0.000689844    1.028    0.027
       369 -11.9932     30.6728    154.8737   1.1291147295e+02   3.9491614717e+01    0.6840443     0.351417  53.20  0.003270587    2.095    0.523
       370 -10.4233     23.7956    162.5790   1.1555503261e+02   3.8267956900e+01    0.4312566    0.1799668  45.57  0.001980305    2.400    0.583
       371  -9.9975      1.7961    158.0792   1.2062240748e+02   4.1160055768e+01    0.2805906    0.1934826 -55.05   0.00153201    1.503    0.335
       372 -10.1560      2.1126    153.6069   1.2017099551e+02   4.2200283081e+01    0.3106677    0.1718858 -84.27 0.0008151979    1.497    0.332
       373  -9.5394    249.0450    153.5068   6.1465125765e+01   2.0136690809e+00    0.1783622    0.1297124  39.04  0.000480238    1.572    0.364
       374  -9.5164     45.9151    151.3739   1.0832518389e+02   3.8736198081e+01    0.2380191     0.171184 -65.00 0.0003381069    1.240    0.194
       375  -9.9325     19.5203    151.7805   1.1551238883e+02   4.1281564682e+01    0.2118953    0.1826499  39.35 0.0007021791    1.339    0.253
       376 -10.6323      4.5721    146.9618   1.1894839629e+02   4.3618583548e+01    0.4458203    0.2113362  67.78  0.001826224    2.396    0.583
       377 -10.4753      9.7765    151.4202   1.1802124660e+02   4.2162370688e+01    0.2575393    0.2247994  22.32  0.001093272    1.449    0.310
       378 -10.1447     14.0684    150.3129   1.1679247757e+02   4.2093641991e+01      0.23913    0.2049252 -71.36  0.000897011    1.128    0.113
       379  -9.7277     54.2577    146.0382   1.0518640802e+02   3.9076772887e+01     0.212198    0.2058427  16.27 0.0002861115    1.204    0.169
       380 -10.2433     13.4873    145.0691   1.1639603972e+02   4.3416116853e+01    0.3257014    0.1959917 -70.48  0.001325354    1.356    0.263
       381 -10.8835     18.6803    140.6483   1.1447528201e+02   4.4081469541e+01    0.3988524    0.2958679   8.49  0.001264882    1.778    0.437
       382  -8.6773     75.5324     13.0612   5.7907059271e+01   6.2557835994e+01    0.2130515    0.1640612 -75.20  0.001175389    2.236    0.553
       383 -10.7378      7.2530    123.1915   1.1566177938e+02   4.9190162642e+01    0.3029644    0.2344977 -40.62  0.001044217    1.398    0.285
       384  -9.3761      5.8081    141.5996   1.1810215112e+02   4.4825331899e+01    0.2212083    0.1551892  31.18  0.001359139    1.677    0.404
       385  -9.9629      2.0459    139.9118   1.1894683059e+02   4.5485642433e+01    0.3571275    0.1434814 -86.95  0.001553896    2.468    0.595
       386  -8.4600     69.4535     11.5705   5.9194813467e+01   6.3887034775e+01    0.1245756    0.1045957  24.38 0.0003195967    1.024    0.023
       387  -9.7876      2.9538    133.9856   1.1810776668e+02   4.6855069708e+01    0.2805439    0.1987668  56.41  0.001733884    1.515    0.340
       388 -10.6697      3.7525    129.1167   1.1736544952e+02   4.7980113487e+01    0.4576817    0.1990033 -56.05  0.001427697    1.932    0.482
       389  -9.2118     41.2349    138.9749   1.0782366233e+02   4.2357723548e+01    0.2183107    0.1709532  81.93    0.0012258    1.297    0.229
       390  -9.0262    235.9852    136.7227   5.9995198106e+01   7.0862860472e+00    0.1784314    0.1733042  -2.33 0.0004725067    1.142    0.125
       391  -9.1196    230.7094    136.9979   6.0912638353e+01   8.0040354400e+00    0.1971548    0.1654081 -32.67 0.0005548124    1.048    0.046
       392  -9.0249     74.8617    135.8403   9.7391156098e+01   3.8821540522e+01     0.384908    0.1990413 -39.07  0.001111954    2.385    0.581
       393 -10.1099     34.4013    136.5676   1.0945264588e+02   4.3667051405e+01    0.3136156    0.2425358  36.48   0.00103348    1.447    0.309
       394  -9.6637     14.7072    135.9947   1.1503765190e+02   4.5539669245e+01    0.2610551    0.1374582 -29.50  0.001193599    2.829    0.646
       395 -11.2507     43.3225    131.8045   1.0607002312e+02   4.3925435531e+01    0.4685064    0.4449394 -72.34  0.001919604    1.092    0.084
       396  -8.7711    248.7487    134.0028   5.7441021983e+01   5.2863922116e+00    0.1790179   0.09842785 -37.38 0.0004536227    1.539    0.350
       397 -11.7344     28.6833    131.9937   1.1046907231e+02   4.5351488898e+01    0.2345976    0.2064226 -87.58 0.0002879941    1.089    0.081
       398  -9.2812     61.8704    131.3202   1.0038627858e+02   4.1791551346e+01    0.2401742    0.1811732 -74.44 0.0005126999    1.309    0.236
       399  -9.9651     20.2519    131.4390   1.1287363220e+02   4.6219790007e+01    0.2355129     0.147313 -69.57 0.0004469212    1.322    0.244
       400 -10.2928     10.7413    130.3330   1.1549878243e+02   4.7216517047e+01    0.5817755    0.1716993 -50.24   0.00226055    3.163    0.684
       401 -10.6605     34.3584    127.2183   1.0804158191e+02   4.6000468366e+01    0.4944299     0.190934 -64.59  0.002045799    2.162    0.537
       402  -9.7195     32.3351    122.7012   1.0793878829e+02   4.7316575306e+01    0.2433288    0.2087099  83.95   0.00127167    1.197    0.165
       403  -9.3205     88.6673    128.0379   9.1664266888e+01   3.8561825906e+01    0.2338215    0.2134666  37.42 0.0003708288    1.154    0.134
       404  -8.1035     55.5635    132.5480   1.0251519831e+02   4.2300448514e+01    0.1416078      0.12649 -76.35 5.891336e-05    1.046    0.044
       405  -9.2900     72.0479    123.7090   9.5735451213e+01   4.2254768462e+01     0.357304    0.2503623 -20.92  0.001465777    1.917    0.478
       406  -9.1650     67.7690    118.5802   9.5957357783e+01   4.4140626696e+01    0.2107721    0.1455332  34.87 0.0006359579    1.560    0.359
       407  -9.3032     73.2875    118.9880   9.4313296269e+01   4.3231471761e+01    0.3576404    0.2251897  52.33 0.0009027303    1.873    0.466
       408  -9.6413     70.0407    115.9725   9.4656812638e+01   4.4450705620e+01    0.7978314    0.2657038  38.67  0.002772563    3.099    0.677
       409  -9.1655    123.7933    121.0732   7.9994742762e+01   3.3608525482e+01    0.2283612    0.2095205 -89.88 0.0004005187    1.186    0.157
       410 -10.2266     20.0455    109.1259   1.0965581846e+02   5.1701050508e+01    0.2705489    0.1875722 -45.91  0.001556906    1.346    0.257
       411 -11.4945     21.2044    119.4232   1.1089717080e+02   4.9098661500e+01    0.6973801     0.382575 -82.79  0.003384956    1.880    0.468
       412 -10.3108     13.9926    113.4857   1.1229129495e+02   5.1089708749e+01    0.3365106    0.2062769  34.84  0.001374876    1.886    0.470
       413  -9.6545     13.8506    109.8238   1.1179201040e+02   5.1985657016e+01    0.2222821    0.1630938 -84.06 0.0003086518    1.308    0.235
       414  -9.1238    236.6563    120.6868   5.6385812676e+01   9.7219869814e+00    0.1366371    0.1041005  -0.10 0.0007046928    1.707    0.414
       415  -9.9040     43.0664    119.1120   1.0393041868e+02   4.7115025676e+01    0.3228753    0.1936464  35.26 0.0009704193    1.835    0.455
       416  -9.7750     83.3650    116.9737   9.0713258884e+01   4.2136028453e+01    0.3328846    0.2714268  71.82  0.001675634    1.460    0.315
       417  -9.3683     54.5396    118.0003   1.0004467480e+02   4.6052619147e+01    0.2344663    0.2090715  30.79 0.0003287976    1.247    0.198
       418 -10.2388      3.4376    116.6768   1.1601306804e+02   5.0999518328e+01    0.3024133    0.1972352 -67.87  0.001801291    1.210    0.173
       419  -9.7335     94.1391    118.5866   8.7825646622e+01   3.9906851521e+01    0.3696973    0.2656839 -19.34  0.001641839    1.848    0.459
       420 -10.5008     29.0679    116.7660   1.0799187232e+02   4.9082910562e+01    0.3094276    0.2288799  66.62 0.0008529157    1.562    0.360
       421  -8.9797     62.1724    115.1577   9.6992654744e+01   4.5759641895e+01     0.192756    0.1624792 -89.86  0.000241042    1.318    0.241
       422  -8.4091     45.3064    114.6504   1.0235794741e+02   4.7969474472e+01    0.1411151    0.1023111  77.01 0.0003525822    1.705    0.414
       423  -9.7261     32.3769    112.2059   1.0612906425e+02   4.9897867822e+01    0.2756464    0.1904713  80.40  0.001433069    1.758    0.431
