#   1 NUMBER                 Running object number                                     
#   2 MAG_AUTO               Kron-like elliptical aperture magnitude                    [mag]
#   3 X_IMAGE                Object position along x                                    [pixel]
#   4 Y_IMAGE                Object position along y                                    [pixel]
#   5 X_WORLD                Barycenter position along world x axis                     [deg]
#   6 Y_WORLD                Barycenter position along world y axis                     [deg]
#   7 A_WORLD                Profile RMS along major axis (world units)                 [deg]
#   8 B_WORLD                Profile RMS along minor axis (world units)                 [deg]
#   9 THETA_WORLD            Position angle (CCW/world-x)                               [deg]
#  10 FWHM_WORLD             FWHM assuming a gaussian core                              [deg]
#  11 ELONGATION             A_IMAGE/B_IMAGE                                           
#  12 ELLIPTICITY            1 - B_IMAGE/A_IMAGE                                       
         1 -14.2197    219.8663     55.8008   3.5689788789e+02   2.3844701359e+01     1.470805     1.179933  20.43  0.007540814    1.650    0.394
         2 -14.2372    237.7581     44.9694   3.5266308331e+02   2.1637003422e+01     1.100083      1.04575  -7.89  0.003504765    1.279    0.218
         3 -11.3660      2.1667     10.3488   5.1316800828e+01   7.7677700540e+01    0.3054194    0.1874292 -55.76 0.0008899166    1.436    0.304
         4 -11.1128      2.2540      3.0115   4.7100862615e+01   7.9173271004e+01    0.4381392    0.1815961 -56.71  0.002117266    2.184    0.542
         5  -9.8061    148.4739      8.5101   3.5090885417e+02   4.6456522401e+01    0.1403237    0.1250665 -75.40 2.731697e-06    1.012    0.012
         6  -9.4103    194.0000      4.9828   3.4585526553e+02   3.5445618593e+01     0.199034   0.06804589 -24.55 0.0003375441    2.818    0.645
         7 -10.9757     17.5892      4.5879   3.3179268809e+01   7.7278306069e+01    0.2418839    0.1705609 -78.35  0.001166624    2.979    0.664
         8  -9.0786     41.6959      1.3218   1.3829365197e+01   7.3720850207e+01    0.1224069    0.1024928 -66.38 0.0002722916    1.635    0.388
         9  -9.4281    185.3335    238.6922   3.8592984410e+01   3.1930606844e+00   0.09913302   0.07757089  42.40 0.0003516726    1.670    0.401
        10 -10.8054     75.2952    246.6782   6.0714843607e+01   1.5519509854e+01    0.4134071    0.1837825 -56.12  0.002318101    2.880    0.653
        11  -9.8265     51.9230    250.6315   6.5651840033e+01   1.7459146595e+01    0.2344219    0.0787862  31.34  0.001097683    2.224    0.550
        12 -12.2932     42.3573    248.6227   6.7454574663e+01   1.8787338430e+01    0.3215868    0.2026616  30.43  0.000940469    1.367    0.268
        13 -15.1044      5.2972     81.7306   6.6399267941e+01   6.0176046730e+01     12.69966     1.291618 -78.75   0.02405302   10.913    0.908
        14 -14.3923     13.2933    246.7657   7.3113431529e+01   2.1900755367e+01     1.668082    0.4780841 -74.49  0.008405617    3.835    0.739
        15 -14.8086      7.3985    237.6854   7.4039719464e+01   2.3998465239e+01     0.883393    0.6040996  67.05  0.003333781    1.246    0.197
        16 -15.9201      4.8621    213.9401   7.3957077853e+01   2.8640878740e+01     3.793989     1.532826  17.56   0.01817115    3.093    0.677
        17 -10.6765     72.5605    232.0595   6.0210731249e+01   1.8282884041e+01    0.2582802    0.1996193 -54.06  0.001498969    1.665    0.399
        18 -14.5887     54.1944    217.6446   6.3175666887e+01   2.3038010025e+01     2.509989    0.9960641 -69.56   0.00669197    2.818    0.645
        19 -11.4143     46.0904    229.8002   6.5712547492e+01   2.1667825197e+01    0.4762711    0.2341054  18.15  0.002015937    2.548    0.608
        20 -11.3487     71.9697    225.9668   5.9865506204e+01   1.9428037068e+01    0.3561731    0.2042794  46.99  0.002111918    1.422    0.297
        21 -10.3259     67.1342    221.4483   6.0571762993e+01   2.0824745238e+01    0.1902685    0.1627563  78.96 0.0001985945    1.263    0.208
        22 -11.0951    164.2808    226.0210   4.0770472309e+01   7.4674342294e+00    0.1616573    0.1353011  10.25 0.0009890737    1.092    0.084
        23 -11.1454    174.5461    223.5315   3.8507445836e+01   6.4731248124e+00    0.2253855    0.1647123  11.13 0.0007186572    1.182    0.154
        24 -11.7692    147.9032    228.5156   4.4253334804e+01   9.2570608659e+00    0.2738335    0.1993729   4.33  0.001800086    1.425    0.298
        25  -9.3433    118.4496    221.9572   4.9467746440e+01   1.4189311748e+01    0.1484622    0.1217705 -56.56 0.0005158398    1.513    0.339
        26 -10.1459     95.8690    211.7150   5.3252076773e+01   1.8993566109e+01    0.2862458     0.166416 -75.76  0.001507175    2.349    0.574
        27 -11.4798     72.6680    208.2606   5.8210105556e+01   2.2648789957e+01    0.2634667    0.2116086  88.51  0.001052337    1.370    0.270
        28 -10.8862    103.7518    203.5757   5.0549450247e+01   1.9422087330e+01    0.2447007    0.2077089   9.32  0.001207316    1.297    0.229
        29 -10.2269    210.9761    198.9416   2.8321927932e+01   4.9650287348e+00    0.1753581    0.1373629   3.04 0.0004619873    1.012    0.012
        30 -11.1946     96.1689    195.0473   5.1291037382e+01   2.2117658828e+01    0.3252602    0.2179672 -81.50  0.001752325    1.926    0.481
        31 -11.0339    114.1570    195.0240   4.7086194332e+01   1.9534579368e+01    0.3810045    0.2247042 -14.14  0.001532005    3.587    0.721
        32 -12.4730    107.8260    189.3527   4.7799892207e+01   2.1554041682e+01      0.45001    0.3216142 -28.68   0.00209162    1.823    0.451
        33  -9.5768    207.4628    189.9249   2.7426128676e+01   6.6264779912e+00    0.1690148    0.1040699 -29.87  0.001015312    1.550    0.355
        34 -15.3785     10.0143    206.9201   7.2604519157e+01   2.9596894971e+01     1.511736     1.089128   8.69  0.009421053    1.829    0.453
        35 -11.3495     99.9198    184.3314   4.9025244499e+01   2.3723685151e+01    0.5295516      0.30028  45.08  0.002628372    1.600    0.375
        36 -13.9747     18.3455    244.7605   7.2066001604e+01   2.1783115192e+01    0.9029624    0.6446158  44.35  0.001544257    1.078    0.072
        37 -11.3180    116.1830    181.5195   4.4708201255e+01   2.1828099987e+01    0.2322328    0.1955197 -57.17 0.0008601021    1.337    0.252
        38 -13.3363      1.8001    249.6014   7.5383525603e+01   2.2423931516e+01    0.4781924    0.3527465 -86.10  0.001092488    1.579    0.367
        39 -11.2312     73.8653    172.8334   5.4186908912e+01   2.9909855741e+01    0.3558141    0.2168785  85.39 0.0004104208    2.063    0.515
        40 -12.9626     79.0439    132.0315   4.6593638830e+01   3.8792869517e+01    0.8076326    0.5891116  36.81  0.002323023    1.348    0.258
        41 -13.7043     67.8387    123.8061   4.8660574031e+01   4.2568791242e+01      3.05062     1.692617  66.00   0.00284986    2.456    0.593
        42 -11.0199    103.9482    171.4701   4.6195991924e+01   2.5781323447e+01    0.3623315    0.1956595  55.31  0.001570019    2.184    0.542
        43 -11.4821    233.9114    168.8885   1.9472381550e+01   5.7944647028e+00    0.3586214    0.1438533 -38.32  0.001264214    2.394    0.582
        44 -11.8205    229.7805    166.1792   1.9605225913e+01   6.7161830038e+00    0.2564996    0.2322648 -60.76  0.001667416    1.757    0.431
        45 -10.9554    180.2788    166.8146   2.8264450094e+01   1.4124571391e+01    0.3287658    0.1947976 -47.36  0.001674358    1.933    0.483
        46 -10.1327    110.5190    167.2561   4.3886392885e+01   2.5626786518e+01    0.2326769     0.197954  46.75 0.0003540828    1.101    0.092
        47  -9.7353    100.6759    166.4826   4.6269855761e+01   2.7359550895e+01     0.342566    0.1909676  65.10  0.001368601    2.725    0.633
        48 -11.7178    238.4633    162.0937   1.7555660867e+01   6.0505085764e+00    0.3014568    0.1926603   2.90  0.001065068    1.667    0.400
        49 -12.0383     51.0173    160.8042   5.9089620601e+01   3.5650111967e+01    0.4046147    0.3136221 -11.43   0.00193527    1.797    0.443
        50 -11.9042     56.8280    156.9908   5.6992191101e+01   3.5846259077e+01      0.35775    0.3027707  27.55 0.0007541896    1.260    0.206
        51 -11.9453    236.2594    152.6637   1.6108593212e+01   7.5907721503e+00    0.3008257    0.1493939 -21.14   0.00153726    2.051    0.512
        52  -8.8453    112.3992    150.3949   4.0504004955e+01   2.8931399519e+01    0.1420289    0.1304937  56.03            0    1.071    0.066
        53 -10.4075    133.7195    145.3462   3.4157122714e+01   2.6196549510e+01    0.7154198    0.1774758 -54.89  0.001566077    7.995    0.875
        54 -11.0003    108.9856    145.4909   4.0492773818e+01   3.0607090620e+01    0.2791056    0.2488528  49.82 0.0006932304    1.074    0.069
        55 -11.7515     42.5274    143.0296   5.9650279404e+01   4.1000864410e+01    0.2981135    0.2478851 -83.10 0.0004651273    1.149    0.130
        56 -12.7350     75.4759    145.5168   4.9954554150e+01   3.6051834846e+01     0.771315    0.5301594  -9.33 0.0008888674    2.364    0.577
        57 -10.1762    228.8424    144.5982   1.5633423294e+01   9.7777047647e+00    0.1468762    0.1175793  52.48 0.0004983936    1.666    0.400
        58 -10.7816     36.8094    142.6675   6.1394665525e+01   4.1719514480e+01    0.2810571    0.2091717 -87.27  0.000862484    1.265    0.209
        59 -10.2931    248.5892    140.8200   1.2120785311e+01   7.3816172673e+00    0.1617707   0.09072071 -37.14 0.0004135212    1.598    0.374
        60  -9.7554    116.4221    138.0097   3.7043584737e+01   3.0938151216e+01    0.3398512    0.2238536  70.97  0.001429328    2.235    0.552
        61  -9.0959    108.4003    137.1797   3.9034060145e+01   3.2579975074e+01    0.1913076    0.1416171 -70.26   0.00055665    1.541    0.351
        62 -11.2915     28.6719    133.6992   6.3069426336e+01   4.4821172426e+01    0.4815403    0.2261871 -82.11  0.001172046    2.085    0.520
        63 -11.0610     94.6107    133.6156   4.2223357105e+01   3.5834631984e+01    0.4700434    0.3564538  -9.43  0.001764483    1.878    0.467
        64 -11.7308     45.5939    131.7862   5.7275323307e+01   4.3500552368e+01    0.4091989    0.3425515  48.40  0.001397802    1.148    0.129
        65  -9.5859    141.9174    132.8950   2.9564296201e+01   2.7192335879e+01     0.223953    0.1788251 -89.82 0.0005405007    1.692    0.409
        66 -10.5599    105.5767    130.6704   3.8483218124e+01   3.4578016188e+01    0.3869569    0.2771592 -57.50  0.001040151    1.443    0.307
        67  -9.8907    105.8824    126.3908   3.7484536134e+01   3.5508384213e+01    0.3182791    0.2227226  17.29   0.00126538    1.890    0.471
        68 -10.9248     35.6239    126.0412   5.9879313568e+01   4.6096460985e+01    0.2689531    0.2191034  69.15 0.0005703444    1.142    0.124
        69 -11.1116     41.7581    125.1539   5.7664511557e+01   4.5655259412e+01     0.319379    0.2258643  64.78 0.0004430154    1.403    0.287
        70 -10.0027     57.2566    170.1103   5.8343764547e+01   3.2702282125e+01    0.4401157    0.2052481  81.81  0.001674668    3.212    0.689
        71  -9.9135    113.6345    121.7299   3.4271236402e+01   3.5101663685e+01    0.2390196    0.1842303  -9.75  0.001098885    1.784    0.439
        72 -11.1141     93.2961    121.2439   4.0065758572e+01   3.9014794156e+01    0.3910033    0.3001747   6.75  0.001827721    1.757    0.431
        73 -10.2959     32.1535    120.3774   6.0379049554e+01   4.7927444395e+01    0.2862675    0.1884186  89.14     0.001355    1.482    0.325
        74 -12.0275     68.3807    162.3208   5.4370264901e+01   3.3063731248e+01    0.5096895    0.3335106  78.95  0.001160238    1.746    0.427
        75 -10.4476     26.8953    116.6327   6.1800463970e+01   4.9414622913e+01    0.2647046    0.2035623  67.04 0.0003649961    1.235    0.190
        76 -11.0224    243.8674    114.7622   7.5007322260e+00   1.1514952122e+01     0.273962    0.1355385 -49.51  0.001308358    2.533    0.605
        77 -10.7166     46.8019    115.2258   5.4407683337e+01   4.7644241676e+01    0.2761198    0.1785603  35.20 0.0008636486    1.546    0.353
        78 -13.6349     54.3338    144.7123   5.6207172733e+01   3.9164435835e+01    0.7348011    0.5405252 -31.58  0.001151261    1.801    0.445
        79 -10.2159    104.0604    116.0170   3.5668968764e+01   3.8256346843e+01    0.2230639    0.2127356  67.87 0.0003170398    1.027    0.026
        80  -9.5123     19.9623    108.7582   6.3443709994e+01   5.2086484081e+01    0.1849141    0.1625499  56.31 0.0003677993    1.131    0.116
        81  -9.8995     33.1578    106.1058   5.8039871706e+01   5.1575852053e+01    0.3940296   0.09284513  44.60  0.001152368    4.391    0.772
        82 -11.7380     23.2427    104.3380   6.1637865724e+01   5.2976900443e+01    0.4309095    0.2657311  56.12  0.001887089    1.654    0.395
        83 -14.6127     68.8611    148.2039   5.2314487175e+01   3.6359586873e+01     2.194627      1.14661  73.12  0.001676054    2.925    0.658
        84  -8.8826     69.2504     95.3386   4.2091697898e+01   4.9551916024e+01    0.1500145    0.1132731 -32.81 0.0002394593    1.567    0.362
        85 -10.5902     56.0246     95.0359   4.7034527895e+01   5.1668673251e+01    0.2218005    0.2104935 -86.36 0.0003071528    1.009    0.009
        86  -9.1495    142.6335     91.8565   1.9138439105e+01   3.5291229951e+01    0.2149076    0.1349509 -51.62 0.0004085657    1.664    0.399
        87 -11.8663     54.0700     89.0952   4.6421859396e+01   5.3470368775e+01    0.5379387    0.1891858 -56.14  0.001896502    2.566    0.610
        88 -10.3022     41.0784     87.8651   5.1526539481e+01   5.5492715079e+01    0.2260588    0.1828862  68.86 0.0004344153    1.301    0.232
        89  -9.2380     34.9825     83.4789   5.3237043709e+01   5.7330486457e+01    0.1969511    0.1406734  28.06 0.0003806698    1.496    0.331
        90  -9.1434    142.5206     80.4812   1.5884794283e+01   3.7490584629e+01    0.1521943    0.1449496 -67.99 0.0003472915    1.030    0.030
        91 -10.3418     72.2855     79.1619   3.6523553048e+01   5.2993818532e+01     0.412211    0.2563496  81.80  0.001141975    3.010    0.668
        92 -12.2250     20.7139     78.9809   5.8860808153e+01   5.9865664011e+01    0.4366257     0.236809  49.05  0.001999876    2.023    0.506
        93  -9.0185    113.9807     76.7734   2.1928441438e+01   4.4872946009e+01    0.1907025    0.1273184  49.67            0    1.503    0.335
        94  -9.9348     34.7947     74.2865   5.1258230043e+01   5.9723941723e+01    0.2231756    0.1687821  49.27 0.0008096924    1.416    0.294
        95  -8.8754     65.6708     73.7003   3.7464982828e+01   5.5460602720e+01      0.15081     0.117489 -16.32 0.0005388285    1.642    0.391
        96 -13.0334    209.9884     61.9590   3.5952422771e+02   2.5075534454e+01    0.7938855     0.459882 -44.16  0.001904272    1.511    0.338
        97  -9.5938    185.3130    247.6678   3.9741793257e+01   2.1335978705e+00   0.09560648     0.075611  41.56 0.0007044798    1.679    0.404
        98 -12.5330    230.2399     49.6181   3.5439917029e+02   2.2540010840e+01    0.4439944    0.3893356 -26.94  0.001087906    1.181    0.153
        99  -9.9320    164.5020    247.4456   4.3413397542e+01   4.6173573628e+00    0.1108149   0.08227931  20.73 5.998931e-05    1.007    0.007
       100  -9.6786     45.8571     66.8600   4.4038015381e+01   6.0205724133e+01    0.1974518    0.1682238  72.98 0.0004108431    1.311    0.237
       101  -8.9276     50.6581     54.3585   3.7574404989e+01   6.2456751579e+01    0.1500447     0.112689  77.95 0.0007036017    1.827    0.453
       102 -10.4564     73.9083     50.9722   2.6007019141e+01   5.8954761025e+01    0.2341054    0.1841129 -86.98 0.0009006269    1.684    0.406
       103 -10.0292     46.7409     50.6207   3.8112384025e+01   6.3910682218e+01    0.3465573    0.1739737  31.82 0.0009433627    2.127    0.530
       104 -10.7637     61.9881     67.9984   3.7177513677e+01   5.7440910816e+01     0.241024    0.1819198  76.13 0.0008023185    1.705    0.413
       105  -9.1952    108.3491     39.3216   9.9641748387e+00   5.3096553561e+01    0.1571714    0.1142615  26.04 0.0007048842    1.743    0.426
       106  -9.6213     99.5259     30.5217   8.6130960927e+00   5.6638503001e+01    0.1454862    0.1405263  74.03 0.0003186636    1.010    0.010
       107 -10.7717     22.9870     28.0530   4.2709089497e+01   7.2042772718e+01    0.1971153    0.1875211 -27.09  0.000575759    1.079    0.073
       108  -9.1720    131.2306     22.9799   3.5862028013e+02   4.9429750286e+01     0.181325    0.1193938 -29.52 0.0004088036    1.561    0.359
       109 -11.4237      9.8529     21.4908   4.9656918566e+01   7.4731191635e+01    0.2610457    0.1603911 -65.54 0.0008451052    1.644    0.392
       110 -15.0684     56.6051    233.6346   6.3707198659e+01   1.9835020866e+01     6.113893     4.146938   9.80   0.02383326    1.944    0.486
       111 -10.3796     60.7595     21.5702   1.7586596194e+01   6.6994118171e+01    0.2660383     0.236014  65.32 0.0008213819    1.254    0.203
       112  -9.5282    189.4751     15.0921   3.4901616419e+02   3.5499993879e+01    0.1976378    0.1212005 -29.78  0.001018797    1.552    0.356
       113 -10.1933     97.0782    244.4933   5.6135778742e+01   1.3296524559e+01    0.2023498    0.1605895 -77.37 0.0009989478    1.649    0.394
       114  -9.9600    146.8415    242.8215   4.6162728592e+01   7.3821214275e+00    0.1513729     0.109993  38.91 0.0004453326    1.306    0.234
       115 -14.9844     19.5966    181.0190   6.9203308129e+01   3.4257790734e+01      2.08007     1.228894   0.06  0.008843184    2.696    0.629
       116 -10.5412    216.0108    238.4678   3.3389953003e+01  -3.1777779765e-01    0.1585639    0.1126732 -14.72  0.001122029    1.305    0.234
       117 -15.5804     30.9051    172.8919   6.5735555722e+01   3.5022501820e+01     3.683688     1.965293  61.94   0.01869333    1.736    0.424
