#   1 NUMBER                 Running object number                                     
#   2 MAG_AUTO               Kron-like elliptical aperture magnitude                    [mag]
#   3 X_IMAGE                Object position along x                                    [pixel]
#   4 Y_IMAGE                Object position along y                                    [pixel]
#   5 X_WORLD                Barycenter position along world x axis                     [deg]
#   6 Y_WORLD                Barycenter position along world y axis                     [deg]
#   7 A_WORLD                Profile RMS along major axis (world units)                 [deg]
#   8 B_WORLD                Profile RMS along minor axis (world units)                 [deg]
#   9 THETA_WORLD            Position angle (CCW/world-x)                               [deg]
#  10 FWHM_WORLD             FWHM assuming a gaussian core                              [deg]
#  11 ELONGATION             A_IMAGE/B_IMAGE                                           
#  12 ELLIPTICITY            1 - B_IMAGE/A_IMAGE                                       
         1 -16.2012    140.4670    123.8786   1.0055082172e+02   2.9517024246e+01     4.009223     2.735864  72.45   0.01020818    2.021    0.505
         2 -19.2384    205.5969    113.9032   8.3900155783e+01   1.6788175462e+01     8.769578     7.328986 -26.31   0.04519545    1.324    0.245
         3 -17.4333    183.8819     88.4916   8.1717647545e+01   2.6682217953e+01     4.794272     2.446018  65.94   0.01819346    2.366    0.577
         4 -13.1175    111.5024     58.9083   8.9769264023e+01   4.8510855270e+01    0.3672598    0.3161381 -15.92 0.0007549794    1.193    0.162
         5 -11.5543    130.8078     24.5384   7.4180004577e+01   4.8872841366e+01    0.3563104    0.2539203   3.29  0.001263819    1.780    0.438
         6 -12.7259    189.4657     19.6869   6.3405978442e+01   3.5554709758e+01    0.3301856    0.2490894 -51.25 0.0005204605    1.363    0.266
         7 -10.2697    247.7777     16.6851   5.6838218655e+01   2.2764893909e+01    0.2953941    0.1277908 -43.52  0.001503729    2.053    0.513
         8 -10.1268    154.3082     14.3823   6.6957840349e+01   4.4465589486e+01    0.2461711    0.1586408 -18.90  0.001093791    1.951    0.487
         9  -9.4174    134.8019     11.8880   6.9519084418e+01   4.9233331221e+01    0.1608099    0.1364822  86.63 0.0003030472    1.256    0.204
        10 -10.2061    219.5035     11.2294   5.8228787021e+01   2.9551484340e+01    0.1991586    0.1439008  81.37  0.000479096    1.173    0.147
        11 -10.2893     23.3566     10.9599   1.0253528199e+02   6.9068537950e+01    0.1620837    0.1264342  10.45 0.0004157052    1.235    0.190
        12 -10.3903    192.7624      7.2420   6.0068367854e+01   3.6109690656e+01    0.2399237    0.1601549  57.78 0.0009325065    1.462    0.316
        13 -10.0027    167.6884      7.4724   6.3161427782e+01   4.1977312368e+01    0.2187982    0.1587905 -18.01 0.0009251671    1.770    0.435
        14 -10.2897    234.1784      6.9098   5.6060197629e+01   2.6800958955e+01    0.1752188    0.1407246 -83.70 0.0005093937    1.071    0.067
        15 -10.0600     66.2675      6.6308   8.4257893824e+01   6.3585763010e+01    0.1711758     0.142527  -5.07  0.001225288    1.220    0.181
        16  -9.8528     19.9462      7.3115   1.0248058980e+02   6.9865774875e+01    0.1477289    0.1064919   0.69 0.0003718676    1.074    0.068
        17 -10.4199    216.4444      5.2296   5.7253040705e+01   3.0892182515e+01    0.2006173    0.1379346  79.42 0.0004129169    1.220    0.180
        18 -10.0079    141.4677      3.0222   6.5757858364e+01   4.8484295132e+01    0.1953224    0.1418185  63.56 0.0004525343    1.140    0.123
        19 -10.2104    131.1102      2.3230   6.7265836347e+01   5.0895276033e+01    0.2514573    0.1673082 -89.91  0.001154723    1.814    0.449
        20 -11.4018    222.1562      1.4094   5.5963699587e+01   3.0022733231e+01    0.2130897    0.1046729  76.71 0.0003349563    1.728    0.421
        21  -9.8655    166.7344      1.6469   6.1782341609e+01   4.2732526520e+01    0.2445945    0.1147634  58.81  0.001222565    1.765    0.433
        22  -9.2741     20.6888      1.7179   9.9629003170e+01   7.0430959006e+01    0.1081654   0.06298167   0.44 0.0002275006    1.569    0.363
        23  -9.6659     49.2875    226.0021   1.3951807471e+02   2.1245121482e+01    0.1709812    0.1310042  84.12  0.000488102    1.071    0.066
        24 -12.4720    245.9893    238.5828   1.0211442387e+02  -1.2756410011e+01    0.5067312    0.4145243  17.06  0.002544203    1.143    0.125
        25 -13.2998    230.9830    250.1703   1.0680462813e+02  -1.2196970953e+01     1.349353    0.4054537  37.93  0.003696349    2.989    0.665
        26 -13.2963    242.8110    247.1392   1.0415280427e+02  -1.3466915028e+01     1.033894    0.4996707  37.33  0.005571462    1.954    0.488
        27 -10.6985    204.9647    249.6978   1.1159366973e+02  -8.2013557738e+00    0.1843548    0.1404335  30.91 0.0007838745    1.131    0.116
        28  -9.3031     83.4980    250.4395   1.3535133298e+02   1.1492424849e+01     0.123588    0.1000814  63.95 0.0002951557    1.046    0.044
        29 -12.8395    179.7358    223.1308   1.1217876315e+02   3.6967772106e-01    0.6354675    0.3123631  33.93 0.0006604312    2.012    0.503
        30 -12.8380    175.8612    220.1568   1.1246735360e+02   1.6054010768e+00    0.4608993     0.399889   8.37  0.000467764    1.212    0.175
        31 -10.6723    233.9888    220.6723   1.0110062326e+02  -8.3711291410e+00     0.319348    0.2035069  35.70  0.001376882    1.527    0.345
        32 -10.5851    130.2159    218.6996   1.2190469592e+02   1.0161555599e+01     0.284489    0.1853462 -55.76 0.0009073985    1.662    0.398
        33 -10.5742     94.9937    212.1958   1.2857833868e+02   1.7575362466e+01    0.2254881    0.1920109  40.23 0.0003982107    1.283    0.220
        34 -11.4433     59.4462    216.8002   1.3660554490e+02   2.1875149846e+01    0.3707957    0.3216333 -53.80  0.001102259    1.492    0.330
        35 -10.9168    142.9956    216.0809   1.1874463603e+02   8.3919393498e+00    0.2594449     0.203151 -47.79 0.0005212736    1.409    0.290
        36 -11.1819    123.2187    216.0597   1.2301411771e+02   1.1949689311e+01    0.4618658    0.3046181  22.03  0.002144609    2.122    0.529
        37 -10.1335     24.9596    214.8248   1.4321591918e+02   2.6552545406e+01    0.1610071    0.1358709 -30.80  0.001070287    1.972    0.493
        38 -10.3773     13.1711    215.1919   1.4544947468e+02   2.7721155408e+01    0.1652806    0.1019423  75.41 0.0003681193    1.315    0.240
        39  -9.8089    236.2319    214.5867   9.9563237775e+01  -7.7729643131e+00    0.1786798     0.110923  24.35 0.0009403478    1.637    0.389
        40 -10.6632    196.6333    213.1727   1.0696361791e+02  -8.6428379504e-01    0.2213115      0.21168  64.14 0.0007613024    1.240    0.193
        41  -9.4879      1.4857    214.4935   1.4752151682e+02   2.9006917596e+01    0.1136965   0.08342677  85.95 -5.651158e-06    1.050    0.047
        42 -10.1885    213.9755    210.6279   1.0304331381e+02  -3.4597263747e+00    0.2598268     0.176534 -20.30  0.001344958    1.615    0.381
        43 -11.1222    164.7703    209.2937   1.1291004583e+02   5.7182558500e+00    0.3300665    0.3049909  43.94  0.001708415    1.027    0.026
        44 -11.9410    159.2968    207.7562   1.1381754187e+02   7.0518875022e+00    0.5712186    0.3366841  18.82  0.001576342    2.758    0.637
        45 -10.4935    222.7038    208.1542   1.0089147022e+02  -4.5251947093e+00    0.3134646    0.2293392 -58.83  0.001172012    1.927    0.481
        46 -10.8361    242.1385    207.9050   9.7229730633e+01  -7.6425843640e+00    0.1907077    0.1637893  12.21 0.0002848064    1.103    0.094
        47  -9.4881     97.3020    208.3075   1.2754282749e+02   1.8057784037e+01    0.1263959    0.1108144 -21.87 0.0003461374    1.600    0.375
        48 -15.3915    192.1089    198.9286   1.0521627475e+02   2.5889576258e+00     3.794652     2.358608  15.76   0.01618621    2.313    0.568
        49 -12.7103    215.5851    244.0054   1.0864372859e+02  -9.0244185138e+00    0.4698088    0.3975927 -87.03  0.001335444    2.080    0.519
        50 -15.3254    171.1030    157.2639   1.0114218219e+02   1.5401323589e+01     2.511887     1.585637  25.98  0.004950237    2.117    0.528
        51 -16.0793    193.1563    166.3665   9.8358287649e+01   8.8461738183e+00     4.023744     1.884143  33.72  0.009624295    2.689    0.628
        52 -10.1179    165.4595    248.9838   1.1917262710e+02  -1.6212961349e+00    0.1717291    0.1296096 -50.78 0.0005639309    1.575    0.365
        53 -10.3274    233.8374    193.4299   9.5948579638e+01  -3.9039779315e+00    0.2721004    0.1754181 -42.77  0.001410566    1.556    0.357
        54 -11.4187    118.8977    169.6547   1.1611925663e+02   2.3198353177e+01    0.2775879      0.21663 -70.63 0.0005578168    1.323    0.244
        55 -10.8647     87.9533    172.9513   1.2433112143e+02   2.7820666471e+01    0.2244097    0.1959216 -85.80 0.0005867092    1.055    0.052
        56 -11.0689     70.5924    168.5948   1.2790789256e+02   3.1520888704e+01    0.2976289    0.2383485  34.21 0.0009735384    1.429    0.300
        57 -13.2686    227.3270    190.8222   9.6645405371e+01  -2.3330730823e+00    0.4455824    0.3233609 -15.41  0.001678691    1.468    0.319
        58 -12.3117     28.2215    166.1467   1.3780831873e+02   3.7263437133e+01    0.2540623    0.2171265 -81.70 0.0003801857    1.083    0.077
        59 -11.1252     22.6938    165.4381   1.3901377820e+02   3.7969387381e+01    0.2638434    0.1980548  89.38 0.0002456738    1.141    0.124
        60 -12.0933    246.0551    166.3470   8.8294706433e+01  -1.2790161580e+00    0.2350086    0.2011013 -35.58 0.0003498466    1.078    0.072
        61 -12.1684    129.9818    192.1837   1.1762138095e+02   1.5907896535e+01     0.447013    0.3037693 -49.60 0.0003321763    1.546    0.353
        62 -10.8810    236.5555    162.9805   8.9251013254e+01   1.0226188229e+00     0.443529    0.2907544   1.06  0.001386344    2.390    0.582
        63 -11.1352    242.1814    161.8237   8.8024487019e+01   2.1265566227e-01    0.2922978    0.2208237 -19.22 0.0003006045    1.377    0.274
        64 -11.9174    128.4410    188.5075   1.1732744992e+02   1.7024853168e+01    0.4607975    0.3593536  -8.27  0.001760244    1.907    0.476
        65 -10.2382     91.3307    159.0201   1.2103976524e+02   3.0653140971e+01    0.2052298     0.174192 -67.40 0.0002758641    1.103    0.094
        66 -10.1999     42.1604    157.9016   1.3338934646e+02   3.7750619483e+01    0.2062913    0.1601187  86.18  0.001215715    1.219    0.179
        67  -9.6762     31.5551    158.4764   1.3607792210e+02   3.8745090313e+01    0.1300093    0.1055841 -79.27 6.807654e-05    1.006    0.006
        68 -11.9338    118.3050    190.7323   1.2007033627e+02   1.8392712039e+01     0.521024    0.3336565 -58.34  0.001701821    1.589    0.371
        69  -9.5833      9.5179    193.5042   1.4450654108e+02   3.2787633954e+01    0.1190997   0.09070387 -88.21 0.0008099417    1.048    0.046
        70 -10.6783     15.5265    154.9657   1.3951995970e+02   4.1064829997e+01    0.3813054    0.1092409 -65.55   0.00159098    2.551    0.608
        71  -9.0671     27.6578    155.2663   1.3662293180e+02   3.9893697701e+01    0.1273567   0.08439538  70.54 0.0003624798    1.602    0.376
        72 -10.0795    250.5945    153.7022   8.4915528483e+01   1.6430081343e-01     0.172601    0.1166121 -45.80 0.0002383309    1.377    0.274
        73 -11.5421     90.6040    150.7664   1.1966534725e+02   3.2786524336e+01    0.5654613    0.2077967 -50.85  0.001552114    2.568    0.611
        74 -11.4409    120.9577    148.7856   1.1134371541e+02   2.7773737436e+01    0.3852387    0.2512383 -43.51  0.001302592    1.589    0.371
        75 -12.1243    110.7997    144.6280   1.1307866054e+02   3.0711703144e+01    0.5540546    0.2486943 -47.43  0.001924828    2.202    0.546
        76  -9.4531     34.0538    150.0591   1.3433817188e+02   4.0499339554e+01    0.1528631    0.1311861 -77.26 0.0005064632    1.044    0.042
        77  -9.9785     25.9833    149.7921   1.3633664436e+02   4.1350579747e+01    0.2158594    0.1208706  62.27  0.001084237    2.114    0.527
        78 -10.5780     80.5741    148.2302   1.2183863936e+02   3.5008235654e+01    0.2842417    0.1354588 -63.05   0.00113347    2.077    0.519
        79 -10.3613     21.8733    145.8829   1.3686293778e+02   4.2647496431e+01    0.1981302    0.1612461  76.23  0.001284083    1.243    0.195
        80 -12.2569    215.4469    187.2200   9.8201008630e+01   4.4280228160e-01      0.56545    0.4156647   0.82  0.001146519    1.635    0.389
        81 -11.8473     92.9191    140.7334   1.1702426124e+02   3.4839256529e+01    0.5329225     0.356582 -14.63  0.002154051    2.618    0.618
        82 -10.8659     89.6293    190.9439   1.2676643410e+02   2.3269758932e+01     0.335776    0.1890313  29.49  0.001467233    2.239    0.553
        83  -9.5783     44.6037    140.7721   1.3018771141e+02   4.1604220629e+01    0.1790354    0.1138561 -74.87 0.0003061212    1.480    0.324
        84  -9.9863     39.0418    139.6587   1.3150357427e+02   4.2473336800e+01    0.1790009    0.1563274 -69.36 0.0005129341    1.048    0.045
        85 -10.0001     30.8828    140.1763   1.3375207940e+02   4.3169489573e+01    0.1874896    0.1495371 -89.32 0.0003273683    1.201    0.167
        86 -10.8145     31.1355    136.1158   1.3308088735e+02   4.4109254708e+01    0.2135509    0.1856122 -48.71   0.00034493    1.206    0.171
        87 -10.8182     72.0734    134.1580   1.2142597202e+02   3.9698249027e+01    0.2518525    0.1872936 -58.41 0.0004367854    1.216    0.178
        88 -10.0093     48.8969    191.0839   1.3601194495e+02   2.9068931407e+01    0.2098969    0.1520876  82.21  0.001221986    1.238    0.193
        89 -10.2506     74.1349    129.0986   1.1980914683e+02   4.0614786218e+01    0.2113357    0.1795747 -42.37 0.0003028432    1.175    0.149
        90 -11.7923    101.1520    126.9560   1.1171747228e+02   3.6697269178e+01    0.3903568    0.3682711   4.84  0.001287065    1.169    0.144
        91  -9.8486     87.3044    128.4306   1.1593029593e+02   3.8730083245e+01     0.201831    0.1376815  49.64 0.0005280085    1.604    0.377
        92 -11.0611     79.8662    125.8984   1.1748707083e+02   4.0515170938e+01    0.2787914    0.2307284 -16.52  0.000758083    1.449    0.310
        93  -9.7094     47.6678    124.6879   1.2653522926e+02   4.5104232712e+01    0.1386756   0.09267401 -35.15  0.000247807    1.677    0.404
        94 -11.0266     92.6878    119.3012   1.1229808648e+02   3.9978532861e+01    0.2517724     0.190923  42.96 0.0005668713    1.395    0.283
        95 -11.4653     91.5460    116.2386   1.1189028865e+02   4.0882562547e+01    0.3120052    0.2676939   6.33 0.0008565069    1.350    0.259
        96 -11.1295     69.8502    116.7032   1.1837265541e+02   4.4164243428e+01    0.3381482    0.2086404  49.63   0.00131049    1.916    0.478
        97 -10.2351    106.9665    190.2900   1.2263556084e+02   2.0513791583e+01    0.2084202    0.1783958  51.54 0.0008402576    1.138    0.121
        98 -10.7146     91.0265    111.7334   1.1093523726e+02   4.2002289761e+01    0.1989274    0.1951456 -16.89 0.0004000001    1.055    0.052
        99 -13.1116    100.8604    105.2082   1.0640499744e+02   4.1716467395e+01    0.7393777    0.4626193 -48.99  0.002690475    1.546    0.353
       100 -10.2368      2.4983    103.9295   1.3624091226e+02   5.3665489240e+01    0.1808055   0.09107357 -64.85 0.0004612353    1.512    0.339
       101 -11.1003     94.0448    101.2931   1.0735955764e+02   4.3801738690e+01    0.3599372    0.2459474   6.03  0.001571159    2.162    0.537
       102 -11.0525     77.9420    100.6213   1.1204838185e+02   4.6615655729e+01    0.2213529    0.1758686   2.05 0.0009154023    1.479    0.324
       103 -10.2638     82.5062     95.7144   1.0935101059e+02   4.6958240721e+01    0.2301466    0.1864028 -37.24  0.001246811    1.164    0.141
       104  -9.7585    242.8851    189.3338   9.3496603915e+01  -4.7189673964e+00     0.239282    0.1203047  49.22  0.001065297    2.480    0.597
       105 -12.4799    132.3746    246.7505   1.2543068246e+02   4.3608989722e+00    0.2549536    0.2104516  51.86 0.0003799003    1.027    0.026
       106 -11.2472    103.1271     89.5157   1.0143946287e+02   4.4611374261e+01    0.2604453    0.1976669 -41.70 0.0002776357    1.287    0.223
       107 -11.1063     68.2157     89.7615   1.1225682085e+02   5.0398578461e+01    0.2337791    0.2011156 -22.83 0.0002676984    1.119    0.107
       108 -10.8631     87.7660     88.0381   1.0560992893e+02   4.7691417905e+01     0.355885    0.2326454 -24.79  0.001157774    1.801    0.445
       109 -10.8663     52.1462     88.1552   1.1710477938e+02   5.2841475620e+01    0.2242394    0.1838529 -46.72 0.0002725797    1.095    0.087
       110 -16.3971    184.3804    111.5826   8.7451184991e+01   2.2115618135e+01     2.613091     1.453982  64.35   0.01008054    2.235    0.553
       111  -9.8108      3.0208     89.2803   1.3364552634e+02   5.6810115434e+01     0.261213   0.07373278 -47.38  0.001159796    2.616    0.618
       112  -9.6150     49.9482     85.0000   1.1702693904e+02   5.3763762352e+01    0.1926447   0.07439613  29.50 0.0005482831    2.885    0.653
       113 -10.9645    101.0440     82.9878   1.0015489700e+02   4.6306898225e+01    0.2703207    0.1947206 -26.59 0.0003470687    1.488    0.328
       114 -11.6845    102.1787     79.0923   9.8666375260e+01   4.6840997815e+01      0.32413    0.2301174  44.27 0.0006822982    1.434    0.303
       115 -10.4964     85.4021     82.7621   1.0482406696e+02   4.9157335712e+01    0.2455977    0.1891788  32.05 0.0007266436    1.337    0.252
       116 -10.5591    244.5923    185.2845   9.2388983822e+01  -4.3157527538e+00    0.3407365    0.2475923  66.81  0.001738233    2.259    0.557
       117 -10.1625     52.3668     81.0621   1.1516283860e+02   5.4290174188e+01    0.1865966    0.1472763 -41.99 0.0004796025    1.113    0.102
       118 -11.9275     67.0241     77.5690   1.0923584316e+02   5.3056250802e+01    0.2441234    0.2185159 -32.99  0.001500737    1.069    0.065
       119 -10.8624     94.5411     77.5532   1.0047185358e+02   4.8564383885e+01    0.2891642    0.1346635 -43.08 0.0008669734    2.106    0.525
       120  -8.9499     28.2940     78.3195   1.2279427212e+02   5.7341836775e+01    0.1294799   0.07618617 -33.12 0.0007014471    1.609    0.378
       121 -11.9657    108.1726     76.1587   9.6058662508e+01   4.6215536144e+01    0.3976643    0.2752956 -70.62  0.001745725    2.305    0.566
       122 -10.3228     85.3139     76.9851   1.0314116646e+02   5.0300543644e+01    0.1996092    0.1770437 -27.81 0.0006461003    1.064    0.060
       123 -11.0437     68.9175    202.2517   1.3296001737e+02   2.3802458312e+01    0.4978006    0.2485729  72.21  0.002028318    2.755    0.637
       124 -11.2094     96.8062     72.3095   9.8191293325e+01   4.9122242651e+01    0.2438919    0.2336394   8.62 0.0003116222    1.058    0.055
       125 -11.7454    101.2100     70.7702   9.6412999979e+01   4.8564007067e+01    0.3266124    0.2154958 -27.50  0.001148787    1.627    0.385
       126 -12.0765    110.1895     69.2696   9.3384557190e+01   4.7046920629e+01    0.4432745    0.3102607   1.90  0.002055423    1.956    0.489
       127 -10.9209     88.6543     70.8564   1.0022385075e+02   5.0868728343e+01    0.2257137    0.1665861 -18.88 0.0008586188    1.448    0.309
       128 -12.2061    118.9400     68.2804   9.0702789391e+01   4.5391113445e+01    0.4870633    0.3211473 -45.72  0.002003922    1.622    0.384
       129 -10.8595     32.0433     66.9848   1.1850050125e+02   5.9264164083e+01    0.1826591    0.1479753 -31.93 0.0003416998    1.011    0.011
       130 -10.4817     10.9229     65.9811   1.2604712225e+02   6.1120650103e+01    0.1772739    0.1326272 -41.21 0.0003316465    1.032    0.031
       131 -10.0340     75.6278    185.6908   1.2925069321e+02   2.6677774509e+01    0.2660056    0.1615984  44.60 0.0009578115    1.631    0.387
       132 -10.8148     20.0517    244.6709   1.4622450992e+02   2.0960327025e+01    0.2973206    0.1214779 -68.89  0.001124919    2.253    0.556
       133 -10.2639     17.7083     61.9587   1.2248776121e+02   6.1430043824e+01    0.1666711    0.1214679 -42.53 0.0003881338    1.092    0.084
       134 -10.9355     88.5101     60.9406   9.7113314523e+01   5.2636074715e+01    0.2866699    0.1874135  28.68 0.0009597294    1.581    0.367
       135 -10.8233     89.7236     57.6819   9.5671205160e+01   5.2958222382e+01    0.2166741    0.1782634  -0.02 0.0004551168    1.212    0.175
       136 -10.6247     95.6989     58.9685   9.4285522585e+01   5.1640115590e+01    0.2360317    0.1827193  35.66 0.0005604754    1.243    0.196
       137 -10.6081    238.7895    183.7684   9.3121415385e+01  -3.0793736366e+00    0.3114412    0.2004848  -0.05  0.001445716    2.191    0.544
       138 -11.0364    132.0319     57.9850   8.4260550758e+01   4.4186863856e+01    0.2701149    0.2021115  74.89 0.0005995236    1.611    0.379
       139 -11.4984    128.5128     55.9197   8.4470924224e+01   4.5297889525e+01    0.2538717    0.2197553  39.91  0.000514853    1.096    0.087
       140  -9.9160      7.2446     57.7585   1.2539058607e+02   6.2930621779e+01    0.1592387   0.09960379 -34.21 0.0004437825    1.308    0.235
       141 -10.7825    140.0431     56.5809   8.1988502811e+01   4.2564116231e+01    0.2458929    0.2121779 -15.01 0.0004225651    1.294    0.227
       142 -11.1881    134.8211     53.0113   8.2097170047e+01   4.4304917825e+01    0.2376249    0.2120809  62.37 0.0002410579    1.107    0.097
       143 -11.5953    122.0170     53.3357   8.5261396184e+01   4.7128229706e+01    0.3498938    0.2666053  76.52  0.001389396    1.672    0.402
       144 -11.5830    124.9645     49.5111   8.3333839595e+01   4.7040107637e+01    0.3986918     0.248143  10.78  0.001677369    2.612    0.617
       145  -9.8899     95.5667     53.4952   9.2521623158e+01   5.2538845112e+01    0.1341573     0.122999   9.50 2.900825e-05    1.021    0.021
       146 -10.3252     24.8883     52.7852   1.1711623572e+02   6.2553160881e+01    0.1744298    0.1284556 -22.61 0.0003570549    1.156    0.135
       147 -11.1264    105.9805     49.4603   8.8212853350e+01   5.1095842398e+01    0.3210117    0.1867797 -35.12  0.001430377    1.790    0.441
       148  -9.9216     37.0413     51.1207   1.1186068541e+02   6.1676684215e+01     0.252744    0.1357523  50.67  0.001094879    3.988    0.749
       149 -11.4175    161.4659     48.4139   7.5241522548e+01   3.8673387186e+01    0.3393091    0.2477125 -66.16  0.001480561    1.580    0.367
       150 -11.7757    156.4563     44.4845   7.5075785751e+01   4.0423733212e+01    0.4475454    0.3877196   5.23  0.002554254    1.399    0.285
       151 -11.6598    138.5704     43.4032   7.8352664522e+01   4.4796763403e+01    0.4505759    0.2733867 -54.12  0.002055324    2.092    0.522
       152 -10.4952    206.0854    202.2189   1.0300620648e+02  -5.9264157790e-01    0.2095931    0.1984481 -46.43 0.0003298102    1.204    0.170
       153 -10.8586     64.2092     43.5592   9.9199197071e+01   5.9418349218e+01    0.2835711    0.1889017 -47.03  0.001265389    1.818    0.450
       154 -10.5781    151.8155     43.7019   7.5740947046e+01   4.1639257077e+01    0.2219541    0.1919091  -6.01 0.0006629782    1.371    0.271
       155 -10.3017     95.1621     44.5871   8.9632814556e+01   5.3942252884e+01    0.1928982    0.1118299  35.50 0.0006075166    1.678    0.404
       156 -10.8949    115.9861     56.0211   8.7654636177e+01   4.8021913838e+01    0.2664042    0.1975801 -32.16 0.0003380925    1.406    0.289
       157  -9.4271      6.4399     40.9243   1.2102760503e+02   6.6018259987e+01    0.1367297    0.0941315 -75.89 0.0008072832    2.561    0.610
       158 -11.2555    156.0545     38.4163   7.3429635986e+01   4.1322945324e+01    0.4898328    0.1985642  60.74  0.001816282    2.233    0.552
       159 -10.6305    110.8425    183.8399   1.2064461373e+02   2.1330970197e+01     0.216511    0.2077585 -27.96 0.0009316621    1.235    0.190
       160 -11.7525    146.0427     35.8955   7.4587923225e+01   4.4020596415e+01    0.5564607    0.2385685  61.30  0.002306169    2.168    0.539
       161  -9.8791    124.1362     35.1623   7.8978158242e+01   4.9142600574e+01    0.1771132    0.1577356  88.14 0.0004488927    1.302    0.232
       162 -10.6498    133.9380     32.7947   7.6092698757e+01   4.7215037551e+01    0.2536776    0.2189111  -2.79  0.000800327    1.312    0.238
       163 -10.3693    150.1225     31.0835   7.2415408893e+01   4.3641704752e+01    0.1982064    0.1677957  42.69 0.0003547524    1.189    0.159
       164 -10.8817     36.8279     29.9229   1.0448891059e+02   6.5060505847e+01    0.1833461    0.1560993  -0.26 0.0003585766    1.186    0.157
       165  -9.9552    227.5137     28.0314   6.0981978478e+01   2.5743270289e+01    0.2040738    0.1323945 -57.67  0.000703285    1.394    0.283
       166 -11.5623    225.6651     23.3191   6.0174854510e+01   2.6747578513e+01    0.4165204    0.3094307 -86.96  0.002388864    1.138    0.122
       167 -10.4604    128.9262    200.2303   1.1924128731e+02   1.4320639428e+01    0.2704183    0.1850248  56.10  0.001235892    1.458    0.314
       168 -11.7928    123.3963    176.6702   1.1635729783e+02   2.0699846792e+01    0.3712443    0.2575002 -82.56  0.000941072    1.822    0.451
       169 -11.0473    241.5183     24.4912   5.8901895846e+01   2.3125018805e+01    0.4046595    0.2306148 -65.79  0.002013436    1.606    0.377
       170 -10.0424    121.1839    243.8524   1.2728416486e+02   6.7689913948e+00    0.2043217    0.1530304  66.91 0.0007311009    1.311    0.237
       171 -10.4472    167.9820     23.0519   6.7214191653e+01   4.0304529930e+01    0.2803751    0.1973753 -14.01 0.0008343069    1.895    0.472
       172 -10.6153     83.8772     23.3568   8.5368016241e+01   5.8768371532e+01    0.2142481    0.1915025 -14.30  0.000760752    1.224    0.183
       173 -10.1319     43.5252     22.8571   9.9050310861e+01   6.5204931476e+01    0.1648576    0.1448705  14.98 0.0003309754    1.321    0.243
       174 -11.6456     17.4399     21.8986   1.0965355006e+02   6.8189184333e+01    0.1871152    0.1447348  -5.46 0.0008588379    1.117    0.105
       175 -11.4091      1.4192     21.3109   1.1676328082e+02   6.9506962535e+01    0.1756679   0.08669539 -43.55 0.0002880713    1.641    0.391
       176 -10.4475     70.1700     26.8381   9.0975626301e+01   6.0764361490e+01    0.3165571    0.1580443  -6.22  0.001280074    3.523    0.716
       177 -12.6180    225.3851    240.7579   1.0625471138e+02  -1.0053472131e+01    0.3507538    0.2841351  29.09  0.002298134    1.190    0.160
       178 -10.1917    158.0264     20.5936   6.8093188415e+01   4.2947342825e+01    0.2955737    0.2099978  36.90  0.001637629    1.593    0.372
       179 -11.0358    175.5964     23.4549   6.6202284432e+01   3.8435923225e+01     0.259883     0.180608 -15.25   0.00126157    1.951    0.487
       180  -9.9765    174.8536     19.1725   6.5204814148e+01   3.9089533477e+01    0.1948842    0.1579823 -88.17 0.0003770259    1.154    0.134
       181  -9.7809      2.3814    242.8697   1.4903080211e+02   2.3191355133e+01    0.1441266   0.07735401 -72.28 0.0009340572    1.720    0.419
       182 -10.2715     33.2016    177.1599   1.3792452092e+02   3.4153486465e+01    0.2275113    0.1385199 -63.21 0.0006911628    1.459    0.315
       183 -10.1077    236.3919    176.8511   9.2152374954e+01  -1.4488183402e+00    0.1996944    0.1779419  43.93 0.0008376566    1.272    0.214
       184 -10.3936     66.0028    242.0211   1.3782253153e+02   1.5682051956e+01    0.2045787    0.1158321  67.53 0.0005653823    1.656    0.396
       185  -9.6337     82.9709     16.2678   8.2975544988e+01   5.9694031506e+01    0.1662151    0.1318054  34.03 0.0002908822    1.081    0.075
       186 -10.8522     24.1832     15.7471   1.0419138710e+02   6.8377489960e+01    0.1895031    0.1452474  -1.75 0.0003475615    1.082    0.076
       187  -9.8322     56.8709    241.8997   1.3951261260e+02   1.6965096414e+01    0.1663548    0.1444015  87.97  0.000546922    1.242    0.195
       188 -10.1315     32.7685    242.4238   1.4389091777e+02   1.9930689591e+01    0.1392679    0.1049335  39.16 0.0009452653    1.628    0.386
       189 -10.1380     89.8195    206.1643   1.2889119600e+02   1.9747699361e+01    0.1683735    0.1633593 -49.04 0.0003660864    1.301    0.232
       190  -9.3344    110.5050     11.5040   7.4265757288e+01   5.4640050048e+01    0.1245694    0.1073704  47.11 -1.29892e-05    1.048    0.046
       191  -9.6458     45.0262     11.5026   9.3774526829e+01   6.6363193258e+01    0.1600845   0.09670927  33.95  0.000637897    1.524    0.344
       192 -11.9258    235.1742    235.3451   1.0350787335e+02  -1.0740073415e+01    0.3235788    0.2224198  23.00   0.00127704    1.311    0.237
       193  -9.9998    233.8395    172.0255   9.1622249392e+01  -1.2874535121e-01    0.1991808    0.1770429 -60.90   0.00056488    1.325    0.245
       194 -11.4561     79.8229    170.8937   1.2599446892e+02   2.9594390741e+01    0.3979037    0.2110639 -63.57 0.0008502761    1.779    0.438
       195  -9.7072     22.3345    236.3167   1.4528433202e+02   2.2363584900e+01     0.100084   0.08299685 -58.83 0.0007047812    1.693    0.409
       196 -11.1443    248.0617    232.7701   1.0072377587e+02  -1.2242477371e+01    0.3771953     0.183958  19.14  0.001749185    2.588    0.614
       197 -10.8394    192.9881    232.5116   1.1109670084e+02  -3.5583297439e+00    0.1898829     0.174465  -9.29 0.0004861183    1.131    0.116
       198 -10.1451      7.1940    231.2888   1.4757057201e+02   2.4994931630e+01    0.2182341   0.09780888  75.39 0.0009216408    1.995    0.499
       199  -9.9788     88.2145    230.5640   1.3229162653e+02   1.4730554007e+01    0.1723156     0.119755  32.86 0.0009411704    1.675    0.403
       200 -10.1993     69.4393    230.2357   1.3600301308e+02   1.7602758134e+01    0.2159692     0.154934  50.17 0.0003256184    1.279    0.218
       201 -11.5378     29.7293    228.8957   1.4342963847e+02   2.3037584167e+01    0.2212487    0.1717234  88.62  0.000432122    1.126    0.112
       202 -11.8043    159.7874    226.7953   1.1691484345e+02   3.2687072249e+00    0.2416268    0.2286607 -17.55 0.0003327424    1.176    0.149
       203 -11.0348    203.0549    225.7620   1.0793967868e+02  -4.1468051489e+00    0.3600108    0.2109402  33.19  0.001295326    1.591    0.371
       204 -10.5933    149.7383    226.5140   1.1896816549e+02   5.1201921004e+00    0.2678878    0.2283499  -6.65 0.0009728996    1.466    0.318
