#   1 NUMBER                 Running object number                                     
#   2 MAG_AUTO               Kron-like elliptical aperture magnitude                    [mag]
#   3 X_IMAGE                Object position along x                                    [pixel]
#   4 Y_IMAGE                Object position along y                                    [pixel]
#   5 X_WORLD                Barycenter position along world x axis                     [deg]
#   6 Y_WORLD                Barycenter position along world y axis                     [deg]
#   7 A_WORLD                Profile RMS along major axis (world units)                 [deg]
#   8 B_WORLD                Profile RMS along minor axis (world units)                 [deg]
#   9 THETA_WORLD            Position angle (CCW/world-x)                               [deg]
#  10 FWHM_WORLD             FWHM assuming a gaussian core                              [deg]
#  11 ELONGATION             A_IMAGE/B_IMAGE                                           
#  12 ELLIPTICITY            1 - B_IMAGE/A_IMAGE                                       
         1 -14.1465    180.4326    119.8068   1.4145394359e+01   2.3140253351e+01     3.378968     2.495005 -38.07   0.01907178    1.204    0.169
         2 -13.9991    207.7865    118.7840   9.6186033869e+00   1.8727689528e+01     3.514991     1.186774 -36.10   0.01411568    2.736    0.635
         3 -13.8345    244.4359     97.0762   8.6499556846e-01   1.6454226286e+01     3.945099     1.536435 -58.22   0.01419015    5.358    0.813
         4 -14.4258    242.4477    141.2624   9.3327307708e+00   1.0326781462e+01     2.336067     1.729732  -1.85   0.01618885    1.625    0.385
         5 -11.0918      4.5500     22.5058   4.7816025649e+01   7.5487598168e+01    0.4756348    0.3270679  35.94  0.002740669    1.598    0.374
         6 -11.1024    186.4721      7.3121   3.4627503261e+02   3.8395463491e+01    0.3123315     0.173921 -81.66   0.00181097    1.643    0.391
         7 -10.5880    205.0244     21.2012   3.4835048408e+02   3.3170640840e+01    0.3299075    0.2513431   4.25  0.002046295    2.248    0.555
         8 -11.5943    191.5288     16.9827   3.4828394404e+02   3.6338725710e+01    0.4175673    0.2164191  83.47  0.002323099    1.907    0.476
         9 -11.7062    246.0620    247.6304   2.5736644471e+01  -4.2646218418e+00    0.6572248    0.3613931  13.10  0.004952557    1.646    0.392
        10  -7.8986    212.4218    205.1713   2.4676152211e+01   4.2997301735e+00    0.1434121   0.09526037 -43.03 0.0003930395    1.599    0.374
        11  -9.5299    193.5254    196.0099   2.6422595458e+01   7.8403316441e+00    0.4778108     0.247245 -57.68  0.002044711    3.734    0.732
        12  -9.8174    191.0029    190.7158   2.5990902122e+01   9.0102422589e+00    0.4823665    0.2516186 -46.69  0.002534474    1.944    0.486
        13  -9.1231    250.5043    198.9397   1.7989388828e+01   1.3732102608e+00    0.1509141   0.08943959 -30.88 0.0003355041    1.252    0.201
        14  -8.8089     67.2889    197.2977   5.5661930068e+01   2.4005339332e+01    0.2856458    0.2078048 -21.87  0.001214276    1.705    0.414
        15  -8.5934    236.9663    185.9170   1.7790651741e+01   4.4855351156e+00    0.2734868    0.1278405 -53.21  0.001152962    4.472    0.776
        16  -8.2525    229.8848    186.1257   1.8854275137e+01   5.2102002349e+00    0.1574479    0.1319634 -33.39 0.0006346193    1.322    0.243
        17  -9.6425    203.3363    185.0399   2.2872815597e+01   8.4228069505e+00     0.915124     0.420636  15.92  0.003818349    3.773    0.735
        18  -8.5876    201.4519    180.4700   2.2403556984e+01   9.3916346097e+00    0.2060042    0.1605209 -11.65 0.0005753397    1.155    0.134
        19  -9.8184    197.8543    177.2125   2.2448631763e+01   1.0382461716e+01    0.2993619    0.2705967  12.32  0.001213847    1.248    0.199
        20 -11.4604    204.3034    175.1755   2.0994746627e+01   9.8934198219e+00    0.6449552    0.5061246  61.20  0.003415729    2.146    0.534
        21 -10.4216    207.7572    171.5249   1.9777959042e+01   1.0046096918e+01    0.3065181    0.2067309 -52.80 0.0006557136    1.799    0.444
        22  -9.1369      5.5189    185.0463   7.2094767656e+01   3.3112666849e+01    0.1945101    0.1226048 -84.71 0.0004655344    1.529    0.346
        23 -10.4029    246.1197    180.8984   1.5694552900e+01   4.2363537232e+00    0.3434399    0.2062939 -25.37  0.001089598    1.314    0.239
        24  -8.8812    250.1994    175.3297   1.4234406930e+01   4.5842159692e+00    0.2133733    0.1173142 -27.39  0.001377108    1.447    0.309
        25  -9.3448    217.3798    181.2163   1.9932009721e+01   7.3483017696e+00    0.2352688    0.1442656 -15.35  0.001391468    1.689    0.408
        26 -10.2934    222.6183    177.3044   1.8454110901e+01   7.3329846355e+00    0.2872076    0.2042551 -44.09 0.0009293635    1.453    0.312
        27 -12.0555    221.4574    125.7166   9.1187802401e+00   1.5527238559e+01    0.8793226    0.4163189 -47.97  0.003984934    1.939    0.484
        28  -8.6504    213.1617    157.9016   1.6450458091e+01   1.1542091198e+01    0.2285058    0.1401786 -47.14 0.0006630305    1.591    0.371
        29 -10.8742    207.7355    138.0380   1.3502189469e+01   1.5553964973e+01    0.4753974    0.2565292 -42.72  0.001744977    1.552    0.356
        30  -7.4460     63.6873    133.2999   4.7597406085e+01   4.0866440914e+01    0.1602884    0.1138352  64.02  0.000181447    1.607    0.378
        31  -9.2226    240.1146    206.4425   2.0612893871e+01   1.3505174957e+00    0.2464597    0.1651358 -46.08  0.001293223    1.897    0.473
        32 -11.8218    228.4529    168.6600   1.6092606413e+01   7.9530326308e+00     1.178827    0.5549222  34.94  0.002723868    2.556    0.609
        33 -10.0843    228.6649    115.4151   6.1760416789e+00   1.6064912566e+01    0.2098583    0.1802713 -83.46  0.001112693    1.498    0.333
        34  -9.0092    226.4180    111.5025   5.6800836767e+00   1.6994728551e+01    0.2146351    0.1378701 -43.32 0.0008016549    1.231    0.187
        35 -13.4589    179.6484    170.1252   2.4460035280e+01   1.4065415087e+01     2.263248     2.085981 -68.55  0.009527969    1.429    0.300
        36 -10.5565    249.3445    236.9719   2.3791822558e+01  -3.2768946864e+00    0.4492647    0.1366357 -35.32  0.002497021    2.548    0.607
        37  -8.3258    133.9335    157.0745   3.1740637584e+01   2.3687976782e+01     0.220409     0.165505 -11.54 0.0004529423    1.597    0.374
        38  -8.4871     41.4264    110.2040   5.1640978759e+01   5.0134165418e+01    0.2101846    0.1437422 -83.81 0.0003782195    1.604    0.376
        39 -10.2542     56.7685    106.3221   4.4618232152e+01   4.9105574255e+01    0.5459827    0.4760479  68.84  0.002189194    1.215    0.177
        40 -11.2464     48.7200    101.4880   4.6783179804e+01   5.1544531727e+01    0.9079074    0.6909373  40.40  0.003440731    1.331    0.249
        41  -9.9902     40.1723    100.7350   5.0254842014e+01   5.2864151798e+01    0.4239756    0.2797734  36.20 0.0009264802    1.526    0.345
        42  -9.1015    214.3953    166.3912   1.7802553360e+01   1.0024648737e+01    0.2230384    0.1743577 -41.21  0.000599682    1.261    0.207
        43 -11.3579     14.2054     96.8069   6.1296562587e+01   5.6502599543e+01    0.9292634    0.3620398 -69.34  0.003537316    2.285    0.562
        44 -11.5438      8.4904    100.0288   6.4395277019e+01   5.6001743831e+01     0.608494    0.4861973 -32.49  0.003033886    1.308    0.236
        45 -11.2621      7.9538     95.0625   6.3993543424e+01   5.7402245246e+01    0.7509074    0.3862953 -37.41  0.003211522    2.075    0.518
        46 -13.1042    240.6728    124.2632   6.4250494646e+00   1.3053846645e+01     1.105137    0.7768242  -8.40  0.007076833    1.856    0.461
        47  -8.3653    227.1335     95.0021   2.2876491218e+00   1.9366747447e+01     0.171018    0.1623878 -54.92  0.000624828    1.230    0.187
        48  -8.0310    137.9652    236.3129   4.3370679152e+01   7.6255556599e+00    0.1688889    0.1316828  12.98 0.0003471065    1.074    0.069
        49  -8.9758    222.9090     87.1463   1.1458975936e+00   2.1206846554e+01    0.2096181    0.1492207 -33.94 0.0003376667    1.278    0.218
        50  -9.6270     43.1191    237.6599   6.5277929962e+01   1.7741097336e+01    0.2154194    0.1804504 -51.15 0.0005712304    1.445    0.308
        51 -10.8859    197.8985    143.6857   1.6170279485e+01   1.6064613125e+01    0.3741143    0.2859153 -79.53  0.002088589    2.110    0.526
        52  -9.4003    246.3129     81.1866   3.5763423205e+02   1.8378553624e+01    0.2309907    0.1788644 -14.71 0.0005857715    1.691    0.408
        53  -9.7359    250.2964     77.1656   3.5651789919e+02   1.8326847354e+01     0.314907    0.1481843 -32.89  0.001284295    1.851    0.460
        54  -8.9566    206.3836     81.0562   1.7342489869e+00   2.4958017491e+01    0.2017846    0.1514685 -66.92 0.0005278257    1.343    0.255
        55 -11.1695    184.0095     78.9744   4.1556058928e+00   2.9497179109e+01    0.3635464    0.3350521  35.62  0.001324702    1.368    0.269
        56 -10.2137    180.0563     78.2945   4.5556739523e+00   3.0391444183e+01    0.2572346    0.2138397 -55.43 0.0006274522    1.041    0.040
        57  -9.5426    197.6538     71.0249   5.1294230286e-01   2.8082685910e+01    0.1900885    0.1375868 -43.07 0.0006838451    1.174    0.149
        58 -11.6453    235.2480    135.9895   9.2741874402e+00   1.2031935579e+01    0.5694855    0.2584174 -39.12  0.001464872    1.687    0.407
        59  -9.4197    192.2335     49.6007   3.5607641916e+02   3.2204875359e+01    0.1600417    0.1124198  60.67 0.0007946469    1.643    0.392
        60 -10.9102    222.7645     42.3499   3.5172844682e+02   2.7346321599e+01    0.4529307    0.1635874 -35.55  0.001997856    2.249    0.555
        61 -11.3084    192.0964     43.1427   3.5453839900e+02   3.3092205458e+01    0.4492965     0.235275 -78.17  0.002197901    2.296    0.565
        62 -11.7116    183.6879     35.1112   3.5338416512e+02   3.5855014560e+01    0.4272738    0.3365525  47.36  0.002662786    1.691    0.409
        63  -7.7985    207.2217     38.5583   3.5211646550e+02   3.0694805675e+01    0.1419357    0.1071961  65.20 0.0007529244    1.578    0.366
        64  -9.6965    247.4489    221.2780   2.1803147649e+01  -1.2180694843e+00    0.2105686    0.1565669  29.25  0.000662111    1.864    0.464
        65  -9.0172    239.9542    221.9361   2.2979454794e+01  -6.5607409873e-01    0.1353391    0.1230042 -26.89 0.0009839726    1.715    0.417
        66  -8.5947    250.2028    210.9173   1.9871009839e+01  -1.4917552851e-01    0.1457232    0.1116863 -25.65 0.0006221157    1.275    0.216
