#   1 NUMBER                 Running object number                                     
#   2 MAG_AUTO               Kron-like elliptical aperture magnitude                    [mag]
#   3 X_IMAGE                Object position along x                                    [pixel]
#   4 Y_IMAGE                Object position along y                                    [pixel]
#   5 X_WORLD                Barycenter position along world x axis                     [deg]
#   6 Y_WORLD                Barycenter position along world y axis                     [deg]
#   7 A_WORLD                Profile RMS along major axis (world units)                 [deg]
#   8 B_WORLD                Profile RMS along minor axis (world units)                 [deg]
#   9 THETA_WORLD            Position angle (CCW/world-x)                               [deg]
#  10 FWHM_WORLD             FWHM assuming a gaussian core                              [deg]
#  11 ELONGATION             A_IMAGE/B_IMAGE                                           
#  12 ELLIPTICITY            1 - B_IMAGE/A_IMAGE                                       
         1 -13.1842    196.3219     42.0629   4.3991962631e+01   3.1251314919e+01     1.050374    0.9025792 -65.21  0.003183561    1.081    0.075
         2 -13.9123    204.9936     33.6336   4.0802486577e+01   3.0319143550e+01     1.571869     1.182326  26.77  0.001334995    1.935    0.483
         3 -13.0639    229.5380      6.9786   3.2412763672e+01   2.7928838109e+01    0.8547161    0.6759983 -81.82  0.004205904    1.073    0.068
         4 -11.2999    211.3837     13.5748   3.5363614515e+01   3.1206469289e+01    0.2753017    0.2066236 -71.00  0.001716204    1.168    0.144
         5 -10.3150     64.0210      8.9903   6.1144003838e+01   6.5235100289e+01      0.19406    0.1587177  21.56 0.0006244953    1.024    0.023
         6 -11.6681     53.3389      7.3435   6.4362383314e+01   6.7275344196e+01     0.399852    0.2040251  20.62   0.00197238    2.225    0.550
         7 -11.5830     43.9491      3.7440   6.6431156469e+01   6.9175870908e+01    0.3616825    0.2747202 -44.68  0.002292593    2.027    0.507
         8 -10.6462     60.7670      2.6094   5.9249924917e+01   6.6443811871e+01    0.2177099    0.1834388  42.03  0.001482652    1.275    0.216
         9 -10.9051    184.7054    211.9184   8.5645842554e+01   2.8219948580e+00    0.3176426    0.1804489  22.24  0.001477369    1.941    0.485
        10 -11.5803    139.8525    249.4633   1.0057236930e+02   3.5304699507e+00    0.6216236     0.336664 -57.33  0.003276019    2.357    0.576
        11 -15.6876     68.6343    147.1520   1.0235265419e+02   3.6684036112e+01     14.99494      7.40116  81.17     0.012809    6.576    0.848
        12 -10.8252     99.2803    180.9299   9.9846099727e+01   2.3800683679e+01    0.2957588    0.2624207  31.99 0.0008402704    1.188    0.158
        13  -9.9500    147.5841    186.7981   8.9217039313e+01   1.4108736472e+01    0.3883808    0.2335198 -39.79  0.001446459    1.795    0.443
        14 -10.1528    187.3002    175.6661   7.8207802723e+01   9.0435510566e+00    0.3518017    0.2979339 -49.17  0.001083795    1.301    0.231
        15  -8.8458    148.3015    175.0158   8.6802274708e+01   1.6492752744e+01    0.2269071    0.2030827  80.38  0.000629821    1.303    0.232
        16  -9.4758    146.1977    171.4400   8.6591782306e+01   1.7667503268e+01    0.2607254    0.2120892 -60.94 0.0008034226    1.350    0.259
        17 -10.8475     47.4627    171.5945   1.1157693575e+02   3.3281099709e+01    0.4789467    0.3569224 -31.31  0.002616799    1.814    0.449
        18 -10.6934    241.0065    169.6164   6.6710478916e+01   7.9022638011e-01    0.2310137    0.1704892 -40.24  0.001321255    1.339    0.253
        19  -9.3106    184.9854    168.4892   7.7205858667e+01   1.0878791258e+01    0.2768566    0.2062319 -55.93  0.001050502    1.578    0.366
        20 -11.3053    107.5081    203.4958   1.0130488098e+02   1.7390755215e+01    0.3057387    0.2321345  86.58 0.0009568683    1.526    0.345
        21 -10.4559     45.4700    165.5099   1.1134129984e+02   3.4995155652e+01    0.3181816    0.2534836   1.37   0.00177347    1.721    0.419
        22  -8.4512    193.5342    170.5353   7.5843826176e+01   8.8776349844e+00    0.1447576    0.1326681  -7.67 0.0002928804    1.001    0.001
        23  -9.1853    135.1711    165.3660   8.8048747872e+01   2.1107323355e+01     0.354144    0.2164285  53.29  0.001411749    1.851    0.460
        24  -8.8689    132.6514    162.3207   8.8057327289e+01   2.2278465394e+01    0.2482353    0.1887983  56.64 0.0006960112    1.438    0.305
        25  -9.8980     49.8644    160.9446   1.0960651407e+02   3.5616341275e+01    0.2011995    0.1724266 -51.89 0.0004246143    1.247    0.198
        26 -12.3838    111.4062    204.1325   1.0049873047e+02   1.6628414432e+01    0.4745957     0.389672 -58.26 0.0009690424    1.297    0.229
        27 -11.5587     91.3733    151.6889   9.6819810810e+01   3.2145526746e+01    0.7256579     0.544499 -15.46  0.003405497    1.842    0.457
        28 -10.9844    133.8348    145.2765   8.4103379466e+01   2.5985242488e+01     1.278385    0.3422694 -54.92   0.00296597    5.687    0.824
        29  -8.9861    111.5866    149.7407   9.0926443723e+01   2.9155056520e+01    0.4005618    0.2276037  68.82  0.001321194    3.396    0.706
        30  -9.3082    174.9126    149.1171   7.5153675880e+01   1.6797019802e+01    0.2304704    0.2118979 -86.51 0.0006162256    1.285    0.222
        31 -10.3276    104.1260    137.9863   9.0468380048e+01   3.3348840337e+01     0.532925    0.3264952 -30.39  0.002127101    2.183    0.542
        32 -11.6035     91.7689    137.5841   9.3895792355e+01   3.5573596511e+01     0.293466    0.2601179 -39.43  0.000447752    1.155    0.134
        33 -10.1853    105.9063    130.8605   8.8362356162e+01   3.4757573274e+01    0.3677993    0.3333001 -68.41  0.001117809    1.122    0.109
        34 -10.4303    135.7003    129.0620   7.9808758322e+01   2.9339350570e+01    0.4958786    0.1409581 -50.65  0.001339353    3.893    0.743
        35 -11.0246    118.6850    123.3456   8.2963291948e+01   3.4113245025e+01     0.583525    0.3628696  17.42  0.002091231    2.476    0.596
        36 -10.3428    100.0586    124.9119   8.8660753862e+01   3.7252436353e+01    0.3224549    0.2616659 -12.52 0.0007602038    1.490    0.329
        37 -10.2319    112.9062    129.0724   8.5966952546e+01   3.3881659135e+01    0.3728395    0.2928934  -2.80 0.0009713816    1.644    0.392
        38  -9.3591    108.6034    118.1450   8.4519575477e+01   3.7291486687e+01    0.2359068    0.2092273  54.16 0.0003766688    1.201    0.167
        39  -9.9302    231.3502    113.6978   5.6238129107e+01   1.2119655522e+01     0.264582    0.2368776 -45.33 0.0007618807    1.054    0.052
        40  -8.7823    167.9858    112.5067   6.7793197780e+01   2.5898334617e+01    0.3172427    0.1902028 -72.40   0.00103214    3.410    0.707
        41 -10.0607    134.6390    106.0352   7.4109664040e+01   3.4693204925e+01    0.5311638    0.1500882 -43.91  0.001512605    3.475    0.712
        42  -9.4989    205.4382    110.1755   5.9733550079e+01   1.8069471494e+01    0.3058467    0.2140696  41.03 0.0009902992    1.593    0.372
        43 -11.3792    118.1581    108.8923   7.9372119596e+01   3.7542005958e+01    0.4255183     0.369371  75.68  0.001552136    1.353    0.261
        44 -11.6327    196.1190    204.2568   8.1941986983e+01   2.2672004156e+00    0.7582286     0.253826  29.10  0.002343572    4.414    0.773
        45  -8.1169    141.4918    108.4628   7.3005224597e+01   3.2669443593e+01    0.1557597    0.1530875 -51.74 5.034538e-05    1.028    0.027
        46 -10.7310     55.6812     95.4933   9.5774994570e+01   5.1143742879e+01    0.4490931    0.2424943  38.93  0.001498753    2.071    0.517
        47 -10.3496     52.8479     90.8875   9.5629584637e+01   5.2570383482e+01    0.2640174    0.2002053 -59.14 0.0009476349    1.271    0.213
        48 -13.8684     51.2868    201.6213   1.1394686500e+02   2.5775201836e+01     2.619097     1.067024  66.28  0.007578087    3.682    0.728
        49 -10.5449    194.5219    198.0247   8.1106153363e+01   3.6221011462e+00    0.3357078    0.2900269  84.39  0.001470885    1.779    0.438
        50  -8.5183    157.5506     89.7639   6.3983670304e+01   3.2807341267e+01    0.2155156    0.1408571 -52.05 0.0006844853    1.638    0.389
        51  -8.7532    234.3102     86.3186   4.9575667549e+01   1.6132871582e+01    0.1295819    0.1063257   2.91 0.0003950235    1.641    0.391
        52  -8.6208    157.7705     82.7965   6.1960604342e+01   3.4063401026e+01    0.2092575    0.1791393 -76.12 0.0006295809    1.311    0.237
        53  -8.5104    184.4105     76.8455   5.5012478400e+01   2.8790154917e+01    0.2023927    0.1414086 -24.23 0.0007858978    1.642    0.391
        54  -9.3044     60.9325     68.3880   8.6165456125e+01   5.6443623082e+01    0.2206003    0.1819959 -51.18 0.0005207935    1.284    0.221
        55 -12.9521    184.8384     51.2142   4.8044381745e+01   3.2718687037e+01    0.9349017    0.8368415  -4.84  0.001824826    1.348    0.258
        56 -10.4022    163.9113    212.0837   9.0041817324e+01   6.2547196323e+00    0.2620164    0.1799414  29.21  0.001375505    1.362    0.266
        57 -10.6602    192.0524    193.0832   8.0672606783e+01   4.9293787898e+00    0.6377147    0.3704416 -65.92  0.002207635    4.385    0.772
        58 -11.2525    121.3480    196.8282   9.7071475652e+01   1.6562271251e+01    0.4624039    0.2717592 -71.38 0.0008515613    2.300    0.565
        59  -9.2837     81.8366    195.2814   1.0617566270e+02   2.3146610554e+01    0.2877965     0.242138  -0.29  0.001622529    1.602    0.376
        60  -8.0185    152.2901    194.3404   8.9514238683e+01   1.1704771825e+01     0.144743    0.1095326  -8.11 0.0005948429    1.646    0.392
        61  -8.5949     72.4604    188.5001   1.0753060466e+02   2.6046493095e+01     0.139312    0.1191182  74.57 0.0001262383    1.074    0.069
        62 -10.5474    120.0660    186.5827   9.5687404550e+01   1.9033874980e+01    0.2418455    0.1981296 -72.64 0.0005860578    1.331    0.249
        63  -9.6277    198.2557     23.6245   3.9097787188e+01   3.3098652524e+01    0.2194294    0.1555752  63.21  0.000714084    1.379    0.275
        64  -9.2124    189.6973     15.0359   3.7885054424e+01   3.6064350167e+01    0.1779086    0.1581578 -74.56 0.0005992823    1.066    0.062
        65  -9.2515    168.4199    233.6586   9.2559970318e+01   1.7484176793e+00    0.2669657    0.1511492  38.90  0.001050767    1.563    0.360
        66 -13.4183     59.0381    184.9116   1.1032295670e+02   2.8676290171e+01     1.490395      1.19393 -85.38  0.008821769    1.141    0.124
        67  -8.9443     93.2856    205.4043   1.0484152059e+02   1.9185209577e+01    0.2560982     0.127437  32.25  0.001128601    2.072    0.517
        68 -18.1741     16.1632    216.1249   1.2247669486e+02   2.6431806786e+01     12.18281     4.006837 -80.31    0.0552914    2.821    0.645
        69  -9.6981     89.6767    211.9310   1.0649022551e+02   1.8311020722e+01    0.2703407    0.2085444 -85.00 0.0008305996    1.352    0.260
