#   1 NUMBER                 Running object number                                     
#   2 MAG_AUTO               Kron-like elliptical aperture magnitude                    [mag]
#   3 X_IMAGE                Object position along x                                    [pixel]
#   4 Y_IMAGE                Object position along y                                    [pixel]
#   5 X_WORLD                Barycenter position along world x axis                     [deg]
#   6 Y_WORLD                Barycenter position along world y axis                     [deg]
#   7 A_WORLD                Profile RMS along major axis (world units)                 [deg]
#   8 B_WORLD                Profile RMS along minor axis (world units)                 [deg]
#   9 THETA_WORLD            Position angle (CCW/world-x)                               [deg]
#  10 FWHM_WORLD             FWHM assuming a gaussian core                              [deg]
#  11 ELONGATION             A_IMAGE/B_IMAGE                                           
#  12 ELLIPTICITY            1 - B_IMAGE/A_IMAGE                                       
         1 -13.0320    182.7332     39.2000   6.1413859999e+01   3.4024373304e+01     1.176375    0.9953583  23.22  0.004335059    1.560    0.359
         2 -11.6770    187.3157     32.6345   5.9144830223e+01   3.3742200818e+01    0.5141007    0.4429701 -29.10  0.001260681    1.285    0.222
         3 -12.7169    204.3408      7.0987   5.1262941650e+01   3.2586817903e+01    0.8627699    0.7110161 -69.93  0.004180361    1.044    0.043
         4  -9.2709    148.6673    239.3257   1.1080367647e+02   6.6652030590e+00    0.1170146   0.08356607  48.27 0.0007051144    1.711    0.415
         5 -10.8267    249.9917    244.1383   9.3342308404e+01  -5.6268295828e+00    0.3640827    0.1534649 -27.20  0.002306256    2.088    0.521
         6 -10.5929     12.4031    206.5957   1.3950609409e+02   2.9465538543e+01     0.321484    0.1714386  43.84  0.001811818    1.461    0.315
         7  -9.7485      8.4332    205.4982   1.4042415860e+02   3.0042119778e+01    0.2535392    0.1696562  53.93  0.000821091    1.185    0.156
         8  -8.6719     87.5953    202.6000   1.2021620087e+02   2.1666628229e+01    0.3225975     0.211527 -68.37  0.001704115    1.813    0.448
         9  -9.5129    193.0584    194.8567   9.5223419318e+01   7.2455569868e+00    0.5290592    0.2795928 -58.88  0.001778998    6.268    0.840
        10 -10.9079     67.7096    196.3107   1.2464491371e+02   2.5697384066e+01     0.383924     0.355491  57.12  0.002424682    1.096    0.087
        11  -9.9192    151.8826    196.3685   1.0392204916e+02   1.3183245102e+01    0.2032833    0.1923057 -46.12  0.001293345    1.310    0.237
        12  -8.5390     81.9708    194.8326   1.2073817240e+02   2.4094189694e+01    0.2037381    0.1801031   6.88  0.001207611    1.262    0.207
        13 -10.6247     96.4990    188.9654   1.1618321680e+02   2.3248142981e+01    0.3997066    0.2792818  60.56  0.001006059    1.618    0.382
        14  -8.6404     61.1288    190.6059   1.2580477197e+02   2.7810219900e+01    0.2543465    0.1248416 -62.30  0.001161728    2.193    0.544
        15  -9.0295    167.8571    231.4997   1.0586750903e+02   5.2910521624e+00    0.1879489    0.1520977 -14.74 -0.0008010696    1.264    0.209
        16  -8.7230    154.2337    186.0165   1.0166357665e+02   1.4654252379e+01    0.1686526    0.1122967 -41.88 0.0004787499    1.615    0.381
        17  -9.1024    147.3976    184.8343   1.0299934769e+02   1.5979787082e+01    0.1924011    0.1232576 -32.17 0.0009524787    1.736    0.424
        18 -10.5693     99.2450    181.1478   1.1433871181e+02   2.4517496904e+01    0.3220817     0.259428  34.12 0.0009711965    1.108    0.098
        19  -9.1780    204.2324    175.8478   8.9774147647e+01   8.4857054100e+00    0.2768598    0.1814288 -28.75 0.0007734194    1.414    0.293
        20  -8.3347    196.7923    176.4016   9.1232678665e+01   9.5267979397e+00    0.1865219    0.1092081  24.75 0.0009591972    1.749    0.428
        21 -10.7368    116.1521    173.4670   1.0866609528e+02   2.3443210211e+01    0.3527498    0.2452901  30.67  0.001755524    1.331    0.248
        22 -10.0466    110.8718    172.9263   1.0995767355e+02   2.4438687349e+01    0.2980247    0.2395272   0.34   0.00155113    1.447    0.309
        23  -9.2812    111.2096    168.8975   1.0918622274e+02   2.5259922321e+01    0.3490254    0.2256619  68.05   0.00143306    2.300    0.565
        24 -10.1307     71.9866    231.1971   1.2686747257e+02   1.8060849939e+01    0.2042287    0.1706913  78.94 0.0004628818    1.351    0.260
        25 -10.2314    124.2270    171.7438   1.0629540142e+02   2.2441744803e+01    0.2736794    0.2246524  71.46  0.001437825    1.527    0.345
        26  -8.7239      5.6413    161.5961   1.3925569766e+02   4.0355096229e+01    0.1567775    0.1082926  40.50  0.000250443    1.321    0.243
        27 -10.2599     95.5126    158.4527   1.1172993216e+02   3.0254310775e+01    0.2874495    0.2724957 -42.57 9.631077e-05    1.145    0.126
        28 -11.3126    100.2919    152.0356   1.0920115928e+02   3.0945070552e+01    0.6259825    0.4619111 -23.65  0.002607597    1.739    0.425
        29  -8.8157    189.5029    154.5348   8.8366521299e+01   1.4258795680e+01    0.1335543    0.1201213  -5.89 0.0008095727    1.020    0.019
        30  -9.9198    134.2090    147.3498   9.9051634247e+01   2.5778838472e+01    0.6662304    0.2072378 -53.26  0.001944402    4.183    0.761
        31  -8.2775    174.7711    148.9983   9.0130034528e+01   1.7827235712e+01    0.1806576    0.1112418 -39.02 0.0004484054    1.600    0.375
        32  -8.9506    164.3301    222.6865   1.0532323384e+02   7.0653959622e+00    0.1158453   0.09075139  48.99 0.0007044345    1.675    0.403
        33 -10.6673    110.3520    137.8286   1.0346242159e+02   3.2427056752e+01    0.5234657    0.3734671 -15.59  0.002266952    1.981    0.495
        34 -10.9904     99.2240    137.5674   1.0667797474e+02   3.4550111250e+01     0.325784     0.287172  16.39 0.0009205346    1.207    0.171
        35  -9.8832    105.9183    130.7195   1.0320570951e+02   3.4920302926e+01    0.3865995    0.3285451  87.56  0.001188826    1.369    0.270
        36  -9.4371    116.4348    129.0441   9.9780400874e+01   3.3254644377e+01    0.2869464    0.2158873  20.10 0.0006574888    1.533    0.348
        37  -8.8211    160.6749    127.9890   8.8474241502e+01   2.4454260254e+01    0.2362324      0.11353 -59.92 0.0007042298    4.237    0.764
        38  -9.3847    104.6593    124.9327   1.0226911189e+02   3.6518100365e+01    0.2746111    0.2382991  10.09  0.000584037    1.291    0.226
        39 -11.7245     53.7988    221.1308   1.3034486455e+02   2.2189823288e+01    0.2247134    0.1804029  47.16 0.0002793515    1.026    0.025
        40 -10.9625     57.8602    213.4209   1.2875275740e+02   2.3281302738e+01    0.2627376     0.186542  31.37  0.000271224    1.236    0.191
        41  -8.8471    111.4668    118.5874   9.8726891201e+01   3.6631562379e+01    0.2577922    0.1483033  40.84 0.0006805508    1.683    0.406
        42  -9.2306    168.0982    113.1670   8.3368048527e+01   2.5695926633e+01    0.2668802    0.2094446  77.62  0.001213219    1.632    0.387
        43  -8.8910    205.9616    110.2450   7.5945598989e+01   1.8551143240e+01    0.1815956    0.1712884 -26.48 0.0008513867    1.051    0.049
        44 -19.4660     33.4734    145.6267   1.2928830415e+02   4.1984841166e+01     21.20201     4.293083 -74.78   0.05611651    5.489    0.818
        45  -8.7363    127.5905     95.1971   8.7989938821e+01   3.8209349991e+01    0.2148966    0.1500794 -31.35  0.000942917    1.614    0.381
        46 -10.4565     73.1780    210.6383   1.2470499107e+02   2.1947626039e+01    0.5263118    0.3269509 -23.04  0.002439919    2.734    0.634
        47 -11.2780    167.7863     67.5075   7.1389534492e+01   3.3622577707e+01    0.7930923    0.3799375 -58.17  0.001664812    2.883    0.653
        48  -9.3113     64.5662    208.3222   1.2663629470e+02   2.3522888433e+01    0.2418502    0.1908483  11.03 0.0005646589    1.447    0.309
        49 -11.9808    168.5524     54.0229   6.7448238897e+01   3.5457645902e+01    0.6072238    0.5228418 -45.37  0.001294108    1.136    0.120
        50  -9.0858     83.8643    245.5248   1.2540440443e+02   1.4029084420e+01    0.1747326    0.1549828  63.19 -7.160676e-05    1.272    0.214
        51  -9.9394      5.1848    246.6262   1.4241019152e+02   2.2203151292e+01     0.103522   0.06353191  63.11 0.0006888585    1.345    0.256
        52  -9.6750    189.5226     14.9983   5.4286576879e+01   3.5177343586e+01    0.1883406    0.1172494 -33.26 0.0007172215    1.568    0.362
