#   1 NUMBER                 Running object number                                     
#   2 MAG_AUTO               Kron-like elliptical aperture magnitude                    [mag]
#   3 X_IMAGE                Object position along x                                    [pixel]
#   4 Y_IMAGE                Object position along y                                    [pixel]
#   5 X_WORLD                Barycenter position along world x axis                     [deg]
#   6 Y_WORLD                Barycenter position along world y axis                     [deg]
#   7 A_WORLD                Profile RMS along major axis (world units)                 [deg]
#   8 B_WORLD                Profile RMS along minor axis (world units)                 [deg]
#   9 THETA_WORLD            Position angle (CCW/world-x)                               [deg]
#  10 FWHM_WORLD             FWHM assuming a gaussian core                              [deg]
#  11 ELONGATION             A_IMAGE/B_IMAGE                                           
#  12 ELLIPTICITY            1 - B_IMAGE/A_IMAGE                                       
         1 -13.5862    192.0997     53.4941   2.0573461904e+01   3.0794668027e+01     1.045536    0.8212832  41.47  0.003888151    1.593    0.372
         2 -13.6156    218.1013     27.0798   1.1916238321e+01   2.8705793481e+01    0.8202048    0.6807343 -47.84  0.004064016    1.164    0.141
         3 -12.6004     53.7741      3.6125   3.1944510917e+01   6.8605259902e+01    0.4894165     0.258254  62.68  0.002256084    2.098    0.523
         4 -10.0980     90.9624    244.9032   8.0571903829e+01   1.1849843860e+01    0.1616326    0.1409362  -4.70  0.000390621    1.280    0.219
         5 -12.6531    249.0270    234.6182   4.8044635757e+01  -5.3279162841e+00    0.6611193    0.1514846 -39.27  0.002797015    4.175    0.760
         6 -19.4819     18.0800    142.1477   8.9462289351e+01   4.3631526574e+01     19.18526     6.271625 -79.53   0.06625547    3.247    0.692
         7 -10.5075     96.9323    219.2667   7.6355231424e+01   1.6031220291e+01    0.2767823    0.1842552 -10.64  0.001364533    2.077    0.519
         8  -9.6972     67.8965    214.7782   8.2936755044e+01   2.0690962097e+01    0.1492672    0.1274469  62.70 0.0003959657    1.162    0.139
         9 -10.6390    152.9873    210.4594   6.2102526198e+01   9.8882577106e+00    0.2545542    0.1744252 -68.86 0.0009673681    2.457    0.593
        10 -11.6494    147.1987    207.2504   6.2874685251e+01   1.1309786222e+01    0.2554271    0.1949264 -57.29  0.001078311    1.637    0.389
        11  -9.6693    164.4158    206.0415   5.8914696816e+01   9.0488132199e+00    0.3342844     0.128621 -57.54 0.0009565907    6.512    0.846
        12  -9.9073     51.2750    201.1268   8.5781159233e+01   2.5693542685e+01    0.3358563    0.1510891 -63.31  0.001504879    2.253    0.556
        13  -9.8165    210.9858    198.6799   4.8524984287e+01   3.8811774188e+00    0.1684865    0.1346762   4.93 0.0004879408    1.120    0.107
        14  -7.5155     69.5012    195.6502   8.0415285056e+01   2.4758260619e+01    0.4125568    0.1451169 -69.35  0.001465492    3.417    0.707
        15  -9.6920     49.8077    195.2538   8.5589025986e+01   2.7221488964e+01    0.2193595    0.1616376  57.23 0.0005339796    1.301    0.232
        16 -10.4767     54.8567    191.3456   8.3835488292e+01   2.7559378460e+01    0.3383416    0.1902048 -82.26 0.0006624735    2.053    0.513
        17 -15.4903     70.7527    143.5968   7.2396796391e+01   3.7362663649e+01     2.090371     1.924805  52.43   0.01146099    1.096    0.087
        18  -9.9990     79.1228    184.2107   7.6353124809e+01   2.6153165673e+01    0.4082463    0.1681451  43.26  0.001058296    2.358    0.576
        19 -12.0236    100.5897    167.2951   6.7766174200e+01   2.6973072433e+01    0.6503659    0.3020568  20.63  0.002066632    2.963    0.662
        20 -12.9561     96.1846    176.8846   7.0590743292e+01   2.5408875274e+01    0.8155558    0.5854569  81.91   0.00289625    1.911    0.477
        21 -11.3926     85.6330    170.0002   7.2414664214e+01   2.8617981148e+01    0.6056009    0.3764283 -24.95  0.001577243    2.300    0.565
        22 -11.6477     91.4207    167.8318   7.0420687512e+01   2.8271605650e+01    0.5888401    0.3802316 -31.26  0.002172659    1.926    0.481
        23 -11.6270    173.3889    177.4660   5.1941680473e+01   1.2895313546e+01    0.6117194    0.3662989 -56.89  0.002633611    2.296    0.565
        24  -9.6035     73.9877    180.7460   7.7289647462e+01   2.7674966755e+01    0.1918295    0.1790804  44.51 0.0004452196    1.013    0.013
        25  -9.4272     63.5540    181.5062   8.0298677920e+01   2.8854089012e+01    0.1384663    0.1309721  54.38 5.070657e-05    1.008    0.008
        26 -12.0270     57.5954    180.0732   8.1791956486e+01   2.9940087553e+01    0.3966016    0.3088645 -22.95  0.001288957    1.576    0.365
        27 -10.1520     71.9650    176.8647   7.7318534491e+01   2.8882211148e+01    0.2154262    0.1959289  49.35 0.0005496845    1.054    0.051
        28 -12.6150    111.3916    168.8683   6.5109435675e+01   2.4870735363e+01    0.7795667    0.4659185 -73.14  0.003128675    2.527    0.604
        29 -12.1752    104.7907    172.1673   6.7467215950e+01   2.5172387083e+01    0.4462425    0.3331652 -42.04  0.001486229    1.402    0.287
        30 -11.7756    179.5939    169.2074   4.9072548698e+01   1.3429675077e+01    0.5732049    0.4094275 -40.58  0.003114566    1.358    0.264
        31 -11.4883    139.6142    171.5898   5.8430607194e+01   1.9585175732e+01    0.2810974    0.2507266  58.78 0.0005654755    1.325    0.245
        32 -12.0326    234.2719    169.2584   3.9343712705e+01   5.3344770948e+00    0.3154152    0.1920013 -43.34  0.001461088    1.624    0.384
        33 -12.2032     94.8966    159.1245   6.7909876147e+01   2.9823485392e+01    0.4147561    0.3120893  79.31  0.001144001    1.734    0.423
        34 -10.3941     59.8199    163.8329   7.9023730954e+01   3.3695323512e+01    0.3641022    0.2258101  75.14  0.001120644    2.087    0.521
        35 -10.4817     99.8131    160.3913   6.6743025233e+01   2.8731400401e+01    0.2377345    0.2279425  50.86 0.0005889545    1.066    0.062
        36 -11.5776     89.9727    149.6108   6.7581120703e+01   3.2925302986e+01    0.4544871     0.355053  80.67 0.0005829713    1.593    0.372
        37 -12.5402     95.2673    143.9082   6.4881793797e+01   3.3452772507e+01    0.7127872    0.5158326 -17.32  0.001792527    1.780    0.438
        38 -11.6742    133.6456    145.1390   5.4539231412e+01   2.6328388463e+01     1.020226    0.2901719 -52.71  0.002828623    4.344    0.770
        39 -10.5068    113.0859    151.6464   6.1350692197e+01   2.8559810687e+01    0.3371749    0.2414061  89.44  0.001446467    2.147    0.534
        40  -9.1490    115.4602    147.5178   5.9849150146e+01   2.9098455409e+01    0.1489701    0.1464754  29.02 0.0004271384    1.043    0.041
        41 -11.7393    109.2590    145.2507   6.1100048794e+01   3.0724571467e+01     0.479267     0.329094  30.13   0.00169492    1.477    0.323
        42 -12.4485    106.2284    132.3793   5.9173338916e+01   3.4301114421e+01    0.7495536    0.4424352 -53.90  0.003167179    1.741    0.426
        43  -9.5349    150.8258    134.1628   4.7913081747e+01   2.5410675951e+01     0.209773    0.1994024 -84.38 0.0003923604    1.195    0.163
        44 -11.7991     95.2831    131.1076   6.2162933159e+01   3.6560354288e+01     0.300286    0.2808419 -17.30 0.0004540319    1.098    0.089
        45 -11.3406    135.4285    130.5716   5.0805885226e+01   2.9160683498e+01    0.4266604    0.2474961 -47.29  0.001822457    1.717    0.418
        46 -10.8803    114.3704    125.7306   5.5290152378e+01   3.4323469743e+01    0.2974133    0.2464309  16.23 0.0006888874    1.320    0.243
        47 -11.3186     55.3594    236.5196   8.7866902610e+01   1.7642871184e+01    0.2002224    0.1624535  58.11  0.000761276    1.151    0.131
        48 -10.6592    102.1460    120.6372   5.7642763993e+01   3.7817902918e+01     0.291772      0.24909   5.24 0.0007231761    1.304    0.233
        49 -10.0672    162.1904    119.8462   4.2039758009e+01   2.6041969703e+01    0.2873227    0.1975628 -56.93 0.0008751273    1.646    0.392
        50 -10.0246    159.3618    115.8763   4.1689921506e+01   2.7384869103e+01    0.2971352    0.1832035 -57.53 0.0009684175    1.950    0.487
        51 -10.0319    155.9967    111.3004   4.1295303309e+01   2.8966014983e+01      0.27017    0.1972665 -59.35 0.0007731169    1.548    0.354
        52 -10.2102    109.8845    115.8398   5.4158905755e+01   3.7446743469e+01    0.2294306    0.2049169  -9.88 0.0003405818    1.206    0.171
        53  -9.6716     92.2350    111.2956   5.8423618428e+01   4.1851269639e+01    0.2074911    0.1788119  71.74 0.0006692178    1.349    0.259
        54 -11.5105    114.9453    108.1156   5.0713543912e+01   3.8161299024e+01    0.4310066    0.3053077  67.62  0.001454806    1.886    0.470
        55 -10.3795    131.1810    125.8453   5.0771805727e+01   3.1019073889e+01    0.2144251    0.1785395 -11.39 0.0004632135    1.360    0.265
        56  -9.8735     82.1560    102.8288   5.9590537584e+01   4.5666669625e+01     0.224879    0.2069048  62.78 0.0004680494    1.184    0.155
        57 -10.2943     75.3923    100.6068   6.1377852533e+01   4.7366074997e+01    0.2761944    0.2472584  81.87 0.0006031727    1.294    0.227
        58 -11.2020    111.7986     99.0351   4.9161594858e+01   4.0774215097e+01    0.4477479    0.2545349  66.21  0.001530843    3.125    0.680
        59 -11.7454     52.7348    243.0454   8.8950201872e+01   1.6651654018e+01    0.1750903    0.1422727 -40.65  0.001149779    1.569    0.363
        60  -9.3053    114.1517     88.8117   4.5584510755e+01   4.2406840082e+01    0.2002317    0.1761903   9.45 0.0003234871    1.265    0.210
        61 -10.2438     97.9924     88.0528   5.0181179002e+01   4.5956310996e+01    0.2417366    0.1910936  83.98 0.0009647325    1.711    0.416
        62 -10.5045    127.4420     89.3552   4.2185566387e+01   3.9400971284e+01    0.2818493    0.2448884 -83.27 0.0002539883    1.318    0.241
        63 -12.2718     52.9618    231.6515   8.8034661748e+01   1.8888763070e+01     0.369204      0.15286 -62.86  0.001501011    2.599    0.615
        64 -10.9806     61.5210    241.8995   8.6900224985e+01   1.5896342295e+01    0.1900231   0.09713255 -50.67 0.0008888888    2.406    0.584
        65 -12.8894    175.1694     66.5066   2.6202992663e+01   3.2615171311e+01    0.5164297    0.4426911  45.15 0.0008906315    1.314    0.239
        66  -9.0084    146.3630     63.7350   3.0492272464e+01   3.9616766871e+01    0.1458315    0.1071946 -81.19 0.0006987254    1.643    0.392
        67  -9.7377    101.4673    248.5647   7.8621131241e+01   9.9015848845e+00    0.1935654    0.1052543 -43.86 0.0008676813    2.234    0.552
        68 -11.9976     39.2844    233.1321   9.1279050133e+01   2.0053023980e+01    0.1757158    0.1709757 -77.42 0.0007160399    1.234    0.190
        69 -12.3857     47.7495    230.0679   8.9119093016e+01   1.9783848000e+01    0.3755483    0.2325654 -71.19  0.002150903    1.773    0.436
        70 -12.1827     59.6260    229.3291   8.6292209285e+01   1.8611447198e+01    0.2492851    0.2038269 -29.66 0.0008224927    1.540    0.351
        71 -10.6132     46.6032     50.2942   5.7299090846e+01   6.3044248170e+01    0.2400568     0.155972  40.72 0.0006340927    1.608    0.378
        72  -9.7654     87.1185     46.8348   3.9781534614e+01   5.5982830920e+01    0.2064693    0.1887185  72.53 0.0003923645    1.217    0.179
        73  -9.8419     82.4354     44.4809   4.0415821181e+01   5.7367586750e+01     0.247294    0.1329941  60.12 0.0008120959    2.248    0.555
        74  -9.3764    114.9240     40.4781   2.9820753881e+01   5.0527600565e+01    0.2075392    0.1309562  61.42 0.0005476073    1.500    0.333
        75 -12.1658    198.1770     47.5135   1.8420852596e+01   3.0300578223e+01    0.4235068    0.3216689  49.94  0.001242503    1.569    0.363
        76  -9.1726    109.5646     37.4708   3.0022614644e+01   5.2209958009e+01    0.1385449    0.1281226  54.79 6.282086e-05    1.017    0.017
        77  -9.8480    164.6290    248.0378   6.5175247926e+01   2.1417723625e+00    0.1584843    0.1296988 -13.40 0.0003921328    1.202    0.168
        78 -11.9967     88.5843    218.9453   7.8329293754e+01   1.7197067348e+01    0.4317324    0.4085417  46.04  0.001739861    1.092    0.085
        79 -11.0159     60.7438     21.2888   3.8271658890e+01   6.5208410635e+01    0.2158703    0.1994317  59.41 0.0007284654    1.256    0.204
