#   1 NUMBER                 Running object number                                     
#   2 MAG_AUTO               Kron-like elliptical aperture magnitude                    [mag]
#   3 X_IMAGE                Object position along x                                    [pixel]
#   4 Y_IMAGE                Object position along y                                    [pixel]
#   5 X_WORLD                Barycenter position along world x axis                     [deg]
#   6 Y_WORLD                Barycenter position along world y axis                     [deg]
#   7 A_WORLD                Profile RMS along major axis (world units)                 [deg]
#   8 B_WORLD                Profile RMS along minor axis (world units)                 [deg]
#   9 THETA_WORLD            Position angle (CCW/world-x)                               [deg]
#  10 FWHM_WORLD             FWHM assuming a gaussian core                              [deg]
#  11 ELONGATION             A_IMAGE/B_IMAGE                                           
#  12 ELLIPTICITY            1 - B_IMAGE/A_IMAGE                                       
         1 -19.6054    230.7156    108.6957   1.4816930344e+01   1.3504881418e+01     8.415339     4.355782 -39.56   0.04200302    1.625    0.385
         2 -14.6330    214.7647     13.7792   3.5601727448e+02   2.9781248363e+01    0.6139257    0.4285732  60.96  0.003632954    1.695    0.410
         3 -12.6645    209.8559     12.0969   3.5598646293e+02   3.1011110668e+01    0.2799464    0.2103242 -82.64 0.0008654748    1.137    0.121
         4 -13.6865    236.3284      7.2915   3.5337194503e+02   2.6121033433e+01    0.4307301    0.3079394   2.44  0.002549634    2.827    0.646
         5 -13.2061    247.7772      3.6407   3.5210633467e+02   2.4344085110e+01    0.4538075    0.2611668 -83.33  0.003022274    1.552    0.356
         6 -12.9263    211.2176      4.3822   3.5419696834e+02   3.1534688469e+01    0.3960373    0.1839611  89.44  0.002069057    2.013    0.503
         7 -15.8127    143.3078    145.9447   3.9415719081e+01   2.3287144700e+01     2.472544     1.261737  45.07  0.009904915    1.956    0.489
         8 -15.1185    228.9927    248.2667   3.9946875285e+01  -6.6790299428e+00     1.488617     0.730504  17.02  0.009076697    1.817    0.450
         9 -14.6319    228.8063    238.3675   3.8522224910e+01  -5.4537788751e+00    0.6931556    0.3825358 -21.79   0.00441971    1.620    0.383
        10 -12.0805    173.9787    220.9564   4.6107716324e+01   3.7655338036e+00    0.1973115    0.1649224  15.39 0.0006390727    1.074    0.069
        11 -12.8258    103.8227    154.2269   5.1731000242e+01   2.8851343549e+01    0.3783356    0.2541892 -84.47  0.001243084    2.119    0.528
        12 -11.4803    203.7089    187.4968   3.4649834724e+01   4.9641620143e+00    0.2490446    0.2022083 -20.27 0.0009824724    1.104    0.094
        13 -13.1959    172.7575    147.2315   3.2952468726e+01   1.7338918134e+01    0.6527866    0.3649387 -38.90  0.002912899    1.771    0.435
        14 -13.4534    192.4819    194.5406   3.8034262273e+01   5.4484920564e+00    0.8712044    0.4778173 -61.45  0.003202575    4.699    0.787
        15 -14.6028     68.0188    143.6819   6.0857625712e+01   3.7440005140e+01    0.9575794    0.6812778  88.44  0.003303625    1.638    0.389
        16  -9.9897     86.3253    146.2767   5.5476556868e+01   3.3862734755e+01      0.15269    0.1217716 -12.60 0.0003159502    1.587    0.370
        17 -10.3575    150.9487    180.4767   4.4390927312e+01   1.4645603425e+01    0.2004584    0.1319638  34.85 0.0001585665    1.421    0.296
        18 -13.1910    150.4200    130.8599   3.4338287842e+01   2.5087699033e+01    0.4677889    0.3686106  44.81 0.0009739586    1.266    0.210
        19 -12.1096    153.9640    126.2916   3.2449598658e+01   2.5307769125e+01    0.2549482    0.2274913 -38.35 0.0007673892    1.122    0.109
        20 -12.0681    125.6096    124.9423   3.9268071313e+01   3.1562076627e+01    0.4906341    0.2619339 -47.97  0.001277835    1.917    0.478
        21 -13.0357    115.7041    123.9164   4.1805059356e+01   3.3848462730e+01    0.5724597    0.3717077 -53.10   0.00115819    1.602    0.376
        22 -12.4094    120.9132    123.7138   4.0274863818e+01   3.2821116374e+01    0.3605254    0.2939302 -56.78 0.0004593144    1.280    0.219
        23 -14.9981     16.8923    115.0511   7.4825927590e+01   5.0894200982e+01     1.559807      1.09332  -2.88  0.005816462    1.682    0.405
        24 -11.7368    151.0611    122.5131   3.2233256824e+01   2.6707038586e+01    0.2345364    0.1489108  45.31 0.0007719084    1.576    0.366
        25 -14.3520     46.9465    113.5546   6.2931879009e+01   4.8296644964e+01    0.6826786    0.6398934 -52.33   0.00161924    1.065    0.061
        26 -15.5047     62.5362    115.6324   5.7459075748e+01   4.5602458340e+01     1.869611     1.484617  12.16   0.00328914    1.415    0.293
        27 -14.1310     54.9559    113.2834   5.9811990286e+01   4.7311091997e+01    0.7483588    0.5210803 -55.42  0.002219474    1.406    0.289
        28 -13.8564    126.1550    108.5367   3.5037855075e+01   3.5124445346e+01    0.9928473    0.5261736 -67.16  0.003100466    3.541    0.718
        29 -13.0597    112.3119    105.6460   3.8213050792e+01   3.8788113726e+01    0.6124371     0.541164   8.11  0.003037842    1.306    0.234
        30 -13.9824    119.5508    102.7011   3.5327329603e+01   3.7867684559e+01    0.6578521    0.4609012 -50.12  0.002953504    1.472    0.320
        31 -10.8442     95.2916    112.9927   4.5409396342e+01   4.0561697603e+01    0.2169882    0.2101744 -62.79 0.0004136954    1.057    0.054
        32 -12.0020    113.3427     95.1897   3.5053959937e+01   4.0893515770e+01    0.2724128    0.2093752  36.52 0.0005085595    1.339    0.253
        33 -11.9716    156.8087     92.5374   2.3420701185e+01   3.1431292571e+01    0.3738713    0.3032047 -34.93  0.001334479    1.298    0.230
        34 -11.0090    114.3180    113.3174   3.9607633242e+01   3.6603085808e+01    0.1600652    0.1276631  -3.26 0.0003280379    1.656    0.396
        35 -10.6334    149.5186    169.4784   4.2679586964e+01   1.7131289937e+01    0.1449612    0.1359913  18.31 0.0001419223    1.023    0.022
        36 -11.1799    110.6764    167.9457   5.2320199372e+01   2.4381648231e+01    0.2041616    0.1971827 -77.11 0.0004744924    1.111    0.100
        37 -12.5420    134.0967     78.0095   2.4518097245e+01   3.9556548048e+01    0.5893567    0.5260556 -18.72  0.003069653    1.305    0.234
        38 -10.5168    142.7100     79.9154   2.3055329333e+01   3.7127716904e+01    0.2089682    0.1915415 -55.18 0.0004427822    1.100    0.091
        39 -11.6008    142.1034    164.6223   4.3529104388e+01   1.9488933284e+01    0.3086562    0.2365852 -64.18  0.001519766    1.575    0.365
        40 -13.5072    171.2304     63.2301   1.2937640178e+01   3.3133060844e+01    0.6127871    0.3485713 -75.77  0.002452153    2.569    0.611
        41 -14.0323    180.1665     56.6675   9.8541116577e+00   3.2032439048e+01    0.5533292    0.3995018  82.49 0.0007792434    1.392    0.281
        42 -12.8191    183.9467     52.0383   8.1442875917e+00   3.1829678930e+01    0.3228146    0.2527774 -26.55 0.0004448737    1.504    0.335
        43 -13.0862    145.3227     55.7711   1.5456135396e+01   4.0643159585e+01    0.5414211     0.342202 -13.42  0.001248954    2.581    0.612
        44 -10.4523    134.4928     45.4970   1.4449949487e+01   4.4937022465e+01    0.1465505    0.1332934  65.18  0.000809471    1.077    0.071
        45 -10.3975    107.1337    205.8035   5.9146031395e+01   1.6533767338e+01    0.1795847    0.1553041   1.14 0.0003407949    1.267    0.211
        46 -10.4615    124.5709     29.2221   1.1065509806e+01   4.9686752652e+01    0.1786675    0.1422437  -7.43 0.0009414212    1.632    0.387
        47 -12.3548    210.2032     16.6195   3.5696858478e+02   3.0437490841e+01    0.2872281    0.1771185 -72.65 0.0004131807    1.416    0.294
        48 -10.4801    136.3908    221.2625   5.4308952314e+01   9.1121633368e+00    0.1522359    0.1319989 -67.30 0.0003920604    1.508    0.337
        49 -12.1511    181.4526    213.2205   4.3365883101e+01   3.9706304293e+00    0.2713298    0.1973493 -21.48  0.001254486    1.345    0.256
        50 -11.7768    189.7486     15.0652   3.5824172034e+02   3.5167879019e+01    0.2239497    0.1634902 -89.86 0.0008421075    1.189    0.159
        51 -15.5593    192.5659    159.9735   3.1571583997e+01   1.1416525908e+01     1.745111     1.358091 -59.58  0.009587455    1.633    0.388
        52 -15.4848    136.3365    118.3678   3.4836490829e+01   3.0749318565e+01     2.492487     1.011555 -48.75  0.008596001    2.555    0.609
        53 -15.9162    164.0204    112.0388   2.6820680307e+01   2.6047717949e+01     2.414138      1.59019  57.57   0.01110783    1.643    0.391
