#   1 NUMBER                 Running object number                                     
#   2 MAG_AUTO               Kron-like elliptical aperture magnitude                    [mag]
#   3 X_IMAGE                Object position along x                                    [pixel]
#   4 Y_IMAGE                Object position along y                                    [pixel]
#   5 X_WORLD                Barycenter position along world x axis                     [deg]
#   6 Y_WORLD                Barycenter position along world y axis                     [deg]
#   7 A_WORLD                Profile RMS along major axis (world units)                 [deg]
#   8 B_WORLD                Profile RMS along minor axis (world units)                 [deg]
#   9 THETA_WORLD            Position angle (CCW/world-x)                               [deg]
#  10 FWHM_WORLD             FWHM assuming a gaussian core                              [deg]
#  11 ELONGATION             A_IMAGE/B_IMAGE                                           
#  12 ELLIPTICITY            1 - B_IMAGE/A_IMAGE                                       
         1 -12.4565    248.3424    134.2503   8.3920565822e+01   6.5636744554e+00    0.9638585     0.644487 -18.97  0.005263528    1.354    0.261
         2 -14.1471    206.4809     15.0851   5.8830517838e+01   3.1072222653e+01     2.544427     1.298422  26.54  0.009800627    2.814    0.645
         3 -12.7413      2.1311     13.6221   1.2489958151e+02   7.1835784433e+01     1.609712   0.02514988 -51.82  0.006033816    3.637    0.725
         4 -10.6363    193.7340    245.1145   1.1300213431e+02   2.3774097784e+00    0.1886023    0.1362739  30.16 0.0002704909    1.059    0.055
         5  -9.8266    205.0242    250.4844   1.1177794365e+02   2.4724274211e-01    0.1708634   0.07677277  36.21 0.0004471935    1.565    0.361
         6 -10.3210    184.1695    250.4138   1.1527513141e+02   3.1785636104e+00    0.2447452   0.09347311  35.67  0.001332721    1.891    0.471
         7 -11.4691    150.0252    248.0875   1.2087248801e+02   8.2510551970e+00    0.3231466    0.2722014 -77.54  0.002585725    1.771    0.435
         8 -10.5137    143.1464    249.0232   1.2215638535e+02   9.0933547142e+00    0.1902806    0.1587789  68.47  0.000462763    1.502    0.334
         9 -12.2279    133.7525    249.0403   1.2377833027e+02   1.0379921433e+01    0.9237712    0.4512221  25.55  0.004972542    2.603    0.616
        10 -11.0113    116.4205    239.1084   1.2588166182e+02   1.4034872925e+01    0.3991779    0.2653987 -32.00  0.002143063    2.549    0.608
        11 -13.2947    124.4237    233.4440   1.2391168934e+02   1.3725845009e+01     1.337135    0.3062187  41.99  0.005643394    3.098    0.677
        12 -11.4884    100.0555    247.4313   1.2942446545e+02   1.5024137876e+01    0.6289657    0.2329945  44.80  0.003630725    1.911    0.477
        13 -10.3237    115.1229    250.4347   1.2709801574e+02   1.2687432961e+01    0.3517661    0.1059602  41.17   0.00153522    2.290    0.563
        14 -11.5129    109.5969    247.1283   1.2776769937e+02   1.3844502332e+01    0.4496399    0.2830059 -68.29  0.003259434    2.134    0.531
        15 -10.8317    135.5880    241.2445   1.2269614105e+02   1.1123267570e+01    0.2115897    0.1824881  28.39 0.0008027686    1.240    0.193
        16 -11.3751    135.3830    236.5379   1.2225250484e+02   1.1771077032e+01    0.3408741    0.2434907  -1.23  0.001479093    2.226    0.551
        17 -11.1866    134.0544    232.5971   1.2208088744e+02   1.2489766234e+01    0.2270369    0.1994754 -11.31  0.001764526    1.510    0.338
        18 -10.6008     84.5172    229.5410   1.3075988663e+02   1.9549812051e+01    0.2885204    0.2263106  82.71 0.0006787005    1.352    0.260
        19 -11.3278     98.5934    231.9586   1.2843207177e+02   1.7408184975e+01    0.3400687    0.2470635 -85.35 0.0007606114    1.662    0.398
        20 -11.1104     88.7664    248.5793   1.3142002749e+02   1.6264480587e+01    0.5456408    0.2985051  64.35  0.003312617    1.875    0.467
        21 -11.1135     81.5480    246.4907   1.3248997142e+02   1.7424207966e+01    0.5261167    0.2876537 -70.62  0.003733288    2.263    0.558
        22 -11.3662     96.4115    240.4787   1.2951095387e+02   1.6453208589e+01    0.3935191    0.2797854 -25.25  0.002554295    2.744    0.636
        23 -11.8773     90.0517    238.6087   1.3047389968e+02   1.7518114200e+01    0.6612566    0.2843882  50.17  0.003188273    1.827    0.453
        24 -11.7831    103.4894    238.4700   1.2810908054e+02   1.5832059070e+01    0.5706359    0.4223921   0.73  0.003829225    2.376    0.579
        25 -11.2274     69.6755    217.3426   1.3253802995e+02   2.3263303769e+01    0.6445168    0.3091782  87.50  0.003539995    2.826    0.646
        26 -11.3759     72.9963    209.9943   1.3135625752e+02   2.4086005225e+01    0.2949766    0.2051388  30.99  0.001739043    1.530    0.346
        27 -10.9501    112.7425    230.1175   1.2570926325e+02   1.5802357287e+01    0.3221717    0.1839285  34.34  0.001212732    1.518    0.341
        28 -11.6604    105.7786    228.8902   1.2686425901e+02   1.6918357076e+01    0.4735896    0.2354166  39.22   0.00199579    1.560    0.359
        29 -11.1531     79.4238    226.1853   1.3141916136e+02   2.0689479991e+01    0.3299657    0.2353141 -78.96  0.001416492    1.597    0.374
        30 -10.6878     77.3497    220.8615   1.3139199221e+02   2.1779830612e+01    0.2375041    0.1489083  52.56 0.0004332488    1.248    0.199
        31 -12.6904     62.5443    244.7711   1.3555007232e+02   1.9853446051e+01     1.461316    0.4970386  33.15  0.006948125    2.892    0.654
        32 -14.7237     12.0198    153.9129   1.3986207570e+02   4.0674522997e+01     3.225499       1.0602 -80.06   0.01606966    2.622    0.619
        33 -14.1151      9.8723    209.6431   1.4278059790e+02   3.0540526186e+01     1.771007    0.9347276 -78.67   0.01301443    1.821    0.451
        34 -13.0095     38.7152    228.7254   1.3868330936e+02   2.4794183945e+01    0.5047216    0.2782221  42.86  0.002206493    1.432    0.302
        35 -14.5316     45.0440    218.7656   1.3707626934e+02   2.5748456691e+01     1.320609     1.007671  15.33  0.009194943    1.976    0.494
        36 -12.0228    245.6116    241.7414   1.0395321099e+02  -4.5083092314e+00    0.2666423    0.2034903   7.86   0.00213494    1.266    0.210
        37 -10.5050    164.9689    242.2677   1.1763286593e+02   6.8248865845e+00    0.2002114    0.1244266  35.53 0.0003490272    1.165    0.141
        38  -8.5700    162.2908    239.6687   1.1780418721e+02   7.5211059587e+00    0.1271636    0.1104445  66.90 0.0009765767    1.555    0.357
        39 -10.5854    172.8811    240.5151   1.1604090435e+02   5.8864833714e+00    0.1805874    0.1512216  80.86  0.001318948    1.974    0.493
        40 -11.4313    124.2752    249.4218   1.2544418623e+02   1.1609816342e+01    0.6933271    0.1687167  36.40  0.002927869    3.444    0.710
        41 -10.2275    165.6046    235.2348   1.1669344334e+02   7.5756483112e+00    0.1687226    0.1126912 -48.41  0.001138544    2.101    0.524
        42  -8.9274    156.0465    236.5345   1.1855267655e+02   8.8111384137e+00    0.1734599   0.08357466  39.37 0.0004382518    1.524    0.344
        43 -10.0660     55.8039    235.7804   1.3616868893e+02   2.1925252753e+01    0.3045204    0.1183735  61.06  0.001666724    2.462    0.594
        44  -9.3133     78.0016    233.2325   1.3218606107e+02   1.9781717467e+01    0.1708006    0.1307238  85.23  0.001160206    1.389    0.280
        45 -13.9250      5.7196    245.4377   1.4451543877e+02   2.5291872451e+01    0.9692616    0.5437306  75.28  0.008290442    1.417    0.294
        46 -10.8602    156.7716    231.6536   1.1785425388e+02   9.3223958142e+00    0.1989929    0.1710527  23.53   0.00038907    1.197    0.164
        47  -9.2387     62.9149    233.0983   1.3479911420e+02   2.1549943406e+01    0.1299724    0.1135689  23.00 0.0003848388    1.577    0.366
        48  -9.0671     92.4734    232.5332   1.2957401841e+02   1.8105824000e+01      0.10744   0.08062359  49.28 6.106192e-05    1.015    0.015
        49 -10.6091    141.7763    230.2561   1.2042164579e+02   1.1699033576e+01    0.2663196    0.1892937 -23.02  0.001168665    2.091    0.522
        50  -9.2014     57.5025    230.9701   1.3560288568e+02   2.2477076756e+01     0.126942   0.08917051 -88.27 0.0008881247    1.483    0.326
        51 -10.3264    222.5292    245.0112   1.0815818876e+02  -1.6643035088e+00    0.1793042     0.106158  30.30 0.0008608259    1.178    0.151
        52  -8.9655    180.6649    229.3160   1.1325417265e+02   6.0501222904e+00    0.1095947   0.07878111  53.30 0.0001840208    1.693    0.409
        53 -10.0158    166.0027    226.9014   1.1559455879e+02   8.5526839875e+00    0.3153433    0.2121773 -72.73  0.001774416    3.159    0.683
        54 -10.7482    161.4144    222.9102   1.1593193710e+02   9.7615668195e+00    0.5061265    0.2523982  19.37  0.002229909    3.355    0.702
        55 -10.7492     92.4483    226.0845   1.2905001374e+02   1.9081525549e+01    0.2700042    0.1414193  52.43  0.001054778    1.587    0.370
        56 -10.3322    132.6877    224.4129   1.2145126675e+02   1.3825263935e+01    0.2030117    0.1806015  -8.24  0.001292589    1.452    0.311
        57 -10.5608    129.2208    221.1929   1.2174548412e+02   1.4790649221e+01    0.2421387    0.1785224  64.46 0.0008575222    1.519    0.342
        58 -11.1801     99.3445    223.5299   1.2756190357e+02   1.8577986848e+01    0.3542898    0.2136848  52.29  0.000240188    1.370    0.270
        59  -9.8558    146.8997    225.3737   1.1892119607e+02   1.1609797434e+01    0.1629022    0.1156569  35.24  0.000184131    1.105    0.095
        60 -11.4278    142.3050    221.6919   1.1934429713e+02   1.2800101564e+01    0.3869106    0.2225175  39.11  0.000989417    1.334    0.250
        61 -10.8767    137.8936    214.0106   1.1926586768e+02   1.4564671562e+01    0.3753602    0.3293489   5.64  0.002369449    1.351    0.260
        62 -10.7142    117.2336    224.3379   1.2431993272e+02   1.6031021275e+01    0.2277808     0.160284  37.13 0.0003507647    1.189    0.159
        63  -9.7848    197.6329    226.6617   1.0987144149e+02   3.8043016032e+00    0.2165974    0.1696067  50.74  0.001347307    1.656    0.396
        64 -10.1975    110.9987    221.2048   1.2517172911e+02   1.7363337379e+01    0.2350733    0.1607469 -64.97  0.001061415    1.830    0.454
        65 -10.7636    245.5057    221.4967   1.0091580773e+02  -2.6890659461e+00    0.1765264   0.09914763 -20.72  0.001123695    1.872    0.466
        66  -9.5465    104.9449    218.8768   1.2608311098e+02   1.8547657441e+01    0.1675018    0.1297339  48.02 0.0003322744    1.003    0.003
        67  -9.3524     99.6988    217.3338   1.2692705926e+02   1.9494651341e+01    0.1929355    0.1521253  -2.90  0.001031852    2.011    0.503
        68  -8.4982     89.3189    218.6471   1.2899661403e+02   2.0642692724e+01    0.1172557   0.06629353  61.42 0.0007047033    1.745    0.427
        69 -10.6161     23.4938    217.5329   1.4075995925e+02   2.8046338141e+01    0.1885071    0.1763285  59.99  0.001749284    1.433    0.302
        70 -10.8547     20.8160    215.0889   1.4111648977e+02   2.8690508168e+01    0.2547086    0.2139082   2.29  0.002116959    1.999    0.500
        71  -8.6032    119.2856    217.3172   1.2320572655e+02   1.6794231357e+01    0.1042821   0.08372042  11.67  0.000196152    1.587    0.370
        72  -9.1480     93.8030    216.9794   1.2800799784e+02   2.0328973194e+01    0.1788078    0.1044193  69.26  0.001066692    1.989    0.497
        73  -9.7860     88.2503    213.0036   1.2870551323e+02   2.1689777563e+01      0.21625     0.137952  76.73 0.0007082353    1.778    0.437
        74  -8.3783     78.6917    214.6974   1.3065778666e+02   2.2613204798e+01    0.0938519   0.08351737   6.08 0.0007014234    1.603    0.376
        75 -10.0573    102.3836    212.1969   1.2591887411e+02   1.9950941757e+01    0.2991252     0.150501  60.55  0.001575848    2.313    0.568
        76 -10.3810    107.4876    209.0532   1.2460726361e+02   1.9754525484e+01     0.318348    0.2263379 -26.54  0.001371588    2.311    0.567
        77 -10.5841    112.6079    208.2767   1.2352142059e+02   1.9158261190e+01    0.2721897      0.19236  35.40 0.0006641762    1.260    0.207
        78  -9.2806    134.8050    208.2456   1.1916077319e+02   1.5896212403e+01    0.2026528     0.148509 -10.94  0.001215939    2.056    0.514
        79 -12.1433     93.4067    202.5880   1.2672312962e+02   2.2751493344e+01    0.4342572    0.3745396  81.94   0.00322456    1.212    0.175
        80 -10.3666    102.7473    202.8454   1.2488864738e+02   2.1436161648e+01    0.3773292    0.1947283  53.48  0.002074044    1.824    0.452
        81 -10.4864     99.3658    196.7131   1.2491338942e+02   2.2949068353e+01    0.5501681    0.2144667  39.56  0.002485682    2.099    0.523
        82  -9.0251     28.6712    208.3032   1.3944068758e+02   2.9109949542e+01    0.1092768   0.05284127  59.84 0.0007034199    1.649    0.393
        83 -11.1034    246.8898    206.2113   9.8193645230e+01  -1.4097373345e+00    0.4284006    0.1505626  30.51  0.001986633    2.499    0.600
        84  -8.8728     32.9087    207.0080   1.3861404303e+02   2.8929790009e+01    0.1264934    0.1123686 -62.54 0.0004812266    1.544    0.352
        85  -9.4216    125.6934    205.5806   1.2063170112e+02   1.7681176672e+01    0.1814431    0.1361296  77.73 0.0008465529    1.689    0.408
        86  -9.4494    166.9881    203.2650   1.1219587734e+02   1.1567053654e+01    0.1742361    0.1260582  36.53            0    1.107    0.097
        87  -8.6832    133.0000    202.9847   1.1885907480e+02   1.6986318886e+01    0.1631761    0.0706054 -52.65 0.0004706094    2.855    0.650
        88 -12.9161    124.6406    241.8413   1.2468429510e+02   1.2552717256e+01     1.077251    0.6790769  15.84  0.006523283    2.397    0.583
        89  -9.8505     64.2272    202.0466   1.3241551399e+02   2.6482810264e+01    0.2249991    0.1412284  28.41 0.0004920206    1.787    0.440
        90 -10.7444     32.7001    201.8731   1.3838139187e+02   2.9838752951e+01    0.1697705    0.1291658  55.54 0.0003187548    1.111    0.100
        91 -10.2396    115.0937    200.2512   1.2212031779e+02   2.0109937632e+01    0.1811512    0.1621385  75.05 0.0002352027    1.208    0.172
        92 -11.1951    249.7132    194.3199   9.5666825476e+01  -6.1952045628e-01      0.31837    0.2288182   4.41  0.002139657    1.126    0.112
        93  -9.4911    196.9917    200.5193   1.0605177328e+02   7.0369299859e+00    0.1936889   0.09978112  37.77 0.0008717839    1.561    0.360
        94  -8.8826    183.1768    200.4050   1.0864357312e+02   9.3184265913e+00     0.164958   0.09901147  43.94 0.0002956603    1.507    0.336
        95  -8.7482    169.5263    200.4816   1.1129059687e+02   1.1547976309e+01    0.1263063    0.1005748  32.15 3.060741e-05    1.017    0.017
        96  -9.4699     43.5979    199.2028   1.3618222942e+02   2.9231468656e+01      0.19491    0.1387012 -52.81  0.001132026    1.895    0.472
        97  -9.5370    119.9622    199.1215   1.2100092625e+02   1.9578690986e+01    0.1801547    0.1483308  41.63 0.0004325214    1.043    0.041
        98  -9.5269     86.0943    197.1153   1.2764950260e+02   2.4661807951e+01    0.3204644    0.1535239 -67.55   0.00133203    2.384    0.581
        99 -11.0102     57.5523    194.0760   1.3310992921e+02   2.8658445065e+01    0.4845712    0.2666536 -68.78  0.002787351    1.896    0.472
       100  -9.9403     53.1532    197.8336   1.3425233604e+02   2.8467794044e+01    0.2664275     0.153145  47.11  0.001559758    1.411    0.291
       101  -9.4808    134.0187    197.7291   1.1797431809e+02   1.7663650588e+01    0.1844713    0.1653073  86.51 0.0003426262    1.342    0.255
       102  -9.4097    133.4249    194.2865   1.1763633819e+02   1.8313362035e+01    0.2347647    0.1292789  36.85 0.0007357197    1.539    0.350
       103 -11.5580     64.3524    194.9333   1.3182406882e+02   2.7729628730e+01    0.2917715     0.228314 -48.60   0.00140086    1.711    0.416
       104 -10.1074     76.9898    188.4785   1.2867446758e+02   2.7376785170e+01    0.2704711    0.1812486  89.40   0.00114943    1.608    0.378
       105 -11.7685     69.9794    187.3607   1.3002331848e+02   2.8445256263e+01     0.276645    0.2458981  -4.76 0.0006234346    1.600    0.375
       106  -9.3266    113.0812    195.5551   1.2197485088e+02   2.1192430384e+01    0.2604658    0.1379726  53.53  0.001370747    1.864    0.463
       107  -9.2554    112.7849    191.9916   1.2160534472e+02   2.1846045518e+01    0.1764261    0.1453273   4.01 0.0003289206    1.601    0.375
       108  -8.8514    107.6527    196.2981   1.2317440889e+02   2.1852746301e+01       0.1253   0.07780526  60.12 0.0007035579    1.680    0.405
       109 -12.6552     38.1478    194.0664   1.3690614434e+02   3.0697579924e+01     0.342523    0.1870489 -63.46 0.0008393449    2.013    0.503
       110  -9.1038     31.6112    195.4072   1.3823197315e+02   3.1086564709e+01    0.2633674   0.08111974  40.90  0.001414014    2.417    0.586
       111  -9.5120    159.8791    194.1809   1.1225076740e+02   1.4056439522e+01    0.1831061    0.1491101  44.81 0.0003791034    1.182    0.154
       112  -9.9412    120.7317    191.6714   1.1991314547e+02   2.0710503974e+01    0.3745661    0.2500943 -47.40  0.001849472    1.810    0.447
       113  -9.3987    118.0082    189.9970   1.2026649497e+02   2.1409736804e+01    0.1800807    0.1515598  48.66            0    1.032    0.031
       114  -9.7751     72.9410    193.0124   1.2992931045e+02   2.7052881485e+01    0.1658042    0.1388395  56.70 0.0003427473    1.053    0.051
       115  -8.9575     25.6921    192.3708   1.3918860872e+02   3.2178761360e+01    0.1909757    0.1186752  66.42  0.001275061    1.290    0.225
       116  -9.9235    191.4941    191.4588   1.0560352993e+02   9.1402258403e+00    0.2225172    0.1771995  23.57 0.0006330565    1.016    0.016
       117  -9.0184     84.8689    192.4693   1.2743951732e+02   2.5645620067e+01    0.1657574   0.09788572  40.22 0.0003056829    1.453    0.312
       118 -14.2419     30.7446    245.9988   1.4071879069e+02   2.2957688587e+01     1.539622    0.8042751  37.49   0.01164493    1.664    0.399
       119  -9.2534    135.1610    189.9773   1.1668662770e+02   1.8746550476e+01    0.1826545    0.1484839  54.70 0.0003996713    1.218    0.179
       120  -9.8948     32.2202    189.8811   1.3780062444e+02   3.2029435697e+01    0.2966593    0.1357104  38.52  0.001819747    1.890    0.471
       121 -10.9027     15.0934    189.9691   1.4106602781e+02   3.3530785462e+01    0.2008803    0.1171445  62.22 0.0009323566    1.341    0.254
       122 -12.7209     14.2430    239.0420   1.4304196245e+02   2.5502956814e+01    0.4269076    0.2342522  51.89 0.0006071416    1.259    0.206
       123 -11.3129    249.8499    187.6741   9.4448224932e+01   5.8599958403e-02    0.3325003    0.1873117 -11.04  0.001891095    1.741    0.425
       124  -9.8649     29.9067    184.0187   1.3790862369e+02   3.3327907750e+01    0.2554587    0.1797095  87.08  0.001421227    1.242    0.195
       125  -9.9152    140.1353    183.1595   1.1465757665e+02   1.9076377917e+01    0.1849013    0.1543779  25.48 0.0003137061    1.163    0.140
       126  -8.9844    154.5752    184.5139   1.1184435352e+02   1.6443511804e+01     0.129291    0.1089784  33.36 0.0001295673    1.011    0.011
       127  -9.2044     37.1435    184.2224   1.3648076341e+02   3.2605638843e+01    0.1831936     0.114924  36.59 0.0008397126    1.552    0.356
       128  -9.9420     24.2605    184.1512   1.3902608924e+02   3.3811945985e+01    0.1839627    0.1233581  49.14 0.0005483848    1.282    0.220
       129  -9.5786    126.0602    180.1441   1.1722056266e+02   2.1876669596e+01    0.2167663    0.1843154  84.73  0.001355353    1.381    0.276
       130  -9.9435    115.2360    177.4779   1.1919729696e+02   2.4050554809e+01    0.3438152    0.1990079 -64.21  0.001796636    2.104    0.525
       131  -9.0205     47.8156    179.7026   1.3398000043e+02   3.2384884586e+01    0.1532467   0.08057966  43.29 0.0006581456    1.634    0.388
       132  -9.4344     20.0195    179.0202   1.3958439488e+02   3.5138095865e+01    0.1543846    0.1223987  72.34 0.0004493358    1.044    0.043
       133  -8.6564     92.5188    178.4456   1.2429058786e+02   2.7194970740e+01    0.1205957    0.1049512  53.40 -0.0001668093    1.033    0.032
       134  -9.7897     64.4851    175.4855   1.3007619359e+02   3.1348881477e+01    0.2457528    0.1612545  68.50  0.001180807    1.465    0.318
       135 -10.9534     67.0184    172.3554   1.2921672205e+02   3.1658853554e+01    0.3989671    0.2476408 -88.89  0.002150618    1.723    0.419
       136  -9.5727    121.9588    175.4965   1.1744322845e+02   2.3358585970e+01    0.1711173    0.1640825  70.38 0.0002753479    1.128    0.114
       137 -11.2090     78.9789    175.3600   1.2690283186e+02   2.9590491986e+01     0.289431     0.222875  38.64   0.00110748    1.255    0.203
       138 -12.2006    248.1516    172.0066   9.1785448172e+01   2.0540741945e+00    0.5534146    0.3076889  28.16  0.003041591    1.550    0.355
       139 -12.6361    248.3563    101.5332   7.6364452629e+01   1.0752007423e+01    0.8746318    0.4872686 -25.12    0.0042356    1.624    0.384
       140 -13.2484    248.3681    114.0967   7.9337910507e+01   9.1283837496e+00     1.511455    0.8408211 -13.89   0.00713694    1.826    0.452
       141 -10.9283    249.5404    151.0285   8.7328807849e+01   4.2829706843e+00    0.4292909    0.2860321 -21.74  0.001709887    1.408    0.290
       142 -11.6878    248.1052    142.5473   8.5767539279e+01   5.5708373065e+00    0.6387553    0.4245818  -3.17    0.0030225    1.402    0.287
       143 -10.6638    169.6965    248.5424   1.1752896735e+02   5.4280450293e+00    0.2776947    0.1579938  20.08 0.0008178056    1.981    0.495
       144 -10.3897     29.0515    170.9020   1.3726779982e+02   3.5908379106e+01     0.312608    0.2349833  71.74  0.002321046    1.075    0.070
       145  -9.3571     95.4414    172.5410   1.2292360562e+02   2.7906110847e+01    0.1234001    0.1073436  56.88 0.0002328474    1.011    0.011
       146  -8.9343     52.7755    170.8776   1.3219654541e+02   3.3570184405e+01     0.152374    0.1081222  65.94 0.0003681531    1.244    0.196
       147  -8.7904    100.5219    170.5084   1.2152047253e+02   2.7564134897e+01     0.125641    0.1100177  54.69 3.162465e-06    1.009    0.009
       148 -10.8578     44.0907    168.4124   1.3387775633e+02   3.4965711186e+01    0.3979659    0.2385919 -55.98  0.002437768    1.893    0.472
       149 -12.2500     86.9694    166.9760   1.2413854350e+02   3.0166485294e+01    0.5735013    0.4132396  43.07  0.003509724    1.258    0.205
       150 -10.7768     89.4783    159.3906   1.2257650223e+02   3.1332808210e+01     0.383255    0.2544776 -80.97  0.001161503    1.733    0.423
       151  -9.4568    126.5267    167.6891   1.1525003817e+02   2.4044965170e+01    0.2189142    0.1428613  56.53 0.0007570106    1.650    0.394
       152  -9.9037     68.8075    166.8196   1.2824456796e+02   3.2538053961e+01    0.1909263    0.1636023  72.65 0.0004795716    1.035    0.034
       153  -8.9622     58.4991    167.5078   1.3062621608e+02   3.3606780731e+01    0.1162922   0.09882804  69.59 0.0001044942    1.008    0.008
       154  -8.8136     53.7899    164.9697   1.3143726853e+02   3.4636663575e+01     0.145095   0.08516955 -73.57 0.0004124145    1.646    0.393
       155  -8.8859     32.9639    164.9979   1.3602966099e+02   3.6717538093e+01    0.1341714    0.1048425  83.34 0.0003710018    1.085    0.078
       156 -10.5391     39.7926    162.0725   1.3430731791e+02   3.6660475025e+01    0.3062743    0.1633838  22.93  0.001254862    2.349    0.574
       157  -9.0531     78.9726    158.7064   1.2496139633e+02   3.2894606634e+01    0.1690281    0.1457613  54.40 0.0004646896    1.066    0.062
       158  -9.4897     81.9562    156.2192   1.2393727199e+02   3.3008269098e+01    0.1996554    0.1506476  60.85 0.0005242436    1.267    0.211
       159  -8.9581     73.5461    159.5360   1.2633570209e+02   3.3422322751e+01    0.1225822    0.1056819  67.94 7.497411e-05    1.032    0.031
       160 -10.1872     72.7006    156.3532   1.2615398214e+02   3.4181468643e+01    0.2392435    0.2017638 -22.83 0.0009455049    1.606    0.377
       161  -8.7639    112.2956    157.9202   1.1698604456e+02   2.8210955206e+01    0.1678223    0.1599527  70.53 0.0003525616    1.073    0.068
       162  -8.9015     52.4869    158.4594   1.3111232248e+02   3.6100574285e+01     0.116157   0.09999841  74.53 9.967609e-05    1.018    0.018
       163 -12.3924     37.4157    147.2790   1.3358896771e+02   3.9940270950e+01    0.6100081      0.37691  -2.43  0.003214034    2.991    0.666
       164 -11.5668     32.5482    140.3560   1.3413751836e+02   4.1849005323e+01    0.3553041    0.1958556  85.72  0.001199776    1.780    0.438
       165 -11.6974     31.9212    155.6026   1.3555684629e+02   3.8711510807e+01     0.424701    0.2536092 -64.72  0.001962433    1.635    0.388
       166 -12.5535     22.9357    155.0727   1.3753166118e+02   3.9590856372e+01    0.4662607    0.4460979  50.32  0.003795817    1.304    0.233
       167 -10.2061    113.8759    150.8369   1.1546138089e+02   2.9357947745e+01    0.3139034    0.2332749 -59.89  0.000545415    1.463    0.317
       168 -11.0694     98.9879    151.1226   1.1911110995e+02   3.1633351335e+01    0.3382113    0.3207126  -3.91  0.001534216    1.226    0.184
       169  -9.6578    102.0538    146.2532   1.1759002643e+02   3.2166300395e+01    0.4100094    0.2053819 -35.12  0.001191421    3.355    0.702
       170  -9.8372     60.5419    151.1790   1.2845209640e+02   3.6719110898e+01    0.3145453    0.1280753  51.15  0.001429475    2.505    0.601
       171 -10.7436     55.5298    149.4103   1.2946262571e+02   3.7653897069e+01     0.532275    0.2962921  60.99  0.002869939    1.865    0.464
       172  -9.2339    228.3740    155.2956   9.1864560276e+01   7.4909491868e+00    0.1716073     0.117446 -32.30  0.000577031    1.597    0.374
       173  -9.2032     87.0577    151.0739   1.2200808668e+02   3.3372295567e+01     0.204595    0.1408297  71.26 0.0006935928    1.641    0.391
       174 -12.6679     67.8946    144.4073   1.2583402656e+02   3.7285115877e+01    0.6443756    0.4452592  69.87  0.002702361    1.508    0.337
       175 -10.7859    133.3949    142.3425   1.0921635847e+02   2.7673605274e+01    0.7193291    0.2479934 -52.19  0.002516473    3.420    0.708
       176  -8.5813    107.3296    146.2650   1.1628992069e+02   3.1336457808e+01    0.1278503    0.1044286  -0.20 0.0002563249    1.574    0.365
       177  -8.9459     88.2985    146.3468   1.2101649094e+02   3.4184027355e+01    0.1264628   0.09979426 -25.69 0.0004707741    1.680    0.405
       178 -11.6320     60.1280    137.1284   1.2686728245e+02   3.9773677638e+01    0.4314039    0.2240284 -78.47  0.001823646    2.074    0.518
       179 -10.3825    236.0892    145.9041   8.8521668071e+01   7.3115415167e+00    0.2802642     0.167707  34.23 0.0007559442    1.521    0.342
       180 -11.8430     73.7903    139.3900   1.2366648523e+02   3.7625908074e+01    0.5679682    0.4065602 -80.68  0.002421521    1.433    0.302
       181 -10.1953    110.4352    136.1790   1.1373680716e+02   3.2914308103e+01    0.3105969    0.2281028 -15.42  0.001171952    1.935    0.483
       182 -11.5278     45.2841    131.3305   1.3000360219e+02   4.2624638723e+01    0.4027323    0.2384873  75.23  0.001839614    1.849    0.459
       183  -9.8737     79.5224    131.7662   1.2102957182e+02   3.8528390028e+01    0.2955362     0.176474  60.61  0.001435993    1.970    0.492
       184 -11.3244     33.8800    131.5322   1.3296971464e+02   4.3639431383e+01    0.3254895    0.1886248  18.45    0.0015223    2.220    0.550
       185 -11.3766     30.1942    126.6260   1.3343290287e+02   4.5028010341e+01    0.2230889     0.204044 -28.48 0.0008724199    1.382    0.277
       186  -9.3301     85.2214    174.0011   1.2537407985e+02   2.9033431658e+01    0.1647025    0.1440719  62.13  0.001123308    1.018    0.018
       187 -11.5541     67.0972    128.3112   1.2381967674e+02   4.0889831554e+01    0.4217485    0.2665921 -70.89  0.002281678    1.546    0.353
       188 -12.0109     41.2081    204.9244   1.3697921918e+02   2.8471872320e+01     1.239732    0.1808193  42.24  0.005430614    3.570    0.720
       189  -9.8030    116.3520    128.9606   1.1082595903e+02   3.3412832028e+01    0.2998536    0.1850522  11.34  0.001187579    2.829    0.646
       190  -9.0273    106.0000    128.5182   1.1344161827e+02   3.5259729416e+01    0.3067538   0.07817012 -53.75 0.0009458888    4.025    0.752
       191  -9.0076     74.3326    128.6351   1.2192175348e+02   3.9905845228e+01    0.1406821   0.09252962  70.79 0.0007035691    1.818    0.450
       192 -10.3621    209.9281    125.7253   8.8757745137e+01   1.5228643707e+01    0.2742198     0.210851 -22.35 0.0005088128    1.275    0.215
       193 -14.4809      3.0887    188.7810   1.4323566470e+02   3.4696251270e+01     4.613707    0.3976707 -79.05   0.01486532    8.200    0.878
       194  -8.4402     85.2998    126.6899   1.1864005264e+02   3.8838729033e+01     0.135563   0.09857162  71.99 0.0004649693    1.601    0.375
       195  -8.9955    234.2706    125.3443   8.4261097434e+01   1.0381863656e+01    0.1445429   0.09473476   7.59 0.0002824335    1.615    0.381
       196 -10.7946     38.3696    121.6742   1.3072232980e+02   4.5419852522e+01    0.2726082    0.1622287  56.61  0.001412599    1.746    0.427
       197 -10.0441     33.4594    122.2147   1.3210946768e+02   4.5729891705e+01    0.1671528   0.09986217 -88.93 0.0004734096    1.603    0.376
       198 -10.4733     54.7618    120.8258   1.2610689927e+02   4.3984941243e+01    0.2526306    0.1888092  28.50  0.001238981    1.494    0.331
       199 -11.7449     63.1169    221.7035   1.3403506179e+02   2.3313354878e+01    0.7467428    0.3975731 -88.09  0.004420522    2.137    0.532
       200 -10.7370     31.1358    118.7337   1.3235878313e+02   4.6700250319e+01    0.2065132    0.1544588  21.29  0.001334909    1.616    0.381
       201  -9.4518     86.5463    117.0894   1.1655224775e+02   4.0782142910e+01      0.30546    0.1345488 -66.87  0.001152689    2.894    0.654
       202 -11.9457     15.1236    114.5536   1.3629369843e+02   4.8807340296e+01    0.2842992    0.2103913 -83.01  0.001952522    1.105    0.095
       203 -10.9626    168.1393    113.3413   9.4483048211e+01   2.6202615721e+01    0.3355264    0.3047294 -86.20 0.0009528073    1.425    0.298
       204  -9.4146     50.1955    112.6362   1.2621829361e+02   4.6321143820e+01     0.153269    0.1212692   8.66 0.0002430999    1.594    0.372
       205  -9.4903    203.7570    111.4550   8.6489734858e+01   1.8719484495e+01    0.2131667    0.1277734  35.09 0.0009443442    1.643    0.392
       206 -10.6927     31.6276    110.9429   1.3133104423e+02   4.8411597587e+01    0.2105106    0.1626337  48.23 0.0004665699    1.365    0.268
       207 -10.4736     57.9370    109.8449   1.2352564662e+02   4.6126099776e+01    0.2881104    0.1330776  38.53  0.001324899    2.209    0.547
       208  -9.5925    231.9551    116.5157   8.2590294892e+01   1.2047011211e+01    0.2015888    0.1328028  44.56 0.0005991675    1.537    0.349
       209  -9.6397    107.3438    172.9041   1.2031387246e+02   2.6098136618e+01    0.1674692    0.1528262  76.53  0.001111062    1.123    0.109
       210  -9.7391     62.4145    107.1930   1.2174831357e+02   4.6216868737e+01    0.1837632    0.1179904 -77.68 0.0009211132    1.658    0.397
       211  -9.2831     42.8520     92.1299   1.2522305636e+02   5.1750039237e+01    0.1700345    0.1326917 -43.67 0.0002845576    1.296    0.228
       212  -9.4527     24.1876     87.8490   1.3060723445e+02   5.4240631672e+01    0.1700418    0.1194756 -52.46 0.0004222268    1.313    0.238
       213 -13.5191    244.9623    158.3416   8.9603940622e+01   4.1875948202e+00     1.874241     0.774129 -37.66  0.008189527    2.866    0.651
       214  -8.3859     77.7341     85.2762   1.1235190703e+02   4.9217617125e+01    0.1291326    0.1068242  82.39 -0.000275831    1.478    0.323
       215 -10.9061    200.7135    246.1418   1.1194852344e+02   1.2806564257e+00    0.2754299    0.1398628  46.55  0.000882828    2.031    0.508
       216 -10.9223    189.9138     15.6594   6.1080240785e+01   3.5338269312e+01    0.2756686    0.2116056 -30.58 0.0007716012    1.324    0.245
