#   1 NUMBER                 Running object number                                     
#   2 MAG_AUTO               Kron-like elliptical aperture magnitude                    [mag]
#   3 X_IMAGE                Object position along x                                    [pixel]
#   4 Y_IMAGE                Object position along y                                    [pixel]
#   5 X_WORLD                Barycenter position along world x axis                     [deg]
#   6 Y_WORLD                Barycenter position along world y axis                     [deg]
#   7 A_WORLD                Profile RMS along major axis (world units)                 [deg]
#   8 B_WORLD                Profile RMS along minor axis (world units)                 [deg]
#   9 THETA_WORLD            Position angle (CCW/world-x)                               [deg]
#  10 FWHM_WORLD             FWHM assuming a gaussian core                              [deg]
#  11 ELONGATION             A_IMAGE/B_IMAGE                                           
#  12 ELLIPTICITY            1 - B_IMAGE/A_IMAGE                                       
         1 -13.8074      2.2258     91.2951   1.2437074895e+02   5.5968856651e+01      2.25846          nan -71.04  0.005996993    7.338    0.864
         2 -13.3477    206.1109     34.4508   5.4002266952e+01   2.8708688665e+01      1.31886     1.080413 -55.52   0.00614513    1.217    0.179
         3 -13.3491      2.6008     15.0528   1.0872909801e+02   7.2227820152e+01     1.106436    0.5210403 -67.23  0.005901334    2.279    0.561
         4 -13.8117    224.4853     16.5655   4.6920455491e+01   2.6113550116e+01     1.067759    0.9155111  36.52  0.001983101    1.342    0.255
         5 -10.9414    197.8940    245.4787   1.0127446803e+02   2.4611911526e-01    0.1797185    0.1252938  21.10  0.001282358    1.330    0.248
         6 -10.8151    162.3935    250.0988   1.0766893185e+02   5.0388308054e+00    0.2597263    0.1104505  44.66  0.001473003    1.744    0.427
         7 -11.3402    142.6644    249.0376   1.1083654894e+02   8.0981843723e+00    0.3823042    0.1665476  54.75  0.002020194    2.383    0.580
         8 -12.2800    119.3532    237.4125   1.1363306433e+02   1.3106523090e+01    0.5895425    0.4548777  -3.57  0.003177795    2.399    0.583
         9  -9.2264    123.1934    229.6373   1.1217372091e+02   1.3670131604e+01    0.1681803    0.1261088  71.55 0.0006270542    1.398    0.285
        10 -12.3463    125.0161    240.3711   1.1294884718e+02   1.1856766654e+01    0.4472585    0.3256301  32.45  0.003178183    1.442    0.307
        11 -11.4703    131.8451    248.8787   1.1262812866e+02   9.7045977029e+00    0.5178198    0.1595097  45.52  0.002547629    2.359    0.576
        12 -11.6676    122.9093    248.8566   1.1411865786e+02   1.0998989706e+01    0.4096291    0.3212753  43.28  0.003203146    1.171    0.146
        13 -11.3254    116.8147    249.7862   1.1521844184e+02   1.1741425467e+01    0.4411536    0.2515733  44.94  0.001714934    1.286    0.222
        14 -10.8744    110.2561    247.8987   1.1614447879e+02   1.2924777463e+01    0.3061023    0.2207614  36.51  0.002263081    1.403    0.287
        15 -11.1686     99.9523    247.9869   1.1786617464e+02   1.4337779719e+01     0.351363    0.2347852  56.52  0.002611512    1.136    0.120
        16 -11.3141     74.3537    243.6875   1.2178208040e+02   1.8348146101e+01    0.3604646    0.2590293  47.03  0.002804983    1.249    0.199
        17 -10.2108     81.4182    248.1615   1.2093407713e+02   1.6777135319e+01    0.2173128    0.1388438 -87.58  0.001111915    1.730    0.422
        18 -11.7393     87.6229    248.5639   1.1994633461e+02   1.5908902356e+01    0.5959947    0.2775236  49.94  0.002732923    1.542    0.351
        19 -11.4153     90.3655    223.6333   1.1745105503e+02   1.9362360849e+01    0.4547538    0.3414101 -64.75  0.003303935    1.617    0.382
        20 -10.5690     84.3078    230.2771   1.1908756439e+02   1.9123888168e+01    0.2276502     0.185662 -64.34  0.001170261    1.592    0.372
        21 -12.1070     88.9689    238.5975   1.1895538558e+02   1.7207294187e+01      0.65766    0.3437072  72.47  0.003900299    2.237    0.553
        22 -11.2421     82.6746    240.2085   1.2014479409e+02   1.7799850921e+01    0.5442094    0.2389137  68.59  0.002818471    2.914    0.657
        23 -11.0014     69.4055    237.3674   1.2217014433e+02   1.9944177022e+01     0.405753     0.300087  -0.89  0.001546963    3.750    0.733
        24 -10.9367     73.8830    236.8487   1.2137980666e+02   1.9457177229e+01    0.3733035    0.2147204 -47.50  0.002268614    3.074    0.675
        25 -11.0411     68.1429    245.6102   1.2292851756e+02   1.8837158261e+01    0.2944645    0.1703465  62.21  0.001121141    1.348    0.258
        26 -10.0929     63.5552    247.7766   1.2380711944e+02   1.9074258608e+01    0.3104538     0.106574 -67.82  0.001776948    3.280    0.695
        27 -11.3646     58.6532    246.3858   1.2451159453e+02   1.9874021832e+01    0.3856315    0.2901984  88.25  0.003234954    1.366    0.268
        28 -12.6629     37.2892    206.3096   1.2572294173e+02   2.8981151380e+01    0.7497541    0.4609227  45.80  0.005271734    1.433    0.302
        29 -14.9016     14.9480    241.9150   1.3115681291e+02   2.5321167408e+01     2.510551    0.8611431  44.40   0.01631751    2.038    0.509
        30 -15.0444     21.5730    218.7281   1.2913788764e+02   2.8450751485e+01     2.173699    0.9516989  61.75   0.01408828    1.731    0.422
        31 -11.9257    101.9614    239.9998   1.1685939372e+02   1.5216864513e+01    0.4722351    0.2712521  58.65  0.002252993    1.478    0.323
        32 -11.0035    105.0000    236.9386   1.1606834562e+02   1.5242823692e+01    0.3166417    0.1914719 -70.08   0.00197137    2.040    0.510
        33  -9.4242     53.5426    241.1140   1.2502913759e+02   2.1288325134e+01    0.1497833    0.1198311  51.34 0.0007920116    1.326    0.246
        34 -10.2071    145.2651    240.4223   1.0948410436e+02   8.8254551649e+00    0.1686964   0.07993068  48.62 0.0009562692    1.682    0.406
        35 -11.7728    135.3569    235.6645   1.1067741808e+02   1.0969983323e+01    0.2699448    0.2296854   9.46  0.002000598    1.595    0.373
        36 -11.3010    180.1473    244.0186   1.0401157090e+02   3.0765047374e+00    0.3000807    0.1430884  27.70   0.00157454    2.388    0.581
        37 -11.9955    136.0528    241.6776   1.1119273748e+02   1.0042750874e+01    0.3655356    0.2328458  26.62  0.002303177    1.883    0.469
        38 -10.8974    113.4491    230.4359   1.1398002642e+02   1.4998205888e+01     0.230005    0.1751672 -62.69   0.00166937    1.638    0.389
        39 -10.1684    250.0000    230.9977   9.0950246271e+01  -5.9253824453e+00    0.1514101   0.05686511 -28.15 0.0008055084    2.964    0.663
        40 -10.1064    153.8716    229.9826   1.0679169751e+02   8.8914094005e+00    0.1711739    0.1360765  43.24 0.0003331152    1.036    0.034
        41 -10.8527     56.5464    228.2888   1.2373933290e+02   2.2980539422e+01    0.1899889    0.1440542  69.95 0.0002119087    1.099    0.090
        42 -10.8025     78.7177    225.7327   1.1970048765e+02   2.0599379413e+01     0.301543    0.2318781 -79.04  0.002286556    1.438    0.304
        43 -10.6508    100.0623    223.5787   1.1570370701e+02   1.8004220590e+01    0.2371715    0.2185096  56.11  0.001672022    1.288    0.223
        44  -8.8042     64.2403    225.1962   1.2219989454e+02   2.2548323691e+01    0.1464985    0.1145203 -24.70 0.0009516799    2.770    0.639
        45 -11.8725    109.4436    231.5858   1.1479784756e+02   1.5408598328e+01     0.811726     0.230105 -54.44  0.003688225    4.355    0.770
        46 -10.5259     71.6876    219.5063   1.2045410242e+02   2.2552045848e+01    0.3696826    0.2066427  72.80  0.002293186    1.770    0.435
        47 -10.6153     60.2990    220.2402   1.2253801986e+02   2.3866107627e+01    0.1849663    0.1368267  60.74 0.0003214295    1.044    0.042
        48 -10.4233    107.8009    217.0102   1.1363824077e+02   1.7931552826e+01    0.3675147    0.1578112  56.73  0.001121679    2.376    0.579
        49 -10.0431     50.8452    218.7317   1.2410143943e+02   2.5260285229e+01     0.267181    0.1376281  70.05  0.000925802    1.743    0.426
        50  -9.7483     46.9958    214.7258   1.2451923488e+02   2.6400165529e+01    0.3282933   0.09416223  50.74  0.001631272    2.583    0.613
        51  -9.1550    116.4501    216.0360   1.1193384010e+02   1.6784983206e+01    0.2491609    0.1410823  26.96  0.001272309    2.498    0.600
        52 -10.1132     88.1250    212.0687   1.1679893146e+02   2.1600028234e+01    0.3259263    0.1468753 -66.58  0.001714217    2.508    0.601
        53 -10.7937     62.3644    209.6312   1.2137131644e+02   2.5445640255e+01    0.3460118    0.2417743 -65.07  0.002395434    1.672    0.402
        54 -10.0770     55.9209    208.9536   1.2250556036e+02   2.6359618645e+01     0.357936    0.1453901 -74.08  0.001949518    2.536    0.606
        55  -9.8192    110.9762    211.3216   1.1243603229e+02   1.8385644248e+01    0.1763449    0.1516319  76.47  0.001206151    1.174    0.148
        56  -9.6300     99.4820    209.9887   1.1446051871e+02   2.0325864367e+01    0.2549188    0.1072982  63.22 0.0007755607    3.469    0.712
        57  -9.5686    245.6622    206.6862   8.7749821937e+01  -2.9281442909e+00    0.1229952   0.07132309  15.64 0.0007046802    1.694    0.410
        58  -9.4566    114.0089    204.5117   1.1108266361e+02   1.9058564719e+01    0.2048607    0.1499863  85.36 0.0005846518    1.540    0.351
        59  -9.5264     90.9083    205.0701   1.1558607686e+02   2.2418412287e+01     0.262668     0.125993  38.30  0.001250842    1.951    0.487
        60  -8.8945     58.5157    212.5126   1.2229560444e+02   2.5415667388e+01    0.1717312   0.07454427  49.90 0.0008171666    1.777    0.437
        61  -9.6192    106.9017    203.3138   1.1231604504e+02   2.0358388563e+01    0.1912745     0.159909 -81.79 0.0006624603    1.298    0.230
        62  -8.7120     72.5239    203.4426   1.1894646184e+02   2.5242333969e+01    0.1181232   0.08716635  64.34 0.0001561183    1.072    0.067
        63 -10.3231     47.4366    198.5091   1.2331494347e+02   2.9262136185e+01    0.1687834    0.1331661  51.81 0.0009051721    1.255    0.203
        64 -11.2615     34.5212    228.0495   1.2743554970e+02   2.5533340753e+01    0.2873661    0.2356139 -86.07 0.0003253293    1.423    0.297
        65  -9.6129    250.6046    200.2630   8.5877105642e+01  -3.0122774764e+00    0.1514264   0.09559097  -9.02 0.0005578015    1.560    0.359
        66 -12.3963    102.1614    229.9427   1.1592591659e+02   1.6705456013e+01    0.6616954    0.5130059  21.97   0.00457884    1.826    0.453
        67  -8.4779     97.6954    196.2887   1.1332169092e+02   2.2988263835e+01    0.1237899    0.0776804  65.79 0.0002386328    1.568    0.362
        68 -12.0837     50.9743    191.9344   1.2212860488e+02   3.0080123325e+01    0.3855813    0.3140395  69.26  0.001449487    1.098    0.089
        69 -10.3544     30.8615    193.3079   1.2609247684e+02   3.2059755664e+01    0.1713105    0.1494977  44.74 0.0002538867    1.453    0.312
        70 -10.1743     35.9769    192.0760   1.2503922862e+02   3.1749484389e+01     0.392289    0.1234036  42.22  0.002003299    2.509    0.601
        71 -10.6442     97.1720    239.3625   1.1762158952e+02   1.5975267136e+01     0.231978    0.1803173  44.43 0.0007527542    1.249    0.199
        72  -9.5368     21.5639    193.4342   1.2784081048e+02   3.2976706609e+01    0.2115588    0.1147361  62.39 0.0001088851    1.440    0.305
        73 -10.2929     19.0512    188.4394   1.2802897974e+02   3.4160579846e+01    0.2592244    0.1237623 -84.71 0.0003436004    1.810    0.448
        74  -9.1553    191.5933    191.6745   9.4448602812e+01   7.8677804930e+00    0.1419849     0.123264 -42.75  0.000500288    1.417    0.295
        75  -8.6518     15.2903    190.2937   1.2883478031e+02   3.4165919394e+01   0.08916125   0.07425706 -68.26 0.0006970604    1.550    0.355
        76 -10.3008    250.1354    188.3257   8.3842525397e+01  -1.6544577878e+00    0.2300976    0.1237069 -10.95  0.001215989    2.097    0.523
        77  -9.9326      9.9775    187.5024   1.2967958291e+02   3.5177246665e+01    0.2126303    0.1263663 -89.96  0.001126026    1.360    0.264
        78  -9.8655     70.6512    187.0888   1.1777126694e+02   2.8533545349e+01    0.2544967    0.1439903  40.07  0.001466318    1.677    0.404
        79 -11.9364     57.3408    184.6201   1.2023779810e+02   3.0716577399e+01    0.3258907    0.2057745  47.24  0.001248501    1.403    0.287
        80  -9.1870     29.0274    184.4489   1.2586774958e+02   3.3938742471e+01    0.2250045    0.1087933 -58.51  0.001214741    2.446    0.591
        81  -9.4622     36.8549    180.4196   1.2402935726e+02   3.3904286920e+01    0.2008771    0.1339925 -84.96 0.0006915855    1.312    0.238
        82  -8.9582    110.3429    178.2742   1.0847151297e+02   2.4349220677e+01    0.1180252    0.1000351  12.59 0.0002599649    1.619    0.382
        83  -9.6266     60.8576    177.6300   1.1885286013e+02   3.1654263308e+01    0.2524108   0.09590182  53.21  0.001171243    2.439    0.590
        84  -8.8478      9.3086    176.3099   1.2922674790e+02   3.7384330417e+01   0.09415352   0.07348518 -62.17 0.0003431406    1.619    0.382
        85 -11.2527    248.5925    172.5709   8.1150956586e+01   3.9986117841e-01    0.3963013    0.2676664   9.98  0.002354817    1.419    0.295
        86 -10.7809     69.6635    172.6566   1.1646284174e+02   3.1508241289e+01    0.2137269    0.1848448  76.48 0.0003495805    1.086    0.079
        87 -10.9951     53.9705    171.6336   1.1972196927e+02   3.3711218515e+01    0.2990484     0.217503  54.84  0.001006711    1.220    0.180
        88 -11.0023      2.5009    172.0962   1.3033803174e+02   3.8779026889e+01    0.4052201    0.1534305  81.82  0.002041294    2.380    0.580
        89 -12.7419      8.7932    164.2678   1.2864943221e+02   3.9816412417e+01    0.7972856    0.3613414 -62.56  0.004656942    2.242    0.554
        90 -10.7708     12.2119    171.5896   1.2838724698e+02   3.8059405800e+01    0.3768499     0.162274  65.68  0.002137173    2.034    0.508
        91 -11.0800     12.8081    167.2912   1.2800849084e+02   3.8864994130e+01    0.2962459    0.1750773  27.37  0.001916541    2.151    0.535
        92  -9.8675     27.4203    171.2900   1.2527411702e+02   3.6697873556e+01    0.2665057    0.1623557 -62.81 0.0008321845    1.755    0.430
        93  -9.2060     18.0636    172.4926   1.2726577529e+02   3.7353057100e+01     0.149211   0.09466403  43.03 0.0008177102    1.551    0.355
        94  -9.0043     91.2792    168.4350   1.1123797517e+02   2.9276198083e+01    0.1777793    0.1047228  51.71  0.000938892    1.533    0.348
        95 -10.4238     39.8713    167.7518   1.2237680263e+02   3.6121946122e+01    0.2695485    0.1977882  17.59  0.001106822    2.063    0.515
        96  -9.9940     19.9769    168.2230   1.2659537964e+02   3.8031279646e+01    0.1488992    0.1282503 -86.49 0.0003827704    1.269    0.212
        97 -12.2134     77.9445    164.6959   1.1370768253e+02   3.1994200875e+01    0.5226739    0.4321541  61.16   0.00340429    1.086    0.079
        98 -11.4923    245.1297    162.3094   7.9695862273e+01   2.2370406500e+00    0.2954134    0.2107497 -25.81   0.00176974    1.386    0.278
        99 -11.1967    242.5109    154.4998   7.8536380716e+01   3.6905805835e+00    0.2535844    0.2020091  48.75  0.001533984    1.453    0.312
       100 -11.1855    249.5755    161.2938   7.8785129300e+01   1.5909209786e+00    0.3059811    0.2096314 -34.49  0.001791581    1.588    0.370
       101  -9.0474     37.1612    162.1700   1.2247308260e+02   3.7564720059e+01    0.1648546    0.1084623  72.26 0.0005961148    1.304    0.233
       102 -10.2880     23.8856    161.9639   1.2532702524e+02   3.8940067768e+01     0.172873    0.1357759  67.20 0.0003894799    1.121    0.108
       103  -8.6754     42.9672    160.9973   1.2108957927e+02   3.7179830114e+01    0.1406966    0.1124799  77.75 0.0003100696    1.011    0.011
       104  -9.7563     68.2603    166.1316   1.1603180492e+02   3.3026656846e+01    0.1708301    0.1336547  87.22 0.0004947914    1.140    0.123
       105  -9.1306     91.9630    156.0502   1.0934140938e+02   3.1710582640e+01    0.1571283    0.1375772  75.95 0.0003493802    1.014    0.014
       106 -10.2119     22.0140    155.8369   1.2526510020e+02   4.0385822786e+01    0.2103038    0.1382011 -84.85  0.001401931    1.250    0.200
       107  -8.5704    228.4432    155.4925   8.1072223960e+01   6.1443811535e+00    0.1305291    0.1162684  10.26 0.0001825335    1.061    0.057
       108 -10.2701     26.1483    155.2370   1.2430490787e+02   4.0123387107e+01    0.2159064     0.121832  57.43 0.0007617035    1.581    0.368
       109  -9.6595     32.0779    153.5221   1.2283071382e+02   3.9904195997e+01    0.1717274     0.130487  89.16 0.0004354969    1.075    0.070
       110 -10.3308     12.4966    153.4542   1.2717351136e+02   4.1719958493e+01    0.2295712   0.08852115 -78.21  0.001071149    2.137    0.532
       111 -11.2149    249.6115    150.9270   7.6669690082e+01   2.8746626773e+00    0.3150519    0.2394183 -23.19  0.001918028    1.262    0.208
       112 -10.8049    240.8004    150.6167   7.8009540351e+01   4.5064736344e+00     0.259915    0.1939545  16.31  0.001516343    1.263    0.208
       113 -10.8864     92.2606    149.6333   1.0829605100e+02   3.3013852983e+01    0.3142089    0.2537333  59.94  0.001023956    1.143    0.125
       114 -10.4268     23.6269    149.6624   1.2440810597e+02   4.1536962328e+01    0.2572417    0.1204953  48.60   0.00144893    1.955    0.489
       115 -10.5038     80.6970    148.4914   1.1087110869e+02   3.5011157397e+01    0.2294108    0.2038355  81.34 0.0005509229    1.033    0.032
       116  -9.5430     39.0597    148.7269   1.2077011314e+02   4.0207725025e+01    0.1997449    0.1643919 -46.92 0.0007275403    1.584    0.369
       117 -11.8547     68.2495    143.6516   1.1318045308e+02   3.7808709866e+01    0.6826294    0.3638619  72.04   0.00291227    2.452    0.592
       118 -11.7145      5.5738    142.1722   1.2793809928e+02   4.4635378465e+01    0.3749796    0.1504037 -70.60  0.001712154    2.024    0.506
       119 -11.7352    243.7496    120.6030   7.0976522789e+01   7.9909254028e+00    0.5167626    0.2900353 -53.38  0.002180535    2.818    0.645
       120 -11.5541    238.9778    120.5279   7.1700270623e+01   8.9544320713e+00    0.4867527    0.2218732 -19.56   0.00190238    2.679    0.627
       121 -11.8682    247.8583    142.4210   7.5156904336e+01   4.2822733161e+00    0.6084336    0.4443548  27.26  0.003552775    1.301    0.231
       122 -12.8562    248.3275    134.0806   7.3283552680e+01   5.2891365187e+00     1.197455    0.5557458 -22.79  0.005297787    2.220    0.550
       123  -9.1304    235.8360    146.1427   7.7879338329e+01   6.0267189217e+00    0.1854978    0.1391795  11.36 0.0004774527    1.304    0.233
       124  -9.3370     96.1468    145.8801   1.0676943181e+02   3.3192633274e+01    0.2011293    0.1647768  80.38 0.0004131047    1.189    0.159
       125  -9.1704     59.3640    146.2993   1.1568302616e+02   3.8385701833e+01    0.1171546   0.09570479 -34.18  0.000703404    1.724    0.420
       126  -8.6038    133.3084    141.6456   9.7243702092e+01   2.7453830404e+01    0.1465086    0.1088631  83.33 0.0007042898    1.722    0.419
       127  -9.7316     44.7452    139.8873   1.1844585969e+02   4.1515897727e+01    0.1763609    0.1660187  54.98 0.0003485271    1.276    0.216
       128 -11.4241      2.3925    143.1780   1.2872319709e+02   4.4659428900e+01    0.4544866    0.1531666 -80.76  0.002266777    2.395    0.582
       129 -10.0484    106.2634    135.6469   1.0251213112e+02   3.3681960289e+01    0.3594476     0.273034  -0.59  0.001197544    2.148    0.534
       130 -13.8699      8.7033    113.4917   1.2483205565e+02   5.0625558384e+01     1.237555    0.2441379 -73.45  0.004629388    3.757    0.734
       131 -13.1775      4.4010    120.6875   1.2659784305e+02   4.9337670915e+01     0.687846    0.4491923  61.07   0.00463878    1.459    0.315
       132 -11.2871      8.4864    132.4254   1.2653961285e+02   4.6497728176e+01    0.2360197     0.154851  72.59 0.0009307631    1.314    0.239
       133  -9.6575     44.2924    130.0155   1.1735048932e+02   4.3756490329e+01    0.1770819    0.1351153 -83.65 0.0004786059    1.119    0.106
       134  -9.2752     58.8418    127.8639   1.1327522637e+02   4.2536955547e+01    0.1841256    0.1580707 -65.36 0.0004690942    1.174    0.148
       135 -11.1025    185.5729    248.0845   1.0361381569e+02   1.8045015006e+00    0.2480939     0.173084   4.30  0.001492576    1.849    0.459
       136 -12.8159      9.2188    142.8558   1.2715624103e+02   4.4210855613e+01    0.6457745    0.2465057 -75.67  0.003408955    2.095    0.523
       137 -12.1307     15.8137    120.5183   1.2364621044e+02   4.8543081861e+01    0.4573497    0.1944731  87.16  0.002111505    2.514    0.602
       138 -13.0492    248.1932    101.9119   6.5962461667e+01   9.6616900127e+00     1.085607    0.6372548 -18.72  0.005203026    1.731    0.422
       139 -10.3807    249.8181    117.7881   6.9418258366e+01   7.1798659397e+00    0.2355747    0.2186366  -2.12 0.0006941085    1.094    0.086
       140 -12.0783    247.4682    113.0848   6.8686051134e+01   8.2814477733e+00    0.5947531    0.4245841  40.97  0.003257006    1.441    0.306
       141 -11.9594     18.6801    105.7854   1.2124158956e+02   5.1616308680e+01    0.3808465    0.1681614  57.08  0.001843346    2.658    0.624
       142 -12.3427      3.0773    131.4487   1.2776179656e+02   4.7099162333e+01    0.6303788    0.2812693 -80.98  0.003568704    1.772    0.436
       143 -10.6705    232.1296    116.6444   7.1886370548e+01   1.0908199085e+01    0.2436744    0.1799406 -36.21 0.0008328507    1.350    0.259
       144  -9.2565    161.6915     79.6873   7.5297618779e+01   3.3278227192e+01    0.1579046    0.1207036  15.81 0.0007026841    1.625    0.385
       145  -8.5491     92.5808    133.4251   1.0550738506e+02   3.6458344866e+01    0.1337957    0.1229268  85.67 9.662149e-05    1.020    0.019
       146 -11.0631     17.7184    132.9324   1.2434430156e+02   4.5658528889e+01    0.2119687    0.1510228  53.03 0.0009914902    1.388    0.279
       147 -11.4600    170.3611    247.8789   1.0609690831e+02   4.1075766341e+00     0.362438     0.213458  16.59  0.002048095    2.591    0.614
       148 -11.3537    150.0420    246.8081   1.0936735305e+02   7.2848267266e+00    0.2871319    0.1914889  17.68  0.001822417    2.103    0.525
