#   1 NUMBER                 Running object number                                     
#   2 MAG_AUTO               Kron-like elliptical aperture magnitude                    [mag]
#   3 X_IMAGE                Object position along x                                    [pixel]
#   4 Y_IMAGE                Object position along y                                    [pixel]
#   5 X_WORLD                Barycenter position along world x axis                     [deg]
#   6 Y_WORLD                Barycenter position along world y axis                     [deg]
#   7 A_WORLD                Profile RMS along major axis (world units)                 [deg]
#   8 B_WORLD                Profile RMS along minor axis (world units)                 [deg]
#   9 THETA_WORLD            Position angle (CCW/world-x)                               [deg]
#  10 FWHM_WORLD             FWHM assuming a gaussian core                              [deg]
#  11 ELONGATION             A_IMAGE/B_IMAGE                                           
#  12 ELLIPTICITY            1 - B_IMAGE/A_IMAGE                                       
         1 -10.1651    175.9882     35.0995   7.1646526789e+01   3.6439109752e+01    0.4004823    0.2726223 -41.00   0.00197313    1.517    0.341
         2  -9.5957    226.6685     21.9481   6.1891509344e+01   2.5238482372e+01    0.4281279    0.2915191  30.25  0.002165854    2.232    0.552
         3  -9.4561    236.0826     13.5012   5.9092713955e+01   2.3986334462e+01     0.404092    0.2939237 -11.19  0.002288608    1.899    0.473
         4 -10.4757    247.5966     13.5385   5.8189825387e+01   2.1374239609e+01    0.6612193    0.3139093 -25.68  0.003152371    2.436    0.589
         5  -8.4954    240.2142     13.0213   5.8650580308e+01   2.3092086842e+01    0.2583435    0.1795883 -32.72  0.001125998    1.507    0.336
         6 -10.2454    243.1211      7.4472   5.7200142426e+01   2.3040864301e+01    0.4202523    0.3595016  35.16  0.002724713    1.621    0.383
         7  -9.2224    227.0089     13.4685   5.9856131642e+01   2.6114155990e+01    0.2873836    0.1956665  48.94  0.001431373    1.761    0.432
         8  -8.8008    189.6102     11.0302   6.2971750859e+01   3.5640116245e+01    0.2189182    0.1317552 -27.57    0.0010847    1.837    0.455
         9  -9.6923    221.0706      5.6161   5.8516698816e+01   2.8363831842e+01     0.366689    0.2113086 -43.84  0.001949333    1.624    0.384
        10  -8.1227    128.3366      3.6711   6.9456720079e+01   5.2003386935e+01    0.1367793   0.09859582 -68.81 0.0007051971    1.729    0.422
        11  -9.7099    214.0859    198.8790   1.0448992206e+02   6.9215450733e-01    0.3155531    0.2543409  50.30  0.001887338    1.440    0.305
        12  -9.7575    249.4938    196.4598   9.7770009850e+01  -4.8972110305e+00    0.2925401    0.2120843 -46.20  0.001732659    1.918    0.479
        13  -8.8028    230.9944    198.4792   1.0134009582e+02  -2.1567666643e+00    0.1948563    0.1120318  37.89  0.001030594    1.586    0.369
        14  -8.4198    226.6589    195.6854   1.0159694375e+02  -1.0318135709e+00    0.1366493   0.08904516  10.56 0.0007047643    1.704    0.413
        15  -8.9644    226.6600    190.8547   1.0068833606e+02  -3.4194868080e-01    0.2811476    0.1495784 -22.43  0.001202028    2.176    0.540
        16  -9.5003    233.2651    188.8611   9.9130120634e+01  -1.1973425382e+00    0.3999048    0.2558458  61.29  0.001899706    2.699    0.630
        17  -9.2406    207.4955    188.0179   1.0370615965e+02   3.5250807433e+00    0.1760994    0.1189622 -62.43 0.0008101208    2.562    0.610
        18  -8.9830    182.0000    186.0161   1.0837113736e+02   8.6861906910e+00    0.2170172   0.08049911 -42.49 0.0005527082    2.979    0.664
        19 -10.2038    242.6405    183.1451   9.6398880699e+01  -1.9865981579e+00    0.3857388     0.301249 -23.10  0.002385769    1.234    0.190
        20  -9.2872    248.5705    181.4209   9.5061112806e+01  -2.7381327008e+00    0.4337896    0.1734433  33.69  0.001847364    2.689    0.628
        21  -8.5004    211.4846    186.4659   1.0265172770e+02   3.0311967846e+00     0.134833    0.1188357  18.99 3.103561e-05    1.025    0.024
        22  -9.2788    222.2332    170.1751   9.7422888208e+01   3.5713452544e+00     0.378877    0.2672368  75.91  0.001711224    2.761    0.638
        23  -9.6806    249.5721    165.9696   9.1822276661e+01  -7.3551013321e-01    0.4406322    0.1171283 -34.21  0.001548805    3.589    0.721
        24  -9.0575    208.6809    168.3220   9.9579214423e+01   6.4710921540e+00    0.1326017    0.1137475 -88.11 0.0007044003    1.669    0.401
        25  -8.3924    242.5010    163.5409   9.2502163755e+01   8.6084268543e-01    0.1327056    0.1154199  -0.11 0.0001348449    1.011    0.011
        26  -9.8845    231.8598    157.4114   9.3050627787e+01   3.7512328378e+00    0.4094013    0.3016249  46.11  0.002247491    1.428    0.300
        27  -9.3228    215.8743    157.1562   9.5878723344e+01   6.8975071903e+00    0.3217157    0.2413969 -31.15  0.001715088    1.327    0.247
        28  -9.3667    221.3468    156.0106   9.4627264127e+01   6.0029480370e+00    0.3519085    0.2355822  31.13   0.00176945    1.528    0.346
        29  -8.6385    200.6497    155.4849   9.8434677293e+01   1.0273799095e+01    0.2472672    0.1347026 -37.77  0.001074528    1.885    0.469
        30 -11.2914    172.5916    154.7882   1.0409281056e+02   1.6312098375e+01    0.5819184    0.3433759  58.51  0.002426437    2.019    0.505
        31  -9.0808    241.7149    149.1261   8.9614334032e+01   3.1771639405e+00    0.2399157    0.2119111  88.84  0.001408327    1.585    0.369
        32 -10.2331    247.4870    146.2316   8.8055451421e+01   2.5454794907e+00    0.4819476    0.3858891  15.96  0.002833132    1.272    0.214
        33 -10.0914    213.3050    148.4864   9.4479193813e+01   8.8678326694e+00    0.3027748    0.2083983  37.64  0.001506258    1.440    0.305
        34  -9.4763    186.3320    147.1736   9.9505232857e+01   1.4804865333e+01    0.3768275    0.1211262 -48.93  0.001085085    4.193    0.762
        35  -9.2125    196.9644    145.0141   9.6859491648e+01   1.2909376344e+01    0.2314142    0.2182411  24.06 0.0009417057    1.017    0.017
        36  -9.0580    170.3094    140.3296   1.0138480162e+02   1.9622931142e+01    0.1552472    0.1201082   6.80 0.0003033321    1.664    0.399
        37  -9.6679    205.8748    143.1819   9.4706079880e+01   1.1332518809e+01    0.2163575    0.2058459 -77.46 0.0007899974    1.220    0.181
        38  -9.9656    240.2884    139.5432   8.7781169080e+01   4.9305790169e+00    0.5928756    0.3244098  20.30  0.002316825    3.088    0.676
        39  -9.7463    178.5125    141.4605   9.9862696647e+01   1.7591192203e+01    0.4062968    0.2553642  12.57  0.001499025    2.836    0.647
        40  -8.7473    223.3227    138.3487   9.0404584260e+01   8.5067255096e+00     0.149308    0.1068961   7.25 0.0005385712    1.744    0.427
        41  -8.5187    176.9751    129.5254   9.7398890385e+01   2.0234477503e+01     0.222924    0.1273119  27.75 0.0008096125    2.503    0.600
        42  -9.2896    207.8098    126.1293   9.0406898343e+01   1.3903539243e+01    0.3698869    0.2056156  68.69  0.001349611    2.970    0.663
        43 -11.3316    243.9116    118.3733   8.2504896788e+01   7.5288541538e+00     1.010057    0.5818233 -61.59  0.004132285    2.881    0.653
        44  -9.7076    199.6645    119.6097   9.0383028816e+01   1.6891630530e+01    0.3816717    0.2599571 -19.39  0.001706281    1.765    0.434
        45  -8.8520    188.6238    122.6600   9.3303426524e+01   1.8867598629e+01    0.2459817    0.1877212   9.58  0.001130575    1.679    0.404
        46  -9.0981    226.4400    124.6131   8.6740795526e+01   1.0130253049e+01    0.3241427    0.1838351  52.73  0.001464712    1.875    0.467
        47  -9.1258    231.9944    117.7894   8.4245024522e+01   1.0075605241e+01    0.3497118    0.1968877  65.00  0.001487314    2.390    0.582
        48  -9.6717    184.1508    115.9273   9.2552290948e+01   2.1163875225e+01    0.3433132    0.2566023   6.84  0.001531788    1.811    0.448
        49  -9.7525    148.9598    114.3381   1.0000285945e+02   2.9709304888e+01    0.2923895    0.2637884  65.87  0.001493418    1.134    0.118
        50  -7.6582    227.3018    114.3312   8.4205349527e+01   1.1640039662e+01    0.1447978    0.1097079   8.04 0.0006746641    1.651    0.394
        51  -8.8307    180.8089    113.3855   9.2602781541e+01   2.2428575323e+01    0.2241755    0.1397862  41.27 0.0009460322    1.657    0.397
        52 -10.4889    242.7583    108.6276   8.0465586331e+01   9.2876303289e+00    0.3956219    0.2833069  48.78  0.001847346    1.500    0.333
        53 -10.1764    170.8602    107.3942   9.3174115268e+01   2.5936721900e+01    0.3945535    0.2958709 -64.17   0.00179469    1.596    0.373
        54 -10.2770    185.1242    105.6828   8.9747881492e+01   2.2833270185e+01    0.5248168    0.3131971 -55.08  0.002124559    2.020    0.505
        55 -10.3474    211.3776    101.7834   8.3859788450e+01   1.7303901598e+01    0.7610341    0.2615854 -33.04  0.002501817    3.067    0.674
        56 -10.1989    213.8117     98.4324   8.2613580950e+01   1.7303113018e+01    0.4070714    0.2506846 -42.47  0.001854396    1.577    0.366
        57  -9.7412    243.3882    102.8914   7.9057688157e+01   1.0050466251e+01    0.5111112     0.203142 -45.84  0.001962096    2.596    0.615
        58  -9.5580    221.9683    121.9305   8.6882686254e+01   1.1529545805e+01    0.2319923    0.1763261 -68.36  0.001136838    1.731    0.422
        59  -9.1132    250.2668    102.4888   7.7988722558e+01   8.6964312568e+00    0.3451019    0.1842377 -23.73  0.001523043    2.112    0.527
        60  -9.4825    165.2401     96.7444   9.1555301462e+01   2.9322513994e+01    0.2836746     0.181182  -9.81 0.0009733643    2.644    0.622
        61  -9.8534    218.8896     96.3720   8.1265102968e+01   1.6471765106e+01    0.7847012    0.3777772  61.92  0.003103224    2.383    0.580
        62  -8.8663    206.9674     98.3832   8.3776043499e+01   1.8913061619e+01    0.2121786    0.1894245  54.33 0.0008994391    1.138    0.122
        63  -8.4797    149.3682     98.2126   9.5604692347e+01   3.2865616347e+01    0.2209904    0.1449641 -50.09 0.0009412484    1.623    0.384
        64  -9.9575    183.5946     91.1989   8.6233329632e+01   2.5821087153e+01    0.2547405    0.1906559  20.23  0.001143615    1.732    0.423
        65  -9.7832    231.5059     90.5150   7.7889588313e+01   1.4553152145e+01     0.548222    0.2077209 -48.20  0.001924632    2.981    0.665
        66  -9.5347    201.6780     92.5172   8.3212093331e+01   2.1172796691e+01    0.4907663     0.240525  42.30   0.00186905    2.337    0.572
        67  -9.0454    165.4141     92.7509   9.0419274291e+01   3.0028200233e+01    0.2143656    0.1527076 -24.95 0.0009424555    1.613    0.380
        68  -9.0050    242.8197     89.4177   7.6021465671e+01   1.2245965442e+01    0.3082842    0.1980315  52.07  0.001557633    1.677    0.404
        69  -9.6909    246.1753     85.6782   7.4703162672e+01   1.2094412102e+01    0.3745315    0.2337209 -28.63  0.001487709    1.594    0.372
        70  -9.9780    210.8020     85.5591   7.9876815155e+01   2.0139908610e+01    0.4871331    0.3755648  42.01  0.002463587    1.405    0.288
        71 -10.5132    188.3194     83.3182   8.3205177412e+01   2.6016547678e+01    0.4750931    0.3102106  76.08  0.002019441    1.901    0.474
        72  -8.4606    142.5269     84.4376   9.3335283367e+01   3.7161365127e+01    0.1550425    0.1483273  33.10 0.0001862228    1.051    0.048
        73  -9.0934    232.7156     82.5652   7.5807567064e+01   1.5517850067e+01    0.2773886    0.2034605 -50.54 0.0008149492    1.320    0.242
        74  -9.7821    167.1324     80.7761   8.6682921991e+01   3.1771160172e+01    0.4170651    0.3067455  -7.56  0.001844602    1.821    0.451
        75 -10.1617    240.0792     80.6148   7.4333154810e+01   1.4175591117e+01    0.4068192    0.2706268  68.39  0.002069133    1.667    0.400
        76 -10.7182    240.7503     75.6253   7.3071385651e+01   1.4773121065e+01    0.5896078    0.3393014 -36.24  0.002693153    1.597    0.374
        77  -9.0930    197.1910     78.8566   8.0417585593e+01   2.4554459967e+01    0.4325956    0.1995935 -34.25  0.001659466    2.184    0.542
        78  -9.4517    228.8024     78.0966   7.5279342642e+01   1.7093497193e+01    0.3028297    0.1955485  55.41  0.001482516    1.611    0.379
        79 -10.5989    182.3409     74.5085   8.1898214859e+01   2.8998733884e+01    0.7415353    0.2798266 -41.79  0.002559195    2.637    0.621
        80  -8.8015    221.9846     76.0048   7.5743072897e+01   1.8999972025e+01    0.1740279    0.1644835 -65.39 0.0006276045    1.011    0.011
        81 -10.5603    210.2717     71.6956   7.6404347539e+01   2.2474591003e+01      0.51852    0.4415521 -83.98  0.002796778    1.215    0.177
        82  -8.5241    232.0159     73.9966   7.3840490400e+01   1.6978917862e+01    0.1753916    0.1549885 -46.38 0.0007496304    1.059    0.055
        83  -8.9899    188.8926     74.3986   8.0671404106e+01   2.7360244004e+01    0.2999966    0.2051973 -12.22  0.001296738    1.973    0.493
        84  -8.9813    249.6631     71.0982   7.0912190091e+01   1.3493272581e+01     0.317882     0.131366 -43.82  0.001337491    2.165    0.538
        85  -9.6010    238.2009     66.8158   7.1316529881e+01   1.6634208268e+01    0.2837946    0.2421679   2.22  0.001141118    1.473    0.321
        86 -10.4538    243.5480     65.6185   7.0379990610e+01   1.5612305728e+01    0.5253115    0.4323131  66.24  0.003086816    1.286    0.222
        87  -8.0310    230.4622     67.4988   7.2474491424e+01   1.8302341307e+01     0.137533    0.1299679 -56.76 0.0001328772    1.048    0.045
        88  -9.2083    220.7965     65.6280   7.3321261949e+01   2.0852461342e+01    0.3643149    0.2720026  11.45  0.001770753    1.927    0.481
        89  -9.1859    209.6194     63.2144   7.4304742717e+01   2.3925697165e+01    0.4461426    0.1961648 -33.10  0.001749118    2.264    0.558
        90 -10.0938    212.1987     61.0074   7.3358692161e+01   2.3618446976e+01    0.3243968    0.2201483 -75.95  0.001518484    1.746    0.427
        91  -8.8497    137.6755     64.3372   8.8357106417e+01   4.1945784509e+01    0.1568087    0.1197244 -76.13 0.0007051225    1.719    0.418
        92  -8.9036    232.7403     60.0943   7.0391249642e+01   1.8847569828e+01    0.2551018    0.1673497  36.20   0.00121217    2.062    0.515
        93 -10.8276    226.6291     55.5764   7.0055473997e+01   2.0917982862e+01    0.5759383    0.4182694  41.04  0.002986564    1.668    0.401
        94  -9.6406    243.3894     56.4556   6.8267357237e+01   1.6937097549e+01    0.4009212    0.2233843  51.01  0.001925942    2.034    0.508
        95  -8.9234    206.3737     56.8492   7.3114897698e+01   2.5667862704e+01    0.2697487    0.2157851 -72.07  0.001282749    1.281    0.219
        96  -9.6222    203.0746     54.2493   7.2907202466e+01   2.6869492214e+01    0.4365483    0.2883384  46.36  0.002072005    1.653    0.395
        97  -8.4813    250.5468     52.4934   6.6578562259e+01   1.5899548160e+01    0.1348897    0.1120536 -59.68 0.0001186901    1.066    0.062
        98  -7.9954    193.3483     51.3091   7.3568034132e+01   2.9758920232e+01    0.1513094    0.1096512  33.14 0.0007044417    1.709    0.415
        99  -9.7367    249.4791     48.2620   6.5732826216e+01   1.6699934296e+01    0.2833979    0.2107819  44.79   0.00160117    1.672    0.402
       100  -9.3288    197.7370     48.5905   7.2166605688e+01   2.9020661140e+01    0.2946705    0.2271609 -59.20  0.001522943    1.309    0.236
       101 -10.6935    212.6850     44.6361   6.9075494349e+01   2.5804876664e+01    0.5606958    0.2687089 -49.07  0.002360654    2.107    0.525
       102  -9.5644    244.9030     44.1424   6.5264876022e+01   1.8258201359e+01    0.3153777    0.2151047  68.40  0.001746488    1.500    0.333
       103  -9.3263    234.4663     44.6115   6.6482707565e+01   2.0576782016e+01    0.2810304    0.2235961  30.84  0.001560534    1.675    0.403
       104 -10.1437    168.2926     48.4907   7.6939940415e+01   3.6644257957e+01     0.442638    0.2544391  62.18  0.001924023    1.648    0.393
       105 -10.6299    224.1256     45.4312   6.7864480994e+01   2.2909331405e+01    0.5700992    0.3584822  29.93  0.002534421    2.527    0.604
       106  -9.6355    246.4016     27.6532   6.1393999148e+01   2.0000418450e+01    0.3465775    0.2191247 -18.74  0.001663286    2.051    0.512
       107 -10.5990    244.2579     35.9714   6.3465056952e+01   1.9454267639e+01    0.5363787     0.329452  82.46  0.002826251    1.676    0.403
       108 -10.5558    237.2485     31.3272   6.3075858560e+01   2.1631429883e+01    0.4342354    0.3135942 -47.10  0.002496175    1.260    0.206
       109  -8.7943    249.0000    247.0046   1.0650287201e+02  -1.0710179150e+01    0.1606795   0.05832154 -31.29            0    2.999    0.667
       110  -9.0300    169.2938     37.6514   7.3493763491e+01   3.7859294673e+01     0.153159    0.1063267 -66.09 0.0007031066    1.673    0.402
       111  -8.4017    214.6728     28.7158   6.4786648255e+01   2.7346194500e+01    0.1333747    0.1005942  42.08 0.0004018318    1.605    0.377
       112  -9.0615    229.2072     38.0785   6.5495777083e+01   2.2662353386e+01    0.1938522    0.1852432  30.83  0.000874167    1.287    0.223
       113  -8.3842    206.5026     36.4838   6.7746693528e+01   2.8415467152e+01    0.1428184    0.1256303 -78.10 0.0008100495    1.045    0.043
       114  -9.3760    163.0054     35.5178   7.3916908830e+01   3.9773072948e+01     0.234424    0.1359421  64.89  0.001037534    1.610    0.379
       115  -9.1634    241.5288    240.4632   1.0671765572e+02  -8.9725273532e+00    0.1936409   0.09595198 -17.67  0.001038837    2.401    0.584
       116  -9.1126    239.0656     21.3800   6.0626108627e+01   2.2405649538e+01    0.2765961    0.1272807 -48.64   0.00118765    1.945    0.486
       117  -9.2348    209.7934     21.1368   6.3402656149e+01   2.9445580603e+01    0.3470787    0.2123474 -61.18  0.001723939    1.651    0.394
       118  -9.0199    164.6717     22.6664   6.9674679969e+01   4.0872501466e+01    0.1505652    0.0995464  37.17 0.0006813518    1.720    0.419
       119  -9.0271    193.7388     20.6652   6.5107329923e+01   3.3555588152e+01    0.2352259    0.1784363 -11.32   0.00125284    1.665    0.399
       120  -9.0106    248.9671    234.4696   1.0450439744e+02  -9.3730028983e+00    0.2054991     0.137798 -44.87  0.001255927    2.401    0.583
       121  -9.0785    238.0247    234.4690   1.0634963406e+02  -7.7947550647e+00    0.1833571   0.09412568  35.50  0.001041276    1.621    0.383
       122  -9.6135    238.5664    220.3192   1.0389891052e+02  -6.2052431803e+00    0.3247022    0.1938757  -0.49  0.001788222    1.934    0.483
       123  -9.7988    204.0048    218.7642   1.0984428766e+02  -4.1731570173e-01    0.1619337    0.1487144  89.75  0.001052019    1.624    0.384
       124  -8.6610    216.5126     18.4747   6.2041502228e+01   2.8088832924e+01    0.2244627    0.1351127 -10.13  0.001033348    2.487    0.598
       125  -8.6267    164.3386     19.3023   6.8692317967e+01   4.1326747816e+01     0.148671   0.09708819  40.42 0.0006689655    1.669    0.401
       126  -8.6637    223.1513     18.1579   6.1320160039e+01   2.6514319790e+01    0.1947682     0.170929  53.70  0.001200993    1.327    0.246
       127  -9.0467    244.2539    214.8484   1.0197778570e+02  -6.4048402991e+00    0.2077678    0.1476967  38.95   0.00131311    1.450    0.310
       128 -10.1890    234.7541    211.6313   1.0305147579e+02  -4.5224128838e+00    0.6102889    0.3210135  -4.44  0.002680241    3.059    0.673
       129  -8.5534    226.3419    210.2897   1.0430274577e+02  -2.9877060597e+00    0.1309763   0.08365328  13.18 0.0005108147    1.648    0.393
