#   1 NUMBER                 Running object number                                     
#   2 MAG_AUTO               Kron-like elliptical aperture magnitude                    [mag]
#   3 X_IMAGE                Object position along x                                    [pixel]
#   4 Y_IMAGE                Object position along y                                    [pixel]
#   5 X_WORLD                Barycenter position along world x axis                     [deg]
#   6 Y_WORLD                Barycenter position along world y axis                     [deg]
#   7 A_WORLD                Profile RMS along major axis (world units)                 [deg]
#   8 B_WORLD                Profile RMS along minor axis (world units)                 [deg]
#   9 THETA_WORLD            Position angle (CCW/world-x)                               [deg]
#  10 FWHM_WORLD             FWHM assuming a gaussian core                              [deg]
#  11 ELONGATION             A_IMAGE/B_IMAGE                                           
#  12 ELLIPTICITY            1 - B_IMAGE/A_IMAGE                                       
         1 -12.5026    186.0539     30.1879   6.7732506380e+01   3.5184208455e+01     0.863822    0.7982706 -89.70  0.003394168    1.085    0.078
         2 -12.5602    194.1682     18.1441   6.3678826580e+01   3.4629887783e+01    0.7244517     0.720702 -16.90  0.001792371    1.282    0.220
         3 -10.5519     58.5207      4.5866   8.7227921771e+01   6.5286599288e+01    0.3033156     0.198797 -26.31  0.001981321    1.627    0.386
         4  -9.5165     88.8156    243.1474   1.3493879933e+02   1.2681279107e+01    0.2074567    0.1649937 -74.22 0.0006857717    1.336    0.251
         5 -13.4707    137.3350    248.4683   1.2620635629e+02   3.7866201227e+00     1.590361    0.8856512  46.98  0.008369534    1.505    0.335
         6 -12.0664    121.0270    248.8853   1.2941863660e+02   6.4468568121e+00     1.168238    0.3780958  38.35  0.003221844    2.992    0.666
         7 -13.7662    115.3521    228.6438   1.2797011683e+02   1.1233504048e+01     3.169099    0.6579843  43.52   0.01000436    3.973    0.748
         8  -9.2156     70.4236    246.2490   1.3867596879e+02   1.4810752526e+01    0.2515574    0.1415751  71.97  0.001387439    1.736    0.424
         9  -8.9828     57.5213    249.9982   1.4131927240e+02   1.5886186698e+01    0.1652765    0.1013747 -77.77  0.000960433    1.564    0.361
        10  -8.4773     59.5428    246.5081   1.4066785933e+02   1.6281519550e+01     0.157685    0.1019867 -64.41  0.000738043    1.708    0.415
        11 -19.3291     14.1410    127.3599   1.3768433903e+02   4.7817388821e+01      18.0207     1.434274 -68.31   0.03594317   11.485    0.913
        12 -10.5659    103.2051    236.4423   1.3139478533e+02   1.1712179831e+01    0.2421909    0.2043314  73.20 0.0005780645    1.066    0.062
        13  -8.4893     71.6171    236.6677   1.3753966831e+02   1.6522169409e+01    0.1653112    0.1028127 -86.49 0.0009365957    1.586    0.369
        14 -10.9742     97.6758    249.3375   1.3392317721e+02   1.0132695581e+01    0.6995972    0.2751965  56.07  0.002826446    2.576    0.612
        15 -10.4020     96.9217    243.7195   1.3345396252e+02   1.1310270998e+01    0.2428257    0.1817141  70.37 0.0006318575    1.183    0.155
        16 -10.1181     82.5770    230.5130   1.3478196583e+02   1.6142873193e+01    0.3258794    0.2198222  69.22  0.001071304    1.348    0.258
        17  -9.1849     36.9656    224.0431   1.4289718960e+02   2.3713528587e+01     0.204807    0.1402328  89.61  0.001216828    1.194    0.162
        18  -8.6794     46.2470    228.6286   1.4156054864e+02   2.1613351886e+01    0.3069952   0.09406736  49.31  0.001349226    2.734    0.634
        19  -8.6549     41.5169    220.5268   1.4174578547e+02   2.3895720637e+01    0.2154681    0.1388546  69.33 0.0009945973    1.308    0.235
        20  -8.4036     44.3294    219.7018   1.4113678290e+02   2.3720614294e+01    0.1539826    0.1394899 -81.57 0.0009862821    1.351    0.260
        21  -9.0508     48.3079    217.3265   1.4015002959e+02   2.3722263623e+01    0.2075275    0.1462224  39.06  0.001015552    1.609    0.379
        22 -10.1517     44.0010    215.3678   1.4080550654e+02   2.4685358038e+01    0.4172551    0.1784314  55.82  0.001287348    2.182    0.542
        23  -8.2277     83.7759    212.9324   1.3248800322e+02   1.9661015439e+01    0.1620703     0.101748 -66.49 0.0004516102    1.574    0.365
        24  -8.6439     79.2699    211.4298   1.3324760219e+02   2.0676902288e+01    0.1901986     0.106921  52.42 0.0009520898    1.624    0.384
        25 -10.5135     72.3913    250.3237   1.3869213919e+02   1.3749886386e+01    0.5012848    0.1565988  43.57   0.00222443    2.612    0.617
        26  -8.7664     83.7107    204.9648   1.3149156572e+02   2.1421449556e+01      0.19946    0.1633261 -88.60  0.001180042    1.109    0.098
        27  -8.8048    199.3058    200.3274   1.0579281893e+02   1.2611078718e+00     0.143399    0.1061685   1.59 0.0006289912    1.651    0.394
        28  -8.8987     82.8051    194.3672   1.3026763716e+02   2.3953613104e+01    0.2587914    0.1029458 -65.56  0.001015734    2.553    0.608
        29 -10.0995     59.5417    189.6228   1.3482059724e+02   2.8417266367e+01    0.4425546     0.249848 -61.43  0.002257503    1.660    0.398
        30  -9.1670    189.8230    189.1442   1.0555172195e+02   5.1814721294e+00    0.3043358    0.1773402 -64.42  0.001165455    2.863    0.651
        31 -10.3944     80.2141    183.5565   1.2931615512e+02   2.6858329700e+01    0.3606294    0.2654982 -42.15  0.001891358    1.705    0.413
        32 -10.6857     84.0934    177.1709   1.2743843619e+02   2.7762010583e+01    0.5043748     0.296775 -45.50  0.001470573    1.999    0.500
        33  -8.4158    199.6356    179.8756   1.0165182061e+02   5.0386601394e+00    0.2096669    0.1333087 -52.55 0.0009439126    1.772    0.436
        34  -8.5908     73.0198    175.7667   1.2985327995e+02   2.9774617479e+01    0.1731384    0.1120985  41.39 0.0004796354    1.607    0.378
        35  -9.7719    113.9686    173.2968   1.1961365739e+02   2.3576389095e+01    0.2140134    0.1980544  65.05  0.001180016    1.055    0.052
        36 -10.6034     91.4418    167.2246   1.2402026029e+02   2.8951312127e+01    0.4216882    0.2698189  40.37 0.0005038504    1.623    0.384
        37 -12.0238     79.9408    162.7054   1.2610096518e+02   3.1866382235e+01    0.5550092    0.4491981 -59.38  0.001509299    1.192    0.161
        38 -10.8994     96.5392    159.3413   1.2132999055e+02   2.9989365336e+01     0.679859    0.3902093 -36.58  0.002355792    2.428    0.588
        39  -8.8984    134.0000    144.4508   1.0876903289e+02   2.6414560254e+01     0.343331   0.08779828 -49.02 0.0009268677    3.871    0.742
        40 -10.5865     96.0955    143.6100   1.1835991027e+02   3.3851059490e+01    0.2820262    0.2704653 -30.48 0.0004791132    1.164    0.141
        41  -9.2785    107.5349    143.6525   1.1535756444e+02   3.1802137767e+01    0.3365621     0.236323 -27.13  0.001480595    1.939    0.484
        42  -9.2868    114.8201    132.4207   1.1093159414e+02   3.3077525030e+01    0.2979268    0.2386366 -33.30 0.0006798582    1.382    0.276
        43  -9.8609    103.6767    129.5253   1.1325113860e+02   3.5857276708e+01    0.4864022    0.3417447  63.17  0.001491012    1.712    0.416
        44  -8.9814    110.1820    120.8127   1.0940453652e+02   3.6660909264e+01    0.2208836    0.2025838 -78.12  0.000454087    1.127    0.113
        45  -8.4692    168.1557    112.9675   9.2943911057e+01   2.5752738235e+01    0.2697489    0.1767989 -67.74  0.001073025    2.040    0.510
        46  -8.4805    114.6777    111.6834   1.0587100510e+02   3.7840471901e+01    0.1542269    0.1211959  -7.32 0.0007042427    1.664    0.399
        47 -10.2852     62.9525    250.1638   1.4037148858e+02   1.5111695772e+01    0.2415476     0.136899  50.31 0.0004530765    1.459    0.314
        48 -11.0097     58.9530     87.6330   1.1625594806e+02   5.2280771572e+01    0.6425032     0.129789 -49.67   0.00199789    4.007    0.750
        49  -9.7259     73.5528    245.5335   1.3803484459e+02   1.4498488852e+01    0.2358047    0.1355152  61.92 0.0008323576    1.506    0.336
        50  -9.5781     52.3631     89.6637   1.1893791252e+02   5.2666698542e+01    0.1879503    0.1546158  84.42 0.0008927733    1.641    0.391
        51  -9.0618     57.9072    239.8709   1.4038940473e+02   1.7803645889e+01    0.2260288    0.1374986  52.92  0.001366149    1.381    0.276
        52 -11.5940    176.5686     38.5544   7.1338898997e+01   3.6447874235e+01    0.4818335    0.4102315  33.38   0.00177492    1.385    0.278
        53 -10.5971     83.1216    246.1745   1.3632303699e+02   1.2963938940e+01    0.3605267    0.2943175 -52.98  0.001749008    1.647    0.393
        54 -11.7944    160.1970    245.5913   1.2133814781e+02   3.6609911388e-01    0.7969658    0.2077097  38.96  0.002723423    3.525    0.716
