#   1 NUMBER                 Running object number                                     
#   2 MAG_AUTO               Kron-like elliptical aperture magnitude                    [mag]
#   3 X_IMAGE                Object position along x                                    [pixel]
#   4 Y_IMAGE                Object position along y                                    [pixel]
#   5 X_WORLD                Barycenter position along world x axis                     [deg]
#   6 Y_WORLD                Barycenter position along world y axis                     [deg]
#   7 A_WORLD                Profile RMS along major axis (world units)                 [deg]
#   8 B_WORLD                Profile RMS along minor axis (world units)                 [deg]
#   9 THETA_WORLD            Position angle (CCW/world-x)                               [deg]
#  10 FWHM_WORLD             FWHM assuming a gaussian core                              [deg]
#  11 ELONGATION             A_IMAGE/B_IMAGE                                           
#  12 ELLIPTICITY            1 - B_IMAGE/A_IMAGE                                       
         1 -10.7071     50.7154     37.3282   7.3663693478e+01   6.3757450908e+01    0.8324955    0.6306599 -76.11  0.004060682    3.099    0.677
         2 -10.5947     39.6085      7.9412   6.5172841488e+01   6.9345107299e+01    0.6188847    0.4066579  -6.78  0.003684802    1.443    0.307
         3 -11.2984     39.7765     29.5501   7.5279309536e+01   6.6513037442e+01    0.5172929    0.3339183 -33.61  0.002249047    1.498    0.333
         4 -12.2395     44.8774     23.0189   7.0034544006e+01   6.6708732228e+01    0.9775166    0.8865671 -54.66  0.006511981    1.748    0.428
         5  -9.9636     90.2797     28.2287   5.5698061265e+01   5.7751846685e+01    0.3418007     0.256369  48.32  0.001710812    1.219    0.179
         6 -11.4754     83.8993      3.8706   4.7728169386e+01   6.1505173763e+01    0.8250604    0.3639708  57.53  0.003259904    1.929    0.482
         7 -11.1814     78.2738     13.5841   5.3359124315e+01   6.1813372895e+01     1.334698    0.4848342 -12.86  0.004419306    5.311    0.812
         8 -12.0288    155.4675     20.8231   3.9548105132e+01   4.3522229949e+01    0.6834214    0.5145829  69.85  0.002715337    1.167    0.143
         9 -12.4664    155.8569      9.1697   3.6233454640e+01   4.4577481839e+01     1.041142    0.7810428 -34.79  0.006419743    1.497    0.332
        10 -10.6246    121.5117      4.3172   3.9887500506e+01   5.3074276817e+01    0.4986761    0.3775537  75.91   0.00274175    1.237    0.191
        11 -10.7862    131.3261      3.6589   3.8076391919e+01   5.0835736944e+01    0.7772501    0.2535371  58.08  0.002831228    2.333    0.571
        12 -13.2261    168.9839     16.3430   3.6508462639e+01   4.0784964263e+01     1.469579    0.9117666 -79.95  0.006732895    1.718    0.418
        13 -12.8924    171.7824      5.1246   3.3286868132e+01   4.1218699567e+01     1.691884    0.7407244  76.70  0.008048475    2.061    0.515
        14 -11.2201    109.1353      5.0031   4.2408388883e+01   5.5866899337e+01     1.019814    0.3465126  65.34  0.004162533    2.636    0.621
        15 -10.8181    128.6609     15.9229   4.2411973171e+01   5.0386403234e+01    0.6041561    0.3786713  -5.56  0.003110224    2.160    0.537
        16  -9.8311    115.6831     16.4648   4.5092367038e+01   5.3363113531e+01    0.5389478    0.3651992  79.48  0.002900828    1.653    0.395
        17  -9.7989    225.1212     14.5829   3.0587781516e+01   2.8461162087e+01    0.1988638    0.1946215 -63.25  0.001504524    1.395    0.283
        18  -9.7510     20.2165     14.4279   7.8254741118e+01   7.1122071989e+01    0.5903569    0.2833759 -15.55  0.002867987    2.578    0.612
        19 -11.0193    139.5900     12.9086   3.9634325513e+01   4.8086166124e+01    0.6184769    0.2585135 -53.52  0.002438711    3.423    0.708
        20  -9.5987     70.0010     13.3268   5.5868085720e+01   6.3478993688e+01    0.2899176    0.2213544 -40.29  0.001781527    1.682    0.405
        21  -9.0612    104.8499     11.7873   4.5749493186e+01   5.6266233154e+01    0.2075976    0.1535561  41.99  0.001236706    1.205    0.170
        22 -10.0621    249.6539      4.1475   2.6925427035e+01   2.4735633668e+01    0.4644006   0.09527889 -38.68  0.002043477    3.421    0.708
        23  -9.8253     71.5529      5.7986   5.2061260834e+01   6.3875635710e+01    0.4353955    0.2510924  52.46  0.001818724    1.527    0.345
        24 -10.6534    204.3122      4.1984   3.0042551522e+01   3.3976753004e+01    0.3403227    0.2001105 -88.00  0.001992611    1.515    0.340
        25 -11.2610    143.8613      3.9969   3.6357504603e+01   4.7860495071e+01    0.8336806    0.4781887  79.51  0.004423588    1.631    0.387
        26  -8.9199     17.6650      2.3755   7.3455671885e+01   7.2977711442e+01    0.2327618    0.1203315 -41.73  0.001301227    2.527    0.604
        27  -9.4063    218.2072      2.3712   2.8603165406e+01   3.1191875685e+01    0.1679353   0.08966442 -88.70 0.0009521428    1.687    0.407
        28  -8.3697    223.3190      1.3138   2.8034937402e+01   3.0236757780e+01    0.1031476   0.08272743  53.61  0.000356012    1.650    0.394
        29 -10.5090     60.5783      2.6215   5.4191124329e+01   6.6265237254e+01    0.4918029    0.2586283  38.92  0.002737887    1.557    0.358
        30  -9.2478    227.4794     79.3665   4.4220450128e+01   1.9165821299e+01    0.2527728    0.1866397  -4.24  0.001286492    2.218    0.549
        31  -9.4121     78.0934     77.4268   7.7433160976e+01   5.2084207409e+01    0.2614584    0.2407842  66.40  0.001458349    1.348    0.258
        32  -8.8162     71.2578     80.6071   8.0885996635e+01   5.2561210455e+01    0.2669767    0.1606408 -30.06 0.0009928849    1.808    0.447
        33  -9.3819     83.4822     68.8605   7.2752374444e+01   5.2811942062e+01    0.3129461    0.2617835 -26.84  0.001271755    1.163    0.140
        34 -10.1829     74.8292     69.3801   7.5988115582e+01   5.4254269791e+01    0.4383225    0.3217286  43.80  0.001973641    1.479    0.324
        35  -9.5909     46.1694     62.3612   8.4918677893e+01   5.9927311084e+01     0.282197    0.2266294 -37.50  0.001592709    1.164    0.141
        36  -8.9438     76.3612     59.7615   7.2130880785e+01   5.5783237914e+01    0.2859729    0.2146315 -21.57   0.00151696    1.339    0.253
        37  -9.3055    100.9295     84.1224   7.1928620638e+01   4.6441470072e+01     0.341006    0.2162868 -37.45  0.001523533    1.589    0.371
        38  -9.1875    198.3073     54.4700   4.2323138233e+01   2.9232754013e+01    0.4261442    0.2620801 -19.15   0.00197273    2.371    0.578
        39  -9.3512     66.2834     53.7984   7.3731765301e+01   5.8575440763e+01    0.3552153    0.1786865 -46.33  0.001573172    2.190    0.543
        40  -8.8845     34.9373     52.8701   8.6641065601e+01   6.3113858135e+01    0.2265093    0.1686515  23.10  0.001349641    1.397    0.284
        41  -9.9618     85.2523     48.3942   6.4931126183e+01   5.6013313318e+01    0.5647046    0.3416303  47.62  0.002751248    1.641    0.390
        42 -10.4796     81.9963     39.2413   6.2552700144e+01   5.8011013798e+01    0.6804097    0.3678103 -33.42  0.003268214    1.936    0.483
        43  -8.5417     96.6823     46.9223   6.0789414129e+01   5.3907055318e+01    0.2230227    0.1698936  -2.60  0.001097801    1.476    0.323
        44 -10.5181      3.0994     40.8355   9.8278531917e+01   6.8096808976e+01    0.4729217    0.3960351 -45.03  0.002642933    1.230    0.187
        45  -9.3911      5.8745     35.3284   9.4981985566e+01   6.8966188823e+01    0.2988139    0.1825719  23.40  0.001583352    1.820    0.451
        46 -10.3363    185.2710     39.8280   4.0457509541e+01   3.4233052443e+01    0.4637522    0.1798004 -50.56  0.001834601    2.783    0.641
        47 -10.0385    181.8001     41.3882   4.1327210590e+01   3.4838265599e+01     0.271015    0.2040736  46.53 0.0009879018    1.509    0.337
        48  -9.3354    175.4974    234.4972   8.6047076358e+01  -7.2796617468e-02    0.1331214    0.1114873   9.91  0.000136443    1.032    0.031
        49  -8.9024      3.6565    230.6889   1.2255777611e+02   2.3843924346e+01    0.1032996   0.08260768 -51.46 0.0004436359    1.702    0.412
        50 -10.0922    199.1734    225.3892   7.9671261416e+01  -2.0384121188e+00    0.2412164    0.1115376  43.12 0.0004491996    2.527    0.604
        51  -9.3602    182.6678    221.3341   8.2357298670e+01   1.1253741100e+00    0.1259075    0.1076357  66.08 0.0007052225    1.731    0.422
        52  -8.6126     97.0351     36.7201   5.6959196835e+01   5.5257058351e+01    0.2004481    0.1630857  41.97 0.0005790835    1.108    0.098
        53  -9.0437     28.9498     35.0000   8.2807773393e+01   6.6988399235e+01    0.1896179   0.06460991  28.35 0.0007995281    2.922    0.658
        54 -10.2290     86.1295     31.6628   5.8281063059e+01   5.8193247032e+01    0.3086908     0.242057 -35.47  0.001589658    1.438    0.305
        55 -11.0812    209.2537    217.7631   7.6335103131e+01  -2.2404495754e+00    0.3584028    0.1931185  37.49   0.00180009    1.910    0.476
        56  -9.3180    226.0736     29.0329   3.3500589668e+01   2.6577703347e+01    0.4056732    0.1541045  69.61  0.001896216    2.542    0.607
        57 -10.3764    149.0787     28.3887   4.2722473718e+01   4.4220435337e+01    0.3787921    0.2658433  65.92  0.002083489    1.276    0.216
        58  -8.8105    203.9999    193.0000   7.2764530605e+01   2.8673277355e+00     0.219831   0.07583754  37.78 0.0008070559    2.975    0.664
        59 -11.1591     11.0130    143.1119   1.1429353424e+02   4.3852963201e+01    0.5404922    0.3143726 -80.30  0.002813708    1.506    0.336
        60  -9.2880     40.4572    141.3895   1.0531144259e+02   4.1725292597e+01    0.3486895    0.2846273  62.78  0.001948056    1.318    0.241
        61  -8.1755     24.3365    141.6449   1.1021496523e+02   4.3188630175e+01    0.1448046   0.09196926  68.39  0.000704272    1.801    0.445
        62 -12.7814    242.4344    128.2766   5.2655954296e+01   8.1273157902e+00     1.317631     1.060197 -60.97  0.007887989    1.362    0.266
        63  -9.8011     16.9718    126.7889   1.1048398457e+02   4.7555831304e+01    0.4116459     0.129866  50.07  0.001255467    5.361    0.813
        64  -8.6945     58.4996    124.5064   9.6548749059e+01   4.3976780712e+01    0.1473406    0.1346694 -53.24 -0.000133332    1.002    0.002
        65  -9.0750    188.5162    116.9887   5.9284187012e+01   2.0631798509e+01    0.2381634    0.1398966 -40.31  0.001034066    1.598    0.374
        66  -8.5245    102.9883     25.9989   5.1399315008e+01   5.5256681884e+01    0.2270069     0.137712  32.72  0.001127654    1.727    0.421
        67  -8.6047     54.0407    143.4750   1.0150389700e+02   3.9646039659e+01    0.2432048    0.1792977 -64.28  0.001075663    1.236    0.191
        68  -8.7752     11.2757     23.5230   8.7436418251e+01   7.0618580222e+01    0.2224476    0.1408443 -56.86  0.001290018    2.203    0.546
        69  -9.5199     66.4393     30.2483   6.4398721486e+01   6.2174402501e+01    0.2906292    0.1527879 -24.11  0.001405551    2.062    0.515
        70  -9.9226    187.4017     19.4567   3.5153223413e+01   3.6174450633e+01    0.2995266    0.1975625  88.22  0.001591545    1.406    0.289
        71  -9.3876     17.0005    104.3145   1.0700646705e+02   5.3168123479e+01    0.2783451     0.224006  84.23  0.001406298    1.402    0.287
        72  -8.6711    109.1996    108.5718   7.6463866684e+01   3.9488796057e+01    0.2253478    0.1503097  27.76 0.0009572075    1.694    0.410
        73  -9.4060     94.4951     17.3478   5.0326576096e+01   5.8034856918e+01    0.3660585    0.2343932  79.34  0.001797418    2.258    0.557
        74  -9.8221    247.8990     16.3314   2.9285173267e+01   2.3722722450e+01    0.2052064    0.1220155 -53.92 0.0009660665    1.337    0.252
        75  -9.6794     69.5910    105.1177   8.8347757910e+01   4.7253077508e+01    0.4086082    0.2490693 -42.51  0.001838869    1.564    0.361
        76  -9.9143     47.1125    100.9864   9.5355198783e+01   5.1223317031e+01    0.5337566    0.1699063 -55.03  0.001914115    2.622    0.619
        77  -9.2994     64.7924     16.2558   5.8954656122e+01   6.4161903058e+01    0.3529584    0.1771894  60.65  0.001531558    3.024    0.669
        78  -9.4248     30.6370    101.9191   1.0160863429e+02   5.2677075637e+01    0.3786935    0.1956355 -36.54  0.001712235    1.994    0.499
        79  -9.5557     96.1865    111.4858   8.1220640416e+01   4.1297844798e+01    0.3606468    0.3087691  13.89  0.001816033    1.256    0.204
        80 -12.1971     43.2275     82.3675   9.2148240293e+01   5.6023395086e+01     1.216063     0.947019  -8.50  0.006772018    1.321    0.243
        81  -8.2095     83.3318     89.3016   7.9247752605e+01   4.8658804342e+01    0.1543313    0.1132641  -9.00 0.0007034202    1.652    0.395
        82  -9.5612      2.5337     88.2822   1.0960201053e+02   5.7866705327e+01     0.559249     0.211322 -71.58  0.002408135    2.420    0.587
        83  -9.2100     12.1062     34.0897   9.1178926459e+01   6.8744273660e+01    0.3829309    0.1526242 -50.14   0.00138031    2.234    0.552
        84  -9.1903    132.4755     27.0025   4.5249744135e+01   4.8338686577e+01    0.3089115    0.1214877  47.92  0.001249564    2.400    0.583
        85 -10.1935     25.3312     65.2840   9.4903498710e+01   6.1554522170e+01    0.5341297    0.2212524 -50.46  0.002009535    1.976    0.494
        86  -9.2297      9.4563     80.5140   1.0540941725e+02   5.9311828296e+01    0.2034696    0.1499041 -68.53 0.0007306552    1.306    0.234
        87 -10.8656      4.4481     76.2251   1.0659271616e+02   6.0560858916e+01    0.4955392    0.4207724 -59.47  0.002649664    1.137    0.120
        88 -11.7784     14.8533     73.2515   1.0155551742e+02   6.0623430023e+01    0.8247443    0.6663418  20.03  0.005263308    1.430    0.301
        89  -8.7703    144.4750     80.8353   5.9122780569e+01   3.7516378171e+01    0.2977726    0.2142943  51.95  0.001416444    1.374    0.272
