#   1 NUMBER                 Running object number                                     
#   2 MAG_AUTO               Kron-like elliptical aperture magnitude                    [mag]
#   3 X_IMAGE                Object position along x                                    [pixel]
#   4 Y_IMAGE                Object position along y                                    [pixel]
#   5 X_WORLD                Barycenter position along world x axis                     [deg]
#   6 Y_WORLD                Barycenter position along world y axis                     [deg]
#   7 A_WORLD                Profile RMS along major axis (world units)                 [deg]
#   8 B_WORLD                Profile RMS along minor axis (world units)                 [deg]
#   9 THETA_WORLD            Position angle (CCW/world-x)                               [deg]
#  10 FWHM_WORLD             FWHM assuming a gaussian core                              [deg]
#  11 ELONGATION             A_IMAGE/B_IMAGE                                           
#  12 ELLIPTICITY            1 - B_IMAGE/A_IMAGE                                       
         1 -17.7326     12.9314    207.5215   1.0106656916e+02   3.0239234387e+01     3.234055     1.091517 -88.27   0.01603448    2.790    0.642
         2 -16.8997    246.8790    136.2615   4.1211896905e+01   3.7295618187e+00     2.082926    0.5710835 -38.32  0.006902258    3.356    0.702
         3 -17.1288    127.9988     86.5037   5.3655385212e+01   4.0388859195e+01     2.701964     1.349482 -48.77   0.01031211    2.104    0.525
         4 -16.8727     76.4517     53.3944   5.8940294211e+01   5.6789892891e+01     2.009419    0.8448313 -46.14  0.007554944    2.303    0.566
         5 -17.6105    103.1146     53.5002   5.0161088689e+01   5.1972265611e+01      2.36063     1.380628  39.30   0.01079123    1.730    0.422
         6 -15.3496    247.5927     40.9664   1.8425537556e+01   1.8259224724e+01     1.037375     0.412126 -37.05  0.004339619    2.205    0.546
         7 -16.6041    134.4631     29.5324   3.2948166259e+01   4.8560646240e+01     1.244334    0.8211178  71.19  0.005131987    1.754    0.430
         8 -16.5453    115.7576     25.9837   3.6200688446e+01   5.3432006607e+01     1.315463     0.955336   3.25  0.006790245    1.522    0.343
         9 -16.8644    105.8250     13.1572   3.3687759886e+01   5.7150037946e+01     1.613141     1.086645  30.81  0.008320385    1.406    0.289
        10 -15.5899     94.1411      5.3679   3.3568413485e+01   6.0445728747e+01     1.005767    0.6995766  56.22   0.00516029    1.480    0.324
        11 -16.3213    148.8302     10.5280   2.3315178485e+01   4.7092324281e+01     2.181451     1.384889 -83.54  0.009931835    2.097    0.523
        12 -15.4074    248.2410      5.9317   1.0251730796e+01   2.2401551777e+01    0.9179894    0.4192473 -43.17  0.004495972    1.898    0.473
        13 -15.6407     41.7522    196.6676   9.5047773712e+01   2.9367537228e+01     1.025412    0.5056384 -87.28  0.004456254    1.905    0.475
        14 -15.2530    145.8657    249.0258   8.0682787624e+01   4.6573436265e+00    0.6089123    0.2623581  44.25  0.003143826    1.767    0.434
        15 -15.7859     57.6375    212.9937   9.3361421189e+01   2.4181049048e+01     1.365486    0.8884895  36.04  0.008542313    1.771    0.435
        16 -14.7761     44.9327    212.3904   9.5665854276e+01   2.5863456761e+01    0.5744899    0.3070037  81.55  0.002697772    1.720    0.419
        17 -16.6646     60.8685    193.6108   9.0979314031e+01   2.7663473315e+01     2.146162    0.7395293 -58.91  0.009549486    2.942    0.660
        18 -15.7247     90.4332    201.1185   8.5746941956e+01   2.1949459676e+01     1.430154    0.9124321 -40.84  0.007357496    2.492    0.599
        19 -15.1674     99.8309    184.1874   8.1603137728e+01   2.3966709213e+01     1.104187    0.8092331  -1.01  0.005262914    2.729    0.633
        20 -15.1830    107.5664    171.9099   7.8048666435e+01   2.5313830739e+01     1.174519    0.6322412  41.83  0.005444264    1.777    0.437
        21 -15.2052    248.9055    203.1407   5.4678904625e+01  -6.3582756469e+00    0.8087629    0.2354505 -27.62   0.00281048    4.521    0.779
        22 -14.7529    124.8665    200.9106   7.8589346784e+01   1.6354001890e+01    0.5362004    0.2894011  35.23  0.002524599    1.948    0.487
        23 -13.5346    119.8462    194.1516   7.8683035320e+01   1.8550116436e+01    0.4180365    0.2841916  35.11   0.00184908    1.551    0.355
        24 -14.3435    115.2191    218.1275   8.2788866175e+01   1.4757867028e+01    0.4941038    0.4457934  18.59  0.003274159    1.486    0.327
        25 -15.0366     18.1703    169.4048   9.7612125148e+01   3.7516752260e+01    0.5603899    0.3598091  73.13   0.00238158    1.307    0.235
        26 -15.1777     40.7749    164.5340   9.2328271405e+01   3.6339765391e+01    0.8679782    0.6263149  76.72  0.004282285    1.199    0.166
        27 -14.9332     49.0882    158.3715   8.9766690117e+01   3.6791116605e+01     0.816569    0.4670218 -78.73  0.004035961    1.572    0.364
        28 -14.9709     27.6465    167.9225   9.5504040814e+01   3.6947206541e+01    0.6092132    0.3472652  55.55   0.00311392    1.630    0.386
        29 -13.6356    249.9322    245.4476   6.1769399929e+01  -1.1385010319e+01    0.4269402    0.1205357 -30.92  0.001890536    4.018    0.751
        30 -14.4419     92.6988    113.9599   7.0894026104e+01   4.1125983264e+01      1.30626    0.9785495 -59.95  0.006724082    1.272    0.214
        31 -15.3662     91.8715    143.8980   7.7150406720e+01   3.4257858785e+01     1.856839     1.019709  86.08  0.006606581    3.458    0.711
        32 -15.0894     93.5714    129.0529   7.3883680271e+01   3.7451309631e+01     1.582762    0.4879569 -49.32  0.005260984    3.187    0.686
        33 -12.8638     62.3099    242.9165   9.4827768600e+01   1.8093745295e+01    0.2849507    0.1358779  75.10  0.001591081    2.187    0.543
        34 -14.0070     89.7418    240.9376   8.9921078408e+01   1.4662613025e+01    0.4553487    0.2547126  75.48   0.00262108    1.949    0.487
        35 -13.9266     46.2987    120.6973   8.5350018453e+01   4.5822804308e+01    0.4020076    0.3112373 -31.42   0.00239793    1.617    0.381
        36 -15.3024     54.2749    112.7768   8.1743782000e+01   4.6800556889e+01     1.079858    0.3657126 -57.25  0.004365401    2.404    0.584
        37 -15.0363    221.5053    108.1388   3.8906700386e+01   1.3883157533e+01     1.540869    0.7828951 -58.67  0.005106418    3.414    0.707
        38 -13.6885     80.9929    241.1381   9.1478753824e+01   1.5876152792e+01    0.4814483    0.1974466  48.73  0.002600983    1.853    0.460
        39 -17.1404     99.7246     85.3828   6.1478348050e+01   4.6341533629e+01     3.160346     1.158902  44.66   0.01110013    2.919    0.657
        40 -15.6002    145.9844    101.2363   5.3160308425e+01   3.3272468145e+01    0.8538091    0.4855286 -52.63  0.003348811    1.953    0.488
        41 -15.1215     46.8975     99.3204   8.1408810132e+01   5.0743528199e+01    0.7705367    0.4644368  18.08  0.004010621    2.182    0.542
        42 -14.8826    224.6795     79.9095   3.1191600749e+01   1.7907288340e+01    0.7400469    0.4662862  59.22  0.003387637    1.649    0.394
        43 -16.6152     53.2886     67.6761   7.1799513671e+01   5.7099487100e+01     1.502811     1.090944 -68.45  0.006407713    1.583    0.368
        44 -13.3469      2.8243    238.9054   1.0413273268e+02   2.5487220506e+01    0.2618082    0.1820304  89.26  0.002196464    1.295    0.228
        45 -15.7156    122.3799     60.2534   4.6879523725e+01   4.6692239357e+01     1.272856     0.916304 -51.34  0.005126402    1.572    0.364
        46 -14.8899    173.1468    240.3961   7.4614874167e+01   1.3838460690e+00    0.4646704    0.2171597 -35.15  0.002245217    3.133    0.681
        47 -13.7685     98.7838    238.9921   8.8125960323e+01   1.3660535088e+01    0.2790917    0.1670046  61.36  0.001525654    1.435    0.303
        48 -14.6554    152.8420     44.7115   3.4119125285e+01   4.1870230616e+01    0.9661903    0.6223975 -66.68   0.00397163    2.263    0.558
        49 -15.3994    151.8675     35.3354   3.1191193313e+01   4.3436913362e+01    0.7359118    0.6095895  42.81  0.003877179    1.161    0.139
        50 -12.6581     57.8193    236.3978   9.5128684713e+01   1.9810322922e+01    0.2042782     0.167864  73.15  0.001576241    1.208    0.172
        51 -12.9560     53.4700    235.9888   9.5843176470e+01   2.0431839858e+01    0.3340704    0.1775717  58.93  0.001942163    1.441    0.306
        52 -16.3321    125.0580    224.2546   8.1614960175e+01   1.2046226266e+01    0.9082983    0.7977593 -71.94   0.00615075    1.324    0.245
        53 -15.5016    119.7674    211.1966   8.1021866742e+01   1.5279480357e+01    0.6511208    0.5095946  35.84  0.003104548    1.358    0.264
        54 -13.8996     80.1866    224.8904   9.0203782719e+01   1.8878014238e+01    0.3428684    0.3237514 -19.44  0.001759277    1.716    0.417
