#   1 NUMBER                 Running object number                                     
#   2 MAG_AUTO               Kron-like elliptical aperture magnitude                    [mag]
#   3 X_IMAGE                Object position along x                                    [pixel]
#   4 Y_IMAGE                Object position along y                                    [pixel]
#   5 X_WORLD                Barycenter position along world x axis                     [deg]
#   6 Y_WORLD                Barycenter position along world y axis                     [deg]
#   7 A_WORLD                Profile RMS along major axis (world units)                 [deg]
#   8 B_WORLD                Profile RMS along minor axis (world units)                 [deg]
#   9 THETA_WORLD            Position angle (CCW/world-x)                               [deg]
#  10 FWHM_WORLD             FWHM assuming a gaussian core                              [deg]
#  11 ELONGATION             A_IMAGE/B_IMAGE                                           
#  12 ELLIPTICITY            1 - B_IMAGE/A_IMAGE                                       
         1 -13.6114     67.8595    144.9675   1.2951882312e+02   3.7731283359e+01      3.15659     1.424265 -83.67  0.002794476    6.030    0.834
         2 -14.0793    190.7520     23.8083   6.8720795349e+01   3.4877078231e+01     1.954134     1.287768 -17.93   0.00836903    1.957    0.489
         3 -13.3906    197.7579     18.7943   6.6519954352e+01   3.3729093627e+01      1.07185    0.6298035 -44.75  0.003981987    1.730    0.422
         4 -14.0643    203.9386     10.7355   6.3797461083e+01   3.3110975669e+01      1.49458    0.9914035  53.48  0.002738066    1.559    0.358
         5 -12.1962      2.1061     24.7676   1.2262083637e+02   6.8738786036e+01    0.6381428    0.1373866 -52.26  0.002697567    3.788    0.736
         6 -13.5303      2.3866     10.9846   1.1743415841e+02   7.0821364926e+01     1.267134    0.5731817 -38.13  0.008159504    1.637    0.389
         7 -11.2199     12.6532     23.9273   1.1773027609e+02   6.8165669849e+01    0.1826694    0.1447486  11.06 0.0007425786    1.413    0.292
         8 -10.8579    248.9310    250.0177   1.0956562507e+02  -1.3907486900e+01    0.3086969    0.1193864  38.52  0.001539543    2.244    0.554
         9 -14.8212    101.8309    244.8863   1.3574588158e+02   1.1044043498e+01     4.201066     3.018673  42.85   0.01361636    1.390    0.281
        10 -13.6374     46.9762    228.3748   1.4399106641e+02   2.2036485695e+01     0.687925     0.394217  84.30  0.001670542    1.551    0.355
        11 -15.2730     54.5052    214.2818   1.4137689056e+02   2.3917009267e+01     3.112839     1.679259  70.66   0.01693578    1.795    0.443
        12 -14.6354     35.0167    247.0723   1.4737334308e+02   1.9947715907e+01     3.216507     1.152925  44.09   0.01751244    2.396    0.583
        13 -13.1997     83.6460    237.9151   1.3831783136e+02   1.5124985070e+01     0.729276    0.3447143  75.43  0.002546004    3.023    0.669
        14 -14.9966      9.4190    151.7498   1.4436102950e+02   4.2364617301e+01     2.732802     1.105443 -80.49   0.00111331    2.184    0.542
        15 -10.7714    173.4819    221.1798   1.1876490708e+02   2.8416881096e+00    0.2734958    0.1778792  43.23  0.001440539    1.351    0.260
        16 -10.2257    229.5093    207.0365   1.0543486066e+02  -5.0097754854e+00    0.2581674    0.2129453 -64.87  0.001104365    1.801    0.445
        17 -11.2459     30.5145    205.4857   1.4505761156e+02   2.8649609955e+01    0.3393753     0.163715  51.28  0.001195283    1.876    0.467
        18 -10.4277    193.0711    194.8967   1.1016243297e+02   3.7849681317e+00    0.8635377    0.4141739 -63.39  0.002193464    7.362    0.864
        19 -11.8341     70.1815    193.5512   1.3602415686e+02   2.6218648673e+01     0.405617    0.2544058 -45.53  0.002089955    2.164    0.538
        20 -11.8651     74.8856    186.6384   1.3414675511e+02   2.7079725647e+01    0.3018778    0.2278608 -54.01  0.000789032    1.485    0.327
        21  -8.7598    181.5044    192.4669   1.1205815291e+02   6.5124457500e+00    0.1429212    0.1328815  33.54 -1.500259e-05    1.021    0.021
        22  -9.4069     64.9697    186.6173   1.3626780580e+02   2.8485330387e+01    0.2910142     0.211444   1.90  0.001454668    2.805    0.643
        23 -13.4448     71.1300    172.1725   1.3298908228e+02   3.0911824798e+01    0.5015811    0.2804042 -45.72   0.00170795    2.217    0.549
        24 -11.2857     83.4860    174.8544   1.3057638227e+02   2.8470266704e+01    0.2592393    0.2185912 -64.97 0.0004511594    1.188    0.158
        25 -12.7524     89.0487    166.1044   1.2790881450e+02   2.9624717455e+01     1.991992    0.6555094  52.72  0.001943784    4.130    0.758
        26 -12.4919     75.9799    229.6809   1.3889180579e+02   1.7840123347e+01    0.6468859    0.3315845  69.12  0.003159122    2.057    0.514
        27  -9.4590    104.4526    146.0352   1.2048009031e+02   3.1740817664e+01    0.3204284    0.2071841 -39.11  0.001089879    1.812    0.448
        28 -12.2852     90.7234    149.3168   1.2455672707e+02   3.3294409250e+01    0.2832169    0.2546182 -43.57  0.000482733    1.242    0.195
        29 -10.1043    101.9796    149.9740   1.2187820159e+02   3.1250327670e+01    0.2986933    0.2470581 -45.89 0.0006390586    1.281    0.220
        30  -9.9564    112.0733    135.5718   1.1633612416e+02   3.2799264800e+01    0.3336157    0.2501665 -14.27  0.001392196    1.981    0.495
        31 -10.7070     99.5938    132.8396   1.1897241216e+02   3.5684253171e+01    0.2840182    0.2325128 -30.16 0.0008299191    1.429    0.300
        32 -12.4760     44.8906    128.9288   1.3272754935e+02   4.4292259944e+01      0.60395    0.3253604  79.94  0.002514855    3.105    0.678
        33  -8.7407    117.6424    128.6570   1.1333426526e+02   3.3334996507e+01    0.1569566    0.1213376 -10.92 0.0007036161    1.827    0.453
        34 -11.2472    168.1570    113.1654   9.7174995032e+01   2.5733388571e+01    0.3985167     0.323763 -80.20  0.000976505    1.453    0.312
        35  -9.5891    204.8744    110.6185   8.8968225924e+01   1.7537711983e+01    0.3748697    0.2187669  34.66  0.001468756    2.262    0.558
        36  -9.4752    108.4839    123.0238   1.1440864582e+02   3.6363733611e+01    0.2006004    0.1960026  73.25 0.0001277584    1.062    0.059
        37 -14.2573     11.0989    206.6251   1.4863369562e+02   3.0439228296e+01     1.245037    0.9364026  82.29  0.005474105    1.081    0.075
        38 -11.6715     37.5924    161.0418   1.3911315369e+02   3.7649792414e+01     0.377145    0.2347883  88.16  0.002116515    1.544    0.352
        39  -9.7263    155.4873     76.5100   8.9955867508e+01   3.5878028497e+01    0.1504095    0.1474147  49.53 0.0003520993    1.018    0.018
        40 -11.4403    124.4916     52.2301   8.9835873845e+01   4.7076667524e+01    0.5659307    0.3587587  79.15  0.001568915    2.826    0.646
        41 -11.5281      2.0902     46.6806   1.2917349422e+02   6.4972119655e+01    0.5518799          nan -57.69  0.001374456    9.490    0.895
        42 -12.1321    139.6644    248.5972   1.2923915086e+02   4.1856164846e+00    0.3922063    0.3021315  80.27  0.002469672    1.451    0.311
        43 -15.6712      4.1183    237.9827   1.5166137805e+02   2.5024184810e+01     10.56743    0.4454509 -71.06   0.02675463    7.151    0.860
        44 -12.0450     57.3175    240.1772   1.4316915688e+02   1.8415820492e+01    0.4103394    0.2130577 -80.16  0.002388951    1.842    0.457
        45 -10.2204     59.8541    235.8751   1.4236647420e+02   1.8895877868e+01    0.1791986    0.1386128  75.43 0.0004531366    1.050    0.047
        46 -12.5458     68.3065    222.6665   1.3961230823e+02   2.0332176840e+01    0.3732975     0.259333  85.27 0.0006024002    1.258    0.205
