#   1 NUMBER                 Running object number                                     
#   2 MAG_AUTO               Kron-like elliptical aperture magnitude                    [mag]
#   3 X_IMAGE                Object position along x                                    [pixel]
#   4 Y_IMAGE                Object position along y                                    [pixel]
#   5 X_WORLD                Barycenter position along world x axis                     [deg]
#   6 Y_WORLD                Barycenter position along world y axis                     [deg]
#   7 A_WORLD                Profile RMS along major axis (world units)                 [deg]
#   8 B_WORLD                Profile RMS along minor axis (world units)                 [deg]
#   9 THETA_WORLD            Position angle (CCW/world-x)                               [deg]
#  10 FWHM_WORLD             FWHM assuming a gaussian core                              [deg]
#  11 ELONGATION             A_IMAGE/B_IMAGE                                           
#  12 ELLIPTICITY            1 - B_IMAGE/A_IMAGE                                       
         1 -12.4973      7.0437    113.4605   1.1390329267e+02   5.1343699744e+01     2.268377      0.80944 -61.14   0.01009498    2.047    0.511
         2 -13.3234     91.9088     61.1301   6.9589016702e+01   5.2647032504e+01     3.134016     1.342669  41.95   0.01224956    2.272    0.560
         3 -10.3831    224.9588      5.2752   2.9836420517e+01   2.8927600210e+01      0.45635     0.395056 -34.36  0.003269419    1.427    0.299
         4 -10.3071    230.9919      6.4475   2.9648254678e+01   2.7536732219e+01    0.4814432    0.2663802 -40.74  0.002865751    1.670    0.401
         5 -11.3052      6.0036      4.1051   8.3878848546e+01   7.4016126473e+01    0.7542984    0.4349145  12.91  0.004915968    1.557    0.358
         6  -7.7691    167.0773      1.3844   3.4078733715e+01   4.2456787829e+01    0.1812128    0.1034519  72.52 0.0002972345    1.478    0.324
         7  -9.0610    186.7015    224.0719   8.4423015563e+01  -1.0739391611e-01    0.2652954    0.1980079  33.95 0.0003790465    1.286    0.223
         8 -16.8866     18.0850    237.7216   1.2189987606e+02   2.1296171645e+01     4.265869     2.917279  30.23   0.02829644    1.696    0.410
         9 -10.1927     62.5979    199.1372   1.0917651448e+02   2.4580685810e+01    0.8290493    0.3557355 -76.60  0.002907104    2.737    0.635
        10  -8.8839     68.1856    195.9768   1.0745101396e+02   2.4578168910e+01    0.4073943    0.2199021  57.00  0.001339831    1.976    0.494
        11  -8.5844     65.6446    192.3424   1.0762501805e+02   2.5783520564e+01    0.2867089    0.1643014  59.43  0.001185259    1.872    0.466
        12  -7.4847    215.6092    212.2586   7.6501508086e+01  -2.5863446645e+00    0.1677702    0.1100645 -23.80 0.0002422153    1.431    0.301
        13  -8.5102    178.0456    194.7309   8.0945918576e+01   6.6301653984e+00    0.2195121    0.1904072 -19.10  0.000393488    1.114    0.102
        14  -9.6495     40.2164    194.0317   1.1395565205e+02   2.8506244021e+01    0.2757837    0.2439456 -55.24 0.0003327501    1.314    0.239
        15  -8.5567     34.2101    191.7624   1.1515410475e+02   2.9699081394e+01    0.2236629    0.1824829  77.87 0.0006373291    1.053    0.051
        16 -10.1467    155.6239    209.3064   8.8606619361e+01   7.6658345775e+00    0.2794719    0.2562032 -38.00 0.0003637379    1.187    0.158
        17  -9.9961     59.6292    186.5133   1.0839971535e+02   2.7976224073e+01    0.5265322    0.4418636 -72.82   0.00299877    1.143    0.125
        18  -8.7496     29.0089    179.9364   1.1527975145e+02   3.3070939136e+01    0.2351817    0.1843689  36.79 0.0007893133    1.391    0.281
        19  -8.9739     41.9238    178.6595   1.1193307154e+02   3.2022661049e+01    0.2809679    0.2093142 -58.36 0.0002341589    1.350    0.259
        20  -9.4985     46.0867    176.4636   1.1062045993e+02   3.2092772682e+01    0.5554741    0.2374531  58.47  0.002114302    2.991    0.666
        21  -8.5500     42.6707    174.3306   1.1124853985e+02   3.3007981094e+01    0.2800433    0.1870194  79.50  0.001008032    1.526    0.345
        22  -8.1620     73.2923    172.0493   1.0286433689e+02   2.9696094507e+01    0.2835659    0.1962797 -35.04  0.001342799    1.810    0.447
        23  -8.2450     77.7316    167.1776   1.0089591949e+02   3.0275749368e+01    0.2475637     0.184141 -16.40  0.001167145    1.868    0.465
        24  -8.8353    188.0392    219.5935   8.3370792740e+01   4.4158361032e-01    0.2305902    0.1825541 -24.31 0.0002789382    1.252    0.201
        25  -7.4897     85.5087    158.9494   9.7328966075e+01   3.1171506585e+01    0.2117546    0.1437854 -61.55 0.0003238501    1.435    0.303
        26 -10.1395     73.8838    153.7203   9.9700977544e+01   3.4252635945e+01    0.4018993    0.2761942 -45.27 0.0008514001    1.501    0.334
        27  -7.6003     90.6060    153.2992   9.4831302701e+01   3.1785627883e+01    0.2139133    0.1359183 -48.79 0.0009381535    1.551    0.355
        28  -8.4774    107.8666    205.3704   9.9120139327e+01   1.6490858184e+01    0.2379789    0.1987558 -54.93 0.0003619805    1.281    0.219
        29 -10.0149     70.0410    145.0307   9.9264719769e+01   3.7029219185e+01    0.5224967    0.3961277  76.02  0.002173098    1.536    0.349
        30  -9.4001     65.4806    141.5067   9.9985403723e+01   3.8566071330e+01    0.3011452    0.2801741 -24.12 0.0009886897    1.174    0.148
        31  -8.1457     43.1574    147.8614   1.0766295143e+02   3.9648331943e+01    0.1973741    0.1497647 -48.38  0.001065453    1.324    0.245
        32  -9.0258     17.6359    145.9229   1.1470736983e+02   4.2520739756e+01      0.19574    0.1769323 -35.20 0.0006086383    1.297    0.229
        33  -9.6008    184.2143    141.4528   6.8196015552e+01   1.6232410552e+01    0.2821595    0.2393207 -46.55 0.0002032517    1.179    0.152
        34  -9.0041     31.1779    141.1129   1.1021209392e+02   4.2578647107e+01    0.2144718    0.1686883 -52.67 0.0009850834    1.221    0.181
        35  -8.7976    127.7284    139.6234   8.1469187151e+01   2.8372959908e+01    0.2680545    0.2584611 -73.87 0.0003033375    1.088    0.081
        36  -9.0247     92.4971    138.0388   9.1155595381e+01   3.5325692522e+01    0.2617727    0.2424716  13.08 0.0004392795    1.154    0.134
        37  -8.1720    189.6669    138.0100   6.6240282571e+01   1.5810177800e+01    0.2181415    0.1932835 -30.36  0.000561656    1.060    0.057
        38  -8.2152    199.4737    247.5932   8.5715429466e+01  -5.6690294003e+00    0.1706737    0.1591723  -1.82 0.0006786124    1.357    0.263
        39 -11.2327    237.6983    111.0095   5.1541406082e+01   1.1264250605e+01    0.8152559    0.4239101  39.40  0.003644979    2.550    0.608
        40  -7.6469    100.0647    125.6840   8.6049447135e+01   3.7070634632e+01     0.212704    0.2010505   4.19 0.0005130138    1.097    0.088
        41  -8.2882     75.8058    109.7124   8.9829057500e+01   4.5093187805e+01    0.2418186    0.1840556 -40.33 0.0004363931    1.254    0.202
        42  -8.4360    213.3711    128.1709   5.9369197160e+01   1.2915894597e+01    0.2077908    0.1230987 -47.22 0.0003542109    1.633    0.388
        43  -7.5761    132.7973    113.8588   7.3599053266e+01   3.3281306255e+01    0.2045998    0.1865683  82.14 0.0002503776    1.245    0.197
        44 -10.4385     23.2927     98.5090   1.0587780025e+02   5.3934667180e+01    0.4303238    0.1849341 -60.52  0.001929026    1.868    0.465
        45  -7.3336    108.7195     98.7003   7.6251441446e+01   4.1728144732e+01    0.1554069    0.1211851  -7.54 0.0002776483    1.544    0.352
        46  -8.5577    189.2362     94.8105   5.5672039282e+01   2.4306409038e+01    0.3144848     0.223344 -28.21  0.000871676    1.514    0.339
        47 -10.2653     93.4221     90.9738   7.8799936924e+01   4.6419152092e+01    0.2584447    0.2401425  18.02  0.000300157    1.076    0.070
        48  -7.4910    105.0347     90.0380   7.4823209868e+01   4.4353020125e+01    0.1821926    0.1693764 -25.82 0.0003834807    1.046    0.044
        49 -11.2181     20.8607    110.4630   1.0886212709e+02   5.1180244209e+01    0.4361007    0.3472731  38.71  0.001779514    1.471    0.320
        50 -11.4521     58.6396     81.7854   8.8408613864e+01   5.4129415467e+01    0.5179297    0.4201719 -33.27  0.002767687    1.110    0.099
        51  -7.4614    164.9632     82.9506   5.7270541144e+01   3.2144729513e+01    0.1757381    0.1637352 -43.91 0.0009330499    1.067    0.063
        52 -11.9835    138.7881     57.1070   5.5298997782e+01   4.2816303204e+01      1.16644    0.7737669  12.08  0.004943452    2.313    0.568
        53  -8.6601    188.9246    215.0161   8.2377991301e+01   1.0887109199e+00    0.2034187    0.1709524   3.37 0.0003179983    1.049    0.047
        54  -7.1399     30.2916     62.6941   9.4357501875e+01   6.1537030078e+01    0.1147213    0.1034028  79.09 0.0003278517    1.576    0.366
        55  -8.9995    141.0794     68.5484   5.8328403862e+01   4.0403544419e+01    0.2280827    0.2037243 -34.49 0.0005894281    1.153    0.133
        56 -10.0655    124.5172     46.4051   5.5148042715e+01   4.7812873580e+01    0.2578042    0.2341144  45.30 0.0006065063    1.021    0.020
        57  -9.5052    183.2083     52.2818   4.5558074523e+01   3.2725826655e+01    0.2966383    0.2574482 -28.60  0.001013787    1.278    0.218
        58 -10.5003    195.1722     42.9918   4.1454745928e+01   3.1173331638e+01    0.7101309    0.4455379 -48.10  0.003672313    1.525    0.344
        59  -7.6402    163.4724     41.5424   4.5761122160e+01   3.9005318922e+01    0.1391736    0.1282586  68.02 1.855584e-06    1.047    0.045
        60  -8.3082    155.9228     39.9831   4.6602951190e+01   4.1063031141e+01    0.2039226    0.1880165  69.79  0.000292773    1.014    0.014
        61  -8.4332    127.4679     40.4492   5.2455074471e+01   4.7928222587e+01    0.1424862    0.1283555  43.84 0.0001321582    1.034    0.033
        62 -10.3769    203.7293     34.1262   3.8233057955e+01   3.0335919139e+01    0.4567928    0.3851435 -28.38  0.001445106    1.388    0.279
        63  -9.0056    124.0215     33.8503   5.1000168899e+01   4.9588775092e+01    0.2060981    0.1969555  -3.25  0.000309471    1.128    0.113
        64  -8.7766    229.2295     28.3364   3.4348892448e+01   2.5416855975e+01    0.2098615    0.1813551 -83.02 0.0004601906    1.117    0.105
        65  -7.7847    241.0853     23.3325   3.2318432694e+01   2.3559972022e+01    0.1618796    0.1269487 -81.18 0.0008328304    1.115    0.103
        66  -9.1088    187.3584    234.6213   8.6052683334e+01  -1.9383763396e+00    0.3658363    0.1219401 -45.11  0.001441491    3.425    0.708
        67  -9.5153    198.6526    230.0983   8.3013574281e+01  -2.9068066037e+00    0.2632747    0.2540569 -49.15  0.001151836    1.499    0.333
        68 -10.2642    218.5933    223.9706   7.8038960031e+01  -4.8553794794e+00    0.2415495    0.1983849  -3.75 0.0003721481    1.062    0.058
