#   1 NUMBER                 Running object number                                     
#   2 MAG_AUTO               Kron-like elliptical aperture magnitude                    [mag]
#   3 X_IMAGE                Object position along x                                    [pixel]
#   4 Y_IMAGE                Object position along y                                    [pixel]
#   5 X_WORLD                Barycenter position along world x axis                     [deg]
#   6 Y_WORLD                Barycenter position along world y axis                     [deg]
#   7 A_WORLD                Profile RMS along major axis (world units)                 [deg]
#   8 B_WORLD                Profile RMS along minor axis (world units)                 [deg]
#   9 THETA_WORLD            Position angle (CCW/world-x)                               [deg]
#  10 FWHM_WORLD             FWHM assuming a gaussian core                              [deg]
#  11 ELONGATION             A_IMAGE/B_IMAGE                                           
#  12 ELLIPTICITY            1 - B_IMAGE/A_IMAGE                                       
         1 -14.6840    178.8002     34.9619   6.8336790193e+01   3.6514039632e+01      1.27686     1.034075  15.60  0.004428349    1.704    0.413
         2 -13.2340    183.0513     28.3986   6.6042202656e+01   3.6299199914e+01    0.5397772    0.4526329  69.52  0.001090881    1.106    0.096
         3 -12.2019    189.6351     14.6808   6.1813176905e+01   3.6288122290e+01    0.2612079    0.2195892  73.00 0.0008376334    1.119    0.106
         4 -13.4443    201.1238      3.8734   5.8076548955e+01   3.4733056639e+01    0.7200152    0.4634533  44.02   0.00296411    2.033    0.508
         5 -13.1206    195.9829      3.9888   5.8612068847e+01   3.5905206533e+01    0.4922099    0.3437603  87.03  0.002495919    1.206    0.171
         6 -11.3432    169.1042    236.2641   1.1647249633e+02  -2.6862986286e-02    0.2286238    0.2052974 -43.33 0.0003264234    1.255    0.203
         7 -18.8917     52.3291    243.1920   1.4038717235e+02   1.7369494361e+01     6.586176     5.799599  81.84   0.04741067    1.270    0.213
         8 -13.7642    106.9729    210.2672   1.2560198711e+02   1.6100880726e+01     0.783017    0.6534802  60.21  0.004501622    1.086    0.079
         9 -13.0461    106.3661    202.6482   1.2460375689e+02   1.7906553888e+01    0.7146717    0.4105175  40.76  0.002244525    1.706    0.414
        10 -10.1540     24.2568    213.1112   1.4314450750e+02   2.7131383217e+01    0.1590872    0.1282966  65.40 0.0002139354    1.206    0.171
        11 -14.3208    105.3073    192.6363   1.2328081745e+02   2.0385817856e+01      1.60083    0.9447827 -30.69  0.006066253    3.235    0.691
        12 -19.0407     37.5236    105.1507   1.2547971343e+02   5.1066349925e+01     17.15436    0.7347071 -60.09   0.02469786   19.466    0.949
        13  -9.7847    220.6425    228.8075   1.0509293815e+02  -7.4405182299e+00    0.3050528    0.1107475 -49.34  0.001084712    4.252    0.765
        14 -13.8915     12.3851    206.1202   1.4486947923e+02   2.9901686407e+01    0.5428625    0.2766065  35.06  0.003100325    2.245    0.555
        15 -11.0683     18.5712    219.0486   1.4467500062e+02   2.6464793642e+01    0.1640254     0.132762 -78.93 0.0008420419    1.295    0.228
        16 -10.6445    158.4856    204.3909   1.1332561088e+02   7.9781665987e+00     0.342939    0.2068428  68.87  0.001339641    2.723    0.633
        17 -12.2564    121.9515    199.0371   1.2051636209e+02   1.5964640634e+01    0.4475889    0.3131231 -22.54  0.001812944    2.367    0.578
        18 -10.2130    163.2571    204.1113   1.1224303067e+02   7.1302432558e+00    0.2075888    0.1944278  -5.65 0.0005024873    1.152    0.132
        19 -11.4370    139.3030    200.6283   1.1688406085e+02   1.2401960557e+01    0.3448357    0.2007508 -64.53  0.001481634    2.057    0.514
        20 -12.5659    193.5195    192.6379   1.0365591073e+02   3.6387668762e+00    0.8942254    0.4952467 -53.09  0.003110834    2.104    0.525
        21 -10.4102    198.6924    222.8149   1.0827437720e+02  -2.8247414813e+00    0.2199443    0.1654855  28.32  0.000441638    1.241    0.194
        22 -10.4299    208.8396    197.8234   1.0158952557e+02  -1.8519800759e-01    0.1806212    0.1698484 -89.77 0.0004184832    1.330    0.248
        23 -10.5098    154.0741    196.0373   1.1277202813e+02   1.0570854170e+01     0.226765    0.2167475  72.41 0.0008742261    1.046    0.044
        24 -10.7779    167.8513    188.7067   1.0833612978e+02   9.4302181755e+00    0.2819389     0.218786 -57.49 0.0009906078    1.384    0.278
        25 -10.5322     73.0362    183.9961   1.2948858072e+02   2.7629697846e+01    0.2089833    0.1848107 -82.83 0.0004689271    1.068    0.064
        26 -11.1488    205.5158    180.4764   9.8754919790e+01   3.7069667373e+00    0.3778027    0.2924903  56.08  0.001587103    1.488    0.328
        27 -11.0710    208.6882    178.6610   9.7748269534e+01   3.4496847889e+00    0.3777876    0.3071707  -6.26  0.001993513    1.362    0.266
        28 -12.2029    141.3396    176.3262   1.1190151787e+02   1.7436682631e+01    0.3621174    0.2771963  -1.68  0.001626517    1.942    0.485
        29 -11.8141    195.8584    170.8152   9.8680986726e+01   7.5289222911e+00    0.6391125    0.3759208 -48.24   0.00265089    1.718    0.418
        30 -10.7106    193.8017    164.9072   9.7832321290e+01   9.1574957983e+00    0.3575959    0.2781249 -56.66  0.001574221    1.374    0.272
        31 -12.0586    137.6472    171.1015   1.1172842837e+02   1.9376419316e+01    0.3992456    0.2948377  50.66    0.0012824    1.351    0.260
        32  -9.9044    119.9962    163.6861   1.1452257547e+02   2.4582435780e+01    0.2112772     0.189054  58.39 0.0003715596    1.111    0.100
        33 -10.5266    115.0392    162.0625   1.1543230879e+02   2.5912267076e+01    0.2324516    0.2158135 -83.66 0.0004002296    1.021    0.020
        34 -12.5213     98.3620    180.9023   1.2299123557e+02   2.4350896618e+01    0.4605596    0.3696084  35.83  0.001592738    1.379    0.275
        35  -9.7630     14.3320    160.2568   1.4028782232e+02   4.0200500757e+01    0.1789579    0.1489381   6.58 0.0009044955    1.724    0.420
        36 -11.5684    120.1276    156.4526   1.1300619870e+02   2.6295043283e+01    0.3595497    0.3010886  81.86  0.001365135    1.286    0.223
        37 -12.2813    134.3932    148.2191   1.0764278398e+02   2.5405729304e+01    0.7575645     0.298813 -57.23  0.002361595    3.074    0.675
        38 -12.5612    134.0000    144.0179   1.0678695734e+02   2.6475569859e+01    0.9689128    0.3192958 -56.80  0.002570648    4.235    0.764
        39  -9.7036      9.5558    153.4938   1.4067748163e+02   4.2182224768e+01    0.1792222    0.1201287  -4.08  0.001024553    2.427    0.588
        40 -10.3018    174.8850    149.1247   9.8341151476e+01   1.6526646064e+01    0.2418982    0.2148366 -89.84  0.000590926    1.240    0.194
        41 -12.2692    144.9093    145.8101   1.0451245157e+02   2.3764175919e+01    0.4315954    0.3580316 -75.15  0.001202325    1.317    0.241
        42 -11.3515     88.0693    146.6990   1.1934260104e+02   3.4431154064e+01    0.2049197    0.1938443  65.77 0.0006091673    1.105    0.095
        43 -10.0153      4.2626    146.4476   1.4117828073e+02   4.4226687808e+01    0.1661497    0.1240003   7.20  0.001074644    1.925    0.480
        44 -12.9210    111.1067    139.8753   1.1174253416e+02   3.2019063069e+01    0.7535378    0.5145833 -18.95  0.003055212    2.340    0.573
        45 -12.4676    101.0738    139.3172   1.1429923923e+02   3.4004272280e+01    0.3013934    0.2868359 -35.61 0.0004258372    1.131    0.116
        46 -11.9312    105.9288    130.6859   1.1102828272e+02   3.5192606138e+01    0.3902161    0.3379366 -59.59  0.001263316    1.104    0.094
        47 -11.2521    105.9078    125.9101   1.0990271831e+02   3.6327931870e+01    0.3431858    0.2660019 -29.36 0.0006415942    1.479    0.324
        48 -12.2433    118.1113    129.7317   1.0752440072e+02   3.3072040126e+01     0.426315    0.3991087  35.12  0.001240189    1.137    0.121
        49 -12.6641    135.1135    122.3856   1.0128797403e+02   3.1239324171e+01    0.7849116    0.3222522 -50.07  0.002671559    2.466    0.595
        50 -11.2062    160.8186    127.5368   9.6361528159e+01   2.4394470862e+01    0.3788325    0.2860828 -84.28  0.001460909    1.712    0.416
        51 -11.7782    124.7193    126.7238   1.0505064137e+02   3.2436637237e+01    0.5897917    0.3073172  67.34  0.001678437    4.370    0.771
        52 -10.8238     84.8592    126.1553   1.1586357962e+02   3.9947460859e+01     0.226146    0.1948433  87.39 0.0006205338    1.276    0.217
        53 -10.6367    112.2987    118.9502   1.0643507283e+02   3.6724814994e+01    0.2670979    0.2255083  35.82 0.0002431121    1.257    0.205
        54 -11.2752     61.3124    117.1067   1.2073745509e+02   4.5553817200e+01    0.2189166    0.1934466   0.05 0.0005623722    1.313    0.238
        55  -9.9943      9.1849    221.2240   1.4653390230e+02   2.6978707627e+01   0.09230436   0.06805525 -76.93            0    1.312    0.238
        56 -11.0108    168.4131    113.2687   9.1056080487e+01   2.5705908266e+01    0.3986433    0.2909113 -75.45  0.001049629    1.734    0.423
        57 -10.3497      2.2681    112.7970   1.3746995639e+02   5.2091620335e+01     0.202721    0.1518055 -26.04 0.0007312572    1.579    0.367
        58 -10.7082    205.1019    110.4567   8.3024203835e+01   1.7773086123e+01    0.3776405    0.2597417  37.84  0.001264748    1.768    0.434
        59 -12.7155     61.3878    109.1358   1.1892317646e+02   4.7398591309e+01    0.4092817    0.3719179 -33.76  0.002474212    1.098    0.090
        60 -12.9327     99.1820    188.4445   1.2403296379e+02   2.2417860489e+01    0.6558811    0.4521927 -49.28  0.003248372    1.570    0.363
        61 -13.1456    116.3802    211.5706   1.2373633724e+02   1.4190989331e+01    0.7094707    0.4721574 -79.73  0.001924276    1.775    0.437
        62 -10.7972     82.4629    106.9104   1.1194945689e+02   4.4818487595e+01    0.2668999    0.2018431  58.02  0.001156292    1.596    0.374
        63 -11.7579     66.8914    104.4330   1.1609706905e+02   4.7722940091e+01    0.3384283    0.2399351   2.03  0.001681492    1.884    0.469
        64  -9.3190    153.9752    103.7654   9.1825840374e+01   3.1033252093e+01    0.1965536    0.1301906  49.97 0.0003017843    1.521    0.342
        65  -9.2769     85.6295     98.2892   1.0872807423e+02   4.6209000220e+01    0.1431118    0.1139467  78.88 0.0007022705    1.715    0.417
        66  -9.8739     67.9543     98.5092   1.1427483471e+02   4.8894563421e+01    0.1981647    0.1383758  32.41  0.001026385    1.571    0.364
        67  -9.5912    150.2687     79.6669   8.6027444462e+01   3.6571071752e+01    0.1514441    0.1155364 -72.64 0.0003311762    1.588    0.370
        68 -10.4196     83.9885     76.7173   1.0302068112e+02   5.0906080184e+01    0.1879253    0.1728145  14.19 0.0002963681    1.089    0.082
        69 -13.7650    165.2891     51.9683   7.5146776208e+01   3.7481241853e+01      1.01477    0.7362306 -44.54  0.002089943    1.428    0.300
        70 -10.0224     13.6316     59.9498   1.2307918329e+02   6.2541924634e+01    0.1644414    0.1180732 -47.15 0.0004857784    1.149    0.129
        71 -10.8004      1.4856    248.0824   1.4940649429e+02   2.2352014989e+01    0.1441302    0.0810246 -84.32 0.0009716101    1.427    0.299
        72 -10.4897      7.6107    244.4775   1.4822532916e+02   2.2418671849e+01    0.1056155   0.08060184  89.07 0.0007909603    1.227    0.185
        73  -9.9090    113.2183     21.8949   7.6500522452e+01   5.3290915355e+01    0.1778419    0.1643078  70.33 0.0004322473    1.195    0.164
        74  -9.5894    163.6738    239.7273   1.1810441839e+02   3.0560757421e-01    0.1287602   0.09766103  12.98 0.0001833982    1.581    0.368
        75 -14.0096    112.7124    197.0043   1.2228378560e+02   1.8082008683e+01    0.7390375    0.6799498  35.39  0.003554369    1.225    0.184
