#   1 NUMBER                 Running object number                                     
#   2 MAG_AUTO               Kron-like elliptical aperture magnitude                    [mag]
#   3 X_IMAGE                Object position along x                                    [pixel]
#   4 Y_IMAGE                Object position along y                                    [pixel]
#   5 X_WORLD                Barycenter position along world x axis                     [deg]
#   6 Y_WORLD                Barycenter position along world y axis                     [deg]
#   7 A_WORLD                Profile RMS along major axis (world units)                 [deg]
#   8 B_WORLD                Profile RMS along minor axis (world units)                 [deg]
#   9 THETA_WORLD            Position angle (CCW/world-x)                               [deg]
#  10 FWHM_WORLD             FWHM assuming a gaussian core                              [deg]
#  11 ELONGATION             A_IMAGE/B_IMAGE                                           
#  12 ELLIPTICITY            1 - B_IMAGE/A_IMAGE                                       
         1 -12.3993    121.9070     36.7700   7.4594680429e+01   5.0463072007e+01    0.6877111    0.5799454  12.22   0.00364343    1.262    0.207
         2 -11.3662     78.4768     21.9708   8.0962629775e+01   6.1807967033e+01     0.833377    0.3982342 -37.81  0.003784513    1.917    0.478
         3 -11.0835     75.0030     21.7449   8.2051731199e+01   6.2469161587e+01    0.4180806    0.2189741 -41.97   0.00167715    1.857    0.461
         4 -11.6386     88.9160     13.8788   7.3808009698e+01   6.0949514017e+01    0.5393689    0.3627923 -50.66  0.001982402    1.878    0.467
         5 -10.7399     92.9279      9.1474   7.0356941804e+01   6.0713992904e+01    0.4653786    0.2521051 -12.53  0.002087322    2.040    0.510
         6  -9.4559     90.7060      2.9378   6.7919256953e+01   6.1894178311e+01    0.3805544      0.23401  89.67 0.0009228089    3.399    0.706
         7 -11.0739    190.7229     14.1941   5.3923609692e+01   3.5585603189e+01    0.3576955    0.2332637 -51.51  0.001666338    1.597    0.374
         8 -10.9801    155.7482     14.1773   5.8890015460e+01   4.4929798902e+01    0.4717758    0.2591919  37.95  0.001959691    2.012    0.503
         9  -9.8730     37.7495      2.7167   8.7470424341e+01   7.1118870078e+01     0.338017   0.09129775 -39.08   0.00133687    3.119    0.679
        10 -11.5702     34.9986     12.8399   9.4113641333e+01   6.9832611898e+01    0.3592013    0.2381301 -48.90  0.001410577    1.476    0.322
        11 -11.8592     40.3612      8.5421   8.9420961747e+01   6.9880782663e+01    0.4503455    0.2580022 -25.25  0.001664525    1.669    0.401
        12 -11.7570     30.1696      7.1872   9.3613318033e+01   7.1334966578e+01    0.2835076    0.2638671  -4.36  0.001138668    1.284    0.221
        13 -10.5625    119.0767     12.1031   6.5106037977e+01   5.4455646044e+01    0.2108745    0.1948131  20.55 0.0003130303    1.021    0.021
        14  -9.9085      2.4295      2.6497   1.0662999725e+02   7.4570891322e+01    0.1756668    0.1213325   6.00 0.0009914259    1.712    0.416
        15  -9.3367      9.3192     10.2843   1.0608008587e+02   7.2703172547e+01    0.1738653    0.1086712 -20.69 0.0004653596    1.708    0.414
        16 -10.9211     12.5068      7.3830   1.0303566553e+02   7.2994728771e+01    0.5288934    0.3115845  49.61  0.002960402    3.048    0.672
        17 -10.1989      9.9954      1.9937   1.0184932016e+02   7.4148596912e+01    0.2328295     0.133868 -29.65  0.001461913    1.554    0.357
        18 -11.2009      4.0461     10.0191   1.0887318458e+02   7.3104363962e+01    0.2396079    0.1714542 -46.59 0.0004678962    1.027    0.027
        19 -10.4159      2.9157      6.4772   1.0804174476e+02   7.3837970424e+01    0.2095872     0.145833   6.67 0.0008101271    1.726    0.420
        20 -10.6927     22.2698      9.3976   9.8758759440e+01   7.1781093304e+01    0.2929299    0.1872884 -18.90  0.001326305    1.648    0.393
        21 -10.7062    155.5061      8.7831   5.6914861282e+01   4.5554479685e+01    0.3314762    0.1885806  30.39 0.0009312323    2.079    0.519
        22 -11.2193    151.1160      6.9565   5.6915754749e+01   4.6893073252e+01    0.3955219    0.2904203  -6.53 0.0008409458    1.447    0.309
        23 -10.7252    210.1793      7.4186   4.9676047707e+01   3.1132614738e+01    0.2332898    0.1633043 -33.88  0.001125423    1.360    0.265
        24 -11.1791     71.8294      6.2564   7.5504694306e+01   6.5247881265e+01    0.4973153     0.249409  43.44  0.002420488    2.041    0.510
        25 -10.3177     64.9580      6.9331   7.8321302582e+01   6.6384579598e+01    0.2005763    0.1665422 -11.06 0.0005334395    1.024    0.024
        26 -11.3940     55.6231      4.7637   8.0758287392e+01   6.8230539358e+01    0.3847083    0.3111397 -17.29  0.002493425    1.042    0.040
        27 -10.4324     57.7067      2.3182   7.8568121306e+01   6.8220250557e+01    0.2732964    0.1833923 -43.58 0.0005360863    1.723    0.420
        28 -10.7518    145.1395      5.8538   5.7460670285e+01   4.8564485120e+01    0.2134406    0.1919761 -54.38 0.0003788752    1.196    0.164
        29  -9.3389     49.6308      6.7806   8.4352733349e+01   6.8863850406e+01    0.1202864   0.08366724   6.84 0.0002606499    1.582    0.368
        30 -10.7261    199.0224      3.4657   4.9585485727e+01   3.4438794781e+01    0.3560774    0.2108755  -3.10  0.001402109    2.056    0.514
        31 -11.4743    129.7116      3.8225   5.9363736052e+01   5.2708949571e+01    0.3998268    0.2836479  75.81  0.001735475    1.556    0.357
        32 -10.0448    235.5890      4.2397   4.6544489892e+01   2.5010188247e+01    0.1893122    0.1282349  -7.00 0.0009546666    1.696    0.410
        33  -9.8755    141.1848      4.2063   5.7471222367e+01   4.9747706228e+01    0.1942675     0.163201 -54.57 0.0003798957    1.312    0.238
        34 -10.3939    120.9394      4.0440   6.1186887942e+01   5.4859356604e+01    0.2125375    0.1946985  18.38  0.000432959    1.022    0.021
        35 -10.1896    172.8474      2.8729   5.2349602762e+01   4.1487777565e+01    0.2333816    0.1908816 -57.52 0.0005565941    1.273    0.215
        36  -9.0830    176.4982      2.4842   5.1765789637e+01   4.0543429824e+01    0.3274294     0.187067  72.84  0.001459703    1.718    0.418
        37 -10.8286    161.3557      2.0349   5.3559251891e+01   4.4638874618e+01    0.3511084    0.1788981  41.98   0.00145258    2.061    0.515
        38 -10.8685     19.3642      2.7200   9.6923324386e+01   7.3204713100e+01    0.2876778    0.1952563   6.45  0.001517061    1.681    0.405
        39  -9.6260    112.7247      2.6420   6.2310089122e+01   5.6971844015e+01    0.1856652     0.132218  71.93 0.0008631696    1.597    0.374
        40  -9.9364    100.0828      1.7417   6.4854633021e+01   5.9974910085e+01    0.1987484    0.1831024 -48.55 0.0005082329    1.275    0.216
        41 -11.6629     80.3163      1.7714   7.0365430177e+01   6.4159464800e+01    0.3555967    0.1861483  52.85 0.0009871955    1.984    0.496
        42 -11.2851    194.9708      4.5184   5.0338099153e+01   3.5414742666e+01    0.3377117    0.2092434 -72.96  0.001527377    1.834    0.455
        43  -9.5581     67.2281      1.4472   7.4524109564e+01   6.6683728836e+01    0.1452129    0.1258864  53.23 0.0003445166    1.428    0.300
        44 -10.2222      2.4906    153.5164   1.3166815345e+02   4.2744165864e+01    0.1820053   0.06451399  45.65  0.001036198    2.389    0.582
        45 -10.3530     12.1002    249.7886   1.3410100299e+02   2.5220668261e+01    0.1412993   0.09848739 -65.22  0.001235527    2.171    0.539
        46 -11.5345      6.1920    241.5037   1.3467855172e+02   2.6999941052e+01    0.1781173    0.1279785 -77.98   0.00140725    1.702    0.413
        47 -11.5795      2.9229    248.8088   1.3534962357e+02   2.6222215536e+01    0.3551362    0.1592437  50.55  0.002837507    1.511    0.338
        48 -12.5670      9.5805    245.2029   1.3431129545e+02   2.6132167010e+01    0.3728993    0.1926088  32.42  0.002670686    2.638    0.621
        49 -10.4817     23.8579    150.8257   1.2703816319e+02   4.1467183832e+01    0.1615783    0.1311342 -78.53 0.0006744313    1.260    0.207
        50 -10.2544     22.0302    143.4709   1.2683681427e+02   4.3159300538e+01    0.1866562    0.1198468 -83.46  0.001246409    1.239    0.193
        51 -11.8461      4.7547    140.8114   1.3041972111e+02   4.5147456247e+01    0.4100747    0.1663658  75.03  0.001757038    2.330    0.571
        52 -11.2312      9.0075    135.2910   1.2909356607e+02   4.5968079917e+01    0.1958282    0.1217844 -84.33 0.0004922621    1.231    0.188
        53  -9.5600    216.0375    135.5542   8.3745543104e+01   1.2156922912e+01    0.1971982    0.1296285  57.28 0.0009703255    1.735    0.423
        54  -9.4815    212.3469    133.7193   8.3979406151e+01   1.3184896939e+01    0.2183078    0.1144518  58.93 0.0008231009    2.382    0.580
        55 -11.3551    249.0049    131.0153   7.7401226763e+01   6.2326425368e+00    0.3320809    0.1131913 -34.69  0.001309816    2.773    0.639
        56 -10.1454      1.9563    132.4853   1.3048036284e+02   4.7081542820e+01    0.1346512    0.1017995  41.60 0.0008193789    1.550    0.355
        57  -9.9260     35.2873    130.6742   1.2255176320e+02   4.4625282999e+01    0.1908888    0.1132753 -59.22 0.0006019357    1.657    0.396
        58 -11.4697     11.6616    129.3829   1.2802288867e+02   4.7008500889e+01    0.4481664    0.1685575  65.63  0.002117167    2.942    0.660
        59 -11.9832     23.2447    121.1124   1.2445797620e+02   4.7835489212e+01    0.5193802    0.2228865  74.05 0.0006902748    2.885    0.653
        60 -10.2083    249.0096    111.9859   7.3062138898e+01   8.6923593694e+00    0.1690483    0.1486016  -4.60  0.001014481    1.001    0.001
        61  -9.5333      2.3120    114.2982   1.2903050972e+02   5.0917085478e+01    0.1056977   0.06902408 -57.35  0.000203946    1.602    0.376
        62  -9.9224     65.7762    110.7818   1.1193586327e+02   4.5522792298e+01    0.1872212    0.1367963  85.99  0.001063731    1.395    0.283
        63 -11.1764      3.7278    109.1159   1.2822494122e+02   5.1944090218e+01    0.3036841    0.1278967  35.13  0.001731938    2.576    0.612
        64 -10.5482     57.8020    107.9510   1.1359162639e+02   4.7174362135e+01    0.2053896    0.1722745   8.35  0.001265534    1.689    0.408
        65 -10.1230     90.6352    104.6877   1.0405686430e+02   4.3221845124e+01    0.1357253    0.1083934 -19.35 0.0007039381    1.760    0.432
        66  -9.9137    113.4974    102.4979   9.7579243920e+01   3.9668772223e+01    0.1423904    0.1347953 -72.49 -8.578753e-05    1.012    0.012
        67 -10.8648     57.1844    101.8898   1.1268277251e+02   4.8616935485e+01    0.2551747    0.1924245  32.82  0.001527345    1.596    0.373
        68 -10.6400     24.9802    101.9398   1.2173084812e+02   5.1931300702e+01    0.1772877    0.1392551 -79.30 0.0002968479    1.018    0.018
        69 -10.2566     62.4817     98.4710   1.1053190399e+02   4.8723133537e+01    0.2730596    0.1150732 -62.32  0.001190146    2.109    0.526
        70  -9.3271    195.6541     98.6648   7.8489959112e+01   2.2361992792e+01    0.1591211    0.1129728  16.72 0.0007049072    1.771    0.435
        71  -9.3692    129.6682     97.6866   9.2327207179e+01   3.7457677157e+01    0.1471449    0.1185789   1.97 0.0007044909    1.679    0.404
        72  -9.9927    100.8971     96.4240   9.9385624589e+01   4.3280888655e+01     0.327096    0.2176543 -76.90  0.001503956    1.939    0.484
        73  -9.6483      3.0439     95.9661   1.2714139509e+02   5.4860754497e+01    0.1785064    0.1039807 -53.80  0.001123823    1.710    0.415
        74 -10.0489     78.8527     94.8268   1.0509629454e+02   4.7252669450e+01    0.1921341    0.1703891 -48.19 0.0002533239    1.173    0.147
        75 -11.3111     18.0213     94.5335   1.2272009842e+02   5.4149291370e+01    0.2422427    0.1862522  77.37 0.0008364388    1.246    0.198
        76 -10.6567     11.0012     89.9167   1.2416803432e+02   5.5684351185e+01    0.3824957    0.1759282 -65.06  0.002144102    1.657    0.396
        77 -10.5736     10.7598     85.0478   1.2360676928e+02   5.6783855929e+01    0.3090216    0.1435412 -73.36  0.001701439    1.651    0.394
        78 -11.0432     58.1406     91.5644   1.1039729853e+02   5.0831785051e+01    0.2815673    0.2205327 -15.99  0.001040299    1.831    0.454
        79 -11.0795     26.9087     90.8039   1.1957763117e+02   5.4267937195e+01    0.4891932    0.2151571  50.53  0.002408391    2.671    0.626
        80 -11.5139      1.8765     89.9273   1.2683205404e+02   5.6258459920e+01     0.206207    0.1215272 -77.01  0.000266204    1.264    0.209
        81 -10.8123     76.3963     89.2763   1.0451483930e+02   4.8854924381e+01    0.2396433    0.2151056 -66.98 0.0004751201    1.016    0.016
        82  -9.9281     44.0997     89.6280   1.1421420008e+02   5.2887540753e+01    0.2574488    0.1341429  46.79  0.001321427    2.166    0.538
        83 -11.2351     98.7847     89.3790   9.8178348617e+01   4.5175259895e+01    0.2486848    0.1907982  33.35  0.001302173    1.508    0.337
        84 -10.8262     17.9938     87.7481   1.2179337470e+02   5.5669426235e+01    0.3733091    0.2111692 -51.90   0.00208995    1.693    0.409
        85  -9.5324    124.0142     86.9783   9.0835907512e+01   4.0805593280e+01    0.1812932    0.1739852 -58.67 0.0006941854    1.001    0.001
        86 -11.1608     54.6541     84.7751   1.1001376845e+02   5.2788763943e+01    0.3102531    0.2000737 -72.74  0.001180138    1.486    0.327
        87  -9.9411     25.2958     84.8632   1.1912256378e+02   5.5741084081e+01    0.1732248     0.119641 -71.15 0.0008498863    1.145    0.126
        88 -10.6127      3.6823     83.2555   1.2552623845e+02   5.7624056496e+01    0.2655309    0.1673742  83.98  0.001175266    1.451    0.311
        89 -11.3942     64.0208     80.0231   1.0601875043e+02   5.2662994848e+01      0.43425    0.2793251 -61.83  0.002036337    1.387    0.279
        90  -9.5550    250.3296     81.2910   6.5401383827e+01   1.2453669569e+01    0.1414155    0.1005895  18.29  0.000487792    1.624    0.384
        91 -10.0621     89.3969     80.3337   9.8429409368e+01   4.8750170900e+01    0.2505505    0.1661842 -60.69 0.0007187677    1.504    0.335
        92  -9.6170    132.7539     79.4021   8.6459558839e+01   4.0439639708e+01    0.2113617    0.1405409  38.98 0.0008196896    1.650    0.394
        93  -9.7531    124.3175     78.9134   8.8429951953e+01   4.2359758928e+01    0.2356738    0.1741303 -60.90  0.000647466    1.494    0.331
        94 -10.6711    176.9891     77.1868   7.6064489363e+01   3.0408805816e+01    0.3212881    0.2473585  36.29  0.001133602    1.384    0.278
        95 -11.2628     56.5473     75.5073   1.0728374990e+02   5.4631880996e+01    0.4197275    0.2629455  24.23  0.001737453    2.107    0.525
        96 -10.6068     16.0789     75.7232   1.2055410800e+02   5.8498637673e+01    0.2654787    0.1772693  11.54  0.001677337    2.108    0.526
        97 -11.2818      7.2824     74.3470   1.2320399730e+02   5.9382081838e+01    0.2854394    0.1456646 -50.60  0.001402898    1.820    0.450
        98 -10.0407      3.1173     73.6451   1.2445692968e+02   5.9779378768e+01    0.2356138    0.1635534 -22.56  0.001331734    1.979    0.495
        99  -9.3729     70.2856     75.3724   1.0287760654e+02   5.2820172137e+01    0.1390464   0.09622021 -32.27 0.0005525444    1.711    0.415
       100 -10.9045     36.4803     72.7666   1.1324912276e+02   5.7458306159e+01    0.4289545    0.2401433 -62.14  0.001364692    1.438    0.305
       101  -9.9716     32.2037     73.1486   1.1475713152e+02   5.7773899838e+01    0.2034222    0.1535703  70.91 0.0006322612    1.509    0.337
       102  -9.7699    136.7449     74.2393   8.3923414893e+01   4.0535944164e+01    0.2029829     0.176555   1.07 0.0004978451    1.315    0.240
       103 -11.6206    105.7254     71.8275   9.1267898236e+01   4.7566705995e+01    0.2494623    0.2448864  28.58 0.0003031904    1.093    0.085
       104  -9.2108     92.4551     72.4990   9.5295596949e+01   4.9887053901e+01    0.1419075    0.1291215 -56.26 7.028985e-05    1.033    0.032
       105  -9.7093     80.6988     72.3462   9.8801873662e+01   5.1895085521e+01    0.1395929    0.1050185 -84.41 0.0003356772    1.684    0.406
       106 -10.5649    131.8658     64.4110   8.1991713288e+01   4.3471952114e+01    0.3651056    0.3041906  62.22  0.001867653    1.294    0.227
       107 -10.4552     34.6617     64.6590   1.1205712688e+02   5.9435304841e+01    0.2495943     0.156473 -53.75 0.0007905397    1.315    0.239
       108 -10.5553     39.0041     62.7280   1.1005618816e+02   5.9435760600e+01    0.2693947    0.2027398  -3.12  0.001064687    1.810    0.447
       109 -10.5225     40.6941     59.3310   1.0857835930e+02   6.0005091437e+01     0.282148    0.2096141 -51.71  0.001400795    1.129    0.114
       110 -10.3927     14.0687     63.7278   1.1914377502e+02   6.1302187478e+01     0.257223    0.1387253 -83.54 0.0009554221    1.868    0.465
       111  -9.2788    109.7011     64.3511   8.7784433955e+01   4.8265438066e+01     0.149479    0.1134234 -73.05 0.0007036514    1.691    0.409
       112 -11.1262      3.9935     61.4529   1.2231742226e+02   6.2415099965e+01    0.5077682    0.2113906  61.86  0.001911826    4.102    0.756
       113 -11.4847      9.6816     60.3844   1.2009181923e+02   6.2320429159e+01    0.2771738    0.1676949 -50.55 0.0001201563    1.456    0.313
       114  -9.9364     72.5086     63.0589   9.8656897644e+01   5.5142505574e+01     0.208886    0.1204985 -50.74 0.0005676692    1.530    0.346
       115 -10.6897     62.6797     62.5056   1.0176434858e+02   5.6674107428e+01    0.2738288    0.1861959 -41.66  0.001491219    1.382    0.276
       116 -10.8782     55.2790     58.3304   1.0308727519e+02   5.8539320336e+01    0.5009397    0.3054101 -75.48  0.002377224    2.270    0.559
       117 -10.3324     60.0096     58.0636   1.0135078696e+02   5.7979859176e+01    0.2026262    0.1995543  37.07 0.0006180659    1.182    0.154
       118  -9.8056     20.1285     51.5735   1.1431442117e+02   6.3534206951e+01    0.2692441    0.1419985 -34.46  0.001089492    2.215    0.549
       119 -10.0917     25.2247     60.5674   1.1449253344e+02   6.1170456574e+01    0.2324468    0.1556433 -41.31  0.001141233    1.503    0.335
       120 -12.9277     20.5879     57.5655   1.1552447604e+02   6.2194406434e+01    0.3620297     0.235332 -65.53  0.001279615    1.216    0.178
       121 -10.5171     83.5122     56.9706   9.3139101925e+01   5.4627515779e+01    0.3202429    0.1995295 -62.04   0.00118159    1.952    0.488
       122 -11.8758     88.3586     53.4495   9.0395408165e+01   5.4476450196e+01    0.4303439    0.3559384  40.16 0.0008282478    1.325    0.245
       123  -9.7220    100.9848     61.7052   8.9391978156e+01   5.0509135303e+01    0.1920851    0.1869106  71.95 0.0005777547    1.116    0.104
       124  -9.1311     71.5622     57.4393   9.7205850147e+01   5.6458621477e+01    0.1352112    0.1190456 -47.89 0.0001685757    1.018    0.018
       125 -10.3182    225.4753     54.4436   6.1566691416e+01   2.1741968466e+01     0.455017    0.2430575 -13.07  0.001810074    2.274    0.560
       126 -11.6828     15.7241     45.9037   1.1467142043e+02   6.5073582731e+01    0.6281843    0.4161979  -9.63  0.003924731    2.036    0.509
       127 -10.5993    106.4529     53.1696   8.4880224610e+01   5.1052124683e+01    0.2505046     0.226376  75.41 0.0004396752    1.278    0.217
       128 -10.0080     34.0383     53.6793   1.0952684285e+02   6.1893425603e+01     0.241537    0.1323521 -43.48  0.001298206    1.685    0.406
       129 -11.9515     66.4969     52.5348   9.7324330350e+01   5.8221018515e+01    0.4419338    0.2344343  32.75   0.00197113    2.279    0.561
       130  -9.6999    175.9685     52.2632   6.8586806653e+01   3.4637954172e+01     0.212981      0.19367  59.27 0.0003308445    1.121    0.108
       131  -9.3427    169.5557     52.5587   6.9868049029e+01   3.6245099842e+01    0.1509859    0.1482176 -16.98 4.429437e-06    1.003    0.003
       132 -11.6463    114.5491     53.8863   8.2886098756e+01   4.9224327875e+01    0.3262221    0.3102214 -15.17 0.0008242048    1.039    0.038
       133 -12.8550      5.3740     51.2948   1.1996674648e+02   6.4554901885e+01    0.4132993    0.2043861 -43.55 0.0005901634    1.933    0.483
       134 -10.0713     75.3076     50.0360   9.3444376197e+01   5.7368444831e+01    0.2335443    0.1839472 -23.98 0.0004446471    1.328    0.247
       135 -10.6222     78.7150     46.0223   9.0848678057e+01   5.7586245516e+01    0.3106159    0.2295858 -12.76  0.000372817    1.638    0.390
       136 -10.9791    103.2575     47.2726   8.3652118556e+01   5.2777783220e+01    0.3817509    0.2549002  24.31  0.001208844    1.936    0.484
       137  -9.4232     53.6223     48.1697   1.0049814851e+02   6.0878237705e+01     0.191414    0.1007093 -43.87 0.0008156097    1.653    0.395
       138  -9.1614    154.7389     47.6626   7.1145669513e+01   4.0777920112e+01    0.1542521    0.1171225  13.53 0.0001969005    1.583    0.368
       139  -9.4045     47.3010     47.3136   1.0259474593e+02   6.1830453227e+01    0.1296067   0.08622885 -30.91 0.0004293497    1.611    0.379
       140 -10.8562     25.8720     43.4402   1.0987684518e+02   6.4813414832e+01    0.2277655    0.2090881 -63.83 0.0008080243    1.176    0.149
       141  -9.0207    110.6973     42.7146   7.9831056142e+01   5.2011353833e+01     0.144504    0.1109104  10.21 0.0002071479    1.558    0.358
       142 -10.2077     95.0340     42.1563   8.4154369010e+01   5.5327893244e+01    0.2105684    0.1908759 -26.54 0.0007246031    1.010    0.010
       143 -10.0362     69.6330     42.1116   9.2513655071e+01   5.9808786405e+01    0.2138146    0.1863519  52.96 0.0007217535    1.380    0.275
       144 -10.2826      3.8266     41.1524   1.1844170044e+02   6.6816005899e+01    0.4037131    0.1452616 -36.52  0.001842421    3.335    0.700
       145  -9.4984    182.4016     41.1949   6.3903782680e+01   3.4541877045e+01    0.2249635    0.1300499 -39.40 0.0009423371    1.686    0.407
       146 -10.6079    139.7066     40.6740   7.1873686536e+01   4.5604654566e+01    0.2759848    0.2458814 -67.85 0.0006744105    1.253    0.202
       147  -9.6139     42.8054     40.8192   1.0218126590e+02   6.3680490910e+01    0.1510196     0.135706 -68.40 0.0004707595    1.241    0.194
       148 -10.3019     36.2152     41.1894   1.0496182177e+02   6.4314308106e+01    0.1897777    0.1434315 -40.74 0.0008621556    1.157    0.136
       149 -10.1748     12.8971     38.7160   1.1399067457e+02   6.6790632041e+01    0.4048232    0.1087205 -65.92  0.001564916    3.400    0.706
       150 -10.0471    133.1902     38.9986   7.2730587107e+01   4.7449459521e+01    0.4036174    0.2615069 -79.48  0.001584775    2.630    0.620
       151 -11.1546    134.2652     34.2290   7.0682388218e+01   4.7896786138e+01    0.2519626    0.2120957  21.86 0.0003143901    1.248    0.199
       152 -11.0706     17.5046    249.4913   1.3333045365e+02   2.4740565559e+01    0.1788435   0.06566357  41.88  0.001211884    2.168    0.539
       153 -10.3287    126.6498     30.8829   7.1137429822e+01   5.0221607776e+01    0.2879704    0.1971609  47.94  0.001376792    1.461    0.316
       154  -9.0457    101.6694     39.6523   8.1197880084e+01   5.4431740586e+01     0.150408    0.1088815   5.42 0.0007049279    1.763    0.433
       155 -10.3675     22.7811     38.6029   1.0973677823e+02   6.6083646941e+01    0.2027639    0.1820578 -82.10 0.0007898395    1.288    0.224
       156 -10.9042     26.5422     35.1945   1.0704846690e+02   6.6465592311e+01    0.5319316     0.221541 -52.91  0.002674972    1.828    0.453
       157 -10.5510      2.6161     34.7424   1.1744161754e+02   6.8231697214e+01    0.4058196    0.1101445 -52.83  0.001919639    2.402    0.584
       158 -10.3403     91.1611     34.2975   8.2207249902e+01   5.7433959626e+01    0.2942569    0.1880634 -38.37  0.001457761    1.452    0.311
       159 -10.2287     16.3338     33.3090   1.1093447817e+02   6.7676480108e+01    0.2332258    0.1260795 -40.53  0.001350926    1.656    0.396
       160 -10.7545     19.8248     31.8601   1.0891440429e+02   6.7707787259e+01    0.2629197    0.1857359 -16.33 0.0008894453    1.662    0.398
       161  -9.2051     71.6544     33.7005   8.8469920635e+01   6.1038706367e+01    0.1363748   0.09877717  -5.41 0.0001334512    1.679    0.404
       162  -9.0235     50.3544     33.6967   9.6536613101e+01   6.4170461607e+01    0.1198064   0.09896866 -84.08 0.0007039776    1.710    0.415
       163 -10.1465    166.3077     31.2146   6.3248597760e+01   4.0112174257e+01    0.2430676    0.1815884 -23.01 0.0003544975    1.345    0.257
       164 -11.4258     43.8890     28.8743   9.7271740905e+01   6.5894144171e+01    0.4668639    0.2873235 -34.30   0.00262303    1.475    0.322
       165 -11.3623     38.6470     30.8623   1.0028365651e+02   6.6121845407e+01    0.2422885    0.1786548 -23.40 0.0003207132    1.391    0.281
       166  -9.1829     33.2425     31.7138   1.0293185873e+02   6.6528583119e+01    0.1085323   0.08709296 -71.15 0.0001672525    1.461    0.315
       167  -9.8237    204.9499     30.4557   5.7242644339e+01   2.9989763772e+01    0.2124486    0.1198591 -75.81 0.0008085061    2.506    0.601
       168  -9.6094    187.5720     30.1958   5.9536039132e+01   3.4601189126e+01    0.2117146      0.14571  -9.17 0.0009570812    1.634    0.388
       169  -9.9402     69.5521     28.5075   8.7025899236e+01   6.2292555553e+01     0.240292    0.1745999 -40.84  0.000840725    1.266    0.210
       170  -9.7452     69.2359     24.9961   8.5590115194e+01   6.2937170360e+01    0.2069622    0.1260073 -36.20 0.0004328533    1.453    0.312
       171 -10.7982      7.2416     28.1684   1.1353901661e+02   6.9334161886e+01    0.3326606    0.1967113  52.99  0.001935995    2.589    0.614
       172  -9.8235    229.6908    248.0431   1.0088928235e+02  -3.2334719754e+00    0.1368189    0.1047241  21.15 0.0008254117    1.133    0.118
       173  -9.8911    106.3178    248.3521   1.1995876850e+02   1.4483061181e+01   0.08980332   0.07439739  25.55 0.0007047139    1.740    0.425
       174  -9.7276    140.0480     27.0000   6.6663793178e+01   4.7458997733e+01    0.2412973   0.08402589  60.86 0.0007962075    2.899    0.655
       175 -10.4761    100.8376     25.4647   7.5576871222e+01   5.6853819167e+01    0.2502698    0.1787542 -43.28 0.0007979526    1.464    0.317
       176  -9.5956     18.3793     26.2854   1.0769054307e+02   6.8942832816e+01    0.1224823     0.071004 -32.22 0.0007014095    1.727    0.421
       177  -9.6862    153.7768     25.5783   6.3456280550e+01   4.4117846598e+01    0.2038982    0.1459232  80.39 0.0006846848    1.608    0.378
       178 -10.7004    113.9895     24.2131   7.1509786684e+01   5.4124998702e+01    0.3362844    0.2672085   1.86  0.001347802    1.318    0.241
       179  -9.5477     38.3952     24.7084   9.7925406927e+01   6.7320179209e+01    0.1772559   0.09428883 -40.96 0.0006864162    1.550    0.355
       180 -10.2045     59.5162     23.9252   8.8776044572e+01   6.4659276330e+01    0.2192988    0.1690836   1.66 0.0009828977    1.426    0.299
       181  -9.8200     21.8160     22.2284   1.0455850360e+02   6.9453717094e+01    0.1599648    0.1348372 -53.38 0.0004106214    1.184    0.155
       182 -11.2990     13.4279     20.8259   1.0811483171e+02   7.0394503576e+01      0.25475    0.1869897 -69.70 0.0009261719    1.483    0.326
       183 -10.8183     13.9191     16.0589   1.0603555395e+02   7.1277605017e+01    0.2606378    0.1892391  27.85  0.001620302    1.736    0.424
       184 -10.6477      1.8275     21.0819   1.1399336856e+02   7.1074493579e+01    0.2567555    0.1343246 -66.33  0.001528937    1.632    0.387
       185  -9.9449     84.9524     21.0422   7.8401163307e+01   6.0730810403e+01    0.2168623    0.1517793  14.41 0.0006843511    1.666    0.400
       186 -10.3491     40.7753     20.1985   9.4912489049e+01   6.7862130650e+01    0.3026116    0.2025035  11.45  0.001759173    1.853    0.460
       187  -9.8938     30.9880     20.4537   9.9488842939e+01   6.8916906296e+01    0.2308124    0.1252246 -38.70 0.0005617292    1.538    0.350
       188  -9.3880    132.0002     20.5037   6.5794032283e+01   5.0302869019e+01    0.2120951     0.103753  38.26 0.0008066964    2.324    0.570
       189 -10.7423    100.2083     19.0753   7.2937335100e+01   5.7890769119e+01    0.3555996    0.2550745 -55.17  0.001178858    1.781    0.439
       190  -9.3065     58.3882     19.2049   8.7037981341e+01   6.5619609363e+01    0.1831171    0.1066191 -45.43 0.0009399469    1.699    0.411
       191  -9.7746    199.7486     17.0495   5.3744018526e+01   3.2884092538e+01    0.2044796    0.1851145 -31.45 0.0007125667    1.092    0.084
       192  -9.4917    224.7092    246.6585   1.0144565690e+02  -2.4088845663e+00    0.1051574   0.06183124  19.94 0.0004865077    1.650    0.394
       193  -9.2072    170.7061    246.6749   1.0970020442e+02   5.4861591595e+00    0.1009095   0.06923226  23.82 0.0003867585    1.621    0.383
       194  -9.6879    136.5047    245.5639   1.1496730573e+02   1.0626317769e+01    0.1074016   0.07622126  51.74 2.399711e-05    1.065    0.061
       195 -10.3023     26.6409     16.4832   9.9836207810e+01   7.0086967170e+01    0.1988217    0.1777915 -55.56 0.0008383763    1.316    0.240
       196 -10.2499     20.1202     16.7800   1.0318706693e+02   7.0636477899e+01    0.1755206    0.1477877  -3.04  0.000382674    1.327    0.247
       197  -9.3696     45.0252    244.2593   1.2910129587e+02   2.2637786780e+01    0.1179349   0.06153489  47.12 0.0003545881    1.479    0.324
       198  -8.7791    108.4900     16.4092   6.9535285341e+01   5.6409184216e+01    0.1404317     0.128649  11.54 0.0001001464    1.025    0.025
       199 -10.5472     49.2018     16.0336   8.9288071606e+01   6.7480040896e+01    0.2108806    0.1882138  45.59 0.0005530312    1.459    0.315
       200  -9.7803     60.7637    241.0357   1.2653138526e+02   2.1313158040e+01    0.1709598    0.1021465  39.83  0.001247914    1.696    0.410
       201  -9.6507    202.5543    240.2600   1.0397991690e+02   1.4260145664e+00    0.1242916   0.09425197  -0.77 0.0007350135    1.552    0.356
       202 -12.0803     26.1785    236.0613   1.3155419664e+02   2.5880197022e+01    0.2706028    0.1880581  72.51  0.001632447    1.115    0.103
       203  -9.4255    200.2256    235.9704   1.0379157353e+02   2.2154423754e+00    0.1131216   0.08918381 -28.13 0.0008644116    1.618    0.382
       204 -13.1912      9.9976    229.7696   1.3373873214e+02   2.8444278383e+01    0.5079039    0.2484292 -88.93   0.00283795    1.736    0.424
       205  -9.4200    231.6861     14.3054   4.9628312958e+01   2.4964988390e+01    0.1490569   0.09264239 -56.02 0.0004007232    1.621    0.383
       206 -10.1363    162.1871     13.1456   5.7488205460e+01   4.3332799460e+01    0.2264214    0.1878459  37.79 0.0005056376    1.221    0.181
       207 -11.8911      4.1576    232.5566   1.3469648061e+02   2.8550647062e+01    0.2642382    0.1125912  62.70 0.0002977986    1.573    0.364
       208  -9.9230    249.1787    234.0994   9.6111968212e+01  -4.7932734829e+00    0.1582873    0.1034963  22.17 0.0004293126    1.169    0.144
       209  -9.0879     80.3314    231.7104   1.2281095323e+02   2.0294788825e+01    0.1098114   0.05746097  62.90 0.0005158597    1.625    0.385
       210  -9.7564     56.3254    229.3255   1.2652423910e+02   2.3619461712e+01   0.08081833    0.0787847  58.61 0.0004491448    1.692    0.409
       211  -9.7431    140.1836    227.1699   1.1247698098e+02   1.2490565061e+01    0.1576189    0.1067049  59.14  0.001071381    1.352    0.260
       212  -9.7534    109.9854    226.9772   1.1751665505e+02   1.6976294131e+01    0.1338981    0.1018185  57.68 0.0006996454    1.018    0.018
       213 -10.7554      1.8264    225.7088   1.3482687423e+02   2.9835485961e+01    0.1955609   0.06846969  69.33  0.001241824    2.165    0.538
       214  -9.0065     49.6132     10.2831   8.6219347875e+01   6.8339190119e+01    0.1126664   0.09814839 -70.59 0.0002441254    1.740    0.425
       215 -10.2447     32.9473    225.2010   1.3001639626e+02   2.6881792054e+01    0.2251006   0.08337989  51.11  0.001425043    1.886    0.470
       216 -11.7820      8.0911    217.5299   1.3358949843e+02   3.0586296811e+01    0.2597598    0.1617962  55.97  0.002156627    1.240    0.193
       217 -10.7770     15.6285    212.8579   1.3220825674e+02   3.0652997962e+01    0.2196283    0.1343317 -58.02  0.001589131    2.437    0.590
       218  -9.1867    209.3319    211.6655   9.8942541535e+01   3.4295204716e+00    0.1060204   0.08661212  66.14 0.0003146675    1.731    0.422
       219 -10.2213     20.5572    209.8937   1.3127387388e+02   3.0674527950e+01    0.1840337   0.08913043  57.72 0.0003771627    1.499    0.333
       220  -9.6495    246.6481    207.2009   9.2370349561e+01  -1.9927926471e+00    0.1491919   0.09256826  -9.57 0.0009494176    1.689    0.408
       221 -10.4198      3.1758    205.4366   1.3392183984e+02   3.3054547287e+01     0.159642   0.08611344  34.72   0.00114589    2.141    0.533
       222  -9.4468    197.2277    204.0063   9.9780729041e+01   6.3263425716e+00    0.1332999    0.0979744 -31.88 0.0007388465    1.617    0.382
       223  -9.0452     38.2532    203.2977   1.2793375444e+02   2.9982512146e+01   0.08513051   0.07318449 -78.08 0.0002186605    1.495    0.331
       224 -10.9766      9.5492    203.4855   1.3280190495e+02   3.2817225782e+01     0.181852     0.122466  70.64 0.0007947668    1.010    0.010
       225  -9.8258     23.0092    197.3211   1.3023105305e+02   3.2617722970e+01    0.1437008    0.1016394  65.06 0.0005020698    1.098    0.090
       226 -11.5925     13.6068    194.4016   1.3170972260e+02   3.4039243217e+01    0.2703047    0.1318157 -78.04   0.00135656    1.802    0.445
       227  -9.6451      6.5082    191.5301   1.3280286697e+02   3.5195447818e+01    0.1035159     0.068147  71.95 0.0008093783    1.049    0.047
       228  -9.7392      9.0037    188.0000   1.3220856046e+02   3.5612080932e+01    0.1459452   0.04979414  34.83 0.0008064015    2.970    0.663
       229  -9.7349     15.3402    185.1539   1.3093991499e+02   3.5557825672e+01    0.1480317   0.07074654  85.39 0.0009349892    1.723    0.419
       230  -9.4492    250.4895    183.4669   8.7713313684e+01  -1.8652429737e-01    0.1195662   0.09479896  16.21 0.0008096517    1.008    0.008
       231  -9.4903      1.2008    183.0308   1.3336153352e+02   3.7192795910e+01    0.1282695   0.06044496 -85.09 0.0004784538    1.689    0.408
       232  -9.8912    100.9863    176.0126   1.1360040325e+02   2.6806865386e+01    0.1682821    0.1426852  67.57            0    1.027    0.026
       233 -10.5073    249.0315    168.8264   8.5210669682e+01   1.6631496449e+00    0.1758917    0.1483252  75.75   0.00108527    1.999    0.500
       234 -11.0980      5.5696    167.7800   1.3183674078e+02   3.9697801511e+01    0.2404459    0.1263488  64.84  0.001246602    1.496    0.331
       235  -9.1684     41.5186    158.0148   1.2390495399e+02   3.8210756608e+01    0.1617004   0.07612681  79.01 0.0008058678    2.305    0.566
       236  -9.7798    247.4701    155.5170   8.2828363106e+01   3.4867434219e+00     0.127652    0.1062547  10.11 7.452832e-05    1.006    0.006
       237 -10.1174    243.0000    154.9791   8.3417566398e+01   4.3553433758e+00    0.1997279   0.06792739 -29.86 0.0005948561    2.925    0.658
