#   1 NUMBER                 Running object number                                     
#   2 MAG_AUTO               Kron-like elliptical aperture magnitude                    [mag]
#   3 X_IMAGE                Object position along x                                    [pixel]
#   4 Y_IMAGE                Object position along y                                    [pixel]
#   5 X_WORLD                Barycenter position along world x axis                     [deg]
#   6 Y_WORLD                Barycenter position along world y axis                     [deg]
#   7 A_WORLD                Profile RMS along major axis (world units)                 [deg]
#   8 B_WORLD                Profile RMS along minor axis (world units)                 [deg]
#   9 THETA_WORLD            Position angle (CCW/world-x)                               [deg]
#  10 FWHM_WORLD             FWHM assuming a gaussian core                              [deg]
#  11 ELONGATION             A_IMAGE/B_IMAGE                                           
#  12 ELLIPTICITY            1 - B_IMAGE/A_IMAGE                                       
         1 -14.1284     68.4359    144.4012   1.0086698098e+02   3.7611240316e+01     4.501431     2.330094  80.13  0.005056234    4.589    0.782
         2 -13.8223    225.8735     21.2215   3.5322721148e+01   2.6911506207e+01    0.9302463    0.8124126  64.36  0.002549009    1.350    0.259
         3 -14.2380    209.7348     36.9500   4.0528747001e+01   2.8587705758e+01     2.043609     1.552174  28.00  0.009362716    1.946    0.486
         4 -10.2869      2.0000      9.9908   9.0048695985e+01   7.3364211497e+01    0.1744743   0.05181375 -47.18 0.0006184466    2.948    0.661
         5 -12.2246    247.4431      2.8221   2.9949388784e+01   2.4443553494e+01    0.5323904    0.2644014  87.06    0.0030315    1.884    0.469
         6 -10.2197      2.8332      2.7181   8.5911347812e+01   7.4363930357e+01     0.181935    0.1110493  -5.38  0.001219819    1.433    0.302
         7 -10.1349    109.9337    201.3994   9.9486458996e+01   1.7562959707e+01    0.2520885    0.1879625 -86.13 0.0007814534    1.573    0.364
         8 -13.7054      3.7392    184.3764   1.2212468229e+02   3.4893103968e+01     1.267057    0.6022898  74.08   0.00655447    1.998    0.500
         9 -12.9200     85.9976    222.3182   1.0759150194e+02   1.6827628807e+01    0.8262556    0.4895568  60.51 0.0005269606    1.715    0.417
        10 -16.1787     35.9085    187.3302   1.1510489181e+02   3.1127899823e+01     9.741572     3.931833  75.74   0.03375941    4.115    0.757
        11 -11.2647    195.2113    198.6262   8.0274645443e+01   3.3473942131e+00    0.3772486    0.2713727 -71.22  0.001778962    2.534    0.605
        12 -10.8762    192.0002    192.9981   7.9857273306e+01   4.8997078776e+00    0.5167004    0.2786708 -61.35  0.001850802    3.894    0.743
        13 -13.5238     16.6002    216.6795   1.2155813461e+02   2.6607452073e+01    0.7882507    0.4016973  39.88  0.003151394    1.825    0.452
        14 -13.4591     32.6544    203.8275   1.1731130592e+02   2.7718868696e+01    0.7049308    0.4893232 -41.36  0.001235094    2.084    0.520
        15  -8.8432    119.9604    194.0482   9.6000252292e+01   1.7480363359e+01    0.1633514    0.1561154  66.46 0.0003314765    1.033    0.032
        16  -9.3367     99.3494    180.8965   9.8839742375e+01   2.3927927567e+01    0.1969652    0.1758908 -68.94 0.0005349097    1.121    0.108
        17 -12.0478     60.7287    176.9363   1.0792485379e+02   3.0612299816e+01    0.4361238    0.2947842 -33.71  0.002135796    2.105    0.525
        18 -11.9885     66.0433    171.6132   1.0585091442e+02   3.1190782193e+01    0.3349901    0.2775123 -40.72 0.0007375833    1.423    0.297
        19  -9.0788    218.7012    177.3319   7.1558469606e+01   3.0662294721e+00    0.1268113    0.1093001 -69.20 0.0002908352    1.646    0.392
        20 -10.2579    121.2014    173.3814   9.2103421534e+01   2.1897968848e+01    0.2221752     0.130625  48.70 0.0006927012    1.732    0.423
        21 -10.5238    114.2960    173.4290   9.3830380650e+01   2.3121637483e+01    0.2893193    0.1449937  33.09  0.001140404    2.144    0.534
        22 -11.9612     75.7410    162.3861   1.0190913465e+02   3.2079284111e+01    0.4860946    0.3576349  40.76 0.0002627287    1.387    0.279
        23 -12.5399     83.0436    155.7877   9.8818273190e+01   3.2604899463e+01     1.048463    0.6901065 -50.00  0.004494678    1.521    0.342
        24 -10.3427    139.4890    248.9940   9.9698936324e+01   3.7137633232e+00    0.1701868    0.1255826 -52.05  0.001046079    1.630    0.386
        25 -15.7105      7.8242    240.6854   1.2451716887e+02   2.2621316702e+01     2.327002     1.625015 -82.39   0.01702567    1.364    0.267
        26  -9.7677    174.8984    149.1542   7.4333310983e+01   1.6710473926e+01    0.2272536    0.2090462 -80.75 0.0006435546    1.250    0.200
        27 -10.5164    133.7179    144.5187   8.3005862188e+01   2.6182597668e+01     1.115052    0.2348745 -53.77  0.002095593    8.565    0.883
        28 -10.5155     33.0940    143.6079   1.1081614645e+02   4.2042789274e+01     0.388866    0.2665188  19.92  0.002120762    1.803    0.445
        29 -10.0552     97.7331    141.9736   9.2077205616e+01   3.3592909075e+01    0.2899879    0.2679971 -88.86 0.0007819556    1.094    0.086
        30  -9.6472    100.4916    139.0000   9.0671539138e+01   3.3834440119e+01    0.3875111    0.2527457 -26.70  0.001591006    2.155    0.536
        31 -12.4539     85.6820    140.4365   9.5170542599e+01   3.5994429848e+01    0.3163407    0.2704246 -47.52 0.0004563201    1.167    0.143
        32  -8.7835    199.3027    141.6615   6.7591330952e+01   1.3232671819e+01    0.1469052    0.1159673 -72.24 0.0004514099    1.670    0.401
        33 -11.6425     75.7371    136.3540   9.7235743929e+01   3.8562065316e+01    0.3917754    0.2730417  68.65 0.0005346157    1.779    0.438
        34 -10.8354    107.2295    130.9346   8.6969040756e+01   3.4555940128e+01    0.5146354    0.3809046  38.27  0.002355132    1.398    0.284
        35  -9.4370     23.1397    133.1073   1.1225207836e+02   4.5566617280e+01     0.190781     0.153284 -58.01 0.0002918924    1.162    0.140
        36 -10.1689    135.4087    128.1459   7.8706482142e+01   2.9579214713e+01    0.4236829    0.1915062 -44.69  0.001523792    2.185    0.542
        37  -9.4801    146.4961    171.9572   8.5705874975e+01   1.7497537057e+01    0.2251747    0.1479204 -51.18  0.001021922    1.576    0.365
        38 -10.1103     67.5276    124.5110   9.7300276869e+01   4.2710520344e+01    0.2135277    0.1351215 -68.59 0.0001614656    1.629    0.386
        39 -10.8169     96.1715    126.9004   8.9199892880e+01   3.7544372394e+01    0.3428824    0.2738432 -14.75   0.00100122    1.561    0.359
        40  -9.3549    160.3145    127.6528   7.2520552491e+01   2.4331829717e+01    0.1607654    0.1245759 -81.70 0.0007047281    1.719    0.418
        41  -9.3461    115.7579    124.8324   8.3129462662e+01   3.4360436571e+01    0.2611892    0.1718114  -9.34 0.0009446956    2.768    0.639
        42  -8.5950    163.4808    121.4663   7.0256001169e+01   2.4941486656e+01    0.1547146    0.1501445 -56.68 0.0008092045    1.031    0.030
        43  -9.3150    135.0000    119.9614   7.6754629045e+01   3.1505015140e+01    0.2610402   0.08848262 -45.67 0.0006339172    2.899    0.655
        44  -9.7655    106.1858    119.3999   8.4487130250e+01   3.7495650793e+01    0.2323271    0.2003858 -36.46 0.0004697265    1.172    0.147
        45  -9.0089    168.2443    113.3971   6.7146203845e+01   2.5537991856e+01    0.2167543    0.1484132  62.83 0.0009390715    1.701    0.412
        46 -10.1261    205.2073    110.5612   5.9189097988e+01   1.7882282824e+01    0.3170756    0.2547438  32.21  0.001075747    1.446    0.309
        47  -9.3900    134.7499    106.0127   7.3126974601e+01   3.4610348041e+01    0.2114848    0.1322913 -43.98 0.0006762212    1.575    0.365
        48 -11.5686    241.6075    100.7147   5.1262167297e+01   1.2132728632e+01    0.3388441    0.1464609 -44.24  0.001462932    2.001    0.500
        49 -10.6487     53.2287     91.4972   9.4429563416e+01   5.2571337655e+01    0.3239883    0.2224318 -71.65  0.001194123    1.723    0.420
        50 -15.7939     46.1724    247.8955   1.1795259355e+02   1.7029979173e+01     10.55539     3.134044  26.76   0.02406046   12.701    0.921
        51 -10.1369     41.6941     91.9848   9.8707897378e+01   5.3809559906e+01        0.209    0.1928054  -2.31 0.0004436235    1.177    0.151
        52  -9.2169    160.5070     82.5039   6.0476126256e+01   3.3318590402e+01    0.1489514    0.1479714 -79.29 5.408514e-05    1.032    0.031
        53 -13.5465     63.0135    158.0686   1.0464635375e+02   3.4939075669e+01    0.5300672    0.3369469 -46.76  0.001656045    1.691    0.409
        54  -9.5267     44.5777     60.6915   8.8813663853e+01   6.0292849906e+01    0.1917687     0.150887  47.53 0.0003757618    1.652    0.395
        55 -10.8714     13.5659     60.0427   1.0185594427e+02   6.3380067867e+01    0.2518685     0.192496 -55.21 0.0004452142    1.190    0.159
        56 -10.7845    172.3187    242.1408   9.2195694888e+01  -2.1751170171e-01    0.4541707     0.238901 -61.42  0.001947204    3.752    0.734
        57 -12.4521    217.5555     29.3467   3.7917920572e+01   2.7774242996e+01     0.474986    0.3499791  51.47  0.001119067    1.625    0.385
        58 -13.0977    200.3552     42.9508   4.3116687235e+01   2.9971037949e+01    0.8434748    0.5659027  51.70  0.002078925    1.638    0.390
        59 -14.8016     10.0457    206.9191   1.2225838658e+02   2.9329560487e+01    0.9969718     0.889351  11.47  0.003595754    1.640    0.390
        60  -9.3322     24.3995     57.8534   9.6493230751e+01   6.2985574128e+01    0.1892312    0.1603381  22.42 0.0006215638    1.367    0.268
        61 -10.3906    134.9972     41.5103   5.3434177825e+01   4.6028995401e+01    0.2976238    0.2191932 -81.22 0.0005375119    1.735    0.424
        62  -9.9176    189.4982     15.0894   3.7366195229e+01   3.5894072520e+01    0.1811256    0.1223741 -35.85 0.0006673617    1.549    0.354
        63  -9.2766    176.3189     15.3117   3.8910633454e+01   3.9021411823e+01     0.130319   0.09241346  42.85 0.0002402017    1.645    0.392
        64 -12.9065     58.1036    241.9726   1.1522682348e+02   1.6687590375e+01    0.4888038    0.3114582  81.35 0.0006290184    1.543    0.352
        65 -10.1569     91.9386    216.1112   1.0556117443e+02   1.7243358274e+01    0.2529086    0.1828722 -86.08 0.0004823707    1.512    0.339
