#   1 NUMBER                 Running object number                                     
#   2 MAG_AUTO               Kron-like elliptical aperture magnitude                    [mag]
#   3 X_IMAGE                Object position along x                                    [pixel]
#   4 Y_IMAGE                Object position along y                                    [pixel]
#   5 X_WORLD                Barycenter position along world x axis                     [deg]
#   6 Y_WORLD                Barycenter position along world y axis                     [deg]
#   7 A_WORLD                Profile RMS along major axis (world units)                 [deg]
#   8 B_WORLD                Profile RMS along minor axis (world units)                 [deg]
#   9 THETA_WORLD            Position angle (CCW/world-x)                               [deg]
#  10 FWHM_WORLD             FWHM assuming a gaussian core                              [deg]
#  11 ELONGATION             A_IMAGE/B_IMAGE                                           
#  12 ELLIPTICITY            1 - B_IMAGE/A_IMAGE                                       
         1 -14.4967    153.1822     57.2169   8.4753139084e+01   3.9664107792e+01     1.343983      1.08862  38.52  0.002527268    1.258    0.205
         2 -14.8303    164.5287     42.5961   7.8137606326e+01   3.9021095084e+01     1.220647     1.039622 -13.21   0.00388588    1.351    0.260
         3 -14.7963    180.9293      9.3776   6.6218368317e+01   3.8861846715e+01     1.674519    0.8850669  61.59  0.006362938    1.618    0.382
         4 -11.3214    125.0562    244.1995   1.3140311372e+02   7.3914032322e+00    0.1711112    0.1452343 -73.05 0.0007873462    1.327    0.247
         5 -19.8882     73.1614    167.9367   1.3190547346e+02   3.1602350733e+01     18.64688     7.470707 -65.37   0.07643904    2.375    0.579
         6 -11.2461     36.1521    186.5928   1.4224505876e+02   3.2070204952e+01    0.2397862    0.2068036 -22.04  0.001600588    1.888    0.470
         7 -11.0532     25.9771    184.7600   1.4410537667e+02   3.3563590880e+01    0.1666499    0.1338253 -86.89 0.0003712761    1.106    0.096
         8 -12.3864     30.1983    183.0967   1.4310207673e+02   3.3486390111e+01    0.3173174    0.2075391  42.59 0.0009074636    1.676    0.403
         9 -11.1239     14.0000    239.7385   1.5023443783e+02   2.3679156885e+01    0.1596106   0.04763373 -76.47 0.0002563306    2.846    0.649
        10 -12.5927    199.1831    178.8778   1.0574491800e+02   5.5261145910e+00    0.5707755    0.3560855 -66.48  0.002221936    2.708    0.631
        11 -13.2809    195.2465    168.7737   1.0443246907e+02   8.2645334259e+00    0.5172775     0.427161 -41.96 0.0006319945    1.233    0.189
        12 -12.5030    192.7637    164.3335   1.0399122012e+02   9.6563484520e+00    0.4829761    0.3501205  38.48  0.001787859    1.385    0.278
        13 -10.0324    130.6319    213.5065   1.2620033951e+02   1.2129423683e+01     0.187604    0.1225264 -74.48 0.0006405333    1.852    0.460
        14 -10.8653    112.0053    214.2571   1.3009662001e+02   1.5237167114e+01    0.1817631    0.1435611  73.24 0.0005371493    1.166    0.143
        15 -12.9210    177.6950    171.2362   1.0862967150e+02   1.1455817266e+01    0.6157637    0.3128465 -61.68  0.002110375    3.221    0.690
        16 -12.9744    137.2806    170.8524   1.1751844219e+02   1.9848119213e+01    0.7112344    0.5328488  85.15  0.002891454    1.617    0.381
        17 -10.5492     11.2271    174.1978   1.4609617145e+02   3.7273750207e+01    0.1641276    0.1157735 -75.25 0.0005144484    1.174    0.149
        18 -11.4325    125.6981    171.8992   1.2037340917e+02   2.1861411716e+01     0.324276    0.2439809 -70.88  0.001065976    1.393    0.282
        19 -11.0917    165.2249    172.0681   1.1149944020e+02   1.3891483458e+01    0.2421148     0.173762 -78.49  0.001071785    1.921    0.479
        20 -12.8662    108.0095    208.1965   1.3008296026e+02   1.7155365381e+01    0.4749091     0.307095 -87.04  0.002404919    1.803    0.445
        21 -12.5117    142.2068    166.1798   1.1547060076e+02   1.9895649496e+01    0.3537255    0.2715344 -59.97  0.001423522    1.339    0.253
        22 -10.4618     28.8063    241.7854   1.4802022600e+02   2.1656616728e+01    0.1448394   0.08390337  84.13 0.0004790382    1.372    0.271
        23 -11.8526      3.9355    179.3375   1.4794789161e+02   3.6795079647e+01    0.2520827    0.1862373  78.49  0.001167824    1.135    0.119
        24 -11.1330     24.2255    212.6982   1.4676343267e+02   2.7851587736e+01    0.2059565    0.1131304 -66.85   0.00101641    1.721    0.419
        25 -10.6688     25.8105    164.7944   1.4214803991e+02   3.8002868644e+01    0.2358321    0.1790803 -24.34  0.001462331    2.123    0.529
        26 -12.4896    112.6453    169.5995   1.2297788237e+02   2.4801944687e+01    0.4210464    0.4004109  87.04  0.001260347    1.080    0.074
        27 -10.8532    131.3280    237.4320   1.2937613194e+02   7.5217784899e+00    0.1350423    0.1132119 -85.71 0.0003262442    1.281    0.220
        28 -11.2900    189.6841    158.2420   1.0330062092e+02   1.1527921675e+01    0.2676423    0.2146008  41.62 0.0007460744    1.240    0.194
        29 -10.7330     25.6895    230.0808   1.4775263183e+02   2.4236481524e+01    0.1931213   0.08182531 -79.23  0.001074072    2.036    0.509
        30  -9.8447    176.8626    154.8940   1.0529115627e+02   1.4996878602e+01    0.2040146    0.1790396 -86.79  0.001029078    1.289    0.224
        31 -12.3047    161.5945    153.4298   1.0835022354e+02   1.8625633210e+01    0.3276341    0.2973177  82.09  0.001296691    1.157    0.136
        32 -13.1861     11.8265    205.8425   1.4845183886e+02   3.0527900618e+01    0.3860085    0.2980641  25.46  0.002687655    2.021    0.505
        33 -11.1970    174.4038    148.6198   1.0441532333e+02   1.6851186910e+01     0.368476     0.265252 -76.42  0.001080971    1.915    0.478
        34 -13.8573    144.2411    145.4708   1.1059864096e+02   2.4092746694e+01    0.9077068     0.510771 -68.00   0.00325308    2.691    0.628
        35 -12.2228      5.1888    137.9670   1.4386357553e+02   4.5740512623e+01    0.3783727    0.2261477 -78.93  0.001531535    1.309    0.236
        36 -11.5590    154.0317    195.0019   1.1829428470e+02   1.1438129030e+01    0.3845842    0.2328588 -61.46  0.001743396    1.972    0.493
        37 -10.3912    171.2434    137.4452   1.0251336378e+02   1.9921565040e+01     0.216693    0.1498644  60.38 0.0007475373    1.597    0.374
        38 -12.1789    160.4914    127.7873   1.0261260836e+02   2.4420941949e+01    0.4164439    0.3226365 -60.47  0.001753358    1.379    0.275
        39 -13.0196    162.9557    201.9527   1.1764347498e+02   8.3391034604e+00     0.649223    0.4054232 -76.37  0.002227222    2.748    0.636
        40 -11.7794      6.7432    119.9033   1.4132771868e+02   4.9635478042e+01    0.1762784    0.1451918 -41.55 0.0005606776    1.380    0.276
        41 -11.6880    157.7737    199.7633   1.1834234283e+02   9.7660746811e+00    0.2923143    0.2393916  75.75 0.0007608362    1.361    0.265
        42 -10.8580    167.6583    112.6769   9.7159953592e+01   2.5951248207e+01    0.3274822    0.2300981 -82.87  0.001324939    2.090    0.522
        43  -9.8119    139.1973    250.3279   1.2954238836e+02   3.9791434758e+00    0.1010941   0.09280089  -6.19 0.0002271946    1.490    0.329
        44 -10.7368    205.4732    110.1882   8.8748715217e+01   1.7479003548e+01    0.2739118    0.2165809  53.46 0.0006349708    1.299    0.230
        45 -11.1431      9.4010    101.9729   1.3803953930e+02   5.3394297001e+01    0.2256633    0.2015129 -85.55  0.001046433    1.223    0.183
        46 -10.8893     25.4010    224.8349   1.4743953444e+02   2.5292528094e+01    0.1746554   0.09755515 -73.03 0.0007006844    1.596    0.373
        47 -10.0362    139.8817    200.4320   1.2222994469e+02   1.3049396130e+01    0.2825852     0.129872  36.37 0.0008427906    2.383    0.580
        48 -10.4791     22.4053    221.3607   1.4770510897e+02   2.6307714334e+01    0.1057482   0.08252018  85.33 0.0003222216    1.161    0.138
        49 -10.6466     21.6924    240.2463   1.4905666692e+02   2.2749296506e+01    0.1286891   0.07689948 -78.71 0.0006332468    1.468    0.319
        50 -10.6363    133.8245    246.1094   1.3000932943e+02   5.5899712819e+00    0.1311791    0.1241676  75.92 0.0002755025    1.206    0.171
        51 -13.0729    168.6506     34.4199   7.5024693930e+01   3.9075490337e+01    0.4207703    0.3895465 -26.83 0.0008746246    1.200    0.167
        52 -11.1053     13.5258     59.9632   1.2832445546e+02   6.1807831587e+01    0.1644349    0.1580012  44.63 0.0004232132    1.415    0.293
        53 -10.4433    141.0340     32.7048   7.9708442632e+01   4.5988466700e+01    0.1960592    0.1603595  55.94 0.0003566338    1.128    0.113
