#   1 NUMBER                 Running object number                                     
#   2 MAG_AUTO               Kron-like elliptical aperture magnitude                    [mag]
#   3 X_IMAGE                Object position along x                                    [pixel]
#   4 Y_IMAGE                Object position along y                                    [pixel]
#   5 X_WORLD                Barycenter position along world x axis                     [deg]
#   6 Y_WORLD                Barycenter position along world y axis                     [deg]
#   7 A_WORLD                Profile RMS along major axis (world units)                 [deg]
#   8 B_WORLD                Profile RMS along minor axis (world units)                 [deg]
#   9 THETA_WORLD            Position angle (CCW/world-x)                               [deg]
#  10 FWHM_WORLD             FWHM assuming a gaussian core                              [deg]
#  11 ELONGATION             A_IMAGE/B_IMAGE                                           
#  12 ELLIPTICITY            1 - B_IMAGE/A_IMAGE                                       
         1 -11.7783    219.9888     17.4480   4.0458655287e+01   2.8032989386e+01    0.7470797     0.651729 -60.64  0.002958447    1.067    0.063
         2 -10.8333    212.5328     25.5496   4.3270047760e+01   2.8875894246e+01    0.6018036     0.391885  30.32   0.00132804    2.266    0.559
         3 -12.3021    197.3290     39.0725   4.8771270661e+01   3.0918479104e+01     1.067058      0.87859   9.04  0.004814855    1.538    0.350
         4 -11.8664    205.0455     32.4687   4.5961765812e+01   2.9855818191e+01    0.9807903     0.706858 -73.74  0.005117247    1.438    0.305
         5  -9.0923     33.0000     11.0058   8.1901506229e+01   6.9800266978e+01    0.3178131   0.05763897 -38.68  0.001051352    4.934    0.797
         6  -9.6909      7.2773      5.1423   9.2599738227e+01   7.3230583987e+01    0.2108377    0.1097368   1.20  0.001234002    2.106    0.525
         7  -9.8189     57.8761    240.7552   1.2083324817e+02   1.7941152126e+01    0.3064969    0.1453504 -80.71  0.001721805    2.242    0.554
         8 -11.5954    114.6120    244.7495   1.1083662263e+02   9.3334035146e+00    0.5413224    0.3831359 -80.59  0.003456889    1.715    0.417
         9 -10.9833     84.7251    249.8046   1.1678291229e+02   1.2809143470e+01     1.016174    0.2065513  41.58  0.003951994    3.531    0.717
        10 -12.2758     97.6723    246.7525   1.1416821249e+02   1.1498497313e+01     1.024351    0.5172969  37.30  0.005658069    1.822    0.451
        11 -10.9353     71.2201    248.4732   1.1906551372e+02   1.4859580864e+01    0.7433939    0.2991776  51.32  0.003994078    1.961    0.490
        12 -10.8077     62.7705    250.2998   1.2067459577e+02   1.5640403888e+01    0.6323618    0.2795112  49.11  0.001802079    1.721    0.419
        13 -11.7704     47.3579    223.1053   1.2142300074e+02   2.2537867382e+01    0.5826496    0.4066743  64.22  0.001838335    1.130    0.115
        14 -11.7806     28.2861    216.0431   1.2444591862e+02   2.6088066380e+01     1.000509    0.3878248  82.34   0.00305847    3.000    0.667
        15 -11.4606     24.2302    224.5742   1.2570302313e+02   2.4858382999e+01    0.8199127    0.3454759  60.71  0.002113215    1.985    0.496
        16 -11.2067      8.1868    187.4618   1.2642322546e+02   3.3922698584e+01    0.3502483    0.2826814 -79.76  0.002622714    1.258    0.205
        17 -13.6672     47.5496    199.2697   1.1942590084e+02   2.7349710619e+01     3.830869     1.355698  63.30   0.01418838    4.006    0.750
        18 -14.3594      3.9424    156.0134   1.2511910111e+02   4.1156475849e+01     11.28541     1.095032 -76.07   0.02718188    8.882    0.887
        19 -10.4564    135.1045    237.4476   1.0610913769e+02   7.3604986151e+00    0.2518128    0.1821136 -50.41  0.001518375    1.679    0.404
        20  -9.2986     49.8363    234.4650   1.2180593482e+02   2.0084352047e+01    0.1967517    0.1364055 -89.54 0.0007643881    1.312    0.238
        21  -9.4287     40.1308    234.3188   1.2351374062e+02   2.1262134773e+01    0.2029374    0.1283121  85.12  0.000578579    1.367    0.269
        22 -10.6404     94.8776    222.6561   1.1223310216e+02   1.6221586410e+01     1.074918    0.5156986  67.87  0.004077738    3.068    0.674
        23 -11.3897     89.3979    228.9557   1.1396855155e+02   1.5844287122e+01    0.5570266    0.3496305  51.58 0.0009711634    1.318    0.241
        24 -10.7077     83.3886    224.8888   1.1472209516e+02   1.7467866127e+01      0.61988    0.3886172 -64.97  0.003256307    1.719    0.418
        25 -10.7789    134.3751    230.1364   1.0532283725e+02   8.6994818726e+00    0.3694889    0.3052882 -25.03  0.002064989    1.605    0.377
        26 -11.5272    126.6122    230.5389   1.0689668226e+02   9.8773959144e+00    0.4994979     0.309379  35.78  0.002801159    1.494    0.331
        27 -10.5988    122.6459    225.8898   1.0709767690e+02   1.1327765895e+01    0.4052609    0.3329668  71.89  0.002342802    1.244    0.196
        28 -10.5977    114.9338    229.9889   1.0911713580e+02   1.1815641026e+01    0.3518246    0.1929864 -62.88  0.001883239    2.145    0.534
        29 -10.7761    142.9440    230.2677   1.0365904171e+02   7.2840859852e+00    0.4103412    0.2384961  29.92  0.002135397    1.786    0.440
        30  -9.2502     53.8356    231.1496   1.2084078129e+02   2.0212202797e+01    0.1794395    0.1210029  67.83 0.0007053018    1.193    0.162
        31  -8.9159    168.3646    225.1806   9.7942728334e+01   3.8971100153e+00    0.1597973    0.1225866 -59.98 0.0006203951    1.717    0.418
        32 -10.2947    109.8918    229.0549   1.0999514358e+02   1.2763764020e+01    0.2749639    0.2067135 -75.78  0.001732282    1.493    0.330
        33  -8.4519    163.5143    216.5038   9.7568852982e+01   6.1367090323e+00    0.1319388    0.1137833  33.31 4.149247e-05    1.013    0.013
        34 -12.9989      9.2846    207.2733   1.2738665250e+02   2.9736304033e+01     0.937596    0.8879969 -10.13  0.004065831    1.744    0.427
        35 -11.5995     38.6351    208.0881   1.2193063194e+02   2.6549881759e+01    0.4362079    0.3805676  42.07  0.001354906    1.428    0.300
        36  -8.6187    194.1545    191.1036   8.6976946670e+01   4.9891502828e+00    0.2200076    0.1790485   8.71  0.001245348    1.215    0.177
        37 -10.1775     64.3810    180.1967   1.1382280557e+02   2.9407308966e+01    0.3844184    0.2588261 -38.61  0.001670931    2.162    0.537
        38 -10.1206     69.5185    174.5520   1.1194012587e+02   2.9996674622e+01     0.334492    0.2599074 -41.65  0.001225494    1.640    0.390
        39  -8.7886     51.0122    181.5359   1.1696331185e+02   3.0794391200e+01    0.2369218    0.1527298  83.14  0.001102505    1.470    0.320
        40  -7.8103     99.5109    180.4953   1.0581125658e+02   2.4174401815e+01     0.137091    0.1249513  73.40 -7.992252e-05    1.017    0.016
        41  -8.0655     42.3155    179.2766   1.1864808105e+02   3.2313713380e+01    0.1113573   0.09155183 -47.41 0.0002087609    1.567    0.362
        42  -8.5162    101.6493    171.3233   1.0387510240e+02   2.5873778905e+01    0.1510049    0.1018999  72.02 0.0007048414    1.751    0.429
        43 -10.0082     78.7816    164.7290   1.0836179592e+02   3.0956726285e+01    0.2953755    0.2668338 -53.69 0.0004909604    1.237    0.192
        44 -10.8114     85.0639    158.8763   1.0589795524e+02   3.1390179752e+01    0.8155634     0.378494 -45.97  0.002306068    2.519    0.603
        45 -11.7100     66.2774    160.7976   1.1085227770e+02   3.3627550701e+01    0.4835856    0.2836692 -46.21  0.001546595    1.996    0.499
        46 -10.7555     74.3698    155.2478   1.0800757314e+02   3.3825496432e+01     0.713628    0.4099753  77.14  0.003032662    2.439    0.590
        47  -9.0940     32.6966    156.3388   1.1846892434e+02   3.8592549089e+01     0.233626    0.1307589 -85.18 0.0008837293    1.638    0.389
        48 -11.3511     68.7011    144.4259   1.0773693007e+02   3.7208072858e+01    0.7490254    0.4604633  66.01  0.002811807    1.958    0.489
        49  -9.2100    134.0000    143.9795   9.0703138126e+01   2.6170611270e+01    0.4184485   0.08625888 -48.77  0.001042527    4.855    0.794
        50 -10.4711     87.2595    142.2258   1.0242307097e+02   3.5012463759e+01    0.4321407     0.308572  30.17 0.0006421253    1.602    0.376
        51  -9.1400    100.6795    141.9188   9.8807589569e+01   3.2875509496e+01    0.4854094    0.2845175 -24.78  0.001712189    3.402    0.706
        52  -8.4217     32.2294    137.9902   1.1642084591e+02   4.2975429544e+01    0.1889836    0.1232452  65.36  0.001047246    1.625    0.385
        53 -11.0890     58.8958    132.8030   1.0844819819e+02   4.1305766475e+01     1.130625    0.3811548 -72.50  0.003310272    4.629    0.784
        54  -8.3721    109.9123    131.9066   9.4233012699e+01   3.3598499555e+01    0.2297443    0.2034376 -22.40 0.0006830607    1.283    0.220
        55  -8.2929    106.0418    131.0530   9.5085301511e+01   3.4506076962e+01     0.298261    0.1943417  66.73  0.001253865    2.071    0.517
        56  -9.1203     97.4377    127.9650   9.6759297256e+01   3.6756793742e+01    0.2849733    0.2413104 -16.09  0.001106013    1.441    0.306
        57  -8.0168    107.1631    119.9177   9.2208478033e+01   3.6922534773e+01    0.2000951    0.1730779 -24.42 0.0003271653    1.283    0.220
        58  -7.8714    168.5594    113.5137   7.4990313308e+01   2.5251749788e+01     0.156757    0.1518176 -52.28 9.426579e-05    1.052    0.049
        59  -7.4008    205.6749    110.3335   6.6565330127e+01   1.7324666603e+01    0.1560201    0.1178266 -69.18 0.0007051115    1.712    0.416
        60 -14.2144      8.0435    240.5235   1.2922534832e+02   2.3550256128e+01     2.169877     1.427376  64.78  0.003811106    1.090    0.083
        61  -8.5820    134.5242    103.0274   8.0379462243e+01   3.5171457746e+01    0.2476349    0.1526294 -43.60 0.0009274443    1.587    0.370
        62  -8.2258     33.0000     96.9683   1.0974410251e+02   5.2717269591e+01    0.2213536   0.06259257 -63.64 0.0007986486    2.916    0.657
        63  -7.9679    128.2929     95.3474   7.9847375353e+01   3.8172572608e+01    0.1604766     0.123559  -5.08 0.0007029859    1.668    0.401
        64 -10.3719     63.2698    238.0273   1.1966205604e+02   1.7747921671e+01    0.3411208    0.1756263  55.58 0.0006810703    1.580    0.367
        65  -7.9429    158.9458     81.0000   6.8025033431e+01   3.3908503662e+01    0.2589707   0.08922207  52.70 0.0008007187    2.931    0.659
        66  -8.3758     50.7731     63.5729   9.5103760097e+01   5.8390286044e+01    0.1687356    0.1241234  41.51 0.0007109296    1.657    0.396
        67  -9.9022     13.3142     59.6301   1.0877631593e+02   6.2634775709e+01    0.2577137    0.1686306 -70.91 0.0009275906    1.545    0.353
        68 -11.7978    232.7555    241.3708   8.8562728582e+01  -8.4200345731e+00    0.6515384    0.4821989  15.23  0.003352586    1.039    0.037
        69 -14.2472    243.7904    222.2957   8.3447888024e+01  -7.7056141626e+00     2.268812     1.132041 -30.76  0.009457133    2.003    0.501
        70  -8.3989    134.5876    248.7799   1.0756862630e+02   5.6338665697e+00    0.1491458    0.1123669 -80.75 0.0009562573    1.742    0.426
        71 -11.3518     84.0701    244.5880   1.1644616385e+02   1.3793607742e+01    0.7218636    0.2860145  35.37  0.003448671    2.585    0.613
        72  -8.1951    142.3239     39.6496   5.8451506934e+01   4.4763957595e+01     0.152635    0.1119307 -67.04  0.000704858    1.752    0.429
        73  -9.3556    140.7970     46.3591   6.1068415896e+01   4.4184983577e+01    0.3095247    0.2334371 -69.75   0.00108413    1.717    0.417
        74  -9.3933    127.5023    240.4943   1.0793067156e+02   8.0572814642e+00    0.1233405   0.09929367  49.49 -2.269863e-05    1.021    0.021
        75  -9.8843     52.0058    242.4785   1.2198677015e+02   1.8359965441e+01    0.2530872    0.1956296 -35.31  0.001671947    2.444    0.591
