#   1 NUMBER                 Running object number                                     
#   2 MAG_AUTO               Kron-like elliptical aperture magnitude                    [mag]
#   3 X_IMAGE                Object position along x                                    [pixel]
#   4 Y_IMAGE                Object position along y                                    [pixel]
#   5 X_WORLD                Barycenter position along world x axis                     [deg]
#   6 Y_WORLD                Barycenter position along world y axis                     [deg]
#   7 A_WORLD                Profile RMS along major axis (world units)                 [deg]
#   8 B_WORLD                Profile RMS along minor axis (world units)                 [deg]
#   9 THETA_WORLD            Position angle (CCW/world-x)                               [deg]
#  10 FWHM_WORLD             FWHM assuming a gaussian core                              [deg]
#  11 ELONGATION             A_IMAGE/B_IMAGE                                           
#  12 ELLIPTICITY            1 - B_IMAGE/A_IMAGE                                       
         1 -12.9875    193.9459     32.5576   6.1843164206e+01   3.2635753449e+01     1.486415     1.189384  -8.09  0.005218735    1.695    0.410
         2 -12.9093    202.2592     26.4153   5.9323552731e+01   3.1356635890e+01     1.236928    0.8794286 -43.81  0.005347834    1.384    0.277
         3 -11.8082    208.6824     18.6212   5.6773576651e+01   3.0726968941e+01    0.5187549    0.4494807  54.82  0.001141853    1.380    0.275
         4 -12.6176    218.0206      7.0619   5.3293506704e+01   2.9811278972e+01    0.7679394    0.5907998 -75.78  0.002843111    1.056    0.053
         5  -8.2120    164.6773     11.7326   5.9871793024e+01   4.2296404498e+01    0.1344998   0.08998651  48.11 0.0002829242    1.565    0.361
         6  -9.7153    183.5849    250.0224   1.1192647519e+02  -3.0099916056e+00    0.2719472    0.1090199  29.48  0.001188901    2.431    0.589
         7 -11.8891    135.7996    248.9354   1.2128995660e+02   4.6288563036e+00     1.046266     0.245208  39.54   0.00373617    3.306    0.698
         8 -12.4274    152.8266    247.0303   1.1760171886e+02   2.2417665427e+00     1.144918    0.2870273  37.52  0.004101936    3.291    0.696
         9 -10.1883    121.5061    248.8509   1.2417509250e+02   6.8833813787e+00    0.2586638    0.2396958 -45.38  0.001797551    1.362    0.266
        10 -10.5749     70.7054    250.2937   1.3445252309e+02   1.4104644640e+01    0.4776768    0.2061259  46.24  0.001872442    1.775    0.437
        11  -9.8329     73.4274    247.1931   1.3365967750e+02   1.4305551594e+01    0.2042688    0.1502892  72.61 0.0009152853    1.243    0.196
        12 -10.5453     12.5405    197.0479   1.4236458138e+02   3.1951281365e+01    0.2847918    0.2261651  72.45 0.0006300646    1.063    0.059
        13 -14.8868      7.7069    202.1945   1.4369079406e+02   3.1273400768e+01     7.930837     1.035419 -77.10   0.01430315    6.409    0.844
        14  -9.6296     82.7965    246.2806   1.3171853689e+02   1.3157343182e+01    0.2651401    0.1764054 -64.01  0.001215979    1.746    0.427
        15  -9.0476    102.2452    235.7131   1.2664698178e+02   1.2249096870e+01    0.2186434    0.1606281  60.29  0.000595273    1.248    0.199
        16  -9.7040     56.2628    240.4431   1.3649304417e+02   1.7892607958e+01    0.2861252    0.1747913  65.15 0.0005804171    1.411    0.291
        17  -8.9492    156.4440    233.4800   1.1496188971e+02   3.8815316046e+00    0.1318211    0.1108773  32.41 0.0001559669    1.010    0.010
        18  -9.6701     53.4617    232.0305   1.3639226862e+02   1.9915742796e+01     0.258102     0.158814  63.91 0.0007111732    1.390    0.280
        19  -8.8469     53.3114    228.6937   1.3615437932e+02   2.0610347931e+01    0.2998715    0.1344396  49.59  0.001526325    1.816    0.449
        20  -8.9504     70.9042    229.0374   1.3253934220e+02   1.8184282065e+01    0.1940182    0.1536548  63.05  0.000455911    1.032    0.031
        21  -9.9862     24.8389    228.1819   1.4180016481e+02   2.4091328011e+01    0.2389383    0.1586647 -72.86  0.001053817    1.546    0.353
        22 -10.2059    149.7775    222.9773   1.1480553666e+02   6.8357111511e+00    0.2370549    0.2280061   6.29 0.0003565652    1.146    0.127
        23 -10.6699     26.1861    221.7697   1.4113743698e+02   2.5259147859e+01    0.2712711    0.2151229 -58.61  0.001853955    1.635    0.388
        24 -10.2499     21.7904    221.4534   1.4199033349e+02   2.5797008084e+01    0.2475054    0.2012341 -40.12  0.001025156    1.934    0.483
        25 -13.4614      6.1926    247.9241   1.4620441300e+02   2.2198212920e+01       2.5121     1.028028  31.20   0.01381033    2.737    0.635
        26  -9.2271     29.9675    212.0254   1.3970581151e+02   2.6901783122e+01    0.1888227    0.1436134  70.78  0.000474674    1.031    0.030
        27 -11.5990     17.6328    241.3287   1.4387748712e+02   2.2269649484e+01    0.4080059    0.3026977  62.04 0.0003153653    1.088    0.081
        28  -9.4674    192.1171    194.1146   1.0086443231e+02   4.5654586263e+00    0.6263377    0.3419361 -66.23  0.001707012    7.136    0.860
        29 -10.9424     66.7617    186.9060   1.2893199027e+02   2.7990354636e+01    0.4122406    0.2847731 -40.60  0.001161751    1.945    0.486
        30 -10.9496     71.6294    180.7247   1.2693047901e+02   2.8757759528e+01    0.3050158    0.2608418 -51.15 0.0008829968    1.341    0.254
        31  -8.4827    198.4999    178.5493   9.6509162419e+01   6.1953618518e+00    0.2497625    0.1315763 -51.50   0.00102912    2.379    0.580
        32 -12.4159     87.5924    163.3205   1.2014306386e+02   3.0511444082e+01     2.519074     0.900512  52.44  0.007378229    3.835    0.739
        33 -12.9919     67.8133    144.5784   1.2245786716e+02   3.8181194392e+01     2.502096     1.248385  85.02  0.002605756    4.764    0.790
        34 -10.0468    243.2827    168.3281   8.6128110424e+01   4.0180990250e-02     0.227823    0.2017617 -34.69 0.0002513627    1.213    0.175
        35 -12.4683     68.2212    166.5054   1.2582671667e+02   3.2680240180e+01    0.5146422    0.3121839 -46.30  0.001326769    1.907    0.476
        36 -10.1877    230.0913    166.4000   8.8007607230e+01   2.5939614836e+00    0.2769653    0.1879762 -40.90  0.001105368    1.443    0.307
        37 -10.6974    244.1894    163.6861   8.5035109716e+01   6.3461918781e-01    0.3232664    0.2538483  31.66 0.0004636056    1.356    0.262
        38 -10.6159    244.2758    158.8650   8.4033670639e+01   1.3990577090e+00    0.3157749    0.2490508  68.18 0.0004870988    1.890    0.471
        39  -9.0890     99.0394    164.0169   1.1720571439e+02   2.8420023097e+01    0.2144697    0.2015504  75.98            0    1.006    0.006
        40  -8.3045    165.2376    160.7720   9.9970016234e+01   1.6245197859e+01    0.1983621    0.1684769  11.92 0.0002548043    1.293    0.226
        41 -10.2845    212.1707    156.5775   8.9218747689e+01   7.6011844512e+00     0.244599    0.2178474 -28.30 0.0003764863    1.068    0.064
        42 -10.2010     99.2553    147.6845   1.1405830881e+02   3.2352420677e+01    0.5215308    0.3879529 -21.22  0.002365191    1.870    0.465
        43  -8.6841    102.9727    143.2818   1.1211506359e+02   3.2754776020e+01    0.3130444    0.1973049 -29.45  0.001237735    2.295    0.564
        44  -9.4506     40.0243    147.9629   1.3094720209e+02   4.0811292768e+01    0.2131626    0.1490388 -40.64 0.0007731318    1.695    0.410
        45 -11.4553     88.8811    145.8625   1.1662559701e+02   3.4594891258e+01    0.3020532     0.268176 -45.33  0.000428311    1.195    0.163
        46 -11.2658     30.1468    144.9117   1.3333408550e+02   4.2576734017e+01    0.3821836    0.3304132 -66.43  0.002411679    1.132    0.116
        47 -11.0383     26.6359    138.5020   1.3353480478e+02   4.4485518873e+01    0.5024658    0.1860172  46.83  0.002052098    2.960    0.662
        48  -8.8739    231.3212    138.9367   8.1956161305e+01   7.0651586321e+00    0.1945549    0.1904336  66.21 0.0001955979    1.182    0.154
        49  -9.1557    123.3303    173.7450   1.1270714333e+02   2.1732127857e+01    0.2768078    0.2037835 -42.63  0.001333617    1.500    0.333
        50  -8.9582    110.7796    134.2306   1.0793485657e+02   3.3468230273e+01    0.2946644    0.2180866 -11.56 0.0009571713    1.976    0.494
        51  -9.8276     98.2095    130.6954   1.1075021010e+02   3.6695040675e+01    0.2837459    0.2331914 -25.85 0.0004050182    1.431    0.301
        52  -9.2783     43.9702    130.5169   1.2721859021e+02   4.4728651143e+01    0.1896499    0.1382564  26.94 0.0007485005    1.560    0.359
        53 -11.4991     22.3388    126.7840   1.3328686357e+02   4.7741411563e+01    0.4436173    0.2555887  75.77  0.002171022    2.039    0.510
        54 -11.0657     24.6070    124.7743   1.3231655201e+02   4.8045321572e+01    0.3513513    0.2008195 -80.38  0.001613207    1.661    0.398
        55 -12.2838     41.6978    217.1422   1.3763565210e+02   2.4457494056e+01    0.4657023     0.414366 -59.75  0.001214752    1.464    0.317
        56  -8.8097    107.3471    121.9791   1.0602334533e+02   3.7064335663e+01    0.2092126    0.1909956 -49.98 0.0007597117    1.088    0.081
        57  -8.5422    117.3262    126.3385   1.0423195010e+02   3.4037132419e+01    0.1621132    0.1265136  -9.21  0.000150445    1.727    0.421
        58  -9.0875    167.6038    113.0173   8.8083246632e+01   2.5737774952e+01    0.3769592    0.2641804 -73.21  0.001562998    1.975    0.494
        59  -8.8598    248.0368    112.9759   7.3712973985e+01   8.2732389561e+00    0.1615353    0.1415493 -41.17  0.000417401    1.013    0.013
        60 -10.5821     80.7109    169.9358   1.2304109864e+02   2.9992570590e+01    0.2894901    0.2599593  78.00 0.0004205079    1.022    0.021
        61 -14.7572     49.6286    204.4740   1.3483417147e+02   2.6240325451e+01     7.859907     2.205256  50.95   0.02453971    3.417    0.707
        62  -9.3309     51.9905    104.1609   1.1957683727e+02   5.0296982934e+01    0.2352285    0.1547487 -19.66   0.00109784    2.020    0.505
        63  -9.5673    243.4726     92.5229   6.9847777902e+01   1.2483267941e+01    0.1353112    0.1177542 -48.82 9.446467e-06    1.012    0.011
        64  -8.5007    172.6924     91.9788   8.1404099372e+01   2.8636581936e+01    0.2053991    0.1888189 -51.22 0.0003118858    1.077    0.072
        65  -9.6864    228.5913     83.7899   6.9864290347e+01   1.7002855622e+01    0.2326915    0.2178582 -74.24 0.0004616316    1.078    0.072
        66  -8.5265    233.1216     79.8378   6.8345801080e+01   1.6657677701e+01    0.1732992    0.1629547  16.79 0.0002768992    1.325    0.245
        67  -8.4751    156.9877     79.5104   8.1240335660e+01   3.4804090791e+01    0.2334996    0.1486725  53.71 0.0005957681    1.528    0.345
        68  -7.8489    115.3787     74.1489   9.0053995016e+01   4.5751076854e+01    0.1875229    0.1423699 -51.22 0.0002029834    1.429    0.300
        69  -8.4597    220.3400    240.3132   1.0346352141e+02  -7.1037114407e+00    0.1272155   0.07839052   6.37  0.000704675    1.698    0.411
        70  -7.8527    172.2904     65.3403   7.4088978624e+01   3.3393064668e+01     0.148356    0.1175581  21.56 0.0006617054    1.647    0.393
        71 -10.2236    128.1221     51.8783   7.9300287316e+01   4.6573497280e+01    0.2337524     0.215925  35.36  0.001296456    1.072    0.067
        72 -11.9751    237.5679    245.8212   1.0125719646e+02  -1.0154524041e+01    0.2337145    0.1924594   4.25 0.0004438087    1.183    0.155
        73  -8.4227     35.2848     37.0542   1.0641412895e+02   6.6458588742e+01    0.1715148    0.1447703 -15.18 0.0009406455    1.051    0.049
        74  -9.3884    223.7689     35.0598   5.9127506792e+01   2.5218287582e+01    0.2983513    0.1749454 -36.03  0.001550717    1.688    0.408
        75  -8.9523     28.5576     35.0376   1.0890401399e+02   6.7549904550e+01    0.2124721     0.155783  34.40 0.0006020436    1.637    0.389
        76  -8.0441     44.4752    247.4472   1.3926382115e+02   1.8035418250e+01    0.1197779   0.08543917  62.31 5.192512e-05    1.053    0.050
        77 -11.8216     45.9936    234.7864   1.3809489083e+02   2.0303935572e+01     0.873348    0.3232344  64.35  0.003385032    3.141    0.682
        78  -9.8007     88.0003    243.0003   1.3035758986e+02   1.3016140740e+01     0.193644    0.1518176  60.00  0.000502968    1.074    0.069
