#   1 NUMBER                 Running object number                                     
#   2 MAG_AUTO               Kron-like elliptical aperture magnitude                    [mag]
#   3 X_IMAGE                Object position along x                                    [pixel]
#   4 Y_IMAGE                Object position along y                                    [pixel]
#   5 X_WORLD                Barycenter position along world x axis                     [deg]
#   6 Y_WORLD                Barycenter position along world y axis                     [deg]
#   7 A_WORLD                Profile RMS along major axis (world units)                 [deg]
#   8 B_WORLD                Profile RMS along minor axis (world units)                 [deg]
#   9 THETA_WORLD            Position angle (CCW/world-x)                               [deg]
#  10 FWHM_WORLD             FWHM assuming a gaussian core                              [deg]
#  11 ELONGATION             A_IMAGE/B_IMAGE                                           
#  12 ELLIPTICITY            1 - B_IMAGE/A_IMAGE                                       
         1 -15.0185     10.7100    154.2647   1.4622690068e+02   4.1032204940e+01     5.733784     1.798082 -83.59   0.02428632    3.346    0.701
         2 -13.5149    192.3567     27.5194   7.2008872655e+01   3.3370649701e+01     1.401905     1.274637  45.87  0.006510552    1.109    0.099
         3 -13.7046    206.9247      8.4111   6.4829206860e+01   3.1750702340e+01     1.588928      1.00823  44.34  0.008074462    1.724    0.420
         4 -12.5455      2.7546      5.7723   1.2029351930e+02   7.2156370835e+01    0.6934552    0.4269773 -42.45  0.004826608    1.268    0.212
         5  -9.6951    149.5050    229.5124   1.2700959336e+02   8.5607397118e+00    0.1201775   0.09767027  42.94 0.0002408714    1.015    0.015
         6 -12.4254    140.7060    248.6986   1.3086288164e+02   7.1760384596e+00    0.5930324    0.2958502  46.72  0.003479125    1.574    0.365
         7  -9.8829      3.9066    249.3441   1.5271379154e+02   2.4120448851e+01    0.2483804    0.1530019  28.44  0.001861735    2.536    0.606
         8 -10.5254    171.6931    247.6746   1.2541961039e+02   2.5585048403e+00    0.2341032    0.1133398  54.47  0.001180596    2.461    0.594
         9 -10.0015     81.3237    248.6142   1.4082971563e+02   1.5608491848e+01    0.2303919    0.1277182  65.84  0.001160247    1.686    0.407
        10 -10.7179     35.8274    243.7636   1.4773693101e+02   2.1812895359e+01     0.273154    0.2110067 -40.90   0.00177737    2.519    0.603
        11  -9.8370    198.4740    246.4986   1.2068361444e+02  -1.4402790204e+00    0.1156598   0.08823247  31.51 4.885316e-05    1.020    0.019
        12  -9.4858     82.1470    242.8728   1.4023109134e+02   1.6399923645e+01    0.1776993    0.1128963  63.05  0.001229765    1.317    0.241
        13  -9.3587     12.6147    240.8639   1.5110530081e+02   2.4652413379e+01      0.14793     0.112484  53.89   0.00076211    1.354    0.262
        14  -8.4510     57.3506    240.2722   1.4411351696e+02   1.9933114801e+01   0.08573494   0.07992399  31.92 0.0003219283    1.631    0.387
        15 -14.2050     10.2959    206.6584   1.4979605271e+02   3.0769169275e+01     10.17643          nan  40.76  0.006316345    9.744    0.897
        16 -10.6378    172.9851    222.1696   1.2171312030e+02   5.7933704243e+00    0.3062342    0.2524418  31.52  0.001425736    1.058    0.055
        17  -9.7018      7.7493    226.1438   1.5117884362e+02   2.7561753576e+01    0.1736467    0.1418442 -18.24 0.0006263038    2.679    0.627
        18  -8.9923    152.5212    213.0218   1.2420063188e+02   1.0600591640e+01    0.1536789    0.1253976 -50.18 0.0003272266    1.451    0.311
        19 -11.5352     64.3059    200.1192   1.3960707900e+02   2.6186274611e+01     0.267898    0.2070331 -54.25 0.0006075125    1.608    0.378
        20 -11.6308     18.7889    199.1806   1.4789868788e+02   3.1368482376e+01    0.5002266     0.132342  49.39   0.00149692    2.991    0.666
        21  -9.6695    191.5055    192.5075   1.1341521777e+02   6.9792682613e+00    0.4256076    0.2572345 -69.34  0.001481879    5.247    0.809
        22  -8.2564     51.2813    197.2839   1.4181754693e+02   2.8306447552e+01   0.09560714   0.08477578 -54.35  0.000221693    1.516    0.341
        23 -12.7037     38.8050    234.9531   1.4675658749e+02   2.2937619225e+01    0.2502788    0.2026432 -82.74 0.0007619501    1.371    0.271
        24 -11.8695     70.1503    191.8465   1.3763257555e+02   2.7038473454e+01    0.2451899    0.2112812 -65.54 0.0004244048    1.316    0.240
        25 -10.8509     79.7639    178.8768   1.3416321307e+02   2.8340315364e+01    0.2186053    0.1916631 -79.88 0.0003635802    1.128    0.113
        26 -13.2748     66.8327    176.9613   1.3665130933e+02   3.0455611289e+01    0.4534998    0.2599065 -45.96  0.001848588    2.297    0.565
        27  -8.8933    103.0472    179.2519   1.2927677822e+02   2.4832396221e+01    0.2174097    0.1271404  64.17  0.001052162    2.014    0.503
        28 -11.9118     87.3009    169.2290   1.3125341279e+02   2.9257853968e+01    0.6133897    0.5615438  41.65  0.004035708    1.225    0.184
        29  -9.9527     99.0635    153.1006   1.2607375332e+02   3.0881505130e+01    0.2986199      0.24133 -63.98 0.0007955414    1.209    0.173
        30  -9.2319    101.9069    148.8701   1.2466733438e+02   3.1333485268e+01     0.196408     0.181142 -30.39 0.0003655785    1.255    0.203
        31 -12.0378     87.8721    152.4877   1.2859508966e+02   3.2733111123e+01     0.269498    0.2374621 -39.14 0.0006252205    1.329    0.248
        32 -12.7449     66.4346    143.0068   1.3222278792e+02   3.7780782216e+01     1.151563    0.6299201  79.53  0.003252133    2.842    0.648
        33  -8.6196    192.4093    144.4294   1.0354112812e+02   1.4741802705e+01    0.1430802    0.1343078  10.04 0.0001235618    1.023    0.022
        34  -9.7696    110.1478    137.8663   1.2060266357e+02   3.2328020471e+01    0.3738191    0.2441901 -15.66  0.001442119    2.904    0.656
        35 -10.6543     97.5430    135.1316   1.2317945571e+02   3.5031521260e+01    0.2594274    0.2376691  36.13 0.0003890459    1.181    0.153
        36  -9.1763     85.4930    135.9108   1.2633945158e+02   3.6724977138e+01    0.2462761    0.1690713  59.27 0.0009769324    1.607    0.378
        37  -9.3282    107.2125    124.2675   1.1849700586e+02   3.5795366442e+01    0.1880729    0.1833112 -13.86 0.0004592209    1.099    0.090
        38 -10.3601     53.4917    119.9643   1.3181870830e+02   4.4511989298e+01    0.2998587    0.1182858 -68.95   0.00121147    2.654    0.623
        39 -10.2999    167.9975    113.0822   1.0113509596e+02   2.5786015952e+01    0.3381048     0.285201 -81.58 0.0008836433    1.515    0.340
        40  -9.5611    203.4196    111.6983   9.3536952897e+01   1.8030545967e+01    0.2621364    0.1744917  28.19 0.0007398921    1.724    0.420
        41 -14.3799     44.7680    227.5699   1.4531145579e+02   2.3528026991e+01     1.865276     1.289881  30.68  0.003103197    1.929    0.482
        42  -9.1189     73.4278     86.4468   1.1896858869e+02   4.9465571028e+01    0.2257175    0.1211563  48.18 0.0008510583    2.312    0.567
        43 -10.5342    240.8326     83.3136   8.0118282830e+01   1.4146924446e+01     0.263489    0.1362409  67.21  0.001080827    2.554    0.608
        44  -8.7713    184.5203     77.4923   8.7957262993e+01   2.8262226080e+01    0.1537067    0.1447366   9.48 -1.794486e-05    1.061    0.057
        45  -9.3343    156.4913     75.5221   9.3215806684e+01   3.5367324282e+01    0.1548942    0.1453475   8.97 2.958955e-05    1.052    0.050
        46  -9.3103    177.2753    227.2255   1.2166804811e+02   4.3743786441e+00    0.1552707    0.1301025  57.79  0.000679481    1.360    0.265
        47 -11.3792    239.9860    249.1293   1.1417107453e+02  -7.8797509155e+00    0.3923925    0.1263185  43.00   0.00186192    2.799    0.643
        48 -10.8471     28.3005     60.5711   1.2731342147e+02   6.0047859561e+01    0.2562214    0.2052975  42.86  0.000699012    1.606    0.377
        49  -9.7177     19.6972     57.1969   1.2960763178e+02   6.1413023771e+01    0.1732121    0.1569613  33.80 0.0006856202    1.414    0.293
        50 -11.1278      2.3738     45.2504   1.3329857776e+02   6.4902229833e+01     0.377162   0.07737967 -61.87    0.0014801    3.458    0.711
        51 -11.7204    125.7155    249.8246   1.3353749737e+02   9.2505733116e+00    0.4586372    0.2006193  36.71  0.002439854    2.131    0.531
        52 -10.4743     98.8153    249.1566   1.3799317366e+02   1.3181712121e+01    0.1721789    0.1175659  61.48 0.0005694579    1.226    0.184
        53  -8.6451     47.2347    249.4158   1.4630378199e+02   1.9644767302e+01    0.1359469   0.06771823  52.59 0.0003412034    1.493    0.330
