#   1 NUMBER                 Running object number                                     
#   2 MAG_AUTO               Kron-like elliptical aperture magnitude                    [mag]
#   3 X_IMAGE                Object position along x                                    [pixel]
#   4 Y_IMAGE                Object position along y                                    [pixel]
#   5 X_WORLD                Barycenter position along world x axis                     [deg]
#   6 Y_WORLD                Barycenter position along world y axis                     [deg]
#   7 A_WORLD                Profile RMS along major axis (world units)                 [deg]
#   8 B_WORLD                Profile RMS along minor axis (world units)                 [deg]
#   9 THETA_WORLD            Position angle (CCW/world-x)                               [deg]
#  10 FWHM_WORLD             FWHM assuming a gaussian core                              [deg]
#  11 ELONGATION             A_IMAGE/B_IMAGE                                           
#  12 ELLIPTICITY            1 - B_IMAGE/A_IMAGE                                       
         1 -10.9854    238.3719     22.2481   2.9335384755e+01   2.5286906199e+01    0.4167554    0.2041689 -46.65   0.00242962    1.676    0.403
         2 -10.7177     34.8055      8.7251   6.4269816845e+01   6.9872340973e+01    0.2622842    0.2078293   7.12  0.001144545    1.068    0.063
         3 -11.9007      9.6705     16.6892   8.1621630146e+01   7.1973980923e+01    0.7173104    0.2391038 -32.70  0.002560475    2.993    0.666
         4 -10.1367     43.8850     18.1815   6.4741276702e+01   6.7385966162e+01    0.2911164    0.2549774 -42.19  0.001217042    1.624    0.384
         5 -11.5421     35.5221     19.2887   6.9061858042e+01   6.8513377078e+01     1.316489    0.6343408   0.25  0.004632811    5.001    0.800
         6 -11.5862     28.4410     18.3584   7.2097695676e+01   6.9608626549e+01    0.6414933    0.3531227  -3.57  0.003311396    2.252    0.556
         7 -12.6499     24.1869     12.1489   7.1272769633e+01   7.0961540132e+01    0.3600933    0.2692244  -7.19  0.000451028    1.127    0.113
         8 -12.0660     16.1126     13.5844   7.6402440536e+01   7.1746651223e+01    0.2328655    0.1755177   6.60 0.0002649313    1.096    0.087
         9 -11.3313     15.4576     28.0385   8.3344983605e+01   6.9671724439e+01    0.4203267    0.2198414   6.58  0.002241319    2.054    0.513
        10  -9.8695    225.1570     23.7326   3.0634365727e+01   2.7713101737e+01    0.2362115    0.1517751 -25.67 0.0009390177    2.124    0.529
        11 -10.5860    164.5845     22.1238   3.6457260914e+01   4.1140599780e+01    0.3786295    0.2637498  21.82  0.002021731    2.266    0.559
        12 -12.2536    112.1423     18.8412   4.4072840718e+01   5.3679780753e+01    0.4069975    0.3352579  21.95  0.002540044    1.348    0.258
        13 -11.8966    128.0497      4.9017   3.6743596199e+01   5.1269857832e+01    0.3856543    0.2663757  74.06  0.001492594    1.254    0.202
        14  -9.7520    117.0197      8.9988   3.9863080664e+01   5.3465562036e+01    0.2804843    0.2124574 -60.34 0.0005805707    1.549    0.354
        15 -10.2281    117.7860     15.7990   4.1942144387e+01   5.2681544158e+01    0.2759261    0.1843784 -36.79  0.000554446    1.698    0.411
        16 -12.1955    122.4668     11.1160   3.9584870869e+01   5.2031013985e+01     0.711242    0.4291675   6.71 0.0009585275    2.528    0.604
        17 -11.1249     55.5395     18.8079   6.0253165201e+01   6.5361583862e+01    0.4428066    0.2258775  23.00  0.001633403    2.334    0.571
        18 -11.0041     58.2791     13.4394   5.6825470499e+01   6.5447609183e+01    0.3913707     0.256533  32.14  0.001846179    1.297    0.229
        19 -11.0691    153.9020      3.1542   3.2798195115e+01   4.5448427450e+01    0.4507768    0.3021106  22.72  0.002330357    2.247    0.555
        20 -11.5346    150.5409     18.6416   3.7422010795e+01   4.4777507983e+01    0.3386041    0.3032379  69.46 0.0005607781    1.102    0.093
        21 -11.4760    155.4913     14.5882   3.5647266164e+01   4.4030272361e+01    0.3872805      0.28286  75.62  0.001872381    1.171    0.146
        22 -10.8361    156.1441     10.1182   3.4373419195e+01   4.4308014600e+01    0.3039066    0.1853262  71.09  0.001198062    1.387    0.279
        23 -11.5527    101.0440     14.8820   4.5093712368e+01   5.6553398890e+01    0.7177077     0.344422  29.65  0.003095143    2.872    0.652
        24 -10.1674    176.3316     12.1001   3.2577862819e+01   3.9495672698e+01    0.2372778    0.1753275 -86.91 0.0003693986    1.164    0.141
        25 -12.3417    187.0812     13.6913   3.1863232040e+01   3.6925032216e+01    0.2556529      0.20457 -73.29 0.0003342899    1.085    0.078
        26 -12.0148    182.3674     13.0516   3.2182586667e+01   3.8041622309e+01     0.361757    0.3327349  52.48   0.00121118    1.366    0.268
        27 -10.5132    144.4575     12.0452   3.6436680736e+01   4.6840605380e+01    0.3468097    0.2334296 -54.08   0.00161095    1.602    0.376
        28 -10.0443    247.0877     12.4439   2.6948772167e+01   2.4769474335e+01    0.1604497    0.1246241 -56.98  0.001208346    1.207    0.172
        29 -11.0488    216.8666      6.5384   2.7836806557e+01   3.1311764477e+01    0.3368359    0.2600006 -11.86 0.0008366521    2.092    0.522
        30 -11.4688    209.3454      9.6175   2.9024594512e+01   3.2545926904e+01    0.4295319    0.3071015  68.19  0.001901182    1.433    0.302
        31 -10.7277    211.6645      6.2985   2.8166915449e+01   3.2407862369e+01    0.2307132    0.1321739 -76.14 0.0008421479    1.533    0.348
        32 -10.3105     92.0598     10.8784   4.5714470669e+01   5.8883966498e+01    0.2729798    0.1919525  64.34 0.0007204567    1.346    0.257
        33 -11.8156     89.6768      3.5352   4.3494003642e+01   5.9999463349e+01    0.3889626    0.3118848  40.36   0.00189673    1.108    0.098
        34 -12.1405     46.1940      9.1315   5.9483790251e+01   6.8007636207e+01    0.2881799    0.1869646  28.67 0.0003791187    1.289    0.224
        35  -9.2977    137.7145      8.8988   3.6495923537e+01   4.8693949563e+01    0.1623829    0.1499134  77.99 0.0005081868    1.108    0.097
        36 -10.4098      8.0163      8.9528   7.8854428151e+01   7.3226713545e+01    0.3387297    0.1819456 -27.52  0.001386488    1.638    0.389
        37 -11.2976      2.3532      3.3955   7.9534140023e+01   7.4511512162e+01     0.375623    0.3310382 -57.05  0.002688654    2.206    0.547
        38 -10.8124     18.3467      3.7993   7.0100489314e+01   7.2705541510e+01    0.3092228    0.2114385   5.71   0.00213211    1.185    0.156
        39 -10.9340     13.1785      4.8868   7.3638756207e+01   7.3198179279e+01    0.3719752      0.20812 -20.48  0.002316708    1.650    0.394
        40 -10.6617      9.8169      1.6968   7.3916400732e+01   7.3962991233e+01    0.2741762    0.2145719   4.30  0.001522708    1.159    0.137
        41 -10.4689    197.6994      4.7010   2.8914727920e+01   3.5517717647e+01    0.1633354   0.09228463  89.92 0.0002522536    1.555    0.357
        42 -10.3915    189.1968      7.8427   3.0333114009e+01   3.7053378134e+01    0.2476871     0.155459  49.39 0.0008955666    1.973    0.493
        43 -10.5005    194.7547      2.0080   2.8570702811e+01   3.6412721884e+01    0.2263265    0.1420895  73.75 0.0005379339    1.398    0.284
        44 -10.1888    169.8628      2.8734   3.1004442368e+01   4.1834489110e+01    0.2419182    0.1980953  46.28  0.000937034    1.483    0.326
        45 -10.8768    167.1806      6.0930   3.2074854868e+01   4.2149731258e+01    0.3198918    0.1990986 -71.73  0.001841412    1.593    0.372
        46 -10.4925    106.6210      3.4079   3.9905982217e+01   5.6274257529e+01     0.389992    0.2255109 -80.57  0.001875328    2.618    0.618
        47  -9.6094     40.3826      5.0739   5.9930751652e+01   6.9373584010e+01    0.2274139    0.1213086  42.44 0.0009405887    1.637    0.389
        48 -10.3172    192.2438      5.2733   2.9493079467e+01   3.6640669404e+01    0.3138168    0.1288606 -38.95  0.001615512    2.308    0.567
        49  -8.7802     99.3125      4.2538   4.1652393089e+01   5.7838860418e+01    0.1259784   0.07521086  42.50 0.0001673954    1.523    0.343
        50  -9.9652    119.6622      2.3316   3.7263739839e+01   5.3399055052e+01    0.1978984    0.1608518 -11.31 0.0008066858    1.515    0.340
        51 -10.0401     77.6017      6.6776   4.7778004930e+01   6.2298145914e+01    0.2227774    0.2005979  48.34  0.001556424    1.147    0.128
        52 -10.0071    138.8668      2.1937   3.4402296438e+01   4.8992442921e+01    0.2736141    0.1493584  84.10  0.001425447    1.798    0.444
        53  -9.4384     25.5214      2.0568   6.5334337874e+01   7.1938059871e+01    0.1586211   0.09955853 -23.09  0.001027972    1.587    0.370
        54 -11.3097    250.2710    163.4066   5.5800632670e+01   1.2444900548e+00    0.3788827    0.1228553 -42.70  0.001543863    2.536    0.606
        55  -9.1944     84.1753    250.6771   1.0502542199e+02   9.8787450752e+00    0.1672696    0.1074175  27.91 0.0002347364    1.548    0.354
        56 -10.0764     15.4084    250.0384   1.1916412717e+02   1.8298326895e+01    0.1948375    0.1738434 -23.12 0.0008931973    1.716    0.417
        57 -10.6007     29.3802    163.6312   1.0882355577e+02   3.7257823051e+01    0.3210959    0.1767846  57.74  0.001167882    2.031    0.508
        58  -9.2092     73.4889    162.4876   9.5944471696e+01   3.2176972610e+01    0.1498092    0.1421991 -73.40 -5.505955e-05    1.011    0.011
        59  -9.8499    113.8697    159.1389   8.3849770965e+01   2.6359672028e+01    0.2681588    0.2151148 -38.01            0    1.289    0.224
        60  -9.6706      4.0375    159.8199   1.1544420174e+02   4.0361932248e+01    0.2128319    0.1277009 -37.39  0.001088398    2.031    0.508
        61  -9.1813      1.6229    153.9358   1.1556756660e+02   4.2017601788e+01    0.1806253    0.1406145 -81.72 0.0004561208    1.062    0.059
        62 -10.6028     16.9352    150.0390   1.1078936944e+02   4.1896550822e+01    0.3433357    0.1996561  22.08  0.000957648    1.999    0.500
        63  -9.6318    125.2123    147.2454   7.8195733359e+01   2.7148304801e+01    0.2216897    0.2085676 -13.51 0.0004093471    1.104    0.094
        64  -9.8572     30.9833    147.0255   1.0619856766e+02   4.1438213365e+01    0.2098308    0.1860827 -76.19 0.0003820817    1.021    0.020
        65 -10.5316     12.0541    144.8551   1.1162890977e+02   4.3612104526e+01    0.2523641    0.1858015 -43.78   0.00143267    1.412    0.292
        66 -12.5640    245.5678    141.4259   5.2214219945e+01   5.7334295583e+00    0.5364832    0.4500142  11.34  0.003401626    1.465    0.317
        67  -9.6431      2.1475    143.8894   1.1444451176e+02   4.4535432932e+01    0.2423946    0.1418369 -67.27 0.0007477428    1.389    0.280
        68 -11.4352     28.2541    140.2543   1.0607648641e+02   4.3465674131e+01    0.4427113     0.327502 -59.54  0.001358715    1.189    0.159
        69 -10.5032     21.2327    141.8377   1.0847643667e+02   4.3670316703e+01    0.2020647    0.1693061  80.50 0.0007265718    1.202    0.168
        70 -10.0102     37.6337    137.6799   1.0271014163e+02   4.3220388402e+01    0.3400182    0.1296901 -53.25  0.001061414    2.254    0.556
        71  -9.6619     11.8457    128.9270   1.0971675414e+02   4.7718599885e+01    0.1986156    0.1684577 -66.97  0.001211348    1.009    0.009
        72 -11.1399     16.0711    132.0006   1.0877387377e+02   4.6624765572e+01    0.5180381    0.2671122 -39.10  0.002376826    2.106    0.525
        73  -9.7382     15.5383    128.5369   1.0846690951e+02   4.7554157081e+01    0.2059958    0.1368487   8.04 0.0005506207    1.840    0.457
        74  -9.9770     54.1208    133.3522   9.6608517617e+01   4.2458476058e+01    0.2462724    0.1820374 -52.61 0.0005022131    1.240    0.194
        75 -11.2597    244.9305    129.0660   4.9843640403e+01   7.9785410388e+00    0.3874411    0.3775332 -20.03  0.002679576    1.211    0.174
        76  -9.0842     33.6546    128.6889   1.0251897776e+02   4.5962632593e+01    0.1508659   0.09501026 -36.30 0.0005376715    1.707    0.414
        77 -10.6603     24.0657    126.2156   1.0530997457e+02   4.7475544852e+01    0.4082924    0.2280598 -85.19  0.001819156    2.054    0.513
        78  -9.5866     52.4778    126.0326   9.5717762801e+01   4.4559831665e+01    0.2131587    0.1973926  19.43 0.0004675594    1.173    0.147
        79 -10.9522     46.7400    125.4949   9.7545856197e+01   4.5388736584e+01    0.3448549    0.2822897  15.61  0.001050834    1.363    0.266
        80 -11.5359    228.9019    120.0123   5.0303265565e+01   1.2321012808e+01     1.221194    0.4085635 -52.51  0.003943918    3.952    0.747
        81 -11.4839    220.3407    113.8354   5.0278744915e+01   1.5006381777e+01    0.7226197    0.3989469 -33.09  0.003344137    1.873    0.466
        82 -10.3816     31.8289    122.9714   1.0214892650e+02   4.7612898283e+01    0.4419409    0.2624568 -19.77  0.001593936    2.228    0.551
        83 -11.4473    250.0891    120.9653   4.7529831643e+01   8.5202520482e+00    0.4362883    0.1501181 -41.32  0.001830708    2.334    0.571
        84  -9.5186     93.9505    123.0021   8.1508749806e+01   3.8976833939e+01    0.2246339    0.2193897 -32.01            0    1.014    0.014
        85  -9.6030      1.7167    123.4414   1.1229055799e+02   4.9743349835e+01    0.1684426    0.1167042 -20.82 0.0009447436    1.700    0.412
        86 -10.3022     67.4305    121.1290   8.9638334196e+01   4.3785456078e+01    0.3106197    0.1814354  47.34  0.001053863    1.979    0.495
        87  -9.5529     83.9455    119.4481   8.3801958618e+01   4.1595272285e+01    0.2381654    0.1515933  35.76 0.0009029335    1.626    0.385
        88  -9.6739     44.9581    109.2214   9.4800255614e+01   4.9715996829e+01    0.2701743    0.1895351 -79.84  0.001301455    1.714    0.417
        89 -10.6134     45.5242    117.7084   9.6408170654e+01   4.7520913832e+01    0.3196373    0.2017117 -58.94 0.0006363557    1.427    0.299
        90  -9.7668     44.0111    113.7159   9.6110161444e+01   4.8701808558e+01    0.2321755    0.1776507 -56.60 0.0004667323    1.179    0.152
        91 -10.6928      7.5799    118.0665   1.0963995520e+02   5.0753097817e+01    0.2217354    0.1710583  44.44 0.0005231667    1.511    0.338
        92  -9.6252    232.9986    117.0287   4.9080913136e+01   1.2115266382e+01    0.1954714    0.1677654 -45.67 0.0003506031    1.034    0.033
        93  -9.9708     68.7943    117.0283   8.8229418213e+01   4.4610977424e+01    0.2828838    0.1935577  48.51  0.001300418    1.667    0.400
        94  -9.7366     26.9756    116.5660   1.0269746580e+02   4.9690585279e+01     0.188979    0.1378415  16.26 0.0003573339    1.564    0.360
        95  -9.9099     38.1106    115.0703   9.8483813240e+01   4.9001634173e+01    0.2397126     0.187767  24.56 0.0009280574    1.409    0.290
        96 -10.6281      3.2528    112.4181   1.1032830435e+02   5.2416983099e+01    0.3542528    0.2091701  36.35  0.001247397    1.987    0.497
        97  -9.0870     62.4838    112.4853   8.9319204625e+01   4.6655840078e+01    0.1487962    0.1378523 -40.97 0.0001175377    1.001    0.001
        98  -9.3872     52.9416    111.5269   9.2452979203e+01   4.8175573469e+01    0.2009928    0.1448846  25.54 0.0003765222    1.494    0.330
        99 -10.5230    244.8098    110.6246   4.6157393520e+01   1.1150164120e+01     0.162003     0.120438  76.96  0.000950494    1.697    0.411
       100 -10.5536     35.0345    107.9997   9.8155672784e+01   5.1086918049e+01    0.4453448    0.1808633 -54.39  0.001059472    2.034    0.508
       101 -10.3642     15.9885    108.2225   1.0515702239e+02   5.2659388858e+01    0.3718145     0.223386 -14.75  0.001844797    2.029    0.507
       102  -9.2049     16.4658    104.4653   1.0432177705e+02   5.3554545357e+01    0.1341714    0.1150696 -56.80 0.0001162375    1.032    0.031
       103 -11.4627     80.8671    103.1601   8.0625648571e+01   4.6021317792e+01    0.4333061    0.3434974  -5.47 0.0002572235    1.460    0.315
       104 -10.6062     76.4530    104.4836   8.2476686515e+01   4.6451913265e+01    0.3144316    0.2096615 -45.99 0.0009461219    1.426    0.299
       105 -11.6047     65.1184    104.0917   8.6320569594e+01   4.8315170009e+01    0.5916372    0.3018252  49.98  0.001332064    2.645    0.622
       106 -10.0123     57.4360    103.8003   8.9000176490e+01   4.9475502650e+01    0.2452804    0.2029226  20.88 0.0002742549    1.277    0.217
       107 -10.8234    250.1154    103.7029   4.4109484044e+01   1.1394032784e+01     0.239656    0.1407689 -49.81  0.001320053    1.409    0.290
       108 -10.9837     44.2645    101.2352   9.3231700031e+01   5.1752028224e+01    0.4098349    0.2947477  63.13  0.002007205    1.916    0.478
       109 -10.0479     52.6719    100.3660   8.9888086103e+01   5.0931368117e+01    0.3053894    0.2164286 -33.76  0.001305916    1.394    0.283
       110 -11.1382    101.6209     97.9179   7.2476596548e+01   4.3359204274e+01    0.2628834    0.2385242  33.99 0.0001944414    1.107    0.097
       111  -8.7154    115.6777     97.6842   6.8269512708e+01   4.0527976305e+01     0.157053    0.1222064   0.22 0.0007041895    1.662    0.398
       112 -10.0117     70.5667     96.6278   8.2399200554e+01   4.9227650699e+01    0.2992536     0.245057  61.26 0.0008709062    1.523    0.344
       113 -11.0359     47.3709     95.6156   9.0684049238e+01   5.2724533034e+01    0.3835497    0.2804231 -86.59  0.001176739    1.930    0.482
       114  -9.9567     97.5784     95.1124   7.2924504255e+01   4.4763569318e+01    0.3783176    0.2593386   9.42  0.001594332    2.067    0.516
       115  -9.7651     16.4793     95.0974   1.0254903588e+02   5.5832006833e+01    0.1830118     0.163555 -30.70 0.0003245361    1.115    0.103
       116  -8.8223      1.3078     94.2771   1.0826912863e+02   5.6943735733e+01    0.1333275   0.07575306 -41.25 0.0002442947    1.553    0.356
       117  -8.9991    116.4906     93.4374   6.6829059840e+01   4.1243285603e+01    0.1501613    0.1478892  72.84 0.0001425009    1.050    0.048
       118  -8.8709      4.9686     94.0000   1.0681366030e+02   5.6820173254e+01     0.178266   0.07366017  13.15 0.0004986692    2.819    0.645
       119 -11.5830    126.4905     91.4502   6.3550739399e+01   3.9475311906e+01    0.2680473    0.2673692  86.37 0.0002250141    1.006    0.006
       120 -11.8921     34.8151     89.7275   9.4104281448e+01   5.5513005159e+01    0.3023967    0.2461726 -63.62            0    1.274    0.215
       121 -10.3341     56.7102     89.7275   8.5567335314e+01   5.2865237400e+01    0.3324459    0.2427497  69.95  0.001556194    2.143    0.533
       122 -11.0644     86.8802     87.1411   7.4028355843e+01   4.8503294254e+01     0.410641    0.3142458 -65.10  0.001565524    1.624    0.384
       123 -10.1671     50.4296     89.0225   8.7778525858e+01   5.3868140660e+01    0.3436552    0.1868508  27.76  0.001180529    1.935    0.483
       124  -9.5380    120.9775     87.5331   6.3884799890e+01   4.1464780025e+01    0.2711652    0.2131618  65.34 -1.861226e-05    1.434    0.302
       125 -11.3119    115.9718     85.0249   6.4514822088e+01   4.3047011038e+01    0.2902844     0.260153  84.15  0.001527847    1.272    0.214
       126  -9.5015    139.1427     86.9214   5.9109838539e+01   3.7521603260e+01     0.212689    0.1919719 -76.65            0    1.171    0.146
       127 -10.4457    131.0574     85.9474   6.0805342350e+01   3.9535460721e+01     0.218133    0.2137321  54.88 0.0003210272    1.011    0.011
       128 -10.3710    102.8756     84.8431   6.8253914012e+01   4.5845709787e+01    0.2710545    0.2200584 -48.22 0.0004692984    1.278    0.217
       129 -10.0600    104.4862     80.9340   6.6579384523e+01   4.6285756908e+01    0.2791576    0.1439617 -46.64 0.0007819051    2.029    0.507
       130 -10.0196     27.3566     84.8446   9.5922351133e+01   5.7362880620e+01    0.2387071    0.1747502  38.62 0.0007670867    1.623    0.384
       131 -11.1265     76.0158     82.3752   7.6306443082e+01   5.1449961346e+01    0.4049928     0.292697 -42.58 0.0009434207    1.353    0.261
       132 -10.4210     79.9979     80.9656   7.4476802782e+01   5.1041427688e+01     0.229959    0.2027679  23.97            0    1.115    0.103
       133 -10.4165     71.0348     82.2342   7.8047838541e+01   5.2321196312e+01    0.2396568    0.2011562 -45.13            0    1.201    0.167
       134  -9.5357     20.1915     83.1547   9.8480810520e+01   5.8359119036e+01    0.2109466     0.149216 -37.71 0.0007028957    1.230    0.187
       135  -9.1408     47.1472     81.8425   8.7069386827e+01   5.5894720807e+01    0.1994741    0.1485291 -23.74 0.0005569189    1.322    0.243
       136  -9.3747     54.0635     80.9308   8.4065224706e+01   5.5179458159e+01    0.2184114     0.152643 -20.15 0.0004752564    1.541    0.351
       137  -9.1895     92.0054     80.4658   7.0303843547e+01   4.8895730630e+01    0.2219537    0.1422421  41.29 0.0005331498    1.545    0.353
       138 -10.0257      5.4143     76.4494   1.0322883483e+02   6.0878055407e+01    0.3585776     0.287201 -30.45   0.00231662    1.136    0.120
       139 -11.4968     76.6802     75.0549   7.3770595960e+01   5.2822706628e+01    0.4134851    0.3459069  22.48 0.0005084476    1.170    0.145
       140  -9.4856     36.7541     76.7450   8.9877625591e+01   5.8237053966e+01    0.1617551    0.1529374 -68.89 0.0002817637    1.282    0.220
       141  -8.8290     98.6955     76.3275   6.6897619966e+01   4.8366289519e+01    0.1443029    0.1189212 -86.87 0.0007034839    1.649    0.393
       142  -9.3719     60.8029     75.9831   7.9937953854e+01   5.5248588860e+01    0.1898468    0.1703446 -11.27 -0.0006383859    1.016    0.016
       143 -10.3177     83.1902     74.7487   7.1412840561e+01   5.1700778380e+01     0.292093     0.201551 -33.16  0.000446265    1.476    0.322
       144 -10.8450     46.5922     73.3548   8.4784724069e+01   5.7789756971e+01    0.4771013    0.3490545  69.21  0.002231795    2.371    0.578
       145  -8.9755    130.6873     74.7453   5.7632850620e+01   4.1685259989e+01    0.1436527    0.1128337  23.35 0.0002686643    1.525    0.344
       146  -9.6320    151.5000     72.9689   5.2468017276e+01   3.7182336958e+01    0.2102288    0.1865778  66.57  0.001157334    1.095    0.087
       147 -10.0481    140.1828     72.7751   5.4842662296e+01   3.9844969884e+01    0.4716932    0.2204352  40.59  0.001759398    2.556    0.609
       148 -10.8210    136.9804     69.5294   5.4622197818e+01   4.1139269573e+01    0.2645036    0.2073186 -38.75 0.0003047069    1.323    0.244
       149 -10.0223    103.2131     72.4021   6.4290646824e+01   4.8162294258e+01    0.3355684     0.213381  63.03  0.001451291    2.048    0.512
       150 -10.6694    101.9864     69.0084   6.3566421182e+01   4.9032329503e+01    0.2706339    0.2083196 -37.82  0.001393984    1.340    0.254
       151  -9.7773     57.1281     72.3722   8.0227838461e+01   5.6538166454e+01    0.2765401    0.1631013 -25.80 0.0008852661    1.951    0.487
       152 -10.7701     17.7100     70.7719   9.6487640657e+01   6.1321891172e+01     0.303241     0.180566 -38.31  0.001574877    1.436    0.303
       153  -9.3822     33.2071     72.1569   9.0071283261e+01   5.9607994922e+01    0.1616913    0.1559395 -86.20 0.0004032626    1.330    0.248
       154  -9.6085     97.1452     69.2939   6.5120345533e+01   4.9987164698e+01    0.2533123    0.1852475 -28.42 0.0008144954    1.451    0.311
       155 -10.5013     63.6545     69.4456   7.6739337064e+01   5.6120134805e+01    0.2785693    0.2479769  68.14   0.00078401    1.507    0.336
       156  -9.1833     89.9762     68.2855   6.7049311511e+01   5.1613987322e+01    0.1940576    0.1750107  20.45 0.0004026947    1.054    0.051
       157 -10.1454     35.1263     67.2289   8.7766881963e+01   6.0436363507e+01    0.3342105    0.1938235 -55.43  0.001374416    1.774    0.436
       158 -10.6184     32.6349     62.3343   8.7338935767e+01   6.1706599501e+01    0.3191418    0.2604687  42.59  0.001420363    1.563    0.360
       159 -11.9115     70.9236     64.0625   7.2196627980e+01   5.5929755002e+01    0.3522729      0.34301   0.44 0.0005000427    1.159    0.137
       160 -11.5940    110.9293     65.4608   5.9875217176e+01   4.7726674388e+01    0.3314254    0.2879242 -60.74   0.00181211    1.307    0.235
       161  -9.6869     76.8432     66.1134   7.0762726860e+01   5.4501871127e+01    0.1978762    0.1909062  59.30 0.0004073075    1.238    0.192
       162 -10.4517     58.4305     66.1017   7.7660323738e+01   5.7586031102e+01    0.2936124     0.189681  30.26  0.001150021    1.537    0.349
       163  -9.5787     48.4140     66.2121   8.1765701163e+01   5.9007250732e+01    0.2738449    0.1682961   8.47  0.001302811    1.938    0.484
       164  -9.1452    154.8246     67.1559   5.0195424787e+01   3.7370560827e+01    0.1857421    0.1640337  36.04 0.0002545748    1.274    0.215
       165  -9.6523    194.0383     64.0527   4.2872813814e+01   2.8880364342e+01    0.1956158    0.1702161 -66.82 0.0002939116    1.030    0.029
       166  -9.6906     44.1926     64.1786   8.2876563658e+01   5.9967505301e+01    0.3417774     0.173407  17.55   0.00149817    2.336    0.572
       167 -10.2551     89.9708     61.3448   6.4721317346e+01   5.2837580553e+01     0.412557    0.2997361 -76.62  0.001881376    2.370    0.578
       168 -10.1677     95.8400     57.1280   6.1459947984e+01   5.2337319530e+01     0.288313    0.2004618  39.50  0.001432559    1.362    0.266
       169  -9.5605     91.6911     57.5476   6.2877116120e+01   5.3124544498e+01    0.2742658    0.1329322  50.08 0.0008083567    2.066    0.516
       170  -8.9958      1.5122     63.5205   1.0204135176e+02   6.3929456593e+01    0.1254593   0.09803807 -40.12 0.0004852051    1.008    0.008
       171 -10.9754    147.0929     61.6239   5.0175841459e+01   4.0062300387e+01    0.2405209    0.2118185 -48.82 0.0003557484    1.165    0.141
       172 -12.7146    150.7712     57.6430   4.8327610608e+01   3.9808785030e+01     0.289873    0.2836088 -78.28 0.0004223794    1.086    0.079
       173 -11.3164     60.6841     57.5290   7.3801736437e+01   5.8826380608e+01    0.4540321    0.3061392  32.66  0.002409476    1.438    0.305
       174  -9.2206    219.2905     59.3157   3.8593358262e+01   2.4202230181e+01    0.1116746    0.1021522  12.95 0.0007004706    1.594    0.373
       175  -9.8791    160.8294     56.6535   4.6217289237e+01   3.7594194808e+01    0.2525015    0.2059127  59.10 0.0006993692    1.197    0.165
       176  -9.4624    162.3311     53.0292   4.4982498512e+01   3.7772614689e+01    0.2225034     0.186024 -23.56 0.0004141522    1.421    0.296
       177 -11.4626     79.6954     55.6458   6.6133563742e+01   5.5803067467e+01    0.5291868    0.3282748  32.04   0.00123939    1.607    0.378
       178 -10.2306      8.1608     56.8186   9.7140786004e+01   6.4950165739e+01    0.2530863    0.1450165 -31.35 0.0003848025    1.515    0.340
       179 -10.7182    175.7145     54.8079   4.3296856518e+01   3.4403719002e+01      0.45165    0.2247089 -52.74  0.001990641    2.119    0.528
       180  -9.5603    200.7825     54.9262   3.9837240036e+01   2.8757679752e+01    0.1843723    0.1758578 -62.18  0.001046458    1.211    0.174
       181  -8.9393    111.9956     55.9857   5.6528391002e+01   4.9027736296e+01    0.1665309    0.1552104  42.51 0.0003383397    1.003    0.003
       182  -9.9905    128.0638     53.4773   5.1815137430e+01   4.5748228875e+01    0.2524373    0.2018828  66.18 0.0007234364    1.230    0.187
       183  -9.6152    126.6296     50.1482   5.1105284045e+01   4.6564867102e+01    0.2250564    0.2126155  38.38 0.0006558028    1.084    0.077
       184  -9.7897     30.3293     53.2482   8.5387193353e+01   6.3731045225e+01    0.2382285    0.1964159 -78.07  0.001011784    1.907    0.476
       185 -10.5478    203.1527     50.4925   3.8532663945e+01   2.8873286063e+01    0.4336129    0.2599235 -76.94 0.0009228953    1.858    0.462
       186  -8.9190     35.0315     51.2544   8.2503204327e+01   6.3566520296e+01    0.1515972    0.1024864  19.89 0.0003231089    1.443    0.307
       187  -9.8344     18.7034     49.0667   8.9562895295e+01   6.5675066983e+01     0.277862    0.1884928  63.32  0.001337149    3.273    0.695
       188  -9.9690     33.0580     44.3294   8.0874053043e+01   6.5039934921e+01    0.4052627    0.2051232 -19.94  0.001738221    2.548    0.607
       189 -10.3593     24.8377     49.6087   8.6741718473e+01   6.4991694586e+01    0.4948922    0.2475167 -12.29  0.001475545    2.788    0.641
       190  -9.2044     30.4777     48.4880   8.3638543180e+01   6.4598861994e+01    0.2077941    0.1121679  11.50  0.001013817    2.073    0.518
       191 -10.2796    212.0954     49.9623   3.7378057829e+01   2.7036006512e+01    0.2034796    0.1642455 -85.61 0.0004891838    1.122    0.109
       192 -10.6662     85.5249     49.0814   6.1844790235e+01   5.5707529246e+01     0.239762    0.2190828  29.76 0.0005123139    1.053    0.050
       193 -10.6558     85.8579     45.1475   6.0309843888e+01   5.6225462641e+01    0.3170075    0.2359168  -2.73  0.000976305    1.540    0.351
       194  -9.2298     73.4485     50.5255   6.6461005734e+01   5.7805470079e+01    0.1343603    0.1230159  14.51 0.0002763204    1.060    0.056
       195 -10.8269     63.6000     48.7250   6.9435243696e+01   5.9842306969e+01    0.2744215     0.235265  60.46 0.0008737094    1.572    0.364
       196  -9.6128     60.2999     45.6704   6.9555105295e+01   6.0889029984e+01    0.2141503    0.1950542   5.15 0.0003978801    1.106    0.096
       197  -9.4590     55.3901     49.4929   7.2978978678e+01   6.1059873899e+01    0.2150539    0.1403973 -17.32 0.0007169187    1.669    0.401
       198 -10.2513      5.3102     48.9395   9.6267496327e+01   6.6716308723e+01      0.30575    0.1703647 -39.10 0.0007826866    1.429    0.300
       199  -8.6412    105.6638     49.2908   5.5987471408e+01   5.1435079648e+01    0.1357044    0.1092067 -87.34 0.0002412635    1.638    0.390
       200  -9.8424    246.4844     47.9072   3.3572284379e+01   2.0486233941e+01    0.1730665   0.09808812 -42.81 0.0005758634    1.530    0.346
       201  -9.3135    233.1561     48.1964   3.4836337569e+01   2.2993221177e+01    0.1713323    0.1139236 -67.38 0.0004190125    1.317    0.241
       202 -11.4481    137.0684     46.8597   4.7882043438e+01   4.4588356560e+01    0.2866367    0.2331524 -75.98  0.000562761    1.354    0.261
       203  -9.2488     98.5947     47.3026   5.7260500713e+01   5.3258380140e+01    0.1682183    0.1315659 -15.08  0.000250071    1.420    0.296
       204  -8.6969     91.7090     47.7682   5.9445248094e+01   5.4643206010e+01    0.1330491   0.09641732  24.72  0.000157534    1.455    0.313
       205 -10.2723    108.4146     43.2557   5.3223608507e+01   5.1675221512e+01     0.367456    0.1948136  61.86  0.001274715    2.007    0.502
       206 -10.2597    121.7270     48.2612   5.1629868198e+01   4.7964653374e+01    0.2331356     0.195747  85.13 0.0003499482    1.323    0.244
       207  -9.6578    198.3490     42.7231   3.7330099234e+01   3.0982415168e+01    0.2175445    0.1589635 -69.22 0.0006034134    1.247    0.198
       208 -11.1405    163.0895     42.3353   4.1995076391e+01   3.9067969605e+01    0.2436282    0.2077772 -71.21 0.0003213823    1.130    0.115
       209  -9.3888     91.2908     43.6987   5.8112753823e+01   5.5317115660e+01    0.1929455    0.1145869  41.16            0    1.556    0.357
       210 -10.3391     91.0585     40.0878   5.6872451858e+01   5.5863628286e+01    0.2086754    0.1905535 -22.87            0    1.187    0.157
       211 -12.0622     57.0561     41.4732   6.9207097130e+01   6.2081038207e+01    0.3454655    0.2485941  10.74 0.0004321754    1.386    0.278
       212 -11.4266     63.2004     38.0639   6.5450045389e+01   6.1541213509e+01    0.3946975    0.2602123  25.99   0.00215234    1.451    0.311
       213 -11.7053     18.0875     40.4650   8.6839198119e+01   6.7315318079e+01    0.3527198    0.2436722 -54.26  0.001064056    1.698    0.411
       214  -8.8548    168.3053     42.6505   4.1284717878e+01   3.7808388622e+01    0.1422741   0.09231731 -69.23 0.0007041786    1.702    0.413
       215  -8.9497    218.4858     41.5213   3.4888316007e+01   2.6847416826e+01    0.1282023   0.09815426 -69.47 0.0008086241    1.088    0.081
       216  -9.0321    204.5881     41.4892   3.6340788670e+01   2.9788156857e+01    0.1280575    0.1044464 -71.51 0.0001170023    1.035    0.034
       217  -9.0545     97.5615     41.4220   5.5484745352e+01   5.4302939095e+01    0.1342576    0.1216168  40.43 0.0002473877    1.029    0.028
       218  -9.9598     76.0172     38.6763   6.1097363085e+01   5.9087807539e+01    0.2011825    0.1764718 -10.27  0.000592608    1.155    0.134
       219  -9.4733     68.9519     39.1114   6.3735763062e+01   6.0357723944e+01    0.2113868    0.1436999   8.55 0.0006579703    1.689    0.408
       220  -9.0163     44.1965     39.6202   7.3904645388e+01   6.4353084215e+01     0.162021    0.1072631  19.82  0.000300131    1.429    0.300
       221  -8.7305    148.6800     38.2752   4.3223160446e+01   4.2980574381e+01    0.1352934   0.09657133 -78.19 0.0004930155    1.573    0.364
       222 -10.5410    140.2406     37.9494   4.4622919254e+01   4.5011832924e+01    0.2304396    0.1930562  79.67 0.0002613497    1.139    0.122
       223 -10.3738     83.9398     37.2511   5.7980544531e+01   5.7711012503e+01     0.308608     0.198448 -56.94  0.001466891    2.439    0.590
       224  -9.6924      2.4582     37.9066   9.4257397955e+01   6.9001497096e+01    0.2130027    0.1294339 -17.44 0.0004854643    1.467    0.318
       225  -9.2747      6.5179     37.4792   9.1895009359e+01   6.8805815271e+01    0.1554229    0.1023431  22.19 0.0007029089    1.638    0.390
       226  -9.0558    207.3872     37.2220   3.5095701731e+01   2.9742460257e+01    0.1716139    0.0977269 -50.04 0.0003277914    1.567    0.362
       227 -10.1206    192.7641     36.0629   3.6441005638e+01   3.3080594491e+01    0.4055682    0.2707395 -88.95  0.002299919    1.440    0.306
       228 -10.0445    127.5682     37.0857   4.6820025676e+01   4.8092303280e+01    0.2661499    0.1749435  52.70 0.0009710259    1.374    0.272
       229  -9.6579     54.5096     36.8806   6.8393887876e+01   6.3186683642e+01    0.1831697    0.1491532  21.12 0.0003494642    1.092    0.084
       230  -9.3568     28.9274     36.4759   7.9801985037e+01   6.6856766607e+01    0.1844027     0.141782 -23.41 0.0003469704    1.144    0.126
       231  -9.4866    161.7334     35.8471   4.0469339505e+01   4.0213268815e+01    0.2811119    0.1605242 -83.95  0.001268601    2.256    0.557
       232 -10.4110    169.9449     33.7539   3.8747241041e+01   3.8557103645e+01    0.2456354    0.1824272 -38.69 0.0005113371    1.437    0.304
       233 -11.1890    107.0301     34.9006   5.0717794877e+01   5.3064112772e+01    0.3117018    0.2038881  62.28 0.0003496977    1.498    0.332
       234 -10.1506    246.2186     32.4449   3.0669490078e+01   2.2554580985e+01    0.2940879    0.1289129 -47.58  0.001624188    1.795    0.443
       235 -11.6188     40.1404     33.1185   7.3056587041e+01   6.5932445393e+01    0.3274969    0.2037856  12.32            0    1.654    0.396
       236 -10.7293     47.1248     27.6268   6.7587690252e+01   6.5671779304e+01    0.3295541    0.2768362  19.40  0.001826739    1.116    0.104
       237 -11.0181    236.6987     30.7091   3.1078619380e+01   2.4584111705e+01    0.4649344    0.2485717 -62.23  0.002384192    1.619    0.382
       238  -9.7013      4.4539    246.0213   1.2106161499e+02   2.0204424235e+01    0.2497115    0.1336391  40.94   0.00151194    1.628    0.386
       239  -9.5192     97.0573     33.3565   5.2738360436e+01   5.5449757765e+01    0.1881391    0.1426179  48.91 0.0003706704    1.173    0.148
       240  -9.2412     53.9668     32.4659   6.6790593088e+01   6.3906535505e+01     0.188036    0.1121878  36.59 0.0005857311    1.532    0.347
       241  -9.8898    132.2076     29.7614   4.3646217311e+01   4.7879736927e+01    0.2815793    0.2111806 -14.75  0.001143941    1.654    0.395
       242  -9.6916    124.1236     30.8105   4.5541494274e+01   4.9645537527e+01    0.1893589     0.167121  82.74 0.0003365696    1.146    0.127
       243 -10.6573    154.6585     27.7871   3.9342074472e+01   4.2827856924e+01    0.4491231    0.2597083  17.79  0.001498974    3.861    0.741
       244 -10.3409    158.3965     23.0049   3.7513111142e+01   4.2483880436e+01    0.2324611    0.1658309  73.11 0.0008405397    1.228    0.185
       245 -10.4798    106.2349    244.0162   9.9439274636e+01   8.1008202739e+00    0.2854123    0.2149371  45.77 0.0008761886    1.200    0.167
       246  -9.6295    234.9999    241.4966   7.2482127840e+01  -9.2669997189e+00    0.1708618     0.102361  24.91  0.001036172    1.604    0.376
       247  -9.0173    189.4698    239.4384   8.0813342426e+01  -3.1813784264e+00    0.1279692    0.1072584   5.12 6.260184e-05    1.029    0.028
       248 -10.9181     34.7792     27.2869   7.3055538245e+01   6.7529795721e+01    0.5700101     0.323265 -11.38  0.002944454    2.082    0.520
       249 -10.5522     28.8435    243.8566   1.1612453769e+02   1.8154006037e+01    0.3160777    0.1699138  60.00   0.00175492    1.629    0.386
       250  -9.1079    166.3444    234.3121   8.4804974809e+01   1.0128069885e+00    0.1394415   0.09486117  -3.41 0.0007046341    1.706    0.414
       251 -11.4045    119.2652    231.0148   9.4793101166e+01   8.7953235123e+00    0.3024082    0.2607965 -77.92 0.0004445224    1.351    0.260
       252 -11.0502    140.6706    227.3533   8.9368987553e+01   6.2389225530e+00    0.2679173    0.2502125 -80.88 0.0002637054    1.288    0.224
       253  -9.4672    215.9683     28.6993   3.2434937248e+01   2.8997571984e+01    0.1697419    0.1337681 -82.29 0.0004958776    1.074    0.069
       254  -9.7883    179.8206     28.8037   3.6238808094e+01   3.6881564293e+01    0.1905107    0.1619358  69.07 0.0009631561    1.189    0.159
       255  -9.1051     69.6840     29.3319   5.9566944653e+01   6.1527123049e+01    0.1176189    0.1038529 -83.82 0.0007046675    1.685    0.407
       256  -9.5840      2.6812    228.6627   1.2053458088e+02   2.4045050481e+01    0.1701453     0.131912 -45.61 0.0009190984    1.786    0.440
       257 -10.2459    207.0504     25.4318   3.2564359584e+01   3.1267133254e+01    0.2154546    0.1606409 -49.04 0.0004284049    1.285    0.222
       258  -9.7605    184.1141     25.5246   3.4947348796e+01   3.6291239917e+01    0.2475042    0.1628076 -71.84  0.001027604    1.470    0.320
       259  -9.7524    121.3667     26.2545   4.4637625510e+01   5.0795224103e+01    0.3122834    0.1575806  56.80  0.001104938    1.690    0.408
       260 -10.3236      1.7905     20.8504   8.8192776504e+01   7.1999621297e+01    0.3143895     0.129603 -43.98  0.001701364    2.040    0.510
       261 -10.2318    183.9259    225.9537   7.9713143250e+01  -8.2149365866e-02    0.1988024    0.1712965  -0.50 0.0003518436    1.010    0.010
       262 -10.0919     23.0587    224.2141   1.1599448132e+02   2.3047719331e+01      0.16682    0.1203329  14.76  0.000971458    1.864    0.464
       263  -9.4742     98.8882     23.4875   4.8700499903e+01   5.6175545051e+01    0.1815487    0.1738015  11.57  0.001192527    1.142    0.124
       264 -10.5344     81.3201     26.5560   5.4677691530e+01   5.9568591891e+01    0.3565475    0.2629873  70.16  0.001993968    1.728    0.421
       265 -10.2278    179.5244     22.1282   3.4651200193e+01   3.7712874941e+01    0.2594429    0.1840364 -72.24   0.00155365    1.319    0.242
       266  -9.2781      7.6762    224.6895   1.1929017945e+02   2.4458131892e+01    0.1108149   0.08679526 -50.32 0.0006323374    1.654    0.395
       267 -11.5829     76.2067    219.1315   1.0334958545e+02   1.7734060357e+01     1.194171    0.4314792  33.69  0.004651431    2.549    0.608
       268 -11.4093     73.6218    213.9008   1.0334459670e+02   1.9302688849e+01     1.020443    0.3551172  30.57  0.003749726    2.904    0.656
       269  -9.9243    215.7810    221.6045   7.2621646210e+01  -3.8214658444e+00    0.1676637    0.1130877  36.93 0.0009508239    1.674    0.403
       270 -10.7838    108.0679    220.1901   9.5883976841e+01   1.2808184779e+01    0.3520478    0.1636379  40.82  0.000851539    1.965    0.491
       271  -8.9606    170.3355    219.6651   8.1524114847e+01   3.1199623024e+00    0.1316465    0.1094215  67.76 0.0007052053    1.742    0.426
       272 -11.1585    118.3088    215.4875   9.2751226193e+01   1.2240015101e+01    0.4764338    0.2978742 -63.55  0.002249728    1.843    0.457
       273  -9.0234     41.4688     25.5057   6.9147424666e+01   6.6824480323e+01    0.1261086   0.09946647   6.74 0.0002843706    1.051    0.048
       274  -9.3681     99.6111    215.7854   9.7291723836e+01   1.5081481685e+01    0.1922851    0.1349596 -76.47 0.0009517443    1.657    0.397
       275  -9.0323    103.2951    213.3842   9.6058599231e+01   1.5060101265e+01    0.1455128     0.107777 -23.20 0.0002071786    1.765    0.433
       276 -11.3172    248.3231    212.0214   6.5115178830e+01  -6.4379023532e+00    0.3058207    0.1877132  23.37  0.001700198    1.723    0.420
       277 -12.5298    236.2423    207.1553   6.6308537131e+01  -4.1608124956e+00    0.5537515    0.2777113 -23.64  0.002668892    2.117    0.528
       278  -9.7935     73.0680     25.8186   5.6993870717e+01   6.1301017851e+01     0.268619    0.1752591 -39.24  0.001485879    1.817    0.450
       279  -9.4342    205.8745     21.1243   3.1745727993e+01   3.2018207089e+01    0.1480033    0.1317655  77.87 0.0003661988    1.269    0.212
       280  -9.7935    193.5279     16.9620   3.1983208662e+01   3.5154461806e+01    0.1826397     0.137166  88.21  0.000366833    1.127    0.113
       281  -9.3279    209.4305    210.4407   7.1842987309e+01  -1.0526876405e+00    0.1312162    0.1114792 -11.80 9.471155e-05    1.029    0.028
       282  -9.3034     77.1967     15.7756   5.1611650684e+01   6.1557564119e+01    0.1913417    0.1327566 -78.55 0.0009428429    2.767    0.639
       283  -9.4997    149.0501    210.3409   8.4678792307e+01   8.3662030443e+00    0.1998208     0.171048  26.37  0.000396506    1.103    0.094
       284  -9.5306      2.7122    210.0601   1.1948120876e+02   2.8216731404e+01    0.1683493    0.1317974  85.82 0.0002502307    1.060    0.057
       285  -8.9207    193.6883    206.2816   7.4212577371e+01   2.0285261942e+00    0.1209447    0.1106893  73.04 0.0002521621    1.569    0.363
       286  -9.5200    162.7962     13.7668   3.4517505738e+01   4.2420867188e+01    0.1788448    0.1281036 -75.26  0.001069403    1.347    0.258
       287 -10.4529     90.2916    204.7402   9.8028938265e+01   1.9051296125e+01    0.4047812    0.2583113 -79.58  0.001462966    1.887    0.470
       288 -11.0793     11.4289    202.1061   1.1701066016e+02   2.9310371758e+01    0.2463022    0.1647198  47.21  0.001411022    1.418    0.295
       289  -9.0877    167.0190    198.0358   7.8382696191e+01   7.9311288632e+00    0.1701817    0.1562231  -8.40 0.0003338214    1.013    0.013
       290  -9.2040    122.9609    198.4989   8.8881736346e+01   1.5293856750e+01    0.2150379    0.1405013  35.22 0.0003617276    1.476    0.322
       291  -9.6722    220.7854    197.3942   6.7282032082e+01  -4.0465137280e-01    0.1781495    0.1161545  18.27 0.0005955009    1.673    0.402
       292  -9.5464     57.7564    196.3557   1.0516729118e+02   2.5657637279e+01    0.2148459    0.1532226  54.86 0.0006229645    1.361    0.265
       293 -12.7719    240.4036    184.6552   6.1429449556e+01  -9.8050417091e-01    0.6833729    0.3706421  24.13  0.003419591    2.316    0.568
       294 -12.9046    249.0688    183.6453   5.9823364664e+01  -1.9881163230e+00    0.8497605    0.2997161 -41.93  0.003695957    2.383    0.580
       295 -10.2837    103.1515    194.6226   9.3229919401e+01   1.9464035152e+01    0.2558937    0.2236907 -35.63 0.0003541114    1.242    0.195
       296  -9.2394     16.3243    194.6513   1.1529419428e+02   3.0657849414e+01    0.1427505    0.0796739  65.23 0.0007049227    1.749    0.428
       297 -12.9681    242.2521    193.4629   6.2768878096e+01  -2.7057650000e+00    0.7261006    0.2996304 -29.77  0.003139121    2.498    0.600
       298  -9.0278    206.7857    189.9894   6.8518730512e+01   3.0294704644e+00    0.1813611    0.1006342 -40.45 0.0003843924    1.644    0.392
       299  -9.5135     64.0285    188.4686   1.0253322826e+02   2.6807749847e+01    0.2146374    0.1391477  32.04  0.001029493    1.587    0.370
       300 -12.4356    247.9131    190.8188   6.1343423127e+01  -3.0158228361e+00    0.5848024    0.2486643 -34.91  0.002788175    1.985    0.496
       301  -9.0666    104.2588    185.3475   9.1396780223e+01   2.1533136893e+01    0.1512021    0.1139395 -28.07 0.0002420807    1.599    0.375
       302  -9.2737     46.8214    184.3823   1.0656075730e+02   3.0018364296e+01    0.1739361     0.136412  11.81 0.0001675393    1.584    0.369
       303 -10.2357     28.4641    183.5826   1.1126989762e+02   3.2232450631e+01      0.22769    0.1982747 -87.54 0.0002394371    1.030    0.029
       304 -12.0141    239.5060    179.0456   6.0512445607e+01   1.0262168621e-01    0.4976631       0.2127  34.02  0.002248486    2.809    0.644
       305  -9.5093     38.8736    180.1708   1.0817186138e+02   3.2001416261e+01    0.1825935    0.1543263 -48.82 0.0003332488    1.297    0.229
       306  -8.5446      9.4907    179.5437   1.1573376745e+02   3.4982351636e+01    0.1303759    0.1087982 -88.66 9.626038e-05    1.018    0.017
       307  -9.5785     24.1013    178.2298   1.1186276943e+02   3.4015582678e+01    0.1930698    0.1674542 -57.88 0.0004296025    1.225    0.184
       308  -8.6458     70.7029    175.3078   9.8828124364e+01   2.9248937118e+01    0.1519947    0.1081171  69.44 0.0001957581    1.591    0.371
       309 -10.8675     36.5307    172.5182   1.0790313938e+02   3.4223116276e+01    0.2580845    0.2232727 -73.02 0.0002860143    1.071    0.066
       310  -9.1746     88.4464    171.4761   9.3260751631e+01   2.7572566742e+01    0.1496985    0.1450528 -62.85  0.000807444    1.038    0.037
       311 -11.8654     54.1906    168.6219   1.0245944078e+02   3.3189823667e+01    0.2939624    0.2423873 -67.83 0.0004161355    1.127    0.113
       312 -10.0388     41.3459    168.1834   1.0602537994e+02   3.4822696541e+01    0.2147689    0.1924399  12.58 0.0005136679    1.316    0.240
