#   1 NUMBER                 Running object number                                     
#   2 MAG_AUTO               Kron-like elliptical aperture magnitude                    [mag]
#   3 X_IMAGE                Object position along x                                    [pixel]
#   4 Y_IMAGE                Object position along y                                    [pixel]
#   5 X_WORLD                Barycenter position along world x axis                     [deg]
#   6 Y_WORLD                Barycenter position along world y axis                     [deg]
#   7 A_WORLD                Profile RMS along major axis (world units)                 [deg]
#   8 B_WORLD                Profile RMS along minor axis (world units)                 [deg]
#   9 THETA_WORLD            Position angle (CCW/world-x)                               [deg]
#  10 FWHM_WORLD             FWHM assuming a gaussian core                              [deg]
#  11 ELONGATION             A_IMAGE/B_IMAGE                                           
#  12 ELLIPTICITY            1 - B_IMAGE/A_IMAGE                                       
         1 -12.8953     90.1178     26.8438   4.5485215883e+01   5.8229677447e+01    0.5310408     0.404979  -7.17  0.001413809    1.490    0.329
         2 -13.7037     26.4102     28.0881   7.2302339220e+01   6.9697196644e+01    0.8054776    0.7207713  69.79  0.002374457    1.797    0.443
         3 -12.5071     18.7851     12.4781   6.8849146798e+01   7.3137026573e+01    0.4103388    0.3048676 -46.39  0.002585215    1.737    0.424
         4 -12.5883     11.5642     20.8089   7.7932506581e+01   7.2619287504e+01    0.5391771    0.2118471 -43.97  0.002588316    2.256    0.557
         5 -12.5432     67.0299     26.9202   5.2870311562e+01   6.3118032447e+01    0.8251035     0.550047  80.15  0.003460655    2.987    0.665
         6 -13.7962    106.4359     20.6655   3.9063225414e+01   5.5195088604e+01    0.9759245    0.4416508  56.92  0.003445203    1.914    0.478
         7 -11.0721     39.8090     17.1144   5.9606529308e+01   6.9403624135e+01    0.2829621    0.1971933 -31.44  0.001235354    1.487    0.328
         8 -11.9523      2.7374     10.0638   7.8635591048e+01   7.5248455687e+01    0.3320682    0.2793165 -14.64  0.002410528    1.159    0.137
         9 -11.7261    115.0395      5.8395   3.1986455339e+01   5.4573438540e+01    0.2967362    0.2167656  44.15 0.0008407643    1.371    0.270
        10 -11.6195     38.3927    175.2050   1.0144133613e+02   3.2821454149e+01     0.177546    0.1752609 -84.10 0.0003417262    1.130    0.115
        11 -11.3749     45.0227    172.6024   9.9296791595e+01   3.2770668248e+01    0.3978149    0.2325047  82.45  0.001775095    1.998    0.499
        12 -11.0230     52.7284    169.4024   9.6713138731e+01   3.2707017165e+01    0.3762813    0.1985813 -64.33  0.001668039    1.780    0.438
        13 -10.7562      2.0828    162.8579   1.1042368697e+02   3.9101373331e+01    0.2440593     0.160171 -83.60  0.001242181    1.309    0.236
        14 -10.4493     81.4908    154.0017   8.5902858213e+01   3.2819133868e+01    0.2189505    0.1321188  89.70  0.000810525    2.612    0.617
        15 -13.9916    218.2500    137.1210   5.0405107176e+01   1.2350089331e+01    0.9398516    0.6940717 -49.96  0.005391859    1.362    0.266
        16 -13.6885    212.7663    127.1113   4.9153419213e+01   1.5024908109e+01    0.9739816    0.3682131 -40.48  0.003970535    2.242    0.554
        17 -12.2148     25.0385    141.4646   1.0153477130e+02   4.2925854893e+01    0.4915552    0.2937665 -58.01  0.001060809    1.512    0.339
        18 -12.6702     84.1641    127.5990   7.9754947414e+01   3.9164046334e+01     1.004988    0.4646676 -55.81  0.003772512    2.087    0.521
        19 -11.5016     58.5047    122.2640   8.7130256908e+01   4.4372148106e+01     0.686709    0.3154736 -79.07   0.00201594    4.183    0.761
        20 -14.3814    243.7666     99.9900   3.9105734328e+01   1.4238661615e+01    0.9275975     0.281412 -46.02  0.003710732    2.847    0.649
        21 -13.5853     41.5151    108.6545   9.0467118576e+01   5.0010218432e+01     1.208209    0.8707951 -65.29  0.001514345    1.307    0.235
        22 -13.6910     21.2126     99.6964   9.6626312427e+01   5.4270989083e+01    0.9828413    0.5745909  79.39  0.004266501    2.386    0.581
        23 -10.9019    107.9926     98.4985   6.4920348683e+01   4.1755525060e+01    0.2202151     0.134583  65.63 0.0008105469    2.563    0.610
        24 -12.1033    249.9945     87.7391   3.5920903076e+01   1.5060407291e+01    0.2450164    0.1190172 -46.95  0.001299302    1.664    0.399
        25 -12.1908    221.4233     80.1387   3.7564290956e+01   2.1243720526e+01    0.4305238    0.3571083 -66.19  0.001666167    1.175    0.149
        26 -10.8041    115.5810     71.2025   5.4508524516e+01   4.5689885614e+01    0.2913473    0.1387398 -43.92  0.001138867    2.119    0.528
        27 -11.2444     50.8793     69.4617   7.6372692729e+01   5.8332837453e+01    0.2835368    0.2361502 -61.02 0.0008843295    1.348    0.258
        28 -13.2760     89.7405     66.1357   6.0474937632e+01   5.2169699834e+01     1.020391    0.4610484  48.88  0.002592071    2.304    0.566
        29 -12.4135    112.8429     64.6473   5.3113411184e+01   4.7479254393e+01     0.718203    0.4279083  69.30  0.002664707    2.368    0.578
        30 -11.1138    110.6600     60.6908   5.2380783277e+01   4.8653447028e+01    0.3125829    0.2201221  39.59  0.001339033    1.459    0.315
        31 -11.8395    101.6879     59.1229   5.4350232141e+01   5.0910516663e+01    0.3577192    0.2906506  18.67  0.001060003    1.381    0.276
        32 -11.7685     73.9550     58.4296   6.3217434722e+01   5.6721459580e+01      0.45717    0.3566312 -48.03  0.002416972    1.379    0.275
        33 -11.2724     63.6004     56.5923   6.6529435516e+01   5.8947329460e+01    0.4608589    0.2590063 -63.69   0.00169517    3.456    0.711
        34 -11.6929     39.8182     54.3941   7.6191851645e+01   6.3043016987e+01    0.3858167    0.2289249  26.38  0.001788855    1.718    0.418
        35 -11.3992     42.5196     51.4884   7.3822933969e+01   6.3257883935e+01    0.2843318    0.2600898  -2.49 0.0009122576    1.079    0.073
        36 -10.6751     31.4922     51.0322   7.9073294344e+01   6.4770190964e+01    0.2082164    0.1213251 -48.84  0.001040693    1.613    0.380
        37 -11.9500    242.4896     48.9902   2.8771036783e+01   2.1760511182e+01     0.227985    0.1460036 -76.76  0.001408479    1.630    0.386
        38 -11.6919     44.5785     42.3901   6.9213398582e+01   6.4673950018e+01    0.3413899    0.2810583 -17.01  0.001336107    1.117    0.105
        39 -12.7206     37.6632     39.6999   7.1464200371e+01   6.6164510824e+01    0.6403894    0.4723633  72.99  0.003078273    2.838    0.648
        40 -12.4979     58.3870     40.0970   6.2074917790e+01   6.2794011646e+01    0.5698234    0.4186435 -57.86  0.002984166    1.890    0.471
        41 -13.1029     46.2207    235.3351   1.0486719909e+02   1.8024769771e+01     0.506184    0.3021315  54.93  0.001823052    1.511    0.338
        42 -13.6452     81.6557     36.3847   5.1917184728e+01   5.8812305979e+01    0.7736033    0.4553373  45.29  0.003774154    1.578    0.366
        43 -13.6161     89.1462     33.0229   4.8254752770e+01   5.7659776699e+01    0.5947806    0.4663387  62.17  0.001624502    1.322    0.244
        44 -13.5847    242.7823    222.5847   6.2356086769e+01  -4.4905158437e+00    0.6687543    0.5711586  14.17  0.005084713    1.469    0.319
        45 -12.1825    215.1007    192.3164   6.1815939790e+01   3.3742513201e+00    0.4041322    0.1942635 -47.57  0.001889322    2.363    0.577
        46 -11.8655     13.0281     30.4947   8.1385243038e+01   7.0736200093e+01    0.4363387    0.3569606 -71.63  0.001983415    1.774    0.436
        47 -13.2347    217.4811    188.0020   6.0602505483e+01   3.7621887238e+00    0.4307394    0.3522389  65.75  0.002530155    2.190    0.543
        48 -13.1440    211.0576    183.1066   6.0831704385e+01   5.4711781851e+00    0.4558592     0.374545 -41.73   0.00284145    1.334    0.250
        49 -12.4729    174.4883    182.2538   6.7801652510e+01   1.1118858628e+01    0.4361499    0.2597162 -54.29  0.002018673    2.030    0.507
        50 -11.6033     44.6745     20.0314   5.8788314952e+01   6.8193370070e+01    0.3149529    0.2247063  32.01 0.0008626287    1.266    0.210
        51 -12.4633    146.3462    175.2552   7.2718552587e+01   1.7130510208e+01    0.8493271    0.5318902 -70.13  0.003457985    2.631    0.620
        52 -11.2165    207.6053     14.9275   2.4271636442e+01   3.2614099256e+01    0.2054994    0.1535961  87.19 0.0004404076    1.250    0.200
        53 -10.4152     26.0372     13.6588   6.5103389306e+01   7.1993749866e+01    0.1758962    0.1329573  16.46 0.0008532821    1.150    0.130
        54 -10.6626     76.6617    175.3053   9.0796181888e+01   2.8117532796e+01    0.1537394    0.1054473  63.12  0.000704059    1.675    0.403
