#   1 NUMBER                 Running object number                                     
#   2 MAG_AUTO               Kron-like elliptical aperture magnitude                    [mag]
#   3 X_IMAGE                Object position along x                                    [pixel]
#   4 Y_IMAGE                Object position along y                                    [pixel]
#   5 X_WORLD                Barycenter position along world x axis                     [deg]
#   6 Y_WORLD                Barycenter position along world y axis                     [deg]
#   7 A_WORLD                Profile RMS along major axis (world units)                 [deg]
#   8 B_WORLD                Profile RMS along minor axis (world units)                 [deg]
#   9 THETA_WORLD            Position angle (CCW/world-x)                               [deg]
#  10 FWHM_WORLD             FWHM assuming a gaussian core                              [deg]
#  11 ELONGATION             A_IMAGE/B_IMAGE                                           
#  12 ELLIPTICITY            1 - B_IMAGE/A_IMAGE                                       
         1  -8.9332     39.1873      7.4608   2.9144628505e+02   7.4344135135e+00   0.02406047   0.01697765 -24.96   0.00251063    1.686    0.407
         2 -10.5886     38.8219     29.7982   2.9158866966e+02   7.1818267867e+00   0.05396477   0.03478367  89.73  0.005137285    2.134    0.531
         3 -11.8812     42.9539     20.1926   2.9148185053e+02   7.2666377711e+00   0.08923927   0.05638746  85.49  0.008239158    2.306    0.566
         4 -10.6738     71.3578      5.1863   2.9106310812e+02   7.2673555700e+00   0.02819584   0.02221856   2.16  0.002232232    1.428    0.300
         5 -12.2070     81.7586      8.1027   2.9096188754e+02   7.1716329936e+00    0.1230794   0.07154138 -32.53   0.01055524    2.148    0.534
         6 -14.1756    163.2595     10.2996   2.9004161983e+02   6.6558747721e+00    0.2535419    0.1047737  27.58   0.02101092    2.447    0.591
         7 -10.9563    248.8007     14.6438   2.8909037739e+02   6.0894597960e+00   0.04682853      0.01952 -56.80  0.003969731    2.263    0.558
         8 -11.4987    247.6501      5.8530   2.8904891816e+02   6.1965225538e+00   0.05274038   0.04764345  66.23  0.006447531    1.177    0.151
         9 -10.8340    131.5779      3.1719   2.9036025010e+02   6.9281034353e+00   0.03949261   0.02078085  21.26  0.003092468    2.098    0.523
        10 -10.0802    111.4880     15.5237   2.9066704512e+02   6.9082640105e+00   0.02461266   0.01654532  -5.03  0.002109277    1.956    0.489
        11 -10.6813    117.1408     14.5196   2.9059604058e+02   6.8856922336e+00   0.02787135   0.01785478 -49.72  0.002645034    1.536    0.349
        12 -11.7466    120.9339      3.7469   2.9048578234e+02   6.9856556214e+00   0.07471263   0.02324863  29.34  0.005469678    3.106    0.678
        13  -9.7577     94.0438     17.4956   2.9087921606e+02   6.9906999163e+00   0.02284573   0.01716966  53.10  0.002001551    1.448    0.309
        14  -9.2276     55.4551      8.1812   2.9126408448e+02   7.3286559149e+00    0.0351873   0.01163095  47.69  0.002231417    4.370    0.771
        15  -9.6351     63.8101     16.3270   2.9121867326e+02   7.1856330110e+00   0.01807244   0.01306677  64.89  0.001409406    1.669    0.401
        16  -8.3772     49.1312      6.1741   2.9132421516e+02   7.3894720103e+00   0.01322095  0.008653825 -41.58  0.001352418    1.601    0.375
        17  -8.8289     52.0362      1.9749   2.9126488298e+02   7.4199260330e+00   0.01478502   0.01314859  15.73  0.001249104    1.152    0.132
        18 -10.1608    226.3110     14.3394   2.8934544234e+02   6.2289858951e+00   0.02431874   0.01237199  50.42  0.001941833    2.369    0.578
        19 -10.9291    128.2171     17.9310   2.9049027529e+02   6.7801103624e+00   0.03079449   0.02021627  20.27  0.002590586    1.624    0.384
        20  -8.5431     20.1648     14.4153   2.9170762195e+02   7.4690357690e+00   0.01886213   0.01107445 -46.63  0.001850642    1.715    0.417
        21 -10.5349    230.0720      6.4727   2.8925360683e+02   6.2958331704e+00   0.02239659   0.01571092 -79.72  0.002339773    1.660    0.398
        22  -9.7731     61.0747      2.5015   2.9116444100e+02   7.3596950640e+00   0.02826585   0.01843144  14.25  0.002859449    1.745    0.427
        23  -8.6608     26.0958      2.7754   2.9156754070e+02   7.5662644540e+00   0.01737575   0.01129934 -57.35  0.001806702    1.500    0.333
        24  -8.4291     16.7132      1.7088   2.9166864493e+02   7.6345935710e+00   0.01313209  0.008357199  38.81 0.0008436449    1.571    0.364
        25  -8.1335     39.7848      1.3531   2.9140162209e+02   7.5004721167e+00  0.009317064  0.006263329  13.32 0.0009416392    1.686    0.407
        26  -9.9035     11.1487     70.4074   2.9215693645e+02   6.8839906415e+00   0.02581223   0.01976397 -54.07  0.002400179    1.279    0.218
        27 -10.1259     12.2018     77.9940   2.9219166158e+02   6.7910597545e+00   0.03867742   0.02049712   9.45  0.003223046    2.703    0.630
        28 -10.1778     16.8088     73.5388   2.9211134919e+02   6.8143759802e+00   0.02697235   0.02057267  -2.99  0.002895159    1.531    0.347
        29  -8.3969     77.7038     78.1354   2.9144170312e+02   6.3969327329e+00   0.01067259  0.008401417  86.78 0.0009178674    1.483    0.326
        30  -7.8885    136.3449     77.2833   2.9076481937e+02   6.0541206478e+00  0.006858454   0.00496969 -22.33 0.0007015764    1.642    0.391
        31  -7.8228    203.8786     76.1799   2.8998543888e+02   5.6596017441e+00  0.009915499  0.008617254  66.02 0.0005803281    1.249    0.199
        32  -8.4449     83.2030     69.6010   2.9132594002e+02   6.4613454788e+00  0.009416568  0.006413026  12.65 0.0009576847    1.669    0.401
        33  -8.8533     74.3894     67.8201   2.9141592855e+02   6.5345914079e+00   0.02358811   0.01455546 -13.29  0.002125906    2.387    0.581
        34  -8.9928     48.7297     62.4292   2.9167674374e+02   6.7500535508e+00   0.01641566    0.0125318  20.30  0.001833669    1.359    0.264
        35  -8.5835     34.0680     68.0955   2.9187984726e+02   6.7732149682e+00   0.01650433  0.009489176  16.76  0.001541815    2.013    0.503
        36  -8.3199     15.7355     58.0069   2.9202779691e+02   6.9981302585e+00  0.009497794  0.008794187 -59.51   0.00116435    1.073    0.068
        37  -9.5417     23.9326     63.9211   2.9197029638e+02   6.8815587887e+00   0.04869976   0.02212815 -58.67  0.004281904    2.112    0.526
        38  -8.3314    198.0384     54.4993   2.8991783080e+02   5.9421156150e+00  0.009736029   0.00646058  28.44 0.0004185549    1.511    0.338
        39  -8.5413     66.0259     52.5927   2.9141764991e+02   6.7585942170e+00   0.01778125   0.01100772  84.12  0.001587103    2.444    0.591
        40  -9.7687     88.5340     50.8535   2.9114889658e+02   6.6432937949e+00   0.02316181   0.01331021  44.90  0.002230392    1.839    0.456
        41  -9.5760     81.9593     47.4965   2.9120348174e+02   6.7210959429e+00   0.02061151   0.01874727 -12.88  0.001791692    1.151    0.131
        42  -8.1660    111.7489     44.7219   2.9084493279e+02   6.5736896317e+00    0.0163525  0.007871908 -61.64  0.001450972    2.066    0.516
        43 -10.3602      3.0221     39.6217   2.9206013089e+02   7.2840107023e+00   0.03347986   0.02798237  77.86  0.003312038    1.353    0.261
        44  -8.5459     11.9951     34.1084   2.9192311000e+02   7.2932640759e+00   0.02383995   0.01826115 -50.26  0.001869942    1.285    0.222
        45  -8.0048     97.3243     43.5007   2.9100265531e+02   6.6743629778e+00    0.0118945  0.006055196 -62.08  0.001076012    1.964    0.491
        46  -9.1057     80.0116     41.2306   2.9118703630e+02   6.8042883710e+00   0.01878492   0.01199658   8.00  0.001826898    1.942    0.485
        47  -9.2774    108.8647     39.3165   2.9084450770e+02   6.6527029766e+00   0.01757901   0.01178949 -10.81  0.001720826    1.983    0.496
        48 -10.3698    182.5412    246.1159   2.9127914678e+02   3.8481253108e+00   0.01688437   0.01147719  14.68   0.00152865    1.641    0.391
        49 -10.3279    175.2944    242.6831   2.9134072817e+02   3.9309028631e+00   0.01547467  0.009704585 -68.74  0.001543442    1.702    0.412
        50  -9.6998     50.3187     27.8209   2.9144455705e+02   7.1354685572e+00   0.02281888   0.01759893 -84.95  0.002525597    1.485    0.327
        51 -10.0165    163.5160    244.2427   2.9148480786e+02   3.9838958200e+00   0.01247035  0.009381834  27.77  0.001382307    1.336    0.251
        52  -8.7851     69.5568     36.9229   2.9128024189e+02   6.9162099450e+00    0.0141437   0.01167611 -50.98  0.001649085    1.194    0.162
        53  -9.7026     66.2195     30.4075   2.9127819417e+02   7.0105706902e+00   0.02957189   0.01410037 -66.40  0.002222991    2.270    0.559
        54 -10.3179    159.4405     36.4319   2.9024740917e+02   6.3810135715e+00   0.02185242   0.01291878  20.19  0.002114237    1.847    0.459
        55  -8.5954     26.3959     35.4144   2.9176594866e+02   7.1921774676e+00   0.01991388  0.008574734  20.72   0.00157548    2.764    0.638
        56  -8.5592    195.6756    237.6887   2.9107730486e+02   3.8653583716e+00  0.006943934  0.004932522 -26.08 0.0007039529    1.657    0.396
        57 -10.7186    208.6047    224.0094   2.9084539860e+02   3.9437454345e+00   0.01918559   0.01425917  -6.34  0.002053006    1.618    0.382
        58  -8.5097    245.3281    205.6750   2.9031322309e+02   3.9318516210e+00  0.006976901  0.004963545  63.57 0.0005719816    1.698    0.411
        59  -7.6472     22.8144     25.6014   2.9174638297e+02   7.3255784267e+00  0.009784268  0.005663508  40.63 0.0006071312    1.745    0.427
        60  -8.1409     37.9854    184.7746   2.9255387654e+02   5.4166341261e+00  0.008874854  0.005428662  27.03 0.0005374766    1.652    0.395
        61 -10.7170     11.3592    127.9306   2.9250904101e+02   6.2256332699e+00   0.02345427   0.01092385 -46.45  0.002035776    2.201    0.546
        62 -11.8136     10.7542    139.9231   2.9258978121e+02   6.0922009786e+00   0.03769246   0.02418308 -60.03  0.003900898    1.533    0.348
        63  -8.9269     22.4564    125.4952   2.9236690890e+02   6.1870866900e+00   0.01380603  0.006505743  27.22  0.001206147    2.148    0.535
        64  -9.8895    117.0000     18.9663   2.9062521574e+02   6.8358402781e+00   0.01650514  0.008501916 -58.20 0.0009546811    1.876    0.467
        65 -10.5342     12.9848    119.6953   2.9243970743e+02   6.3100156167e+00    0.0256274   0.01039103  37.62  0.002129906    2.386    0.581
        66  -9.3857     40.3499    141.9241   2.9226313915e+02   5.8922406837e+00   0.01605782  0.009423158  54.58   0.00149146    2.082    0.520
        67 -12.6863    240.8653    133.5149   2.8991800027e+02   4.7822476125e+00   0.07726671   0.05199816  29.06  0.004588294    1.486    0.327
        68  -9.5913     17.1106    104.6284   2.9229960533e+02   6.4574802590e+00   0.02128535   0.01636136  34.31  0.002405509    1.298    0.229
        69 -10.2030     46.3612    100.1315   2.9193666508e+02   6.3337228619e+00   0.02647338   0.01372717 -55.85  0.002478104    1.846    0.458
        70  -9.4517     30.1445    102.0179   2.9213413578e+02   6.4093023825e+00   0.01740103   0.01125762 -39.21  0.001764073    1.666    0.400
        71  -9.1034      2.1361     88.8241   2.9237385404e+02   6.7275535940e+00   0.02251576   0.01268725 -73.09   0.00207072    2.091    0.522
        72  -7.8477      8.3821     17.7866   2.9186370699e+02   7.5010818078e+00  0.009358177  0.005809339 -50.99 0.0006909019    1.573    0.364
        73  -7.6713     82.4889     89.5111   2.9145717122e+02   6.2383176432e+00  0.006480946  0.006435284 -43.83 -3.240248e-05    1.006    0.006
        74 -11.3204     44.4352     82.5565   2.9185027608e+02   6.5459872848e+00   0.05366985   0.03846012  -6.45  0.005439335    1.728    0.421
        75  -8.9707     34.9714     79.0047   2.9193683682e+02   6.6432412744e+00   0.01803206    0.0123262 -72.32  0.001880923    1.593    0.372
        76  -7.3391     13.3127     15.2996   2.9179173713e+02   7.4999539579e+00  0.006821669  0.004931259 -26.04 0.0006413781    1.606    0.377
        77  -9.8187     87.9097     29.9586   2.9102672442e+02   6.8854312956e+00   0.02825877   0.01609304 -29.96  0.002512191    2.341    0.573
        78 -10.5217    225.3107     28.6434   2.8944567176e+02   6.0720767561e+00   0.02380849   0.01869563 -32.63  0.001520017    1.366    0.268
        79  -8.7825    125.4478     28.6463   2.9058841589e+02   6.6746068605e+00   0.01310438   0.01158452 -37.60  0.001498237    1.146    0.128
        80  -8.0140     10.3039     86.3140   2.9226473361e+02   6.7073912549e+00   0.00687259  0.004906693 -27.90 0.0002438143    1.618    0.382
        81  -8.6401     98.0261     27.1597   2.9089343011e+02   6.8565488523e+00   0.01537806   0.01151321 -34.38   0.00168516    1.439    0.305
        82  -9.2449    227.6331     78.6930   2.8972955998e+02   5.4875079948e+00    0.0187549   0.01280914 -39.02  0.001818586    1.562    0.360
        83  -9.8573     17.1438     64.6753   2.9205280794e+02   6.9135744039e+00   0.04595194   0.02202567  67.05  0.002634732    6.065    0.835
        84  -9.4102    104.7004     25.7958   2.9080848489e+02   6.8319668912e+00   0.02017302   0.01487321  39.28  0.002229193    1.363    0.266
        85 -10.2032      3.5436     76.0067   2.9227869137e+02   6.8655253984e+00   0.02634329   0.02180804  52.42  0.002021332    1.277    0.217
