#   1 NUMBER                 Running object number                                     
#   2 MAG_AUTO               Kron-like elliptical aperture magnitude                    [mag]
#   3 X_IMAGE                Object position along x                                    [pixel]
#   4 Y_IMAGE                Object position along y                                    [pixel]
#   5 X_WORLD                Barycenter position along world x axis                     [deg]
#   6 Y_WORLD                Barycenter position along world y axis                     [deg]
#   7 A_WORLD                Profile RMS along major axis (world units)                 [deg]
#   8 B_WORLD                Profile RMS along minor axis (world units)                 [deg]
#   9 THETA_WORLD            Position angle (CCW/world-x)                               [deg]
#  10 FWHM_WORLD             FWHM assuming a gaussian core                              [deg]
#  11 ELONGATION             A_IMAGE/B_IMAGE                                           
#  12 ELLIPTICITY            1 - B_IMAGE/A_IMAGE                                       
         1 -13.9916    187.6782     35.7205   6.0328240247e+01   3.3660227218e+01      1.35807    0.9819786  23.93  0.004404231    1.629    0.386
         2 -14.7121    196.6644     28.7044   5.6800447182e+01   3.2167258460e+01     2.358653     1.690588  -7.65   0.01120241    1.551    0.355
         3 -14.0077    209.1636     12.7134   5.0374221380e+01   3.0676861109e+01     1.570009     1.203002   2.79  0.005315335    1.499    0.333
         4 -11.6545    204.1653     19.6765   5.3045807937e+01   3.1237373160e+01      0.50806    0.4091358  31.36  0.001120012    1.379    0.275
         5 -10.2805     21.4983      2.9969   9.5172279487e+01   7.2720465219e+01    0.1787371   0.07226806 -30.73 0.0008106694    2.604    0.616
         6 -10.2308    119.7539      2.4566   5.9868048573e+01   5.5072219203e+01    0.3605275    0.1214785  60.00  0.001318347    2.703    0.630
         7 -13.4586    108.4552    177.9512   1.1176048704e+02   2.4863438939e+01     1.476961    0.8336383 -69.00  0.007883742    2.022    0.505
         8 -11.1472    140.7019    249.6393   1.1414140280e+02   9.0248762895e+00    0.2921382    0.1342773  39.68  0.001780494    1.741    0.425
         9 -13.9197     76.9739    223.1127   1.2219209852e+02   2.1565717580e+01     1.154647    0.7949199  57.11  0.005903111    1.093    0.085
        10 -13.2457     57.0759    203.3154   1.2411141059e+02   2.7351743412e+01     1.266739    0.8446655 -41.31   0.00776337    2.924    0.658
        11 -13.2526     59.7240    228.0039   1.2538212584e+02   2.2924476699e+01    0.8003922    0.3573825  46.03  0.005154348    1.723    0.420
        12 -13.6463      8.5507    139.5056   1.2892411914e+02   4.4709735244e+01     2.252644    0.9564288 -56.81   0.01229829    2.545    0.607
        13 -15.4020      4.9260     87.4962   1.2501963771e+02   5.6278463067e+01     16.69871     1.852956 -75.10   0.03619696   11.041    0.909
        14 -15.6499     51.0254    242.1718   1.2758639065e+02   2.1760926615e+01     1.881206    0.7829185  60.62   0.01024334    1.874    0.466
        15 -15.8230      3.3524    231.6783   1.3427851851e+02   2.8241663459e+01     2.247175    0.5070604 -81.06   0.01185945    3.949    0.747
        16 -15.1501     11.6364    201.1139   1.3182730111e+02   3.2546093782e+01     1.047345    0.4019072 -79.52  0.006479175    2.240    0.554
        17 -14.7177      2.9513    191.7167   1.3288766164e+02   3.4987355273e+01     0.929293    0.2976443 -80.06  0.005266901    2.573    0.611
        18 -13.0815     52.3480    179.6050   1.2308013049e+02   3.2268654501e+01      1.24427    0.6003345 -70.87  0.007237088    1.941    0.485
        19 -13.2370     98.1461    211.5436   1.1753156127e+02   2.0571037337e+01     1.092639    0.6111695  66.20  0.006525112    1.811    0.448
        20 -13.5576    117.1040    225.1906   1.1559259178e+02   1.5731132735e+01     1.484655     0.769082  37.83  0.008807397    1.820    0.450
        21 -14.3136    121.2766    198.9906   1.1196151209e+02   1.9182576658e+01     2.034612     1.210715  57.29   0.01132586    1.541    0.351
        22 -13.6426     89.5102    187.0336   1.1659086971e+02   2.6030657487e+01     1.435395     1.109651  -1.13   0.00835005    2.597    0.615
        23 -13.6615     67.8050    190.7813   1.2111306589e+02   2.8274254571e+01     1.165745    0.5507473  52.68  0.006448216    1.774    0.436
        24 -14.8100     80.0208    164.5213   1.1589065258e+02   3.1683310658e+01     2.219822     1.062315  41.89   0.01142877    1.985    0.496
        25 -10.8728     98.6051    226.1365   1.1880876033e+02   1.8212477111e+01    0.3240992    0.2330326  73.39  0.002054527    1.290    0.225
        26 -10.4351    110.8326    213.4233   1.1547837301e+02   1.8440369441e+01    0.1875215    0.1532207 -88.40  0.001180517    1.303    0.233
        27 -10.8727     80.9473    206.1986   1.2009320980e+02   2.3828367647e+01    0.3460098    0.2773359  41.85  0.002218718    1.402    0.287
        28 -10.0719     32.4836    206.7865   1.2860503960e+02   2.9504017695e+01     0.225068   0.09252074  58.71 0.0005117996    1.906    0.475
        29 -10.8419    143.9566    202.2790   1.0821840034e+02   1.5027718095e+01    0.3774252    0.2341555  46.41  0.001703097    1.328    0.247
        30 -13.1822     97.4971    196.2222   1.1607457869e+02   2.3242725043e+01     1.132496    0.6461754  43.76  0.006750517    1.544    0.352
        31 -14.1450     71.7525    180.2091   1.1933567507e+02   2.9739076837e+01     1.455051    0.7569304  37.95  0.008150494    1.977    0.494
        32 -10.7960    199.0384    198.7689   9.7941645279e+01   6.2453630894e+00    0.1988114    0.1741781  -6.47  0.001175229    1.241    0.194
        33  -8.9101     24.4949    194.8911   1.2931144090e+02   3.2424735890e+01    0.1317326    0.0801249  89.59 0.0003768881    1.347    0.258
        34  -9.6526    208.4969    186.5052   9.4276717532e+01   6.1815491525e+00    0.1257325    0.1030996  25.24 9.688523e-05    1.030    0.029
        35  -9.3620      8.5131    175.3836   1.3113279442e+02   3.7532121867e+01    0.1424659   0.08646924  42.80 0.0006558705    1.654    0.395
        36 -12.4055    129.8627    169.7734   1.0626177776e+02   2.2835197339e+01     0.883595    0.5020216  45.46  0.004587919    1.582    0.368
        37 -11.7358    139.7319    167.8647   1.0395808570e+02   2.1449146417e+01    0.5487546    0.3839237  67.94  0.001201206    1.628    0.386
        38 -12.2867    104.3831    160.8114   1.1020886807e+02   2.8775260698e+01    0.6005767    0.4826579 -68.98  0.003074248    1.259    0.206
        39 -13.2438    137.1491    135.7242   9.8624573989e+01   2.7971465162e+01    0.9578349    0.7371132 -57.33  0.005165093    1.355    0.262
        40 -13.9374    145.5937    148.7862   9.9371427842e+01   2.3849549208e+01     2.032419     1.153268  36.29  0.009421159    1.886    0.470
        41 -10.5535     11.5137    160.2828   1.2969417450e+02   4.0218632038e+01    0.4007801    0.1663838 -82.31  0.002297477    1.957    0.489
        42 -11.7513     37.5130    147.6356   1.2322195000e+02   4.0370371397e+01    0.6518352    0.5284271  68.05  0.004140878    1.151    0.131
        43 -14.1997     54.7803    133.5686   1.1762876924e+02   4.1480162516e+01     1.493798     1.195597   9.92  0.006848002    1.912    0.477
        44 -12.8456     67.3785    142.4555   1.1584289504e+02   3.7978735163e+01    0.8709275    0.4976966  55.92  0.003306227    1.722    0.419
        45 -13.3122     72.1366    133.8677   1.1348960634e+02   3.9201445347e+01    0.9923865    0.6025903 -56.11  0.004567604    1.620    0.383
        46 -14.0428    158.4630    132.5296   9.3322419843e+01   2.4325418473e+01     1.608386     1.347991   7.62  0.008671823    1.425    0.298
        47 -11.6457     91.7290    144.4573   1.1051996872e+02   3.4088456320e+01    0.3600485    0.2766986  79.73  0.000716266    1.277    0.217
        48 -12.5423    164.7333    114.3840   8.7780256610e+01   2.6362446943e+01     1.149679    0.7406656  -0.32  0.004379571    2.890    0.654
        49 -12.7578    109.0779    132.2051   1.0436113293e+02   3.3840381932e+01     1.147141    0.4846546  38.27  0.004613489    2.598    0.615
        50 -11.5142     99.6622    129.5155   1.0610190785e+02   3.6001442884e+01    0.4006807    0.3357789 -67.36  0.001162314    1.139    0.122
        51 -11.8171     37.2968    131.4507   1.2156901150e+02   4.3869089277e+01    0.5848671    0.3981805 -76.36  0.003324112    1.219    0.180
        52 -11.7594     93.1104    134.5580   1.0857265499e+02   3.5974234493e+01    0.6786591     0.529725  -7.95  0.003417161    2.143    0.533
        53  -9.0291    108.5258    120.6043   1.0219061925e+02   3.6400669899e+01     0.136412    0.1284365  86.41 0.0001130622    1.027    0.027
        54 -11.9006     46.2073    115.4859   1.1727294950e+02   4.6478049724e+01    0.8570528    0.4820879  82.15  0.004333097    2.071    0.517
        55 -10.8438     41.0106    113.5182   1.1835917471e+02   4.7472737869e+01    0.4995293     0.236567 -83.04  0.002340626    2.267    0.559
        56 -12.2963     54.5307    106.4339   1.1359350243e+02   4.7581334936e+01    0.8003861    0.5800648  49.62  0.003906171    1.483    0.326
        57 -12.1164     61.2682     97.9179   1.1011670799e+02   4.8692673408e+01    0.9546553    0.4936036 -48.75  0.004608544    1.893    0.472
        58 -12.3824    156.9134    106.4172   8.7472667895e+01   2.9581013955e+01    0.6268114    0.3967812 -24.45  0.002677652    1.975    0.494
        59 -11.3443     86.3803    105.5758   1.0470978217e+02   4.3395081549e+01    0.3059799    0.2297297 -89.77  0.001632553    1.492    0.330
        60 -11.5860     89.0644     95.4442   1.0167663129e+02   4.5219715569e+01     1.035046    0.5703939  64.44  0.004148132    2.845    0.648
        61 -12.1834     51.3633     91.5282   1.1175092683e+02   5.1345815167e+01    0.5316563    0.4692025   4.26  0.003431033    1.488    0.328
        62 -11.3495     41.2289     69.2134   1.1017281556e+02   5.7497570267e+01    0.3580335    0.2241867  73.13  0.001801885    2.351    0.575
        63 -12.9609     55.2493     74.5522   1.0678644520e+02   5.4727599557e+01    0.9090089    0.7267759 -43.07  0.005536076    1.232    0.189
        64 -10.7746    184.8001     77.1860   7.3642188923e+01   2.8235055577e+01    0.2204225    0.1812177  19.13 0.0008655941    1.346    0.257
        65 -10.4775    161.4001    249.2137   1.1084228604e+02   6.0804704558e+00    0.1190034   0.09903492 -80.28 0.0009521507    1.697    0.411
        66  -9.0098    120.4494    249.4491   1.1730889130e+02   1.1904092515e+01    0.1038995   0.07542957  50.89 9.967104e-05    1.029    0.028
        67 -14.6103     33.2414    245.2043   1.3039678049e+02   2.3250805910e+01     0.929333    0.5399574  34.09   0.00474059    2.183    0.542
        68 -12.9442     34.7034    216.5954   1.2877821897e+02   2.7601735026e+01    0.6510429    0.5289741  42.66  0.005477228    1.568    0.362
        69  -9.0571     87.3137    240.1455   1.2179733946e+02   1.7643720150e+01    0.1247324   0.07986721  87.24 0.0006835217    1.662    0.398
        70 -10.9859     43.6764     44.8246   1.0246177920e+02   6.2517172792e+01    0.2832689   0.08330034 -48.17  0.001104058    2.680    0.627
        71 -10.8641    193.1351    236.6850   1.0434774933e+02   2.7454203484e+00    0.1540777    0.1524607  84.89  0.001263669    1.431    0.301
