#   1 NUMBER                 Running object number                                     
#   2 MAG_AUTO               Kron-like elliptical aperture magnitude                    [mag]
#   3 X_IMAGE                Object position along x                                    [pixel]
#   4 Y_IMAGE                Object position along y                                    [pixel]
#   5 X_WORLD                Barycenter position along world x axis                     [deg]
#   6 Y_WORLD                Barycenter position along world y axis                     [deg]
#   7 A_WORLD                Profile RMS along major axis (world units)                 [deg]
#   8 B_WORLD                Profile RMS along minor axis (world units)                 [deg]
#   9 THETA_WORLD            Position angle (CCW/world-x)                               [deg]
#  10 FWHM_WORLD             FWHM assuming a gaussian core                              [deg]
#  11 ELONGATION             A_IMAGE/B_IMAGE                                           
#  12 ELLIPTICITY            1 - B_IMAGE/A_IMAGE                                       
         1 -14.4598      7.7504    111.3596   1.2661009710e+02   5.1270624281e+01     1.539233    0.7358274 -87.29  0.008122678    1.773    0.436
         2 -13.7022    206.0996     34.8207   5.2949236204e+01   2.8635213547e+01     1.382078    0.9100237 -19.91  0.005453676    1.520    0.342
         3 -13.4513      5.0086      7.2263   1.1134467460e+02   7.6059296769e+01     1.408863    0.5093421 -59.48  0.006766761    2.052    0.513
         4 -14.1776    226.5353     16.7326   4.5758841645e+01   2.5619545241e+01     1.208716    0.9542348  13.21  0.001230735    1.504    0.335
         5 -10.9937     74.3967    243.1249   1.1973708890e+02   1.8989001393e+01    0.2618221    0.1615388  49.48  0.001276523    1.146    0.128
         6 -11.1460    161.8732    250.2427   1.0500290857e+02   6.9504808744e+00    0.3706307    0.1021336  36.12  0.001784371    2.626    0.619
         7 -13.1162    134.8305    244.9578   1.0913607729e+02   1.1137184954e+01    0.7517803    0.3495919  51.37  0.004384892    2.178    0.541
         8 -12.2844    116.2004    239.8820   1.1198982836e+02   1.4239798849e+01    0.4339679    0.2747001 -51.44  0.003102345    2.200    0.545
         9 -12.4673    132.7361    249.1158   1.0988422800e+02   1.0907115490e+01      1.02725    0.2188675  45.11  0.004134579    3.993    0.750
        10 -11.0797    110.1378    247.8413   1.1372809022e+02   1.3976492457e+01    0.3237426    0.1871363  43.19  0.002303821    1.208    0.172
        11 -11.9577    117.4510    249.7794   1.1260264841e+02   1.2798784174e+01    0.4402094    0.3388576  33.82  0.003173965    1.191    0.160
        12 -11.3836    122.6022    249.0660   1.1164393080e+02   1.2227359419e+01    0.3528948    0.2698702  34.16  0.001857495    1.162    0.139
        13 -12.8894    104.1526    230.5269   1.1339399291e+02   1.7110077975e+01     0.927083    0.2078809  36.63  0.003840775    3.306    0.698
        14 -12.7839    103.1633    237.8707   1.1418203028e+02   1.6202374983e+01    0.4721104    0.3803864  32.84  0.002239104    1.260    0.206
        15 -10.8622     97.3769    239.4737   1.1535752386e+02   1.6714444284e+01    0.2139274    0.1622385  80.28  0.001229673    1.561    0.359
        16 -11.5080     83.2733    240.5681   1.1798426765e+02   1.8299683619e+01    0.4062778    0.1763186  53.13  0.002455603    1.916    0.478
        17 -11.8731     87.6616    248.3895   1.1772263509e+02   1.6681885972e+01    0.5066804    0.2339272  40.98  0.002295331    1.470    0.320
        18 -12.0743     89.4428    239.2513   1.1677854850e+02   1.7734195471e+01    0.5666865    0.3120615  64.52  0.003700285    1.962    0.490
        19 -14.0519      3.4070    191.2634   1.3092520883e+02   3.4816089909e+01     2.997666    0.7478155  82.89   0.01302094    4.062    0.754
        20 -13.3497     35.2357    205.9775   1.2508673517e+02   2.9252430984e+01     1.233956    0.7961403  61.67  0.008942805    1.189    0.159
        21 -14.9191     10.7460    245.0006   1.3082396928e+02   2.5280992066e+01     3.154305    0.8690648  30.85   0.01702145    3.189    0.686
        22 -14.8926     20.9031    219.8368   1.2838150211e+02   2.8293091034e+01    0.9113948    0.8072367  46.92  0.008054759    1.400    0.286
        23 -10.9776     68.2832    245.2428   1.2094312486e+02   1.9392013405e+01    0.2973759    0.1540875  58.95  0.002051706    1.648    0.393
        24 -11.1667     68.9978    237.5028   1.2037130706e+02   2.0434500080e+01    0.3670143    0.2435154  21.45  0.001743946    1.945    0.486
        25 -10.7336     73.3240    236.9351   1.1955149014e+02   2.0013214796e+01    0.2795746    0.1679395  51.82  0.001166434    1.232    0.189
        26  -9.8154     43.0044    237.5710   1.2504282701e+02   2.3286008998e+01     0.151484    0.1345161 -69.98  0.001341107    1.634    0.388
        27 -10.9939    180.7918    243.0331   1.0103416013e+02   5.2048753190e+00      0.20209    0.1012069  43.11    0.0012736    1.703    0.413
        28 -13.1091      3.3711    225.7949   1.3169381991e+02   2.8884162052e+01    0.7903301    0.4162841  84.11  0.004039991    1.736    0.424
        29  -8.4872     62.6269    233.2863   1.2128798140e+02   2.1798942816e+01    0.1152322   0.05204555  53.86 0.0004375145    1.714    0.417
        30  -9.6887     52.2808    231.6008   1.2309295833e+02   2.3212097998e+01    0.1545854    0.1204716  68.86 0.0006762351    1.226    0.184
        31 -11.6690    150.2383    247.5302   1.0670867886e+02   8.7901893158e+00    0.2343766    0.2154618  76.12  0.002047912    1.551    0.355
        32 -11.6723     99.6444    248.4700   1.1562175818e+02   1.5208706190e+01    0.5425029    0.2935326  36.11   0.00371968    1.391    0.281
        33 -10.4521     84.0603    230.2047   1.1712010672e+02   1.9717893490e+01     0.250335    0.1568545 -72.39  0.001764686    2.007    0.502
        34 -10.5119     56.4149    228.1360   1.2214832076e+02   2.3295756248e+01    0.1878261    0.1509874  46.85 0.0005867852    1.204    0.170
        35 -10.8961     78.5623    225.6073   1.1782613694e+02   2.1094523622e+01    0.3077021    0.2700617 -34.04  0.002436617    1.747    0.428
        36 -11.5914     89.9904    225.0570   1.1561328949e+02   1.9749677646e+01    0.4256155    0.2458553  40.81  0.002816023    1.283    0.221
        37  -9.3126     90.9624    219.9977   1.1501892332e+02   2.0402301943e+01    0.1850713    0.1248043  74.18 0.0005586109    1.650    0.394
        38 -10.4430     99.3555    224.2600   1.1376422314e+02   1.8657563294e+01    0.1711563    0.1306684  75.49 0.0007638349    1.465    0.317
        39  -8.7491     45.3423    225.3060   1.2406426541e+02   2.4953344694e+01   0.08735289   0.07854962   9.68 0.0003357564    1.687    0.407
        40 -10.3333     71.4901    219.6912   1.1876735828e+02   2.2886846469e+01    0.3386039    0.1891737  53.23  0.002220697    1.399    0.285
        41  -8.9757     60.0594    220.4503   1.2101885732e+02   2.4109238767e+01    0.1534494    0.0811514  39.22 0.0003268782    1.452    0.311
        42 -10.6151     50.7273    218.4390   1.2269494268e+02   2.5487010229e+01     0.367243     0.117389  60.82  0.001146336    3.297    0.697
        43 -11.1151    245.0034    240.9953   9.0635553735e+01  -2.8103779695e+00    0.1352482    0.1108495  31.70  0.001146293    1.715    0.417
        44  -9.1100    106.7973    216.6326   1.1164089891e+02   1.8813498945e+01    0.1672823   0.07767127  44.39 0.0003253655    1.628    0.386
        45  -9.5243     88.1214    212.8875   1.1498246097e+02   2.1898364352e+01    0.1792736    0.1203336  58.15  0.000967297    1.305    0.233
        46 -10.0111     56.1748    208.8799   1.2106831300e+02   2.6483981564e+01    0.2616075    0.1431612 -73.20   0.00167145    2.057    0.514
        47 -12.3728     21.7821    226.6010   1.2843644517e+02   2.7109266590e+01    0.2512919    0.1902997  84.26  0.000653579    1.382    0.277
        48  -9.9542     63.1086    209.0338   1.1968875261e+02   2.5651936682e+01    0.3132017   0.07350039  45.80  0.001385711    2.843    0.648
        49  -9.8335    106.8554    203.4268   1.1031206230e+02   2.0886897240e+01    0.1827771    0.1676895 -65.02 0.0005576676    1.371    0.270
        50 -10.3622    250.2035    200.7076   8.3944092561e+01  -2.3625132475e-02    0.2052067    0.1083926   4.37  0.001034455    1.975    0.494
        51  -9.7920     73.8075    200.8448   1.1689202632e+02   2.5760490327e+01    0.1590745    0.1046933  59.55  0.000398683    1.301    0.231
        52 -10.5088     46.0065    198.2803   1.2249069493e+02   2.9487259563e+01    0.3481188     0.144486  35.88  0.001755793    1.962    0.490
        53 -12.1293     49.1987    191.6945   1.2140781466e+02   3.0341377091e+01    0.2834347    0.2464501 -32.60 0.0006453141    1.757    0.431
        54 -10.2139     19.9196    191.0665   1.2754471243e+02   3.3431401203e+01    0.4153513    0.1214789  67.24   0.00184831    3.404    0.706
        55 -10.7696     35.4815    191.6647   1.2431792256e+02   3.1812985872e+01    0.3341327    0.1431546  40.49  0.001454827    1.777    0.437
        56  -9.1522    191.5370    191.5226   9.2163515491e+01   9.5794052014e+00    0.1216925   0.09619451  24.53 0.0001484657    1.009    0.009
        57  -9.6411    109.1062    191.1162   1.0848627477e+02   2.2615680679e+01    0.1799892    0.1417646  48.42 0.0003232416    1.042    0.041
        58  -9.6957     57.4415    190.4480   1.1955183387e+02   2.9629572974e+01    0.1177155   0.08841251  57.32 0.0001185853    1.035    0.034
        59 -10.2030     15.2018    190.0923   1.2848396550e+02   3.4036668204e+01    0.1501257    0.1288006  76.08  0.001215693    1.256    0.204
        60  -9.3789     68.3607    187.6871   1.1695878676e+02   2.8819920965e+01    0.3393283    0.1755228  16.63  0.001447865    3.786    0.736
        61 -12.3072     56.1359    184.1949   1.1936804724e+02   3.0960262243e+01    0.2975473    0.2000875  41.98 0.0009241552    1.270    0.212
        62  -9.3907     23.8011    184.1645   1.2643233848e+02   3.4372915676e+01     0.133435    0.1244947  69.99  0.001070952    1.335    0.251
        63 -11.7111    124.3929    240.4448   1.1056895048e+02   1.3087221889e+01    0.3531322      0.15467  32.42  0.002005503    1.917    0.478
        64 -10.1643     37.2257    180.3407   1.2329849848e+02   3.3789777626e+01     0.312834    0.1570126  60.46  0.001813748    1.676    0.403
        65  -8.6456    110.3184    178.3069   1.0665516265e+02   2.4684285728e+01    0.1185285   0.09632101   5.76 0.0003127196    1.634    0.388
        66  -9.6302     60.0006    177.2823   1.1794268099e+02   3.1837458270e+01    0.1722277    0.1261157  48.71 0.0003956771    1.132    0.117
        67  -8.7908     82.4570    176.4955   1.1272828369e+02   2.9089467176e+01    0.1258071    0.1009605  56.48 6.530535e-05    1.036    0.035
        68 -11.9660     11.5632    173.0247   1.2863588225e+02   3.7623353998e+01    0.4332811    0.2784658 -73.07  0.002961294    1.649    0.394
        69 -11.6783      9.4769    156.4973   1.2846308194e+02   4.1147188866e+01    0.3915971    0.1376906  71.04  0.001857118    2.610    0.617
        70 -12.5157     12.6474    153.5684   1.2757010703e+02   4.1510044003e+01    0.4872308    0.2117078  44.56   0.00273468    1.847    0.458
        71 -10.6986      3.0032    172.9355   1.3051376791e+02   3.8326340168e+01    0.2820903    0.1468437  38.69 0.0007201317    1.627    0.385
        72 -12.6992      9.6380    165.7255   1.2879209207e+02   3.9240003158e+01    0.7806703    0.4679002  17.35   0.00486139    2.172    0.540
        73 -11.9168    248.8830    171.9123   7.9245049075e+01   2.9842281623e+00    0.4798425     0.263264 -18.84  0.002865952    1.708    0.414
        74 -10.9984     68.7227    172.2955   1.1547404263e+02   3.1735236574e+01    0.2130485      0.19465  78.83 0.0002710626    1.178    0.151
        75  -9.9348     25.2983    167.6725   1.2527654019e+02   3.7486520168e+01    0.1782911   0.09601922  39.35 0.0006227565    1.594    0.373
        76  -9.2001     18.3374    172.3190   1.2709579496e+02   3.7182546512e+01    0.1690641    0.1402569 -75.60  0.001072728    1.400    0.286
        77 -11.1431     19.9040    168.3672   1.2655635576e+02   3.7836699497e+01     0.252675    0.2099349 -37.44 0.0003137056    1.795    0.443
        78 -11.0259     53.3446    171.1173   1.1896549627e+02   3.3850941379e+01    0.2600372     0.231873  52.29  0.001013441    1.193    0.162
        79 -11.0102     26.9870    171.7925   1.2511186536e+02   3.6495650739e+01    0.2280289    0.1851594  23.64 0.0004329148    1.532    0.347
        80 -10.8960     40.1813    168.1294   1.2182680102e+02   3.5915920302e+01    0.2568215    0.2301152  40.43  0.001342899    1.297    0.229
        81 -12.2333     76.7697    164.4767   1.1274425522e+02   3.2240351989e+01    0.4587509    0.4123692  60.23  0.001725268    1.101    0.092
        82 -11.8633    247.4822    157.6701   7.6815723450e+01   4.7141432914e+00    0.6349726    0.3570786  54.25  0.003308265    2.688    0.628
        83 -10.5367     23.8462    161.9266   1.2530149017e+02   3.8800189623e+01    0.1812795    0.1414429  51.27 0.0003775457    1.156    0.135
        84  -8.9895     49.5216    161.4444   1.1906652443e+02   3.6274684265e+01    0.1220286   0.09952407  63.77  3.27593e-05    1.012    0.011
        85  -8.7073     42.6908    161.2687   1.2071797504e+02   3.7066108013e+01    0.1255849   0.07051618  59.11 0.0002017717    1.541    0.351
        86 -11.4238      3.8552    157.9090   1.2984632522e+02   4.1282630624e+01    0.2999817    0.1657816  51.16   0.00192986    1.431    0.301
        87 -11.8394     23.4008    149.7846   1.2469750469e+02   4.1407767954e+01    0.2922912    0.2535839 -61.31  0.001511652    1.419    0.295
        88 -11.2568     26.3468    155.7931   1.2433596947e+02   3.9855876014e+01    0.2754939    0.1723692  46.46 0.0005681533    1.363    0.266
        89 -11.5776    245.1638    162.1286   7.8009785826e+01   4.5856555669e+00    0.2687699    0.2370036  22.06  0.001300772    1.334    0.250
        90 -11.4235    249.6363    150.9733   7.5202599424e+01   5.1134312912e+00    0.3730583    0.2054171 -28.09  0.002129143    1.717    0.418
        91 -12.8520    241.5403    120.4868   7.0089737753e+01   1.0031346057e+01    0.7246806    0.5441478  57.86  0.004279376    1.731    0.422
        92 -11.1692     91.7537    149.7227   1.0714798726e+02   3.3114899099e+01    0.2925684    0.2634486  55.37 0.0009221126    1.053    0.050
        93 -10.6016     79.9940    148.6031   1.0999321372e+02   3.5094924796e+01    0.2369497    0.2009116  50.80 0.0003891918    1.082    0.076
        94 -10.2182     39.0174    148.8720   1.2064233556e+02   4.0101846058e+01     0.202909    0.1935277  14.38 0.0004027672    1.379    0.275
        95 -11.2574     21.7555    156.3249   1.2549171334e+02   4.0159440717e+01    0.2609896    0.2356338 -85.81  0.001179623    1.276    0.216
        96 -11.8596     68.4293    143.7313   1.1238430152e+02   3.7749898375e+01    0.6315528    0.3198177  66.52  0.002147459    2.431    0.589
        97 -13.2072      4.2659    142.9650   1.2919018805e+02   4.4403153471e+01    0.5853422    0.3708553 -75.44  0.002410951    1.505    0.335
        98 -13.3727      9.2407    142.5855   1.2790676128e+02   4.4125118227e+01    0.7102168    0.2090507 -80.93  0.003137858    2.945    0.660
        99  -9.4953    236.1064    146.1128   7.6299988494e+01   7.8725259334e+00    0.1925207    0.1408191   8.51 0.0004166973    1.220    0.180
       100  -9.6267     95.5201    145.5796   1.0557265844e+02   3.3396627520e+01    0.2209181     0.183844 -71.36  0.001304165    1.267    0.211
       101  -9.7559     44.9045    139.8367   1.1826510936e+02   4.1472408139e+01    0.1723228    0.1589849 -87.38 0.0002961324    1.185    0.156
       102 -10.3009    105.9701    135.3348   1.0117492888e+02   3.3834954335e+01    0.4175091    0.2877208  -5.06  0.001807577    2.730    0.634
       103 -13.7139     15.3993    120.6004   1.2494338508e+02   4.8596245427e+01    0.7176322    0.4085261  77.93  0.000508696    1.548    0.354
       104 -11.1574    171.7737    246.3357   1.0291890881e+02   6.0595710075e+00    0.2424811    0.1335647  13.45  0.001421753    2.477    0.596
       105 -12.1306    247.9370    142.3698   7.3747568628e+01   6.3502768004e+00    0.5526693    0.3985006  24.99  0.003505399    1.262    0.208
       106 -12.8990    248.3650    134.2505   7.2025402649e+01   7.2112702424e+00     1.047632    0.4404656 -21.12  0.004803413    2.376    0.579
       107 -12.5269     16.9674    132.3973   1.2529293967e+02   4.5784166522e+01    0.3385845    0.2980787  16.05    0.0023716    1.461    0.315
       108 -12.7631    248.0481    113.6351   6.7653183611e+01   9.6946183214e+00    0.8457546    0.5215592 -36.00  0.004664708    1.626    0.385
       109 -13.1821    248.2742    101.4750   6.4887255680e+01   1.1113501266e+01    0.9599631    0.5869859 -17.27  0.005167066    1.498    0.332
       110  -9.3802     44.1613    130.1234   1.1746512564e+02   4.3759433203e+01    0.1805156    0.1264252  66.39 0.0004591594    1.301    0.231
       111  -9.3656    161.6926     80.3186   7.4071622673e+01   3.3128496820e+01    0.1544971    0.1208627 -72.39 0.0003624044    1.635    0.388
       112 -11.4511    154.6414    246.7820   1.0587709269e+02   8.2906199060e+00    0.2823616    0.1969551 -35.24  0.001990117    1.990    0.498
       113 -10.3372    198.0203    245.4612   9.8485110892e+01   2.6903805665e+00    0.1667362   0.07353832  34.93 0.0008504573    1.603    0.376
