#   1 NUMBER                 Running object number                                     
#   2 MAG_AUTO               Kron-like elliptical aperture magnitude                    [mag]
#   3 X_IMAGE                Object position along x                                    [pixel]
#   4 Y_IMAGE                Object position along y                                    [pixel]
#   5 X_WORLD                Barycenter position along world x axis                     [deg]
#   6 Y_WORLD                Barycenter position along world y axis                     [deg]
#   7 A_WORLD                Profile RMS along major axis (world units)                 [deg]
#   8 B_WORLD                Profile RMS along minor axis (world units)                 [deg]
#   9 THETA_WORLD            Position angle (CCW/world-x)                               [deg]
#  10 FWHM_WORLD             FWHM assuming a gaussian core                              [deg]
#  11 ELONGATION             A_IMAGE/B_IMAGE                                           
#  12 ELLIPTICITY            1 - B_IMAGE/A_IMAGE                                       
         1 -13.6290     30.5527     59.5121   1.1474042163e+02   6.0658363871e+01     1.430069    0.7996085  32.21  0.005792086    2.132    0.531
         2 -12.6060    204.1887     21.7344   5.6902452365e+01   3.1037429117e+01     1.004086    0.5056161 -84.81  0.003777781    2.876    0.652
         3 -12.9137    216.3388     14.8980   5.3642846032e+01   2.8716456146e+01     1.080343    0.7522604  78.18  0.002842682    1.412    0.292
         4 -13.0226     42.7899     20.4844   9.6218258997e+01   6.6826748041e+01    0.6902605    0.4328471  12.36  0.003929741    1.839    0.456
         5 -11.5557    127.1779     15.8080   6.7343943871e+01   5.1422420937e+01    0.4508128    0.2292073  31.06  0.001826371    2.363    0.577
         6 -13.5701    187.1460      7.3547   5.4726623068e+01   3.6944049969e+01     1.374108    0.8482819 -77.80    0.0063888    1.879    0.468
         7 -10.2701     65.0328     11.4854   8.3064074969e+01   6.4880424355e+01    0.2793147    0.2066265  19.23  0.001160212    1.279    0.218
         8 -11.4119     66.0255      7.4786   8.0740042877e+01   6.5215012950e+01    0.5061311    0.2196647  40.70  0.002387526    2.252    0.556
         9 -12.4511     58.3692      8.1338   8.3920544224e+01   6.6406444943e+01    0.5953172    0.4139643  23.66  0.002421823    1.384    0.277
        10 -11.6654     54.3026      2.3838   8.2555279483e+01   6.7766583209e+01    0.4332535    0.2644856  53.00  0.002381777    2.222    0.550
        11 -12.1242     43.7420      8.6838   9.0210925057e+01   6.8495841182e+01    0.3153746    0.2815778  -1.36  0.001165829    1.236    0.191
        12 -10.8581    149.0506      8.1551   6.0350787933e+01   4.6748430660e+01    0.2286916    0.2053183 -11.84 0.0004838202    1.177    0.151
        13 -10.9282    109.5636      8.9681   6.8558816764e+01   5.6275892698e+01    0.2418456    0.1950086  79.65 0.0009046894    1.545    0.353
        14 -11.0996    165.6108      7.4135   5.7552535254e+01   4.2544493681e+01    0.2568739     0.212432  78.30  0.000611396    1.183    0.154
        15 -10.8130    103.9674      4.5321   6.8004770955e+01   5.7974478780e+01    0.2143396    0.1756078  -6.45  0.001261545    1.197    0.164
        16 -12.2077    166.4530      2.1979   5.5716728609e+01   4.2800713211e+01    0.8066501    0.2192026  66.41  0.002716223    3.112    0.679
        17  -8.9571     11.9750     16.0040   1.0874136519e+02   7.0650040573e+01    0.1352015    0.1009383 -34.70 0.0003305101    1.003    0.003
        18 -11.0093    233.1758    219.1914   9.8604100970e+01  -3.3967878148e+00    0.1443684    0.1316265  22.68 0.0006314723    1.341    0.254
        19  -9.8466    211.2080    217.5533   1.0206178069e+02   3.0799114024e-01      0.20711    0.1617299 -25.95  0.001390769    1.461    0.316
        20 -10.0306    239.5848    214.9917   9.6849897705e+01  -3.9249782513e+00    0.2792329   0.08752862 -43.10 0.0009538925    6.359    0.843
        21 -11.0705    222.1816    214.4752   9.9679091777e+01  -1.1049938080e+00    0.2126736    0.1651674 -15.06  0.001430266    1.357    0.263
        22 -10.7376    232.3040    211.0023   9.7387356918e+01  -2.3239921285e+00    0.1674431    0.1364694  12.72 0.0007979206    1.067    0.063
        23 -10.4016    115.9937    208.7421   1.1831845952e+02   1.7480318982e+01    0.2849322    0.1131614 -51.91  0.001327482    2.948    0.661
        24  -9.7226     41.5857    201.6489   1.3164562826e+02   2.8903328837e+01    0.1856281   0.08871119 -70.31 0.0006519018    1.974    0.493
        25 -11.6915      5.0134    199.6542   1.3801694763e+02   3.2931591673e+01    0.3760896    0.1538375  59.50  0.001320791    1.938    0.484
        26  -9.5624    133.0993    196.0598   1.1331305642e+02   1.6900260353e+01    0.2000326    0.1412647  72.32 0.0009027076    1.657    0.396
        27 -12.4972    160.0564    191.5059   1.0729180254e+02   1.2957945181e+01    0.6978264     0.499967  76.77   0.00255672    2.000    0.500
        28  -9.5780    214.8527    193.1494   9.7287743503e+01   2.8494631414e+00    0.2343294    0.1440769 -53.72  0.001142434    2.690    0.628
        29  -9.6266    226.2173    188.0247   9.4350960581e+01   1.5504624364e+00    0.1581116   0.09889539 -28.47  0.000866156    1.667    0.400
        30  -8.9503    199.2876    188.6646   9.9304661598e+01   6.2618859919e+00    0.1190139    0.1038001  81.75 0.0004350776    1.630    0.386
        31  -9.3224    193.3642    188.7067   1.0041460237e+02   7.3343112113e+00    0.1264437     0.100996  69.46 0.0003531993    1.709    0.415
        32 -10.3330    183.7366    182.1317   1.0106275941e+02   1.0131596701e+01    0.3313496    0.1861909 -27.81  0.001546056    2.273    0.560
        33 -10.4823    223.8392    183.3148   9.3883092032e+01   2.5998521451e+00      0.17557    0.1555555 -11.02  0.001076589    1.177    0.151
        34  -9.6847     67.2580    180.6216   1.2474521643e+02   2.9903627434e+01    0.1554365    0.1109376  33.70 0.0009476215    1.649    0.393
        35 -10.1947    147.8201    176.9126   1.0732569102e+02   1.7730815440e+01    0.4093764    0.1810411 -34.14  0.001466615    3.894    0.743
        36  -9.5328    128.4799    177.5523   1.1146639531e+02   2.1086406512e+01    0.1320058    0.1187673  55.15 7.186848e-05    1.030    0.029
        37  -9.8548    121.7857    177.4060   1.1285457600e+02   2.2272341764e+01    0.1908902    0.1191527  33.78 0.0009573079    1.744    0.427
        38  -9.0528     28.3254    177.2624   1.3232291221e+02   3.5074924710e+01   0.09543468    0.0815686 -56.07 0.0002711798    1.561    0.359
        39  -9.1831    217.3455    175.3260   9.3501258243e+01   4.8916957386e+00    0.1413062   0.09300753  12.90 0.0005097674    1.745    0.427
        40 -10.0838     38.4337    174.7775   1.3008716949e+02   3.4531126520e+01    0.1531027   0.09137792 -66.62 0.0007336462    1.591    0.371
        41 -11.9243     55.6546    167.6169   1.2577188954e+02   3.4049522258e+01    0.5460263    0.2818674 -85.67  0.002532528    2.059    0.514
        42 -11.4602     51.2792    159.3680   1.2581187143e+02   3.6320967385e+01    0.4761434    0.2474083  70.29  0.002385316    2.187    0.543
        43 -10.6845     44.8167    167.8998   1.2811762526e+02   3.5253690052e+01    0.1722372    0.1474616 -70.31 0.0009907797    1.292    0.226
        44  -9.5643     99.3353    163.3121   1.1556809440e+02   2.8826961325e+01    0.1241112    0.1059829 -14.74 0.0007045133    1.684    0.406
        45  -9.8511    132.6152    160.1571   1.0762392617e+02   2.3731167738e+01    0.1892345    0.1284721 -39.88 0.0006190063    1.705    0.414
        46 -11.1809     24.3402    159.4239   1.3168634184e+02   3.9139994713e+01    0.3445906    0.2303858  33.50  0.002138965    1.779    0.438
        47 -11.1472     27.9383    155.1990   1.3053294232e+02   3.9693855795e+01     0.384479    0.1823386  82.81  0.001913956    2.239    0.553
        48 -12.0378     23.0787    150.9740   1.3121314010e+02   4.1049477612e+01    0.3450493    0.1765372 -77.64 0.0009585532    1.611    0.379
        49 -10.7593    105.6884    158.2579   1.1333324391e+02   2.8850344515e+01    0.3755693    0.2242335  67.67  0.001727875    2.119    0.528
        50 -10.4054    105.4484    153.6533   1.1261940385e+02   2.9860107557e+01    0.3224275    0.2390862 -17.12  0.001589634    2.232    0.552
        51 -11.4406    118.7600    156.9645   1.1014827873e+02   2.6880752588e+01    0.3664548    0.2662138  53.17  0.001403879    1.317    0.241
        52 -10.4630    237.4789    155.9695   8.6041053164e+01   3.9146959627e+00    0.1981181    0.1229851 -26.22 0.0006242247    1.561    0.360
        53  -9.9457    218.1210    155.1172   8.9244169873e+01   7.7407995473e+00     0.256759    0.1582453 -24.30  0.001250958    1.702    0.412
        54  -9.6429      6.7551    155.9639   1.3512175913e+02   4.1380127151e+01    0.1446308   0.07285944 -79.17 0.0006101808    1.561    0.359
        55 -11.4231    248.9782    153.0840   8.3529922571e+01   2.2027806926e+00    0.4137037    0.1602018 -37.56  0.001727807    2.594    0.614
        56 -10.3429     41.0036    151.0395   1.2719436636e+02   3.9267526955e+01    0.3153986    0.1200315 -59.20  0.001494386    2.383    0.580
        57  -9.4807    146.4874    153.5164   1.0331370512e+02   2.2405452912e+01    0.1410962    0.1327788  55.67  0.000298125    1.015    0.015
        58 -10.2885    189.5790    149.8650   9.3525143425e+01   1.4347588691e+01    0.3812254    0.1664992 -47.22   0.00145124    2.707    0.631
        59 -10.2956    167.2650    157.1371   9.9589524977e+01   1.7603415348e+01    0.2765769     0.187204  69.96  0.001249761    2.103    0.525
        60 -11.8443    233.5773    147.5458   8.4899777201e+01   5.8642328973e+00    0.4918344    0.2359228 -20.86  0.002012596    2.522    0.604
        61 -10.6474     12.0337    148.6286   1.3343944462e+02   4.2497980900e+01    0.2027149    0.1298852 -74.43 0.0004968412    1.287    0.223
        62 -10.5400    106.7515    145.0811   1.1080628769e+02   3.1470054213e+01    0.4143942    0.2311848  79.68  0.001431635    3.876    0.742
        63  -9.7628    124.3765    142.5709   1.0616204239e+02   2.8856437716e+01    0.2769412    0.1275453 -64.44 0.0009496313    3.343    0.701
        64  -9.5182    181.6786    141.3784   9.3256734346e+01   1.7488013847e+01    0.1486228    0.1168728 -81.87 0.0001272583    1.824    0.452
        65 -11.7652    241.9936    134.9981   8.0721853471e+01   6.0603297944e+00    0.2959231    0.2513837  55.25  0.001725262    1.409    0.290
        66  -9.4011     82.5055    131.9850   1.1439894889e+02   3.8237664554e+01    0.1963441    0.1118417 -85.42 0.0008102311    2.574    0.611
        67  -9.5566     60.2660    130.3770   1.1980245675e+02   4.1640387549e+01    0.1294141   0.08938111 -43.90 0.0004197216    1.677    0.404
        68 -10.7287     98.7489    128.5564   1.0962164739e+02   3.6435416140e+01    0.3468054    0.2057973 -84.99  0.001375913    2.783    0.641
        69  -9.9275     60.0191    125.4537   1.1907973294e+02   4.2786252071e+01    0.4298381     0.202928  74.44  0.001327292    5.447    0.816
        70 -10.1094     43.6322    123.8701   1.2311920198e+02   4.5028697023e+01    0.3616157    0.1653757  82.78  0.001282532    4.258    0.765
        71  -9.6918    107.3430    137.3363   1.0920935278e+02   3.3043064740e+01    0.1396477    0.1119622 -14.70 0.0007049983    1.766    0.434
        72 -10.1998     94.7820    122.6157   1.0943782017e+02   3.8414869346e+01    0.2134345    0.1390302  40.84 0.0005982913    1.608    0.378
        73 -12.0467    192.9848    117.7196   8.5401648877e+01   1.9230042876e+01    0.7011715    0.5038225 -58.36  0.002663015    1.739    0.425
        74 -10.8768     15.4301    120.6901   1.2999344598e+02   4.8303543816e+01    0.3292338    0.2172116  38.04  0.002152931    1.743    0.426
        75 -10.6455     97.8952    119.8005   1.0803483469e+02   3.8524442115e+01    0.2560304    0.2346497 -43.64  0.001051172    1.153    0.133
        76 -10.4213      2.2306    115.4876   1.3280922355e+02   5.0367940346e+01    0.2558139    0.1294013 -84.10 0.0009653615    1.621    0.383
        77 -10.5816    231.8543    114.2199   7.7551361878e+01   1.1235978352e+01    0.3890915    0.1655623 -41.86  0.001344681    2.409    0.585
        78 -10.6465    141.4276    113.2817   9.5518441824e+01   3.1562483429e+01    0.5241481    0.2519614 -28.10  0.001666139    3.564    0.719
        79 -11.0333     19.4372    112.8348   1.2802330920e+02   4.9743134973e+01    0.2426101    0.2117018  11.70  0.001084926    1.542    0.352
        80 -11.5147     13.8316    110.0869   1.2918891637e+02   5.0778510665e+01    0.6164752    0.2551596 -81.92   0.00295068    2.315    0.568
        81 -11.5794    158.0081    106.5095   8.9912418032e+01   2.9268454781e+01    0.4457994    0.3096334 -80.45  0.001806249    2.338    0.572
        82 -10.6483     91.7820    111.3747   1.0783139367e+02   4.1421271364e+01    0.4708953     0.182512 -61.90  0.001594353    3.263    0.694
        83 -10.7666    174.5944    110.8612   8.7415780298e+01   2.4657860127e+01     0.430387    0.2911979 -30.78  0.001406861    1.543    0.352
        84  -9.1596     99.1642    112.1448   1.0601051859e+02   4.0010274074e+01    0.1832774    0.1584441  84.56 0.0003200118    1.240    0.194
        85  -9.9607     78.6725    112.3597   1.1163622653e+02   4.3237160997e+01    0.1441683    0.1015692  82.04  0.000704253    1.788    0.441
        86  -9.8845    249.6709    106.6592   7.2975331947e+01   8.6468957173e+00    0.1452407    0.1010439  10.36 0.0006495588    1.741    0.425
        87 -12.5198    142.3182    105.3271   9.3265280034e+01   3.2990038289e+01     0.705471    0.3420182  57.43  0.002547408    2.579    0.612
        88 -11.6928    142.4124    100.1529   9.1863900257e+01   3.4011550803e+01    0.5086105    0.3249068  58.98  0.002194089    1.786    0.440
        89 -11.6275     44.7597    101.7569   1.1921729342e+02   4.9939303247e+01    0.5356653    0.3052201  79.77  0.002458551    2.618    0.618
        90 -11.3602    108.3268     99.2353   1.0038885439e+02   4.1191390038e+01    0.7031624    0.4914103  85.27  0.003074181    2.220    0.549
        91 -11.6172    116.8346    102.1563   9.8866148929e+01   3.8935240785e+01    0.3306811    0.2743632  34.49   0.00172569    1.288    0.224
        92 -10.7448     82.1374    100.4612   1.0803822260e+02   4.5397502535e+01    0.2942538    0.2469421 -79.43  0.001001492    1.251    0.200
        93 -11.7045    161.2098    111.8996   9.0590333216e+01   2.7500615425e+01    0.5370685    0.3797203  55.47  0.002493264    1.481    0.325
        94 -13.0241    170.3855     90.5519   8.2846769756e+01   2.9385096665e+01      0.62519    0.4588425 -32.64  0.001117394    1.367    0.268
        95 -12.0220    127.3808     99.8701   9.5525318655e+01   3.7288652270e+01    0.6244198    0.4016214 -59.75  0.002686848    1.825    0.452
        96  -9.9380    159.4398     90.9284   8.5337110769e+01   3.1915368424e+01    0.2761921    0.2098684  25.26  0.001253896    1.528    0.346
        97 -11.7246     42.3888     87.6806   1.1720753666e+02   5.3370228302e+01    0.5113828     0.327176 -12.61  0.001698976    2.441    0.590
        98 -10.9482     45.2828     81.8238   1.1501661195e+02   5.4378153502e+01    0.4004388    0.1934139 -69.37  0.001120849    2.256    0.557
        99 -10.1265      4.6851     87.1499   1.2884564467e+02   5.6458859711e+01    0.2714634   0.06781304 -53.00  0.001162144    3.024    0.669
       100  -9.9866     86.4415     87.3387   1.0349295149e+02   4.7612614587e+01    0.2342046    0.1715654  64.60 0.0009254278    1.742    0.426
       101 -10.4507    105.1375     84.1614   9.7160447472e+01   4.4991272572e+01    0.3647701    0.2275004 -73.61  0.001396835    2.839    0.648
       102  -9.1898    140.6641     83.3449   8.7528660804e+01   3.7705427094e+01     0.159533    0.1220468 -77.46 0.0007049313    1.770    0.435
       103 -10.9621      9.6473     81.0030   1.2639539897e+02   5.7519712026e+01    0.2849888    0.1577383 -68.97  0.001009896    1.398    0.285
       104  -9.9016     24.0144     80.9972   1.2176999441e+02   5.6520094130e+01    0.2169765    0.1154702 -89.53    0.0010163    2.600    0.615
       105 -10.3709      2.0503     77.7711   1.2832561493e+02   5.8660379809e+01    0.1947623    0.1315482 -41.26 0.0008188543    1.528    0.345
       106  -9.6741    152.9620     77.6284   8.2915197830e+01   3.5904555259e+01    0.3036778    0.1330888  44.39  0.001076677    2.370    0.578
       107  -9.8571     62.4830     74.9889   1.0768123234e+02   5.3832671032e+01    0.1899472    0.1136399 -76.10 0.0008104125    2.603    0.616
       108 -10.3913     82.0786     73.1794   1.0084241054e+02   5.1338566008e+01    0.3702372     0.221306 -74.93  0.001377319    3.410    0.707
       109 -11.3898    223.2988     71.3565   6.8034137017e+01   1.9701867286e+01    0.3267346    0.2941867 -70.75 0.0006389206    1.192    0.161
       110 -10.5600     51.6600     70.3940   1.1008119179e+02   5.6171610200e+01    0.3216989    0.2084142 -49.12  0.001626977    1.308    0.235
       111 -10.3752    196.2415     67.9552   7.1418765221e+01   2.6828776280e+01     0.436249    0.2244723  57.55  0.001758776    1.963    0.491
       112 -11.4089     10.0628     58.4679   1.2211547662e+02   6.2386744115e+01    0.7476063    0.4390011  65.70  0.004053894    2.669    0.625
       113 -11.4609     28.4852     52.3609   1.1360479261e+02   6.2335547425e+01    0.5958364    0.3952412  15.31  0.003058466    1.839    0.456
       114 -11.5975     19.4925     59.5111   1.1884660216e+02   6.1543173824e+01    0.5824561    0.1979723 -56.49  0.002622633    2.114    0.527
       115 -11.3673    219.6469    248.2107   1.0522502977e+02  -4.4472957737e+00    0.3012195    0.2532266  64.88  0.002201261    1.939    0.484
       116 -12.1028    240.4045     65.0753   6.4032478127e+01   1.6619900147e+01      0.67917    0.2775686  67.65  0.002526902    3.082    0.676
       117 -12.0443    232.3317     59.7543   6.3718641050e+01   1.9227420641e+01    0.5917698    0.4847688  69.46  0.003252584    1.306    0.234
       118 -10.0098      8.9509     65.5191   1.2393683161e+02   6.0941242515e+01      0.14312    0.1163885  12.28 0.0008635918    1.572    0.364
       119  -9.0240      4.2931     62.3281   1.2498962381e+02   6.1886229117e+01    0.1209797   0.06328993 -46.61 0.0003239329    1.626    0.385
       120 -11.7533     40.0812     51.1860   1.0878135160e+02   6.1472499560e+01    0.5950218    0.1942324 -48.52  0.002523649    2.409    0.585
       121 -10.2006    161.8926     53.1241   7.3314279884e+01   3.7819024135e+01    0.3694719    0.2215787  70.31  0.001511444    2.007    0.502
       122 -11.8291    149.2913     52.2157   7.5663989801e+01   4.1111155785e+01    0.4568537    0.2871679  56.48 0.0004901589    1.597    0.374
       123  -9.5497     92.2328     51.2248   9.0406871738e+01   5.3861712957e+01    0.2293337    0.1041241 -48.53 0.0008863378    2.473    0.596
       124 -10.3949     82.4989     47.6067   9.2221096737e+01   5.6262942827e+01    0.2620548    0.2339461 -88.83 0.0009173169    1.523    0.343
       125 -10.9777    157.0673     45.0593   7.1647268816e+01   4.0244132109e+01    0.3249749    0.2363551  51.90 0.0005066991    1.337    0.252
       126 -11.0548      9.0616     44.0000   1.1913001030e+02   6.5466779151e+01    0.3672375     0.198068  14.88  0.002121199    2.326    0.570
       127 -10.1236      4.6287     41.3124   1.2028586072e+02   6.6264343921e+01    0.2377731    0.1867082  83.52 0.0009913326    1.655    0.396
       128 -11.7499     73.5182     42.6150   9.3406138477e+01   5.8661466767e+01    0.8499923     0.348512  38.92  0.003563654    2.644    0.622
       129 -11.2495     83.4051     37.9833   8.8250533549e+01   5.7764038273e+01    0.4443769     0.246011  41.77  0.001356188    1.887    0.470
       130  -9.1869    149.4849     43.5200   7.2690259088e+01   4.2375923342e+01     0.147022     0.145371  29.03 0.0001131367    1.033    0.032
       131 -12.4021     42.2070     37.7449   1.0343104304e+02   6.3868182160e+01    0.5862288    0.4194097  -2.20  0.001374699    1.578    0.366
       132 -11.6629     46.9185     35.8350   1.0081178034e+02   6.3666689460e+01     0.410414    0.2687417   6.68  0.001735896    1.870    0.465
       133  -9.2053     96.6814     40.3191   8.4962554211e+01   5.4872988555e+01    0.1353565    0.1120878 -69.02 0.0007041787    1.661    0.398
       134 -10.3725     28.6469     36.2696   1.0856141371e+02   6.5536871210e+01     0.212582    0.1516835  -0.20 0.0006718386    1.591    0.371
       135 -11.1586    119.9361     34.1585   7.6129925160e+01   5.0826035325e+01    0.3271326    0.3013198  43.20 0.0007796623    1.103    0.093
       136  -9.6273     63.1625     34.3516   9.3914728620e+01   6.1717511809e+01    0.1675022     0.120341  46.04 0.0003968383    1.705    0.414
       137 -10.1760     74.5398     32.8852   8.9205395477e+01   6.0145290546e+01    0.2829918    0.1994703  49.34  0.001538686    1.699    0.412
       138 -11.6095    104.8994     30.3286   7.8624504993e+01   5.4697961369e+01    0.6867336    0.3819968  61.03   0.00215777    2.231    0.552
       139  -9.2433    172.0015     31.4924   6.4450012665e+01   3.8231224590e+01    0.2178627    0.1410135  62.76 0.0004035302    1.497    0.332
       140 -12.7560     22.4089    239.2354   1.3707764982e+02   2.4368947312e+01     0.773448    0.3126849 -84.44  0.004915029    2.303    0.566
       141 -12.1624     19.4926    236.5279   1.3740127392e+02   2.5108252656e+01    0.5350106    0.1327033  41.04  0.002886339    2.983    0.665
       142 -10.6378    187.3892    248.4834   1.1056682171e+02   3.8535366307e-01    0.3360392    0.1351978  32.75  0.001551108    2.415    0.586
       143 -11.5023    239.4239     20.6049   5.2864557042e+01   2.2484440261e+01    0.3925284    0.2488582  74.02 0.0007722662    1.604    0.377
       144  -9.6840     83.0056    246.7744   1.2789989028e+02   1.6023282557e+01    0.1422761   0.06804177  44.59 0.0008149513    1.637    0.389
       145 -10.3819     31.5824     18.6631   1.0040790199e+02   6.8423041492e+01    0.2959837    0.1917833  29.53  0.001849367    1.764    0.433
       146 -11.0519    134.2115     17.8951   6.6670392712e+01   4.9477068333e+01    0.3123095    0.2172821  59.74 0.0006868133    1.390    0.281
       147  -9.8032     89.3200     18.3461   7.8125120506e+01   5.9529896638e+01    0.2684205    0.1687819  57.80  0.001320696    1.882    0.469
       148 -11.0726     32.7480    242.1021   1.3562482032e+02   2.2816355451e+01    0.1802159   0.09326451  55.74  0.001142929    1.390    0.280
       149 -11.3984    109.4345     13.3225   7.0425369425e+01   5.5842900481e+01    0.2666963    0.1716973  58.66 0.0009572144    1.587    0.370
       150 -11.1582      8.2180    240.4526   1.3926924947e+02   2.5575577504e+01    0.1895562    0.1451624  62.24 0.0009933978    1.282    0.220
       151 -10.1065      2.3344    239.9429   1.4011828909e+02   2.6209869879e+01    0.1674476    0.0872568  57.23  0.001303517    1.341    0.254
       152  -9.4154    158.1594    231.1752   1.1336972830e+02   7.1989203854e+00    0.1559756    0.1215881  59.65 0.0004431576    1.321    0.243
       153 -11.1245     12.6019    227.3607   1.3805973930e+02   2.7318292064e+01    0.2071856    0.1348795  79.43 0.0006063115    1.150    0.131
       154 -10.1864    104.3589    225.3215   1.2232127343e+02   1.6453450700e+01    0.1985493    0.1361175 -72.39  0.001165408    1.651    0.394
       155 -10.7506    150.9818     16.6959   6.3050333806e+01   4.5390857789e+01    0.2093781    0.1812958  60.10 0.0007513563    1.101    0.092
       156  -9.4798    185.6013    222.7775   1.0734928818e+02   3.8605671432e+00    0.1401164    0.1165199 -55.64 0.0009407871    1.633    0.388
       157 -10.4591    150.0206    219.2513   1.1328382465e+02   1.0264144709e+01    0.3140638    0.1953412 -20.11   0.00152023    3.243    0.692
       158  -9.8294     36.2794    222.6326   1.3397614139e+02   2.5693257201e+01    0.1734541   0.08292285  65.71 0.0008413134    1.745    0.427
       159 -11.3107    226.6380    219.9608   9.9819666118e+01  -2.4588635279e+00    0.3284083    0.1839875  -9.24  0.001754335    2.362    0.577
       160  -9.9184     97.3441    221.2919   1.2317860792e+02   1.8145870143e+01    0.1023245   0.08874974  18.61 0.0007027709    1.658    0.397
