#   1 NUMBER                 Running object number                                     
#   2 MAG_AUTO               Kron-like elliptical aperture magnitude                    [mag]
#   3 X_IMAGE                Object position along x                                    [pixel]
#   4 Y_IMAGE                Object position along y                                    [pixel]
#   5 X_WORLD                Barycenter position along world x axis                     [deg]
#   6 Y_WORLD                Barycenter position along world y axis                     [deg]
#   7 A_WORLD                Profile RMS along major axis (world units)                 [deg]
#   8 B_WORLD                Profile RMS along minor axis (world units)                 [deg]
#   9 THETA_WORLD            Position angle (CCW/world-x)                               [deg]
#  10 FWHM_WORLD             FWHM assuming a gaussian core                              [deg]
#  11 ELONGATION             A_IMAGE/B_IMAGE                                           
#  12 ELLIPTICITY            1 - B_IMAGE/A_IMAGE                                       
         1 -12.2402    202.5911     20.7946   4.5252250127e+01   3.1609475802e+01     0.539423    0.2671423 -74.51  0.002062917    2.808    0.644
         2 -12.1085     42.8798     20.7309   8.4774226205e+01   6.7321343839e+01    0.5528028    0.3288649  35.54  0.002056907    1.853    0.460
         3 -12.6789    216.4733     14.3118   4.2050890128e+01   2.8862503474e+01    0.8310097    0.5215424 -89.20  0.001688729    1.586    0.369
         4 -13.5435    186.0572      6.9458   4.3290183519e+01   3.7321826238e+01    0.9888287    0.6135461 -82.80  0.004809411    1.716    0.417
         5 -11.0776     65.3049     10.7837   7.0745550196e+01   6.5263739976e+01    0.2367912    0.1898117  14.72 0.0005240132    1.065    0.061
         6 -12.0719     43.7338      9.1708   7.8743665165e+01   6.8855180910e+01    0.3230427    0.3037414 -26.76  0.002318746    1.524    0.344
         7 -11.8467     57.6891      7.8989   7.2213633347e+01   6.6891018701e+01    0.4797753    0.3772692 -18.56  0.002257369    1.226    0.184
         8 -10.3153     52.2516      4.8757   7.2842061124e+01   6.8117561646e+01    0.1939463    0.1690358  -4.03 0.0004638966    1.217    0.178
         9 -10.1985    109.4128      8.6858   5.6631987840e+01   5.6454945056e+01    0.2291977    0.1612128  70.66 0.0008465152    1.599    0.375
        10  -9.9341     25.4016      8.2433   8.7109497678e+01   7.1246249104e+01    0.2206276   0.08869121 -35.54  0.001123195    2.083    0.520
        11 -11.5556    165.9729      1.7187   4.4168614245e+01   4.2990183412e+01    0.5175192    0.1653685  69.39  0.001888715    2.730    0.634
        12  -9.8924     31.8043      2.1684   8.0640478104e+01   7.1336869089e+01    0.1598273    0.1076056  -3.84  0.000266676    1.280    0.219
        13 -12.2629    239.4963    216.4652   8.5677330645e+01  -6.3703859756e+00    0.4245891    0.2299209 -23.04  0.002323942    1.916    0.478
        14 -11.6662    219.9727    248.5966   9.4323881715e+01  -7.2230613331e+00     0.318103    0.1821011  52.74  0.001702327    2.574    0.612
        15 -11.4646    227.0298    221.6713   8.8772074741e+01  -5.0768543005e+00    0.2223656     0.198744 -76.17  0.001441651    2.001    0.500
        16  -9.7650    211.0000    217.0323   9.0884232391e+01  -1.8612787706e+00    0.1868149   0.07067094 -37.45 0.0008044462    2.956    0.662
        17 -12.1972    221.6429    213.4212   8.8311815559e+01  -3.1317389448e+00    0.6085325    0.2087865  44.16  0.002507849    2.819    0.645
        18 -10.6322    233.1489    211.1677   8.5849212391e+01  -4.6997650750e+00    0.1593482    0.1454892  28.09 0.0009820909    1.349    0.259
        19 -10.1569    115.8311    209.6781   1.0854111054e+02   1.5818741901e+01    0.2663362    0.1445571 -85.68  0.001080018    3.370    0.703
        20  -9.8776    185.3871    203.2056   9.3392390906e+01   4.6669558578e+00    0.1738489    0.1283877 -52.50 0.0009536781    1.705    0.413
        21 -10.1880     48.8074    201.9587   1.2128993116e+02   2.7075075387e+01    0.2416078    0.1354544  80.23  0.001359596    1.702    0.412
        22 -10.6513     41.6975    200.6809   1.2258252516e+02   2.8181700627e+01    0.2819502    0.1577739 -66.66  0.001004454    1.755    0.430
        23 -10.1363      5.4963    200.5557   1.2940236205e+02   3.1930913976e+01    0.1103348   0.07775822  76.82 9.547804e-05    1.013    0.012
        24 -10.4457    112.7765    198.3560   1.0765400306e+02   1.8528455290e+01    0.2802114    0.1487381  85.90 0.0009648189    4.288    0.767
        25 -12.2971    159.6353    191.5056   9.6604293121e+01   1.1454786093e+01    0.7087439    0.5134719  84.94  0.002936261    2.120    0.528
        26  -9.4773    217.6468    188.3204   8.4409529494e+01   1.1586174251e+00     0.124716    0.1095024  81.50 0.0007047118    1.750    0.429
        27 -10.1294    109.3096    185.9669   1.0663026830e+02   2.1647285486e+01    0.2161289    0.1077587 -81.90 0.0007044734    4.269    0.766
        28 -10.2396    183.2332    182.7359   9.0081705604e+01   8.5251112538e+00    0.3469568    0.1630659 -32.80  0.001382997    2.623    0.619
        29 -10.3080    223.7010    183.3553   8.2308058181e+01   8.2656618838e-01    0.1228543    0.1096671 -74.74 0.0007036186    1.701    0.412
        30 -10.0273    191.6492    177.5317   8.7347194333e+01   7.8021270656e+00    0.2458332    0.1328383 -40.32  0.001096381    1.961    0.490
        31  -9.4547    128.6386    177.6823   1.0097392983e+02   1.9972081236e+01    0.1409272    0.1132144   0.79 0.0007042395    1.765    0.433
        32  -9.9101    215.1370    193.4625   8.5868170982e+01   8.2783481144e-01    0.2218573    0.1542649 -56.14 0.0008351213    2.220    0.549
        33 -10.4476     38.2508    174.6230   1.2101048468e+02   3.4136132232e+01    0.1463454     0.116815  29.08 0.0009002156    1.623    0.384
        34 -11.2053     44.3237    171.6505   1.1937710069e+02   3.4116092204e+01    0.4608157    0.1557547  53.89  0.001858742    3.179    0.685
        35 -11.7237     55.5489    167.7558   1.1639815249e+02   3.3651307697e+01     0.541135    0.2648327  88.55  0.002346887    2.568    0.611
        36 -10.9962     51.8889    159.7936   1.1629614671e+02   3.5923790508e+01    0.3006415    0.1526011  84.26  0.001318728    2.466    0.595
        37  -9.4646    138.3284    164.6443   9.6387548792e+01   2.0879770615e+01    0.1543081    0.1131415  80.11 0.0007045234    1.779    0.438
        38 -10.7410     22.1861    159.5830   1.2317107690e+02   3.9121077741e+01    0.3044738    0.1762436  77.68  0.001748603    1.590    0.371
        39 -11.4580    105.9495    157.4530   1.0277122503e+02   2.8480320310e+01    0.6395993     0.403477 -86.59  0.002761336    2.196    0.545
        40 -10.6907    167.6569    157.5031   8.8283692500e+01   1.6404952842e+01    0.3242359    0.2402427  79.49  0.001371321    1.955    0.488
        41 -11.3607    119.0223    157.0041   9.9501552999e+01   2.6227938326e+01     0.441047    0.2831499  48.60  0.002071011    1.516    0.340
        42 -10.4311    218.4834    156.4885   7.7665252132e+01   6.1159918667e+00    0.2960947    0.1347365 -36.40  0.001207202    2.154    0.536
        43 -10.4160     23.6174    153.7374   1.2229539471e+02   4.0312976357e+01    0.1893551    0.1535051  70.75 0.0006225713    1.164    0.141
        44 -10.4259    189.6748    150.3864   8.1996821757e+01   1.3135666856e+01    0.3628086    0.2000742 -49.34  0.001489151    2.066    0.516
        45 -10.2593    234.0000    146.9939   7.2746309561e+01   4.6348674583e+00     0.235715   0.07480596 -35.39 0.0008059606    2.967    0.663
        46 -10.5211    106.7131    145.0387   1.0025539913e+02   3.1200648196e+01    0.4592058    0.2587661  83.24  0.001444211    4.143    0.759
        47 -10.2012     55.5743    145.7691   1.1353375876e+02   3.8756137978e+01    0.1915446    0.1132629 -81.27  0.000877075    1.677    0.404
        48 -10.0833    148.4812    145.0069   8.9940068561e+01   2.3016122195e+01    0.2174329    0.1347052 -71.18 0.0008096828    2.558    0.609
        49  -9.9397    182.0129    142.0234   8.1697195922e+01   1.6389742253e+01    0.2477381    0.1955285 -85.09  0.001142841    1.785    0.440
        50  -9.9590     83.0098    132.5061   1.0405969923e+02   3.8123782637e+01    0.2052159    0.1092798  59.66 0.0008099443    2.488    0.598
        51 -11.7683     99.5213    128.9786   9.8850810202e+01   3.6236414799e+01    0.7064274    0.4040934  78.40   0.00230596    3.851    0.740
        52 -10.0547     58.9853    124.4795   1.0923314345e+02   4.3423222496e+01    0.2877234    0.1510311  79.83  0.001036876    3.538    0.717
        53 -10.5245     43.2143    123.4241   1.1349418571e+02   4.5499269621e+01    0.3809151    0.1821243 -89.85  0.001460417    3.202    0.688
        54 -10.9920     26.9221    120.6920   1.1764046354e+02   4.7714258660e+01    0.5304987    0.2219048  86.38  0.001843492    4.258    0.765
        55 -10.9239     14.9305    120.9931   1.2096622696e+02   4.8603524642e+01    0.3471107    0.2822734  -5.09  0.002344087    1.714    0.417
        56 -12.0174    193.3930    118.1627   7.3502057069e+01   1.8423770586e+01    0.6289789    0.5208119 -81.08  0.002061663    1.529    0.346
        57  -9.8143    131.3283    130.6691   9.0868816700e+01   2.9747603072e+01    0.1602272      0.12179  85.96 0.0007051503    1.713    0.416
        58 -10.9811    141.0000    118.0181   8.5325092917e+01   3.0489779095e+01    0.4118176    0.1179492 -47.51   0.00115418    3.603    0.722
        59 -10.1998    108.1086    112.2830   9.2600851173e+01   3.8569256359e+01    0.5061812    0.1980985 -60.45  0.001458794    3.939    0.746
        60 -11.5599    159.6014    111.8098   7.9189911401e+01   2.7587586358e+01    0.4335639    0.3193773  88.11  0.001819005    1.965    0.491
        61 -11.4387    158.9897    107.7034   7.8230498173e+01   2.8575885177e+01     0.642184    0.3750516 -70.43  0.002013158    3.559    0.719
        62 -10.5285     78.2882    111.9723   1.0113751277e+02   4.3753980800e+01    0.4100865    0.2187071 -78.40  0.001445798    3.258    0.693
        63 -10.9130    174.2580    110.8781   7.5628018730e+01   2.4326045784e+01    0.4130709    0.2780175 -48.26  0.001166295    1.535    0.349
        64 -10.2556     91.6125    110.9763   9.6993532040e+01   4.1847331382e+01    0.3514078    0.1351134 -53.68  0.001256424    2.455    0.593
        65 -10.3038     19.0273    112.5364   1.1875205378e+02   5.0272515748e+01    0.1971526    0.1268366  14.17   0.00110952    2.112    0.527
        66 -10.9882     13.9616    109.1439   1.1975222851e+02   5.1431591421e+01    0.5302176    0.1987214 -73.42  0.002423396    2.201    0.546
        67 -12.3817    140.7682    103.0831   8.1400879240e+01   3.3758684143e+01    0.7456765     0.470487 -43.45  0.003167908    1.567    0.362
        68 -12.1349    150.8407    102.7922   7.8823658132e+01   3.1498519048e+01    0.5441989    0.3747709 -81.81   0.00209931    2.368    0.578
        69 -12.0765     43.6568    100.3679   1.0929561756e+02   5.0944434434e+01    0.6074206    0.3689988  80.63  0.002828303    2.397    0.583
        70 -12.0139    127.5156    100.5704   8.4154632500e+01   3.7238671324e+01    0.6248712    0.3069175 -53.96  0.002250368    2.345    0.573
        71 -10.6942     20.8023     99.7226   1.1633902531e+02   5.3134324293e+01    0.4857113    0.2153213  83.45  0.001691371    4.616    0.783
        72 -11.0467     82.2872    100.6522   9.7251307078e+01   4.5795894086e+01    0.2665198     0.244523 -44.19 0.0003443883    1.053    0.051
        73 -12.6489    170.4280     91.1582   7.1034001047e+01   2.9091057176e+01    0.5302365    0.4441543 -55.37 0.0009179501    1.253    0.202
        74 -11.5349    107.2900     98.7231   8.9276391911e+01   4.1808343201e+01    0.6832216    0.3697534 -63.66  0.002487959    2.624    0.619
        75 -10.5622     60.3132     89.8813   1.0156400269e+02   5.1459864740e+01    0.2071489    0.1865926  59.39 0.0002975164    1.279    0.218
        76 -11.8441     42.5579     87.7966   1.0701019724e+02   5.3993290404e+01    0.6222612    0.3584947 -10.28  0.001765864    2.935    0.659
        77 -10.7298     45.1636     81.8614   1.0473421413e+02   5.5078983137e+01    0.2901635    0.1903668 -67.58 0.0007425221    1.514    0.340
        78 -11.2030     87.5216     87.3419   9.2058658914e+01   4.7960177842e+01     0.457035    0.2768451  57.12  0.001951282    2.240    0.554
        79 -10.6925    104.5147     83.3527   8.5649600147e+01   4.5703864550e+01    0.3684045    0.2449803 -70.54  0.001512451    2.276    0.561
        80 -10.6370     23.8710     79.9911   1.1175667859e+02   5.7447695738e+01    0.3031436    0.1527365 -87.23  0.001252384    3.251    0.692
        81 -10.1248    249.6625     80.6847   5.4724407591e+01   1.2060767720e+01    0.1377078    0.1068058  12.80 0.0007047604    1.697    0.411
        82  -9.6660    153.3251     77.9514   7.0964730329e+01   3.5802999136e+01    0.2120548    0.2016586 -14.40 0.0004993505    1.072    0.067
        83  -9.8303      1.7071     77.8228   1.1903292284e+02   5.9305207105e+01    0.1982037    0.1024916 -55.08 0.0008854071    1.470    0.320
        84 -11.0220     82.4445     73.3054   8.9500555178e+01   5.1852508853e+01    0.4206488     0.261544 -72.25  0.001640245    2.948    0.661
        85 -10.8205     62.3958     70.7868   9.5630695584e+01   5.5438860119e+01     0.334217   0.09831738 -44.44   0.00114551    3.073    0.675
        86 -10.0301    140.5134     82.5297   7.5467319798e+01   3.8023615413e+01    0.2993088     0.139556 -49.16  0.001039354    2.415    0.586
        87 -12.2785    223.5151     70.4888   5.5784573649e+01   1.9560670405e+01    0.3044717    0.2797316  77.91 0.0005366656    1.132    0.117
        88 -10.5752     51.9637     71.0052   9.9452435137e+01   5.6725916703e+01    0.2107848     0.180114 -42.45 0.0007208811    1.005    0.005
        89 -11.1369     28.4174     52.1759   1.0308208804e+02   6.3125204221e+01    0.4147678    0.2290795 -23.61  0.001777887    2.091    0.522
        90 -11.3864     20.7271     50.8882   1.0591062379e+02   6.4006488251e+01    0.6534872    0.2100811 -56.70   0.00287895    2.418    0.586
        91 -11.6876     19.4635     59.4780   1.0873006814e+02   6.2293588210e+01    0.4523076    0.2115668 -46.59  0.002015764    1.680    0.405
        92 -12.1631     39.8589     52.5071   9.8491325153e+01   6.1964265962e+01    0.6046737    0.2863863 -48.37  0.002148413    1.739    0.425
        93 -13.0954     27.9275     60.5300   1.0565600901e+02   6.1417294386e+01     1.210508     0.403329  37.35  0.002522146    3.760    0.734
        94 -12.5306     35.5026     57.1973   1.0170296295e+02   6.1440122125e+01    0.4455388    0.3957018  42.80  0.002314487    1.432    0.302
        95 -12.5140    237.0145     63.8316   5.2251698986e+01   1.7413707838e+01    0.4866655    0.3465098  70.19  0.002527763    1.518    0.341
        96 -12.3303    231.7745     59.9808   5.1960622872e+01   1.9199849252e+01    0.6196612    0.4951775  66.22   0.00339519    1.316    0.240
        97 -10.0002    119.3373     56.6553   7.2548775028e+01   4.7724347613e+01    0.1532937     0.119906 -73.97 0.0007048984    1.773    0.436
        98 -11.0724      8.6020     56.6835   1.1238687510e+02   6.3572178503e+01    0.4394589    0.2650116 -84.72  0.002442278    2.129    0.530
        99 -10.6440    161.0480     53.4651   6.1581897362e+01   3.8037344605e+01    0.4141945    0.1461497  57.88  0.001362702    2.743    0.635
       100 -11.6833    148.8211     52.1633   6.3737309841e+01   4.1360191723e+01    0.3537053    0.2943881  38.70 0.0004376615    1.207    0.172
       101 -10.2946    195.8721     67.7540   5.9399223799e+01   2.6808387592e+01     0.381841    0.2032972  57.33  0.001557742    1.877    0.467
       102 -11.0092    156.9188     44.9453   5.9653114219e+01   4.0377746857e+01    0.3088284    0.2114044  56.73 0.0004306123    1.397    0.284
       103 -11.4961      8.0437     43.3998   1.0926038870e+02   6.6361920332e+01    0.4878306    0.2479067  35.67  0.002736396    2.631    0.620
       104 -11.0441     70.2396     42.3454   8.2872613941e+01   5.9819749874e+01    0.3763267    0.2830661  73.21  0.001857884    2.478    0.597
       105 -12.3686     41.0238     38.1647   9.2949006095e+01   6.4602170931e+01    0.5106429    0.3223266   9.86  0.001646717    1.820    0.451
       106 -11.4889    140.1821     37.6452   6.0668957224e+01   4.5665376893e+01    0.3089364    0.2652555  57.58 0.0007008367    1.131    0.116
       107 -11.7301    120.3159     34.1861   6.4066999931e+01   5.0970190247e+01    0.3196517    0.2959856  48.35 0.0006293259    1.095    0.087
       108 -10.5592     49.8387     34.6377   8.7804053698e+01   6.4148038478e+01    0.3332424    0.1743492  30.92  0.001425012    2.051    0.512
       109 -11.1323    106.4163     29.9669   6.6096539937e+01   5.4711309217e+01    0.4049463     0.310473  66.00  0.001764765    1.550    0.355
       110 -10.5373    101.6766     28.5933   6.6877278511e+01   5.5930138430e+01    0.4533654    0.1657131 -33.97  0.001416211    2.702    0.630
       111  -9.8325    187.5332    248.4839   1.0003265033e+02  -2.2314432624e+00    0.2253158   0.08876974  32.66  0.001026651    2.400    0.583
       112 -10.5480     37.0411     23.4877   8.8678920918e+01   6.7599567120e+01    0.2588694    0.1129308  32.84  0.001000919    2.488    0.598
       113 -10.3029    246.5234    244.4835   8.9171077750e+01  -1.0596369797e+01    0.1142874   0.08444016  16.09 0.0004263395    1.023    0.022
       114 -11.4670    239.0353     20.6350   4.1491665792e+01   2.2734156877e+01    0.4576951    0.2424278  75.50  0.001218084    1.880    0.468
       115 -10.5773     46.4352     16.7732   8.1328317991e+01   6.7435410029e+01     0.268829    0.1674969 -14.88 0.0009497273    1.541    0.351
       116 -12.3941     22.2408    239.3092   1.2852440301e+02   2.2968570775e+01    0.5471248    0.1938998  64.04  0.002964823    2.397    0.583
       117  -9.9764     88.9891     18.0368   6.6154820247e+01   5.9922107648e+01    0.2011266    0.1669706 -63.19  0.001135099    1.748    0.428
       118  -9.9732    127.5048     14.5159   5.4936313234e+01   5.1576464479e+01    0.1416311    0.1247752  40.52 6.118651e-05    1.033    0.032
       119 -10.3536      7.9810    240.5124   1.3084826751e+02   2.4221845301e+01    0.1411801   0.07962696  46.16  0.000701626    1.567    0.362
       120  -9.5663      2.6409    240.2858   1.3166803104e+02   2.4781094314e+01    0.1098943   0.04684998  62.71 0.0005627749    1.679    0.405
       121  -9.7830     49.7064     11.4360   7.7282998575e+01   6.7699483423e+01    0.1583957    0.1026736  22.69 0.0007269772    1.470    0.320
       122 -10.5585     12.8611    227.4778   1.2948216975e+02   2.6071045077e+01    0.2042753    0.1078118  69.34 0.0006343605    1.424    0.298
       123  -9.9312    104.3907    225.2646   1.1269623884e+02   1.4764048122e+01    0.2040042     0.114367 -58.95  0.001123225    2.041    0.510
       124 -10.5426     96.1048    224.9912   1.1426364613e+02   1.6078277809e+01    0.2997928    0.1467371  65.37  0.001406288    2.461    0.594
       125 -10.7155    149.1989    222.9111   1.0364942040e+02   7.8344213193e+00    0.2537409    0.1826552  72.55  0.001425274    1.785    0.440
       126 -10.1661    174.2312    222.2483   9.8684638348e+01   3.6409613464e+00    0.1775607    0.1056378 -57.28 0.0008911351    2.435    0.589
       127  -9.5730     36.3407    222.6907   1.2517979481e+02   2.4454773093e+01    0.1218143   0.06028675  65.06 0.0007044292    1.690    0.408
