#   1 NUMBER                 Running object number                                     
#   2 MAG_AUTO               Kron-like elliptical aperture magnitude                    [mag]
#   3 X_IMAGE                Object position along x                                    [pixel]
#   4 Y_IMAGE                Object position along y                                    [pixel]
#   5 X_WORLD                Barycenter position along world x axis                     [deg]
#   6 Y_WORLD                Barycenter position along world y axis                     [deg]
#   7 A_WORLD                Profile RMS along major axis (world units)                 [deg]
#   8 B_WORLD                Profile RMS along minor axis (world units)                 [deg]
#   9 THETA_WORLD            Position angle (CCW/world-x)                               [deg]
#  10 FWHM_WORLD             FWHM assuming a gaussian core                              [deg]
#  11 ELONGATION             A_IMAGE/B_IMAGE                                           
#  12 ELLIPTICITY            1 - B_IMAGE/A_IMAGE                                       
         1 -14.7064     68.3420    144.3708   1.0372450112e+02   3.7399895934e+01     5.055713     2.580394  67.96    0.0076748    3.805    0.737
         2 -14.2955    216.9160     24.9361   3.8506770487e+01   2.8769739440e+01     1.279665    0.9028593  34.45  0.007043466    1.974    0.493
         3 -14.5067    203.7944     38.1715   4.3250702452e+01   3.0174396264e+01     2.122066     1.463385  34.56  0.008452261    1.914    0.478
         4 -12.5553    241.9350      2.8405   3.1541142420e+01   2.5762890484e+01    0.6904472    0.2925726  76.84  0.003557397    2.251    0.556
         5 -10.2600      2.3148      3.1521   9.0420444208e+01   7.4020232604e+01     0.228247    0.0658922 -40.09  0.001093941    2.599    0.615
         6  -9.7991     56.6132      1.7895   6.2114262690e+01   6.7303352728e+01    0.1591215    0.1034368 -27.49 0.0009487229    1.661    0.398
         7  -9.9824     37.5039    215.2899   1.1949239096e+02   2.4624745928e+01    0.2486067    0.1278023  59.36 0.0009811661    1.778    0.438
         8 -11.3172    139.6408    249.0103   1.0232045620e+02   4.4861919804e+00    0.3557375    0.2452864 -66.74   0.00211787    1.993    0.498
         9 -15.5707      9.5776    207.6369   1.2449366536e+02   2.8959792025e+01     2.671521     1.381625 -57.05   0.01441482    2.214    0.548
        10 -13.1600     25.6637    228.3919   1.2267852367e+02   2.3213776284e+01    0.5340441    0.2633229  66.92  0.001870907    1.832    0.454
        11 -13.2220     21.4644    221.9730   1.2307338925e+02   2.4911815803e+01    0.4357415    0.3634507 -44.79  0.001288309    1.731    0.422
        12 -13.6347     38.5931    203.0369   1.1828581728e+02   2.7109888577e+01     0.683313    0.5371606 -54.56  0.001585798    1.506    0.336
        13 -14.9986     48.5701    192.7406   1.1516314590e+02   2.8278959897e+01     2.247794     1.437408  81.09  0.009636834    1.556    0.357
        14  -9.9256     66.4299    194.2385   1.1127014902e+02   2.5772692494e+01    0.4249019    0.2264412  82.40  0.001856633    2.553    0.608
        15  -8.6280     73.2728    199.2686   1.1029755431e+02   2.3757150025e+01    0.1150589    0.1002642 -31.03            0    1.477    0.323
        16 -10.6409    109.9829    201.2458   1.0218151465e+02   1.7971498959e+01    0.2299682    0.1921309 -79.70 0.0002247511    1.297    0.229
        17  -9.2106    128.4384    195.2703   9.7014616945e+01   1.6228218277e+01    0.1902145    0.1366737 -70.15  0.000949456    1.696    0.410
        18 -15.9849     43.1426    249.5888   1.2082184646e+02   1.7314369079e+01     10.11935     3.084156  25.64   0.02198553   16.207    0.938
        19  -9.3882     72.1827    188.1634   1.0919875081e+02   2.6393518476e+01    0.1828375    0.1393404  76.12 0.0004438345    1.309    0.236
        20  -9.5297     80.4959    183.9742   1.0666141067e+02   2.6213891954e+01    0.2024339    0.1287416 -66.13 0.0007039748    1.551    0.355
        21  -9.0386     69.4052    183.2432   1.0923442135e+02   2.7892548945e+01    0.1827309    0.1195979 -82.55 0.0006626523    1.590    0.371
        22  -8.8098     90.7186    182.2960   1.0394102957e+02   2.5117515578e+01    0.1389116    0.1008288  71.02 0.0002256508    1.539    0.350
        23 -10.9155    150.7624    179.2735   8.8978646998e+01   1.5658895753e+01    0.4606332    0.3010468 -77.14  0.001837612    2.797    0.642
        24  -9.9127     99.3842    180.8463   1.0160154805e+02   2.4126264842e+01    0.2481324    0.1998585  32.13 0.0006432254    1.282    0.220
        25 -11.2172    144.0872    178.7801   9.0443660443e+01   1.6975208875e+01    0.4012954    0.2913902 -61.14  0.001706425    1.602    0.376
        26 -12.1243     64.8297    176.4414   1.0946657272e+02   3.0074525363e+01     0.455261    0.2962256 -31.45  0.001392129    2.259    0.557
        27 -12.2795     69.6362    171.3312   1.0757905746e+02   3.0661296951e+01    0.3717257    0.2993105  34.58  0.001510719    1.329    0.247
        28 -16.8908      8.5042    240.8779   1.2639576704e+02   2.2496940010e+01     8.904933     4.934374 -79.93   0.06078406    1.639    0.390
        29  -9.5910    203.9910    175.9685   7.6740469938e+01   6.5705947402e+00    0.2050509    0.1799148 -72.68 0.0008959094    1.648    0.393
        30  -9.8028    197.0173    176.0875   7.8180767529e+01   7.7981513623e+00     0.229091    0.2074568   0.19  0.001322646    1.034    0.033
        31  -9.3718    188.0106    174.0374   7.9634549909e+01   9.8222539586e+00    0.2174259    0.1863847 -86.71  0.001129959    1.718    0.418
        32 -12.9296     86.0614    155.1678   1.0073664049e+02   3.2244672419e+01     1.666479    0.9439359 -59.36  0.004194342    1.688    0.408
        33 -12.3200     78.9580    161.8778   1.0375694300e+02   3.1654648638e+01    0.5442821    0.3907483  50.51 0.0003830793    1.430    0.301
        34  -9.9945    230.2269    166.2430   6.9698450189e+01   3.6827765989e+00    0.2143795   0.09771082 -45.39 0.0007668008    2.424    0.587
        35 -10.0742    236.5042    158.4794   6.6941420828e+01   3.9127933260e+00    0.1388674    0.1166791 -15.08 4.320294e-06    1.018    0.018
        36 -11.1454     33.1071    155.9673   1.1492061841e+02   3.8526439975e+01    0.3366738    0.2370473  78.36  0.001786266    1.403    0.287
        37 -10.4471    134.1546    147.1620   8.6383306784e+01   2.5818489629e+01    0.6379351    0.1890084 -51.64   0.00183805    3.680    0.728
        38 -10.7772    133.0000    140.9957   8.5287721661e+01   2.7447542333e+01    0.7248238    0.1977212 -51.03  0.001985947    3.988    0.749
        39 -11.8903     55.6955    146.3078   1.0757391644e+02   3.8499686862e+01    0.5946816    0.4091683 -45.27  0.003116314    1.509    0.337
        40 -10.5151    174.3597    148.8369   7.7113713461e+01   1.7439887253e+01    0.3112293    0.2781263 -84.74 0.0009007922    1.418    0.295
        41 -10.8982     28.6665    144.3058   1.1470377468e+02   4.1763831479e+01    0.2883537    0.1938904 -86.20  0.001613896    1.381    0.276
        42 -13.6238     66.4089    157.7737   1.0642855020e+02   3.4356190255e+01     0.561301    0.4207874 -52.95  0.001455581    1.310    0.236
        43 -10.8244    100.6905    140.3178   9.3845547707e+01   3.3520466316e+01    0.5733259    0.3468637 -25.94  0.002235173    2.479    0.597
        44 -12.2772     87.8160    140.2316   9.7447417878e+01   3.5625373569e+01    0.3010744     0.248386 -47.55 0.0003745497    1.175    0.149
        45  -9.6455     82.0224    141.7841   9.9391542465e+01   3.6121906743e+01     0.288299    0.2036563  68.98  0.001166693    1.775    0.437
        46 -10.1282     23.8456    136.8244   1.1510105539e+02   4.3995451325e+01    0.1738045    0.1343065  78.78  0.000381409    1.291    0.225
        47  -9.4919     29.1425    136.3293   1.1355983798e+02   4.3672974406e+01    0.1711013    0.1546551  83.80 0.0006724453    1.128    0.114
        48 -10.4360    105.9167    130.8425   9.0291709443e+01   3.4893513462e+01    0.3703141    0.3303758 -78.76  0.001443115    1.225    0.184
        49 -10.2379    110.1958    130.6181   8.9034057057e+01   3.4179138041e+01    0.3173276    0.2448093 -10.20 0.0008472766    1.638    0.389
        50 -11.0820    135.6787    128.4949   8.1614579125e+01   2.9749373408e+01    0.5718535    0.1435526 -49.26  0.001477813    4.308    0.768
        51 -11.4125    200.8179    201.1821   8.2345246620e+01   2.7387853858e+00    0.2907527    0.1803892   0.94   0.00135348    2.083    0.520
        52 -10.9615     97.4750    126.7335   9.1773804476e+01   3.7342613456e+01    0.3055115    0.2523232 -12.59 0.0006452519    1.406    0.289
        53  -9.0248     79.4511    128.4474   9.7467919450e+01   3.9783808075e+01    0.1456984    0.1357849 -60.07 0.0001244012    1.020    0.019
        54 -10.0059    160.6460    127.3336   7.5118879156e+01   2.4778704448e+01    0.2425912    0.1960436 -84.39  0.001112537    1.691    0.409
        55  -9.6516    116.2119    124.8452   8.5972291873e+01   3.4419220632e+01    0.2164789    0.1809826 -13.01 0.0004842725    1.349    0.259
        56 -11.2761     61.4992    198.8675   1.1290135107e+02   2.5366050105e+01    0.3905989    0.2368579 -53.42 0.0006264006    1.804    0.446
        57 -11.4904     24.3272    119.8643   1.1267501155e+02   4.8102130698e+01    0.4473043    0.1719981  45.80  0.001830126    3.260    0.693
        58 -10.6517    137.3382    169.0563   9.0175379786e+01   2.0306778953e+01    0.3148303    0.2884105  83.48   0.00163687    1.236    0.191
        59  -9.9999    107.0465    119.1697   8.7180097515e+01   3.7454496031e+01    0.2195709     0.208721 -21.51 0.0003583951    1.042    0.040
        60 -13.7638     58.3303    242.2429   1.1751265330e+02   1.6893183172e+01    0.5983633    0.3967659  66.82  0.001184893    1.330    0.248
        61 -10.6560     40.0491    113.3489   1.0669706698e+02   4.8330978795e+01    0.2589414    0.1823207 -72.07 0.0006754047    1.340    0.254
        62  -9.3896    168.0581    113.0314   6.9736381635e+01   2.6116682223e+01    0.2554392    0.1981612 -80.84  0.001137885    1.810    0.448
        63 -12.0776     18.4493    110.7124   1.1313433242e+02   5.0758070008e+01    0.5330659    0.2392647 -65.41  0.002562604    1.754    0.430
        64 -10.5551     33.3653    109.6123   1.0817695263e+02   4.9859265340e+01    0.3157014    0.1551026 -71.28 0.0009524585    1.967    0.491
        65 -10.0511    205.4167    110.1680   6.1397529595e+01   1.8443189486e+01    0.3034113    0.2131782  38.98  0.001087708    1.561    0.359
        66 -10.0726    134.5708    105.2869   7.5830784132e+01   3.5088387076e+01    0.3935743     0.150189 -41.24  0.001297025    2.590    0.614
        67 -10.7793     40.7767    102.8942   1.0444096357e+02   5.0802743658e+01    0.5551767     0.201773  45.69  0.001954365    4.048    0.753
        68 -10.9865    247.5938    102.2074   5.2766708689e+01   1.1237938286e+01    0.1967897    0.1163451 -27.33 0.0009028624    1.674    0.403
        69 -11.7530    241.2882     99.8605   5.3123181421e+01   1.2828494014e+01    0.4026954    0.1439883 -38.35  0.001226941    2.368    0.578
        70  -9.6547     32.9718     96.9392   1.0590447124e+02   5.2949569967e+01    0.2028184    0.1530127  74.70 0.0008968608    1.697    0.411
        71  -9.1731     11.9988     92.9873   1.1244665514e+02   5.5401108642e+01    0.1786531    0.1373601  73.46  0.000491229    1.562    0.360
        72 -10.3371     42.1039     91.6865   1.0155226926e+02   5.3340708691e+01    0.2671156    0.2125653 -21.07 0.0008206563    1.311    0.237
        73 -10.3794     53.0827     90.8020   9.7424260836e+01   5.2353398235e+01    0.2678492    0.1829187 -42.76  0.001312866    1.293    0.226
        74  -9.1117     73.5216     83.7781   8.8282699614e+01   5.1200413859e+01    0.1845494    0.1345737 -58.91  0.000369765    1.507    0.336
        75  -9.7321    159.4985     81.9835   6.3063261185e+01   3.4061040782e+01    0.2300409    0.1493043 -35.52 0.0004857641    1.529    0.346
        76  -8.4975    109.7150     79.6938   7.5250153653e+01   4.5600926205e+01    0.1521564    0.1154929  -2.48 0.0004751385    1.564    0.361
        77 -10.7392    243.4846     77.9521   4.7832453451e+01   1.5833851728e+01    0.2139259    0.1158165 -37.13  0.001036796    1.605    0.377
        78  -9.7316     50.4768     63.5888   9.0682643934e+01   5.8649918128e+01    0.2882331    0.1833937  47.21  0.001397308    2.183    0.542
        79 -10.6598     13.5070     59.9714   1.0503015097e+02   6.2782007149e+01    0.2457827     0.178105 -52.46 0.0004824549    1.136    0.120
        80 -10.0583    172.6022    241.0599   9.4698521652e+01   7.8043908437e-01    0.3563123    0.2170172 -60.30  0.001815212    2.711    0.631
        81 -12.0038    194.8902     44.2412   4.6014807028e+01   3.1481436344e+01    0.5602423    0.3967828  46.59 0.0009799683    1.539    0.350
        82 -10.7930     72.5573    231.3599   1.1381420445e+02   1.7185979882e+01    0.3396532    0.1758873  67.50  0.001168809    2.270    0.559
        83 -10.0860    141.9614     39.3288   5.3615844640e+01   4.4984336350e+01    0.2333782    0.2016634 -42.73 0.0004809417    1.240    0.193
        84 -10.8043    138.2224     44.2347   5.6036585981e+01   4.5221135170e+01    0.3375834    0.2578796 -80.46 0.0004010658    1.741    0.425
        85  -9.6850      2.3198     24.6584   9.9686428885e+01   7.0439711172e+01   0.09642112   0.08983423  83.14  0.000704984    1.719    0.418
        86  -9.5775    189.5086     15.0051   3.8960988449e+01   3.6220647986e+01    0.1817309    0.1267237 -29.97 0.0005934782    1.541    0.351
        87 -10.4797     72.6512    226.1202   1.1329617993e+02   1.8205056482e+01     0.228289    0.1824303  77.80  0.001170253    1.165    0.142
        88 -11.5032    193.9336    196.3519   8.2829101537e+01   4.7143585989e+00     1.094938    0.5913411 -63.27  0.003177921    6.565    0.848
