#   1 NUMBER                 Running object number                                     
#   2 MAG_AUTO               Kron-like elliptical aperture magnitude                    [mag]
#   3 X_IMAGE                Object position along x                                    [pixel]
#   4 Y_IMAGE                Object position along y                                    [pixel]
#   5 X_WORLD                Barycenter position along world x axis                     [deg]
#   6 Y_WORLD                Barycenter position along world y axis                     [deg]
#   7 A_WORLD                Profile RMS along major axis (world units)                 [deg]
#   8 B_WORLD                Profile RMS along minor axis (world units)                 [deg]
#   9 THETA_WORLD            Position angle (CCW/world-x)                               [deg]
#  10 FWHM_WORLD             FWHM assuming a gaussian core                              [deg]
#  11 ELONGATION             A_IMAGE/B_IMAGE                                           
#  12 ELLIPTICITY            1 - B_IMAGE/A_IMAGE                                       
         1 -12.9447    179.3001     40.8004   6.1161341457e+01   3.5199792381e+01     1.332608     1.020406  20.45  0.004046141    1.538    0.350
         2 -12.8061    199.0870      8.9167   4.8537784914e+01   3.3802994724e+01     1.084051    0.9341655  50.92  0.004775919    1.193    0.162
         3  -9.9464     81.4613    194.8515   1.1849774217e+02   2.4899475512e+01    0.3667863     0.265441  76.01  0.002373596    1.209    0.173
         4 -11.4069    248.4126    244.9999   9.5513299367e+01  -9.4075652957e+00    0.5857691    0.2734535  20.44  0.003144109    2.372    0.578
         5 -10.9496     72.0811    195.0816   1.2031594695e+02   2.6155736960e+01    0.4012141    0.2766175 -44.27  0.001985785    2.248    0.555
         6  -9.6320    151.4540    196.3158   1.0504841801e+02   1.3180387117e+01    0.2357016    0.1048353  44.17 0.0007163499    1.942    0.485
         7 -10.9130     98.4955    191.0061   1.1472891778e+02   2.3113199529e+01    0.2417714     0.210335  64.36 0.0006074866    1.110    0.099
         8  -9.3720    153.7392    184.9751   1.0279236803e+02   1.4730467715e+01    0.2883965    0.1622069 -65.72  0.001267607    2.664    0.625
         9 -11.0538     99.3557    180.9366   1.1326166439e+02   2.4951933697e+01    0.2619435    0.2498702  72.19 0.0006242183    1.231    0.187
        10  -9.3513     93.8378    181.7698   1.1450094205e+02   2.5641776065e+01    0.1832334    0.1273825  70.06 0.0006767848    1.364    0.267
        11  -8.7866    204.2202    175.7619   9.1275460709e+01   6.5380106525e+00    0.1898999    0.1482175  14.27 0.0005478613    1.329    0.248
        12  -8.9220    196.4807    175.5021   9.2691346043e+01   8.0900891699e+00    0.2730058    0.1872524  49.61  0.001426631    1.423    0.297
        13 -19.5251     40.6735    150.1172   1.2201315799e+02   3.9296497882e+01     18.37937     3.267266 -70.36   0.05624903    5.466    0.817
        14 -11.6640    116.6684    172.6264   1.0844617740e+02   2.3763442652e+01    0.6172319    0.3365116  67.20  0.002664145    2.481    0.597
        15 -11.4259    104.1988    172.8173   1.1111873433e+02   2.5813196590e+01    0.3935204    0.3027061  25.18  0.002221632    1.743    0.426
        16 -10.8061    124.8926    171.8381   1.0657789690e+02   2.2481161617e+01    0.3741881    0.2464518  68.75  0.001304049    1.731    0.422
        17  -9.2131    139.7440    168.0056   1.0277907171e+02   2.0512665066e+01     0.189204    0.1755168  77.08 0.0005448027    1.058    0.055
        18  99.0000     24.7508    206.0456   1.2969160440e+02   2.9695864979e+01    0.2535424    0.0699693  52.98  0.001270901    2.809    0.644
        19 -11.3315     11.8847    204.4258   1.3174180387e+02   3.1264871186e+01    0.2610069     0.173256 -73.70  0.002005643    1.529    0.346
        20  -9.2561     87.6687    202.2997   1.1811583604e+02   2.2597027682e+01    0.2671286    0.2184458 -63.51  0.001334017    1.442    0.307
        21 -10.4377     97.6816    157.5610   1.1023126632e+02   3.0054202180e+01    0.2636279    0.2286048 -58.34 0.0002957397    1.249    0.200
        22 -11.2233    101.8258    151.5048   1.0830492217e+02   3.0680681267e+01    0.5177939    0.4013111 -35.92  0.001932931    1.682    0.405
        23  -9.1078     84.4854    200.4652   1.1852076744e+02   2.3399863515e+01    0.2378415     0.147069  61.72 0.0008327285    1.409    0.290
        24 -11.8202     87.1201    151.6449   1.1170192032e+02   3.2980739740e+01    0.3609166    0.2797371 -42.23 0.0008496069    1.607    0.378
        25  -9.9862    134.0787    145.8035   9.9860765860e+01   2.6075351334e+01    0.9362711    0.2021895 -54.52  0.002061507    7.698    0.870
        26  -9.4342     76.1861    225.2127   1.2234660340e+02   2.0112530658e+01    0.1647968    0.1283723  51.29 0.0004496347    1.286    0.223
        27 -10.2346    111.7367    137.1655   1.0336612681e+02   3.2099066773e+01    0.4787766    0.3022477 -29.33   0.00204099    2.527    0.604
        28 -10.5774    100.7380    136.8849   1.0596326126e+02   3.4063625898e+01    0.2746929    0.2635716 -14.07 0.0005219015    1.283    0.220
        29 -10.2545    105.8977    130.9712   1.0355531458e+02   3.4493935782e+01    0.3524067    0.2975684 -88.22  0.001032371    1.194    0.163
        30  -9.0993    117.1834    129.0496   1.0038837699e+02   3.2882947391e+01    0.2126015     0.196827 -26.16 0.0005763628    1.249    0.199
        31  -9.3925    105.6158    124.5522   1.0230546009e+02   3.5970499498e+01    0.2668507    0.2165759 -34.96 0.0006323188    1.428    0.300
        32  -8.7236    112.1003    118.1641   9.9267833169e+01   3.6221881535e+01    0.2103387    0.1962883 -10.06 0.0004413464    1.256    0.204
        33  -9.6332    168.4804    113.4768   8.4648847949e+01   2.5316696192e+01    0.3146277    0.2685402 -81.23 0.0008566192    1.391    0.281
        34  -8.8903    205.5070    110.0733   7.6216381371e+01   1.7278552427e+01    0.2380871    0.2049325  46.79 0.0007598947    1.175    0.149
        35 -10.1157     82.2194     76.3406   9.6992151120e+01   5.0536637726e+01    0.2383375    0.1915296 -51.02 0.0007205275    1.141    0.124
        36 -11.0389    173.1523     72.2521   7.2101608456e+01   3.1866802305e+01    0.7100238    0.4366952 -80.42  0.002402282    3.217    0.689
        37 -12.1697    165.1261     55.7948   6.8635823100e+01   3.6647786156e+01    0.7372061    0.6492938  -6.09  0.001094817    1.203    0.169
        38  -9.6902    193.3808    195.1949   9.6877564127e+01   5.6431002532e+00    0.4815291    0.2867677 -69.18  0.001774434    4.768    0.790
        39  -7.9169     13.3550    244.2858   1.3336045655e+02   2.4293130205e+01      0.19866    0.1430722  82.15  0.001608615    1.242    0.195
        40 -11.4246    184.0503     33.4641   5.8060539423e+01   3.4931714849e+01    0.4956434    0.3752451  34.53  0.001086471    1.448    0.309
