#   1 NUMBER                 Running object number                                     
#   2 MAG_AUTO               Kron-like elliptical aperture magnitude                    [mag]
#   3 X_IMAGE                Object position along x                                    [pixel]
#   4 Y_IMAGE                Object position along y                                    [pixel]
#   5 X_WORLD                Barycenter position along world x axis                     [deg]
#   6 Y_WORLD                Barycenter position along world y axis                     [deg]
#   7 A_WORLD                Profile RMS along major axis (world units)                 [deg]
#   8 B_WORLD                Profile RMS along minor axis (world units)                 [deg]
#   9 THETA_WORLD            Position angle (CCW/world-x)                               [deg]
#  10 FWHM_WORLD             FWHM assuming a gaussian core                              [deg]
#  11 ELONGATION             A_IMAGE/B_IMAGE                                           
#  12 ELLIPTICITY            1 - B_IMAGE/A_IMAGE                                       
         1 -14.2721    192.1905    128.5514   2.7692574909e+01   1.7226156098e+01     2.643906     2.397006 -66.66 0.0003729731    1.105    0.095
         2 -15.1166    199.5107     75.5667   1.4614461948e+01   2.5300556071e+01     6.676061     4.083073  27.69   0.01779368    3.815    0.738
         3 -14.0228    209.4953     90.4035   1.6403111751e+01   2.0734035821e+01     2.381456     1.688208   9.89  0.005510943    3.020    0.669
         4 -14.7451    241.4010     72.8053   8.8159520121e+00   1.7313607044e+01     2.990435     1.291175 -41.00  0.007446427    2.079    0.519
         5 -14.7682    243.8075     96.5792   1.3092268173e+01   1.3129348510e+01     2.020962     0.396838 -40.39  0.006313195    4.656    0.785
         6 -10.1789    183.7829     53.3060   1.1806450836e+01   3.2177678969e+01     0.441466    0.1754856 -53.28  0.001748676    2.828    0.646
         7 -14.5601    228.7638    114.6197   1.8648813198e+01   1.2777959441e+01     6.388103    0.9620491 -46.69  0.004808425    6.469    0.845
         8  -8.1001    250.5488      9.2886   3.5669063382e+02   2.3969384172e+01    0.1295221   0.09462634 -41.09 0.0009504778    1.624    0.384
         9  -7.1717    236.6816      2.7271   3.5642278967e+02   2.7264066463e+01    0.0933727    0.0750077  68.78  0.000250968    1.566    0.361
        10  -9.0691    169.1663    242.7981   5.4719102265e+01  -1.4999337697e+00    0.1874287    0.1412983  -6.36  0.001065275    1.354    0.261
        11 -12.5679    240.8644    243.0916   4.0628288509e+01  -1.0920022358e+01       1.7997     1.126303   7.99   0.01126079    1.494    0.331
        12  -8.0341    104.6964    236.6517   6.8424510250e+01   9.5540367725e+00    0.1360503    0.1053061 -13.82 0.0007040611    1.695    0.410
        13  -9.6858    181.8680    249.4447   5.3071015344e+01  -4.4528920265e+00    0.3707268    0.2093797  22.75  0.001407694    1.636    0.389
        14 -10.0037    139.4143    245.9034   6.1735816440e+01   2.3934566638e+00    0.3589466    0.2217233 -22.59  0.001692893    2.248    0.555
        15  -8.0976    153.7604    232.4203   5.6471364283e+01   2.7502346807e+00    0.1984232    0.1213457  22.02 0.0009470213    1.642    0.391
        16  -8.7214    213.8931    231.0148   4.3592301974e+01  -5.7808578138e+00    0.2014433    0.1581888  -4.84 0.0006949699    1.076    0.070
        17  -9.1771    203.6163    248.9996   4.8583986374e+01  -7.3046059206e+00    0.4580355    0.2255633  -9.39  0.001782016    3.700    0.730
        18  -7.8321    138.3214    228.3411   5.9361943730e+01   6.0002767163e+00    0.1452754    0.1051774  -8.13 0.0003577396    1.721    0.419
        19  -8.6772    222.9974    225.9736   4.0994530841e+01  -6.1542788484e+00    0.3762198     0.195165   7.19  0.001656697    2.823    0.646
        20  -8.2236    159.3403    239.3275   5.6316658971e+01   5.9218261558e-01    0.1417792   0.09708918  -3.77 0.0007051523    1.735    0.424
        21  -8.1561    167.5051    236.9998   5.4159022337e+01  -2.1427596309e-01    0.1926409    0.1035971 -23.85 0.0008105268    2.561    0.610
        22  -7.9732    162.0470    224.0032   5.3233658799e+01   3.0737624120e+00    0.2240699    0.1590412  -9.12  0.001047923    1.642    0.391
        23  -9.0381    240.7603    217.9375   3.6385627661e+01  -7.1101983369e+00    0.2790845    0.1448584 -37.86 0.0009993521    1.677    0.404
        24  -8.4147    234.3787    216.6779   3.7291294760e+01  -6.1127069690e+00    0.3902004    0.1202882 -35.50  0.001529464    3.094    0.677
        25  -7.5632    217.6445    218.6730   4.0729756905e+01  -4.2385161913e+00      0.13823    0.0871096  -7.73 0.0007045692    1.775    0.436
        26  -8.4891    245.7366    193.5065   3.1193819409e+01  -3.7784014704e+00     0.348735    0.1547335 -44.95  0.001668927    2.090    0.521
        27 -10.1913    249.2835    202.7851   3.2270630601e+01  -5.7474044010e+00      0.78803    0.2912746 -28.88  0.003011153    3.345    0.701
        28  -8.8764    243.7882    199.1982   3.2546359363e+01  -4.4662051071e+00    0.4479741    0.2254712 -49.55  0.002086563    2.280    0.561
        29  -8.9306    123.9902    206.0238   5.9209659937e+01   1.3164962642e+01    0.2091595    0.1959342  31.65  0.001161892    1.006    0.006
        30  -8.5697    197.5839    204.1272   4.2053599090e+01   1.2696072616e+00    0.2440635    0.2073009  60.56 0.0009584592    1.645    0.392
        31  -7.8417    217.6263    204.3309   3.8153829768e+01  -1.7649058794e+00    0.1790451    0.1620129  89.65 0.0006142807    1.719    0.418
        32  -8.7416    207.3630    201.3542   3.9581825741e+01   2.8299119575e-01    0.3285613     0.290997 -80.54  0.001262109    1.681    0.405
        33  -9.5780    218.6978    198.7361   3.6921362106e+01  -9.2991215383e-01    0.2317363     0.199359 -31.21 0.0002981034    1.144    0.126
        34  -8.1785    235.2550    195.3703   3.3311121723e+01  -2.6869679943e+00    0.2645084    0.1579174 -43.39 0.0006416527    1.559    0.358
        35  -7.8456    231.6662    197.1983   3.4275788215e+01  -2.5054918267e+00    0.1931729   0.09898692 -33.11  0.000944044    1.762    0.433
        36  -9.0309    199.6464    192.8106   3.9508464517e+01   3.0851815315e+00    0.4147958    0.2836631 -68.63  0.001352369    2.502    0.600
        37  -7.8290    219.5101    190.0250   3.5140014897e+01   5.1370497650e-01    0.1960968    0.1174128 -39.78 0.0004580015    1.495    0.331
        38  -8.5576    186.0023    240.4869   5.0782632269e+01  -3.5308259252e+00    0.3651634     0.185259  -3.79  0.001222085    4.561    0.781
        39  -8.0697    168.2497    159.0918   3.9387730835e+01   1.5618769045e+01    0.2439721    0.1740945 -72.15  0.001060581    1.947    0.486
        40 -12.8681    250.0656    119.3417   1.6654811386e+01   8.2757929623e+00    0.5961629    0.2085878 -42.74 0.0003588061    2.336    0.572
        41 -14.0278    217.8391    110.5139   1.9424880426e+01   1.5555143900e+01     1.641684     1.237546 -30.08 0.0004143798    1.478    0.324
        42  -9.6019    216.6084    166.6467   3.1144133287e+01   5.3031432440e+00    0.3642069    0.2777235 -75.52 0.0001165076    1.956    0.489
        43 -13.6643    240.1383     81.0660   1.0537126790e+01   1.6274890671e+01    0.9387172     0.466121  73.31  0.004577041    2.542    0.607
        44  -8.9865    193.1689    248.3010   5.0566542902e+01  -5.8139906876e+00    0.3235859     0.186743 -15.37  0.001061493    2.062    0.515
        45  -7.7754    183.4899    162.4863   3.6778232049e+01   1.1982025934e+01    0.1471121    0.1379226 -26.48 0.0001805233    1.004    0.004
        46  -8.5899    190.9215    158.7607   3.4458896591e+01   1.1365930496e+01     0.279844     0.214533   7.21 0.0007445241    1.624    0.384
        47  -9.9547    196.2834    243.5064   4.9163681358e+01  -5.4582384944e+00    0.5034158    0.2744147  -7.46  0.002240975    2.660    0.624
        48  -9.7656    133.3291    147.8717   4.5429654723e+01   2.5143218404e+01    0.3030468      0.28491 -56.95 0.0008914424    1.077    0.072
        49  -8.6106    163.1203    150.0872   3.8596427320e+01   1.8606109908e+01    0.2788476    0.2379201  62.38  0.001406071    1.307    0.235
        50 -10.2205    140.8942    142.8970   4.2348773265e+01   2.4763975719e+01    0.3740917    0.2313496 -47.65  0.001573777    1.608    0.378
        51  -9.4842    148.0617    142.9428   4.0568991427e+01   2.3276544595e+01    0.2482789    0.2381894 -17.07  0.001305148    1.067    0.062
        52  -8.1022     92.6570    143.3203   5.5918945497e+01   3.4010982404e+01    0.1638659    0.1218678  71.48  0.000704987    1.723    0.420
        53  -9.6189    155.2895    140.7404   3.8320970398e+01   2.2273873506e+01    0.2603248    0.2343741 -82.27 0.0005462473    1.229    0.186
        54 -10.3304    159.2234    139.3366   3.7077223001e+01   2.1766254332e+01    0.5348904    0.2549328 -51.71  0.001982392    2.207    0.547
        55 -13.9624    223.6010     92.4819   1.4858048177e+01   1.7562278312e+01     1.948734     1.096045  54.14  0.004097932    1.981    0.495
        56 -13.4161    225.3273    124.0478   2.1074377756e+01   1.1720836816e+01    0.7505323    0.6206031   7.56  0.002728452    1.653    0.395
        57 -14.3134    241.0844    150.1459   2.3824584303e+01   4.3777596603e+00      2.09243     1.109753 -49.39  0.006377279    1.746    0.427
        58  -8.4410     96.3553    135.2912   5.3021501356e+01   3.5354059409e+01    0.1616725    0.1232718 -10.52 0.0007028394    1.683    0.406
        59  -8.1890      8.0315    135.3039   8.1427163630e+01   4.6468290234e+01    0.1701324    0.1609966 -76.94 0.0003782752    1.106    0.096
        60 -11.1258    141.6323    128.0883   3.8678827136e+01   2.7969909219e+01    0.5918963    0.2863499 -44.99  0.001918611    2.065    0.516
        61  -8.2122    202.4958    239.4958   4.7257496848e+01  -5.6430475374e+00    0.2361958    0.1492088  -4.54  0.001023441    1.717    0.418
        62 -13.3970    236.1250    106.0375   1.5911081234e+01   1.2927355030e+01     0.557331    0.3884283 -27.69  0.001506868    1.738    0.425
        63 -10.2208    152.9952    129.9489   3.6350818012e+01   2.5134012251e+01    0.4025092    0.2329913 -45.26  0.001248703    1.706    0.414
        64 -10.2189    146.7109    130.7993   3.8068100546e+01   2.6285395790e+01    0.2931602    0.2684457  58.29  0.001101295    1.118    0.105
        65 -14.4597    236.6704    127.2138   2.0016845229e+01   9.1594526016e+00    0.8403746     0.709208 -22.11  0.005236238    1.338    0.253
        66 -13.8356    244.2747    122.5927   1.8046715479e+01   8.6796219292e+00    0.9199385    0.4603559 -53.43  0.002959396    1.928    0.481
        67  -9.8560     61.8617    125.4902   6.1900686554e+01   4.3412737360e+01    0.2543804    0.2143237 -88.89  0.001310394    1.371    0.271
        68 -13.7872    240.0837    113.1157   1.6773241574e+01   1.1019866170e+01    0.7288526    0.4389259 -35.77  0.003883059    1.632    0.387
        69 -14.0723    248.9416    110.4708   1.5114271401e+01   9.9499681774e+00    0.7643355     0.391751 -42.25  0.002302354    1.635    0.388
        70  -9.6681     49.1933    122.3345   6.5560687350e+01   4.5876973878e+01    0.2115938     0.174166 -42.64 0.0009184161    1.147    0.128
        71 -12.0758    135.3698    105.1273   3.4494161068e+01   3.4287520934e+01     1.176458     0.455995 -34.40    0.0035047    3.745    0.733
        72 -12.4649    140.0142    115.4932   3.5981795982e+01   3.1077412401e+01    0.8607627    0.6948321 -54.70  0.004214967    1.271    0.213
        73  -9.3727    107.5188    122.0172   4.6506084066e+01   3.6431964619e+01    0.2446515    0.1544015 -49.34 0.0006989221    1.592    0.372
        74  -9.7755     61.4273    112.2961   5.9076875540e+01   4.6717476624e+01    0.2997139    0.1287535 -50.92  0.001147244    2.153    0.536
        75  -9.7750    108.1086    111.4650   4.3643298827e+01   3.8732942258e+01    0.2552794    0.2247536 -78.63  0.000986996    1.303    0.232
        76 -10.6516    123.7869    110.7365   3.8998895635e+01   3.5623398336e+01    0.4379584      0.25148  56.97  0.001712156    2.057    0.514
        77 -11.0897    140.9962    101.6199   3.2187134938e+01   3.3748935030e+01    0.8324682    0.2371985 -46.63  0.002438359    3.684    0.729
        78  -9.9946    112.4325    103.6672   4.0309544309e+01   3.9554789234e+01    0.3571503    0.2343068   8.58  0.001345993    2.605    0.616
        79 -14.5188    246.2232     86.6753   1.0920056723e+01   1.4289528127e+01    0.7340795    0.5603828 -50.65  0.004775963    1.121    0.108
        80 -10.5053    128.6701     97.0244   3.4059181584e+01   3.7428130023e+01    0.3672033    0.2803191 -33.08  0.001599227    1.427    0.299
        81 -13.7777    239.7430    141.3855   2.2335178931e+01   6.1415583162e+00    0.6698124    0.5782712 -13.70  0.004273991    1.302    0.232
        82 -13.6821    248.8117    134.5648   1.9714658052e+01   5.8817623728e+00      0.61695    0.4683057 -47.21   0.00267395    1.097    0.089
        83 -10.5811    142.1719     90.2249   2.8904671270e+01   3.5707965766e+01    0.5266026    0.2439106 -39.16  0.002019934    2.295    0.564
        84  -8.4291     60.9435     91.4901   5.3948524224e+01   5.1584878866e+01    0.2134925    0.1382595  28.69 0.0008150569    1.554    0.356
        85  -8.4482    128.3154     87.3391   3.1499070932e+01   3.9400413647e+01    0.1527653    0.1191872  10.05 0.0007047886    1.701    0.412
        86 -10.1423    206.5060    239.9657   4.6540099780e+01  -6.2530413898e+00    0.3431866    0.2945045  65.99  0.001943372    2.045    0.511
        87 -13.6699    249.3291     98.9552   1.2884673501e+01   1.1778752388e+01    0.4838171    0.2397602 -50.97  0.002504404    1.703    0.413
        88  -8.4296    228.9163    186.0000   3.2681744621e+01  -1.5926014492e-01    0.2527271    0.1695856  33.43 0.0007391553    1.648    0.393
        89 -12.4728    157.9463     80.9567   2.3045399091e+01   3.3756805581e+01     1.608218    0.9541571  -7.15  0.004630216    5.795    0.827
        90  -9.9673    157.8737     74.1892   2.1313742535e+01   3.4929626010e+01     0.331062     0.285272  -5.13 0.0005833665    1.516    0.340
        91  -9.9136    161.5294     71.5553   1.9935191429e+01   3.4514546129e+01    0.2673073    0.2573914  51.60  0.000258442    1.159    0.137
        92 -10.1784    223.8967    184.1348   3.3223527377e+01   9.1921438252e-01    0.2445601    0.2290867  37.11 0.0003139038    1.303    0.233
        93  -7.5274    211.3814    183.5533   3.5428516459e+01   2.9637177599e+00    0.2656897    0.1158089 -54.15 0.0009611647    3.245    0.692
        94  -9.1119    143.3185     80.0171   2.5904669359e+01   3.7311112581e+01    0.2105114    0.1960006 -54.40  0.001173329    1.113    0.101
        95  -8.5158    118.8532     78.1563   3.1356561014e+01   4.3220479014e+01    0.2070506    0.1750038  16.30  0.001073199    1.348    0.258
        96  -8.1549    201.8095    183.5062   3.7279428069e+01   4.5227858951e+00     0.331856    0.1886043 -59.58  0.001371268    2.612    0.617
        97  -8.8477    142.7583     76.3983   2.5049220175e+01   3.8072978963e+01    0.2062717    0.1294548  45.60 0.0004071938    1.591    0.371
        98  -8.4865    122.5914     76.1940   2.9810847539e+01   4.2734475620e+01    0.2034332    0.1427257 -25.25 0.0009486908    1.723    0.420
        99  -9.5156    128.5976     72.6045   2.7277147841e+01   4.1993921545e+01    0.2767924    0.2203327   2.35 0.0008201117    1.661    0.398
       100  -8.6043    145.7021     66.6999   2.1781160674e+01   3.8999220331e+01    0.2484689    0.1785066 -25.14  0.001229807    1.722    0.419
       101 -13.7666    237.4432     88.5100   1.2297031065e+01   1.5590178047e+01    0.8453853    0.4683435 -75.24  0.003934912    2.572    0.611
       102  -9.5458    171.5922     62.2852   1.5831201983e+01   3.3644103145e+01    0.2410489    0.2219803  74.79 0.0004847984    1.101    0.092
       103  -7.8384    233.9572    181.5974   3.0978140956e+01  -1.1588918501e-01    0.2707728    0.1251157  38.85  0.001268675    2.465    0.594
       104  -8.1189    132.4890     58.0077   2.2183893916e+01   4.3439297999e+01    0.2077233    0.1419936 -35.44  0.001041396    1.621    0.383
       105  -8.3852    193.0014    179.2309   3.8215145946e+01   6.8482799861e+00    0.2362322    0.1921611 -65.00 0.0005089025    1.537    0.349
       106  -9.4323    176.2650    244.3530   5.3447694838e+01  -2.8023448177e+00     0.277574    0.1862713  -9.45 0.0009383713    1.663    0.399
       107 -10.2295    231.1344    175.9223   3.0387635122e+01   1.3077252285e+00    0.3190298     0.275784 -34.05 0.0006731933    1.083    0.076
       108  -8.2811     63.0934     55.2030   4.1841262048e+01   5.8296758530e+01    0.1960133    0.1603919   8.61 0.0003606446    1.132    0.117
       109  -7.8611    168.6465     49.6939   1.3194032256e+01   3.6160418556e+01    0.1337205    0.0995127  38.08 0.0007041802    1.714    0.417
       110  -8.5095    223.6745    176.4825   3.1798729847e+01   2.3441257459e+00    0.3776686     0.230643  55.44  0.001690129    2.439    0.590
       111  -8.2567     47.7102    171.8640   7.4386225975e+01   3.3272287737e+01    0.2163681    0.1980376   5.87 0.0005101383    1.262    0.207
       112  -9.4575    223.7912    170.3185   3.0583966811e+01   3.4569841543e+00    0.3478745    0.2459647 -21.09  0.001884198    1.481    0.325
       113  -7.6003    179.2728     41.6368   9.6994332778e+00   3.4798576528e+01    0.1367918   0.08651803 -68.86 0.0005454706    1.660    0.398
       114  -8.9278    201.3024     40.3327   6.6805289802e+00   3.0063531625e+01     0.191313    0.1447546  60.65 0.0006392321    1.428    0.300
       115  -8.3536    203.3870     36.0449   5.5412012468e+00   3.0166636544e+01    0.2102459    0.1218639 -32.11  0.001121853    2.087    0.521
       116  -9.4299    225.2164     33.8291   2.9508619147e+00   2.5905027448e+01    0.1953075    0.1775413  82.19 0.0007816717    1.352    0.260
       117  -9.5064    192.1365    167.6948   3.6063233060e+01   9.3247808039e+00    0.3256244    0.2191471 -48.44 0.0004379101    1.461    0.316
       118  -8.0770    149.3060     50.3705   1.6653361594e+01   4.0598412937e+01    0.1379474    0.1033613  28.81 0.0007033708    1.758    0.431
       119  -8.1773    183.1955    168.8161   3.8156149067e+01   1.0717948285e+01    0.2019288    0.1640099 -12.40  0.000481004    1.341    0.254
       120  -7.9087    105.6296    245.3051   6.9312853333e+01   7.6292329498e+00    0.1445378   0.09145323  57.42 0.0007033478    1.755    0.430
       121 -12.8608    250.3076    141.8400   2.0882821117e+01   4.3968555233e+00    0.6818942    0.2662802 -40.93 0.0005490704    2.120    0.528
       122 -14.2913    225.8999    138.6614   2.3945132293e+01   8.9546632064e+00     1.881437     1.476594  20.79   0.01069367    1.646    0.392
       123  -7.8772    191.0666    244.0114   5.0307744102e+01  -4.8284904209e+00    0.2108307    0.1353724  -4.95   0.00111652    1.713    0.416
