#   1 NUMBER                 Running object number                                     
#   2 MAG_AUTO               Kron-like elliptical aperture magnitude                    [mag]
#   3 X_IMAGE                Object position along x                                    [pixel]
#   4 Y_IMAGE                Object position along y                                    [pixel]
#   5 X_WORLD                Barycenter position along world x axis                     [deg]
#   6 Y_WORLD                Barycenter position along world y axis                     [deg]
#   7 A_WORLD                Profile RMS along major axis (world units)                 [deg]
#   8 B_WORLD                Profile RMS along minor axis (world units)                 [deg]
#   9 THETA_WORLD            Position angle (CCW/world-x)                               [deg]
#  10 FWHM_WORLD             FWHM assuming a gaussian core                              [deg]
#  11 ELONGATION             A_IMAGE/B_IMAGE                                           
#  12 ELLIPTICITY            1 - B_IMAGE/A_IMAGE                                       
         1  -8.4880     55.8625      9.7798   2.8210240657e+01   7.0032390008e+01    0.2428291    0.1673086 -56.36 0.0005493336    1.941    0.485
         2  -7.7796     47.6374      9.8140   3.2234160153e+01   7.1793770176e+01    0.1844359    0.1204053 -41.56 0.0004864455    1.682    0.405
         3  -8.5878     90.9834      8.9811   1.6139695924e+01   6.1542504402e+01    0.2296737    0.1605906 -63.90 0.0006657394    1.666    0.400
         4  -8.0751    101.4033      8.1617   1.3453408013e+01   5.8879799145e+01    0.1976994    0.1229945 -39.66 0.0004906295    1.666    0.400
         5  -8.3905     70.4791      6.0199   2.0219369179e+01   6.7044460463e+01    0.1978252    0.1353711 -26.71 0.0006658472    1.543    0.352
         6  -8.5796     33.3891      4.8516   3.7109251068e+01   7.5276087035e+01    0.3015935    0.1885147 -53.68  0.001134273    2.331    0.571
         7  -8.3440     79.3917      3.6943   1.6228540945e+01   6.5047240339e+01    0.2516777    0.1265783 -28.04 0.0008877856    2.061    0.515
         8  -7.7806     44.8113      2.8304   2.8684408871e+01   7.3289746036e+01    0.1699388    0.1580243 -74.55 0.0005893235    1.343    0.256
         9  -7.5871    115.6366      2.3108   8.3685998720e+00   5.5595655175e+01      0.15446   0.09469746 -63.57 0.0007039934    1.752    0.429
        10  -8.2280     62.4865      1.4423   2.0047082281e+01   6.9443925538e+01    0.2185218    0.1300333  75.98 0.0006423544    1.987    0.497
        11  -7.3410     39.3190      1.3046   3.0537791399e+01   7.4610406358e+01    0.1376733    0.0922179  20.74 0.0004219966    1.630    0.387
        12  -9.5741    223.6624    242.3346   4.8649286195e+01  -1.6950330637e+00    0.1872988    0.1655689  12.99  0.001280063    1.704    0.413
        13  -8.9601    248.0446    234.3607   4.3807809465e+01  -3.3182378239e+00    0.2149383     0.136103 -27.07  0.001665287    1.617    0.382
        14  -9.5499    246.8489    228.2092   4.3094945529e+01  -2.5877926580e+00    0.3672734    0.1494534 -25.95   0.00180995    2.178    0.541
        15  -8.7051    248.9626    249.2453   4.5742192265e+01  -4.8204789587e+00    0.2575557    0.1285445  -3.45  0.001773512    1.807    0.447
        16  -9.7727    248.8485    241.8997   4.4752157090e+01  -4.1230982340e+00    0.3512622    0.1596837 -34.23  0.001583997    2.384    0.581
        17  -9.3403    233.1156    246.4391   4.7732574762e+01  -3.0567720241e+00    0.3752116    0.1682938 -25.97  0.001932801    2.084    0.520
        18  -9.3294    211.3921    247.1652   5.1281161618e+01  -9.2927236703e-01    0.3047515    0.2138392 -54.42  0.001868623    3.610    0.723
        19  -9.5255    120.0874    245.0997   6.7910584291e+01   9.9268692771e+00    0.3366369    0.2069464  61.81  0.001859492    2.546    0.607
        20  -9.3143    146.6779    245.6443   6.2700132832e+01   6.6244926991e+00    0.2426116    0.1532812  44.43  0.001022387    1.735    0.424
        21  -8.6423    139.4082    244.2603   6.3962857036e+01   7.6950798296e+00    0.1274136    0.1132315 -76.24 0.0009499979    1.717    0.418
        22  -9.1812     78.1938    243.2588   7.6431768457e+01   1.5203505392e+01    0.3056761    0.1302419  57.20  0.001308469    2.933    0.659
        23  -8.1852     67.4074    244.2423   7.8772843857e+01   1.6261438435e+01    0.1443149   0.09869859  74.62 0.0009534243    1.696    0.410
        24  -8.9073    201.9277    242.3520   5.2220986705e+01   6.1316653965e-01    0.2645455    0.1348156 -27.85  0.001694313    2.010    0.502
        25  -8.5518    169.0291    243.1380   5.8165879418e+01   4.2806788783e+00     0.191468    0.1256493  37.89 0.0008072398    1.564    0.360
        26  -9.0721    183.3295    240.1879   5.5181664394e+01   2.9700591312e+00    0.3391629    0.2231393  53.22  0.001938752    3.076    0.675
        27  -9.2167    160.0075    240.0519   5.9478496429e+01   5.7614751130e+00    0.2330229    0.2037389  87.39  0.001274599    2.056    0.514
        28  -8.1125    153.4623    241.9556   6.0961605876e+01   6.3014830923e+00    0.1274833    0.1010688  81.32 0.0008090184    2.514    0.602
        29  -7.8762     88.3136    242.1484   7.4212029184e+01   1.4205675853e+01    0.1388399    0.1032999  85.68 0.0006141651    1.761    0.432
        30  -7.9654    178.5073    241.4816   5.6219088329e+01   3.3734348535e+00    0.1126738    0.0823787  13.13 4.780425e-06    1.025    0.024
        31  -8.4214    146.7590    239.8890   6.2018742338e+01   7.4040282860e+00     0.289599    0.1826974  61.78  0.001304385    3.312    0.698
        32  -8.5865    240.5167    239.9557   4.5715757111e+01  -3.1395836506e+00     0.178216   0.07745165 -25.45  0.001138481    2.086    0.521
        33  -8.9149    242.9965    236.0225   4.4790956767e+01  -2.9920894251e+00     0.267878    0.1069976 -16.39  0.001426051    2.949    0.661
        34  -8.6292    193.9809    239.3471   5.3186341930e+01   1.8465662802e+00    0.1524839    0.1058262  17.80 0.0004677441    1.108    0.097
        35  -8.9099    135.7629    238.7128   6.4064823958e+01   8.9330598585e+00     0.186759     0.136872  59.72  0.001072155    1.954    0.488
        36  -9.1639    231.0482    236.9583   4.6742893608e+01  -1.8934210520e+00    0.1935798    0.1801107 -15.96  0.001347697    1.968    0.492
        37  -8.0924    209.1393    238.2219   5.0448165531e+01   2.8579837368e-01    0.1305697     0.107123  13.24 0.0005386781    1.350    0.259
        38  -8.8109    129.0020    238.2490   6.5379557037e+01   9.8436857111e+00    0.1680308    0.1242191  28.59 0.0006734912    1.052    0.050
        39  -8.3060     14.4906    238.0000   8.9589383541e+01   2.2698394059e+01    0.2336594   0.04986497  25.84 0.0009210402    3.825    0.739
        40  -8.9323    216.7036    235.3548   4.8802325553e+01  -2.1786814366e-01    0.1626671    0.1347208  22.32  0.001301498    1.541    0.351
        41  -9.3762    213.6811    231.6657   4.8778099719e+01   5.2267461044e-01    0.2412554    0.2110357  46.33  0.001304856    2.135    0.532
        42  -8.9414    203.3213    234.8659   5.0965998281e+01   1.3125937155e+00    0.2026675    0.1731667 -50.70  0.001011718    2.155    0.536
        43  -9.7400    175.6572    233.2806   5.5670186023e+01   4.7489509836e+00    0.3627572     0.220539 -53.09  0.002153596    2.687    0.628
        44  -9.2007    108.7372    234.2384   6.9166401558e+01   1.3000234179e+01    0.3043449    0.1743189  55.06  0.001136732    2.119    0.528
        45  -8.7654      9.8454    243.7255   9.0688029777e+01   2.2093641558e+01    0.2386055   0.06526735  65.75  0.001080808    3.445    0.710
        46  -7.9684     25.3044    235.9744   8.7257166751e+01   2.2070320324e+01    0.1784896   0.05275263  68.18  0.000703631    4.173    0.760
        47  -8.1408    153.0105    235.0159   6.0207000396e+01   7.3077236773e+00    0.1653764     0.126703  48.70 0.0006169657    1.666    0.400
        48  -8.0011    122.8321    234.0074   6.6182620635e+01   1.1262185204e+01    0.1810709    0.1232114  62.29 0.0008343938    2.105    0.525
        49  -8.1867     99.7576    234.1822   7.1073967702e+01   1.4125857087e+01    0.2002494   0.09741531  56.39  0.000948531    2.768    0.639
        50  -8.5482     78.3443    233.8953   7.5674982673e+01   1.6764712410e+01    0.1938013    0.1099001 -85.77  0.001069331    2.503    0.600
        51  -7.8209      7.6889    234.6825   9.0914466844e+01   2.3891211448e+01   0.09221976   0.08319272 -23.61 0.0002395709    1.641    0.391
        52  -8.4426    194.3659    232.2785   5.2157111545e+01   2.6457873545e+00    0.1609448    0.1290852 -26.43 0.0005660134    1.472    0.321
        53  -9.0086    140.1179    230.0384   6.2167235581e+01   9.6595063344e+00     0.247991    0.1239104  46.28 0.0007868271    2.278    0.561
        54  -9.5034     68.4531    232.2451   7.7709614361e+01   1.8205397272e+01    0.4646665    0.1207575  48.67  0.001759915    3.720    0.731
        55  -9.4503    186.4785    230.5558   5.3322911008e+01   3.7912486016e+00    0.2579768    0.2230564 -74.96  0.001453593    2.416    0.586
        56  -8.3126    157.6419    231.8229   5.8902079193e+01   7.1725840919e+00     0.130591    0.1112483 -49.64 0.0004595004    1.638    0.390
        57  -8.6197    132.3904    232.2359   6.4007563310e+01   1.0318495624e+01     0.131338      0.11674 -77.46 0.0005007082    1.610    0.379
        58  -8.5054     92.6331    231.6633   7.2375269800e+01   1.5424808762e+01    0.2516217    0.1316075  54.18 0.0008291142    2.115    0.527
        59  -9.4202    236.0680    229.5605   4.4911183073e+01  -1.6377912309e+00    0.3933702     0.126884 -28.89  0.001777881    2.982    0.665
        60  -9.0035    151.4649    228.9666   5.9752330552e+01   8.3611843906e+00    0.2328703    0.1925413  82.66  0.001393714    2.127    0.530
        61  -9.3582    148.4266    224.2733   5.9758314179e+01   9.4428232901e+00    0.2736937    0.2164482  62.69  0.001257956    1.913    0.477
        62  -8.2249      1.5232    230.4971   9.2108449630e+01   2.5175119899e+01    0.1157336   0.07750695  50.82 0.0001252026    1.068    0.064
        63  -8.2531    229.5819    228.2804   4.5730138968e+01  -8.2467258735e-01     0.140144   0.07933065 -17.89 0.0008163812    1.548    0.354
        64  -8.9029    162.2457    227.6986   5.7470713617e+01   7.1660069813e+00    0.2547579    0.1724069  49.19  0.001547582    1.994    0.499
        65  -8.9959    127.9054    227.1689   6.4347706551e+01   1.1679004886e+01    0.2950124    0.1714922  51.74  0.001329538    2.121    0.529
        66  -8.1627    223.4349    226.5329   4.6449844761e+01   2.7149590644e-02    0.1874409    0.1012613 -12.26 0.0009583734    1.788    0.441
        67  -9.4895    225.7574    221.5444   4.5341437931e+01   3.3026293233e-01    0.2443599     0.204315   0.64  0.001331527    1.353    0.261
        68  -8.0628    199.9036    226.1409   5.0323793139e+01   2.7426096870e+00    0.1539712    0.1263969  10.09 0.0004977391    1.218    0.179
        69  -7.7478    177.3111    226.6667   5.4466371473e+01   5.4125101770e+00    0.1246508   0.09160475   9.26  0.000850143    1.111    0.100
        70  -8.7409    180.4328    224.0981   5.3528118138e+01   5.3645025346e+00    0.1930497    0.1423227  29.72  0.000657734    1.297    0.229
        71  -7.7994     49.2361    226.2933   8.1570272340e+01   2.1431702776e+01    0.1653509   0.08568958  81.12 0.0007123217    2.332    0.571
        72  -8.8406     94.6063    224.1171   7.1225628497e+01   1.6479535774e+01    0.4187337    0.1656022  51.05  0.001777183    2.986    0.665
        73  -7.6799     71.6585    225.6756   7.6496668532e+01   1.9010920275e+01    0.1148202   0.08893253  -6.80 0.0004516962    1.730    0.422
        74  -8.9023    216.4540    223.3033   4.7109525280e+01   1.1685098408e+00    0.2033304    0.1644685 -36.56 0.0009084057    1.793    0.442
        75  -8.5948    173.0999    222.7880   5.4719118060e+01   6.4651113193e+00    0.2035753    0.1642324 -55.51 0.0006582087    1.925    0.481
        76  -8.7410    104.9205    223.4995   6.8881166464e+01   1.5268397325e+01    0.2690018    0.1764069  73.26   0.00147843    2.294    0.564
        77  -7.8774     38.4288    224.4931   8.3887911032e+01   2.2905981731e+01    0.1205737   0.08981273  48.47 0.0001922842    1.036    0.035
        78  -7.9580    113.5793    223.5184   6.6989744467e+01   1.4140579908e+01    0.1225237    0.0989838  31.74 0.0001415806    1.026    0.026
        79  -9.2190    239.1129    221.3442   4.3235315896e+01  -1.0844500289e+00    0.2070912     0.161321 -32.30  0.001130252    1.794    0.443
        80  -9.4773    192.3313    221.0521   5.0923478847e+01   4.2892096427e+00    0.2319988    0.2081071 -32.23  0.001114418    1.574    0.365
        81  -8.8896    158.8588    220.1611   5.7119523539e+01   8.6815930141e+00    0.2159967    0.1408993  40.94 0.0009304334    1.578    0.366
        82  -7.7205    140.4844    222.4962   6.1154198352e+01   1.0757605896e+01    0.1218027   0.09773295  28.19  0.000367484    1.085    0.079
        83  -9.1317    120.4159    218.9668   6.4978243420e+01   1.3999909269e+01    0.4484888    0.2191884  55.04  0.001931114    3.220    0.689
        84  -8.5920     82.6808    220.4843   7.3562201013e+01   1.8624355184e+01    0.2063967    0.1324751  65.12  0.001174101    1.805    0.446
        85  -8.0124    202.8063    219.8908   4.8908305777e+01   3.1655493634e+00    0.1360945    0.1173986   5.58  0.000457696    1.308    0.236
        86  -7.8260     72.7110    220.3298   7.5822577539e+01   1.9869959749e+01     0.127702   0.07544141  54.61  0.000389428    1.621    0.383
        87  -8.9269    249.3954    218.3480   4.1255311980e+01  -1.8309392255e+00    0.1903368    0.1701168  51.00  0.001446103    2.640    0.621
        88  -8.9394    247.8591    212.8089   4.0632966850e+01  -1.0876498084e+00    0.3664106    0.1626164  -8.52   0.00185108    3.029    0.670
        89  -8.8462    206.1359    225.8207   4.9205522823e+01   2.0536312543e+00    0.2218723    0.1406275 -34.32  0.001130116    1.745    0.427
        90  -8.4111    210.0748    219.0466   4.7540079250e+01   2.4067404544e+00    0.1659834    0.1266019   1.42  0.000425358    1.053    0.050
        91  -9.1895    133.0398    216.0000   6.1887504435e+01   1.2788729819e+01    0.4323855    0.2627242  66.35  0.001937024    3.530    0.717
        92  -8.6875     51.8313    217.7206   8.0433797629e+01   2.2779178891e+01    0.2336927    0.1176452  61.05  0.001001679    2.008    0.502
        93  -8.8555    169.3246    215.9264   5.4470578495e+01   7.9164107780e+00    0.2333311    0.2007367 -88.65 0.0009444221    2.136    0.532
        94  -8.6928    142.8808    216.3704   5.9858425062e+01   1.1393365338e+01    0.1978157    0.1749622  88.50 0.0009561717    1.675    0.403
        95  -7.7000    112.3213    217.6354   6.6599288027e+01   1.5306852504e+01    0.1281441   0.08385563  55.75 0.0007039826    1.784    0.440
        96  -8.3273     61.7807    216.9447   7.8071549787e+01   2.1802066540e+01    0.2020554     0.110024  62.11 0.0008436999    1.945    0.486
        97  -8.9641    232.3765    214.4951   4.3230232594e+01   3.9316363908e-01    0.1902963    0.1620102 -15.42 0.0008797215    1.491    0.329
        98  -8.2054    185.6544    214.1261   5.1115337829e+01   6.0410510808e+00    0.1542426      0.14481 -25.95 0.0009374242    1.494    0.331
        99  -8.7539     93.1703    213.8257   7.0508844051e+01   1.8515676689e+01    0.3319125    0.1420816  49.85  0.001470329    2.475    0.596
       100  -9.2580     73.3137    211.8108   7.4945634161e+01   2.1416420685e+01    0.7059932    0.1930856  50.73  0.002274212    4.672    0.786
       101  -9.4625    213.8883    212.0685   4.5837399549e+01   2.8030940540e+00    0.2648457    0.2140113  39.43  0.001563812    1.782    0.439
       102  -8.0505    225.3107    212.1860   4.3988205625e+01   1.4533507439e+00    0.1401597   0.08670916 -33.73 0.0004944848    1.714    0.417
       103  -9.3791    175.3035    209.9005   5.2430482991e+01   7.9879055358e+00    0.3111216    0.2360779  65.14  0.001631676    2.598    0.615
       104  -8.5698    161.5535    212.0524   5.5442249543e+01   9.5242556807e+00    0.2098296    0.1487956  40.93 0.0009596829    1.493    0.330
       105  -9.1962    204.1938    210.7406   4.7281765987e+01   4.1472549887e+00    0.1939241    0.1761835  -0.90 0.0006805664    1.411    0.292
       106  -8.7579    148.1537    210.4018   5.7941889257e+01   1.1616602088e+01    0.2523718    0.2000678  68.13  0.001168734    1.969    0.492
       107  -8.7464    116.3150    210.2836   6.4830876107e+01   1.6051180828e+01    0.2964949    0.1778425  63.14 0.0009755002    2.600    0.615
       108  -8.9420      7.2628    210.0358   9.0369515988e+01   2.8661474653e+01    0.4603989   0.08644508  64.58  0.001452895    5.727    0.825
       109  -9.2332    236.6577    208.2080   4.1591198247e+01   6.2912090348e-01    0.2325534    0.1966362 -49.88  0.001283382    2.328    0.570
       110  -8.2989    192.2652    210.2423   4.9318508577e+01   5.7163671957e+00    0.1400997    0.1296341   4.75 0.0007205784    1.391    0.281
       111  -8.1267     85.7445    209.4364   7.1786092659e+01   2.0305578069e+01    0.2429913    0.1329613  61.59  0.001169443    2.288    0.563
       112  -7.8589     32.3430    210.6470   8.4563744072e+01   2.6237875390e+01    0.1389219   0.06409124  53.97 0.0007040514    1.814    0.449
       113  -7.9952    154.5590    214.8389   5.7246500583e+01   1.0049752096e+01     0.142309    0.1202509 -62.50 0.0008519628    1.726    0.421
       114  -9.1001    246.4259    207.0950   3.9951737775e+01  -3.1637154393e-01    0.2113395    0.1373712 -22.11 0.0007154327    1.314    0.239
       115  -7.9301    156.5665    207.8044   5.5833128855e+01   1.0858813380e+01    0.1451301    0.1215772 -58.21 0.0008003374    1.664    0.399
       116  -8.1716    139.1903    207.8737   5.9484253776e+01   1.3277475882e+01    0.2245528    0.1738226  60.73  0.001196909    1.752    0.429
       117  -7.8107    126.4202    208.2194   6.2314108641e+01   1.5009901536e+01    0.1462085    0.1249777 -80.23 0.0004068654    1.584    0.369
       118  -9.1319     99.3938    205.8982   6.8191176341e+01   1.9169267793e+01    0.3547328    0.2104109  68.97  0.001354664    2.572    0.611
       119  -8.5346    108.4623    205.3825   6.6017590205e+01   1.8021643970e+01    0.2556159    0.1921691  10.98  0.001499046    1.429    0.300
       120  -9.1166    183.8195    203.9638   4.9901422684e+01   7.6947254820e+00    0.2554879     0.214936  57.32   0.00129925    1.898    0.473
       121  -8.1384     56.0507    205.0317   7.8514177562e+01   2.4830972585e+01    0.2147471    0.1169662  56.39  0.001115556    1.732    0.423
       122  -9.3815    194.7756    203.2924   4.7778585757e+01   6.3317166556e+00    0.2986282    0.2191711 -30.86  0.001135779    1.425    0.298
       123  -9.2831    192.4710    197.1696   4.7209803672e+01   7.4890479410e+00    0.2743292    0.2434685 -59.02  0.001350439    1.814    0.449
       124  -9.6779    163.7337    202.9078   5.3646719904e+01   1.0618195365e+01    0.3841713     0.217459  46.90  0.001147356    2.162    0.537
       125  -8.4786    131.2162    203.8983   6.0671090722e+01   1.5081177913e+01    0.2402783    0.1726851  59.57  0.001343548    1.839    0.456
       126  -9.2852    250.2296    201.8370   3.8562532236e+01  -1.4800601238e-01    0.3043087    0.1201317 -29.67  0.001312223    2.159    0.537
       127  -9.5611    245.9329    193.7464   3.7870000951e+01   1.2393173060e+00    0.2749055    0.2460231 -69.73  0.001590991    2.631    0.620
       128  -7.7640    227.6444    202.6779   4.2113414286e+01   2.3079644389e+00    0.1194236   0.06849113   0.38 0.0005189475    1.761    0.432
       129  -8.4875    210.9788    201.7730   4.4699754067e+01   4.4508301867e+00    0.1770561    0.1418247 -37.98 0.0008319403    1.636    0.389
       130  -8.8263    140.4018    200.8350   5.8223210400e+01   1.4288650538e+01    0.3022397    0.2045869  59.36  0.001512195    2.157    0.536
       131  -8.3609     80.0837    201.2399   7.2302631763e+01   2.2648993117e+01    0.3131245    0.1389037  58.80  0.001244284    3.096    0.677
       132  -8.1886    221.8517    201.0464   4.2778522006e+01   3.1995164181e+00    0.1538428    0.1243519 -46.20 0.0006942823    1.979    0.495
       133  -9.2387    237.1571    198.2860   3.9923658307e+01   1.7176316734e+00    0.2736828    0.1275726 -35.51  0.001005982    2.084    0.520
       134  -9.2837    149.6546    198.5755   5.5899856299e+01   1.3327383304e+01    0.3321096    0.2526315  77.71  0.001321763    2.374    0.579
       135  -8.7390    124.0162    199.0311   6.1614291464e+01   1.6980252074e+01    0.2733184    0.2055158  85.95  0.001300916    2.035    0.509
       136  -9.2136    112.9928    198.3057   6.4062775879e+01   1.8703685310e+01    0.4282944    0.2318456  58.69  0.001863726    2.742    0.635
       137  -8.6462    177.0915    198.7393   5.0356697876e+01   9.3792800439e+00    0.1873314    0.1609393 -35.08 0.0004514896    1.387    0.279
       138  -8.9735     88.8012    198.3526   6.9861613564e+01   2.2073063417e+01    0.3250031    0.1949387  63.97  0.001600998    2.077    0.518
       139  -8.1127    202.4457    197.5536   4.5485328519e+01   6.1042544207e+00    0.1707076    0.1059776 -43.70 0.0005964776    2.004    0.501
       140  -8.9337     61.1027    196.6997   7.6570472544e+01   2.5967515107e+01    0.4020992    0.1828141  63.60  0.001690905    2.779    0.640
       141  -8.8552     12.5686    197.0039   8.8693036758e+01   3.0925521970e+01    0.2602318    0.1115296  68.85  0.001275331    2.157    0.536
       142  -8.7653    215.8499    195.3115   4.2823186462e+01   4.6682977067e+00    0.2264664     0.149056 -43.45 0.0009827422    1.989    0.497
       143  -7.9340    132.9912    195.9139   5.9141096320e+01   1.6229110357e+01    0.1914341    0.1477587  59.34 0.0005341807    1.630    0.387
       144  -9.0054    185.0583    194.6967   4.8179968257e+01   8.8648070248e+00    0.2097439    0.1905231 -40.93 0.0007844002    1.480    0.324
       145  -8.8083    160.9798    193.9785   5.2813714263e+01   1.2428498536e+01    0.2376146    0.2087367 -86.46  0.001151106    1.777    0.437
       146  -8.9194     44.2755    193.6475   8.0583480169e+01   2.8558601832e+01    0.4318187    0.1622732  55.17  0.001797707    2.626    0.619
       147  -8.0347    231.1351    194.1606   4.0170752197e+01   2.9216269226e+00    0.1400635    0.1189549 -12.52 0.0004598749    1.323    0.244
       148  -8.7288    224.6401    193.5662   4.1097639840e+01   3.7881933743e+00    0.2417503    0.1338385 -38.89  0.001171137    1.976    0.494
       149  -8.6871     76.9093    193.6788   7.2295689744e+01   2.4613793849e+01     0.225012    0.1800817  75.04 0.0005720252    1.335    0.251
       150  -8.2441    198.8957    191.3288   4.5078982618e+01   7.4371663171e+00    0.1857757    0.1510673 -31.82 0.0006957693    1.382    0.277
       151  -8.4436    172.1855    191.4720   5.0139071734e+01   1.1190124575e+01    0.1767549     0.174597 -28.64 0.0006001591    1.383    0.277
       152  -9.0684    243.1658    200.6441   3.9403892126e+01   7.6195190538e-01    0.2698791    0.1409833 -31.42  0.001056375    1.739    0.425
       153  -8.1238    205.1849    191.2297   4.3953655921e+01   6.6010074214e+00    0.1471509    0.1304343 -23.95  0.000766277    1.374    0.272
       154  -8.0314    179.1510    191.2245   4.8733143450e+01   1.0220733422e+01     0.152085     0.145804  21.03 0.0005450338    1.351    0.260
       155  -9.0631    139.3849    190.1721   5.6846003418e+01   1.6299200585e+01    0.3115608    0.2348387  71.92  0.001252483    2.070    0.517
       156 -10.1902     92.5836    188.9871   6.7809737490e+01   2.3455621473e+01    0.9370262    0.1699898  40.98  0.002793886    4.287    0.767
       157  -8.5281    237.2169    188.1883   3.8235134781e+01   2.9150497469e+00    0.2216977    0.1199578 -20.98 0.0008492755    1.615    0.381
       158  -9.0178    216.4628    187.8012   4.1454872352e+01   5.5697972850e+00    0.2195494    0.1690403 -32.23 0.0007484196    1.426    0.299
       159  -8.4099    148.6217    189.0672   5.4640940961e+01   1.5094928315e+01    0.1819692    0.1663063 -76.08  0.001147448    1.478    0.324
       160  -8.8013    129.2652    188.4134   5.8871474657e+01   1.8154399446e+01    0.2767636    0.2209733  79.35 0.0009574923    1.777    0.437
       161  -8.6522     34.3141    188.0492   8.2758027074e+01   3.0844519084e+01    0.3445855    0.1468485  64.36  0.001425487    2.465    0.594
       162  -8.3541    230.5429    187.3040   3.9108278878e+01   3.8397001770e+00    0.1931658   0.09488334 -36.24  0.001056451    1.970    0.493
       163  -8.8965    191.5355    187.1756   4.5709047752e+01   9.0570509469e+00    0.2723081    0.2259765 -75.67  0.001481019    2.330    0.571
       164  -9.2541    155.9147    187.2413   5.2781077495e+01   1.4301624754e+01     0.302678    0.2094545 -57.79 0.0008596351    1.972    0.493
       165  -9.5408    120.4777    185.8140   6.0539774717e+01   1.9984773652e+01    0.3947879    0.2464552 -72.70  0.001863046    2.439    0.590
       166  -8.9786     54.6877    186.5604   7.7314892943e+01   2.8928832423e+01    0.4367648     0.183428  63.14  0.001433902    3.077    0.675
       167  -8.6383    164.8501    186.5712   5.0805504327e+01   1.3061946033e+01    0.2196794     0.175766 -66.47  0.001057679    1.911    0.477
       168  -9.0744    109.6532    185.9394   6.3170649165e+01   2.1593324373e+01    0.3729405    0.2175325  60.28  0.001222233    2.367    0.578
       169  -9.4433    249.3274    185.2423   3.5957638853e+01   1.8356312262e+00    0.2392578    0.1522696 -30.93 0.0008696226    1.476    0.322
       170  -9.1305    210.3220    183.1775   4.1685939963e+01   7.0115449449e+00    0.3959025    0.1548114 -36.57  0.001901557    2.433    0.589
       171  -8.5809    203.0495    184.6358   4.3197373650e+01   7.8074843542e+00    0.2078796     0.189689 -61.01  0.001143568    1.769    0.435
       172  -8.6878    183.0368    184.5372   4.6851711141e+01   1.0678750638e+01    0.2123817    0.1712354 -48.18 0.0008494488    1.604    0.376
       173  -8.8530     66.6417    184.4962   7.3970325533e+01   2.7915884939e+01    0.3288639    0.1532948  52.90 0.0008666838    2.167    0.539
       174  -8.5383    224.2188    183.4700   3.9445560757e+01   5.1284148532e+00     0.199264    0.1334816 -26.28 0.0003479336    1.324    0.245
       175  -8.3783    197.0988    183.2213   4.4009952741e+01   8.8446921576e+00    0.1969627    0.1587874 -58.33 0.0007296864    1.993    0.498
       176  -8.9631    174.3253    183.4587   4.8363211645e+01   1.2140441972e+01    0.2265994    0.2152151  87.61 0.0007518035    1.540    0.351
       177  -8.6288     44.5931    182.4411   7.9639017974e+01   3.1010997430e+01    0.3404536    0.1364513  50.08  0.001095301    2.228    0.551
       178  -8.1285      2.0907    183.6346   9.0856272324e+01   3.4696051785e+01    0.2406988   0.07224169  32.96  0.001073303    2.443    0.591
       179  -8.3937    235.4825    181.0677   3.7275731695e+01   4.0031412533e+00    0.1695092   0.09320449 -29.69  0.000528416    1.572    0.364
       180  -9.0894    147.5501    180.4206   5.3456741559e+01   1.6785576899e+01    0.2908853    0.2401195  77.66  0.001246551    1.795    0.443
       181  -9.3929     25.6955    178.8870   8.4461607549e+01   3.3771145068e+01    0.6408849    0.1967504  66.34  0.002119725    4.284    0.767
       182  -8.1068    240.3472    179.4810   3.6272027890e+01   3.5967910611e+00    0.1872828   0.08732519 -31.22 0.0006480532    1.836    0.455
       183  -8.5943    137.4206    179.0545   5.5509591144e+01   1.8637274276e+01    0.2544905     0.210022 -89.96  0.001422846    1.731    0.422
       184  -7.5490     90.9377    181.0000   6.7203565077e+01   2.5369731606e+01    0.2279574   0.07041807  32.03 0.0007929826    2.877    0.652
       185  -9.3541    191.2891    178.1200   4.4169776063e+01   1.0441827840e+01    0.2382571    0.2133972 -45.41 0.0005914892    1.479    0.324
       186  -8.7965    250.4500    172.3406   3.3570390519e+01   3.2315782625e+00    0.2037814    0.1327325 -26.35  0.000614806    1.275    0.216
       187  -9.3355    249.0305    177.0644   3.4596342925e+01   2.8360437645e+00    0.2620402    0.2203452 -36.98  0.001110942    1.658    0.397
       188  -7.9980    247.3239    173.6932   3.4248227856e+01   3.4482722094e+00    0.1485871    0.1013649  32.73 0.0006834117    1.641    0.391
       189  -8.5869    217.4648    177.0457   3.9408007448e+01   6.8768875804e+00    0.2174592    0.1787674 -50.85  0.001018641    1.839    0.456
       190  -8.8344    205.0702    177.5048   4.1585521294e+01   8.5364819760e+00    0.2120312    0.1596628 -40.85 0.0007405122    1.554    0.357
       191  -8.0240    169.4091    178.2661   4.8445601738e+01   1.3734967130e+01    0.1658399    0.1228888 -51.17 0.0004789075    1.682    0.405
       192  -8.9131     35.8072    176.3587   8.1545401272e+01   3.3353360170e+01    0.4805404      0.17204  69.05  0.001631048    3.972    0.748
       193  -8.4986    231.0925    176.6682   3.7173727114e+01   5.1177390847e+00    0.1922496    0.1327434 -30.47 0.0006154502    1.367    0.268
       194  -9.2083    183.0850    175.9277   4.5323627455e+01   1.2010295770e+01    0.2824258    0.1968629 -45.64 0.0006567913    1.673    0.402
       195  -8.5818    129.2723    177.0247   5.7075281664e+01   2.0320094190e+01    0.2439414    0.1759507  55.87  0.000760569    1.632    0.387
       196  -8.3526     88.8483    176.5465   6.7156335543e+01   2.6635108334e+01    0.2524564    0.1747905  81.15 0.0007986858    1.837    0.456
       197  -9.0178     58.6345    175.4302   7.5183371047e+01   3.0968644333e+01    0.4773235    0.2017419  57.06  0.001845489    2.726    0.633
       198  -9.0113     55.9359    170.4542   7.5416527172e+01   3.2460198969e+01    0.3902334    0.2020853  72.11  0.001650725    2.423    0.587
       199  -8.4052     12.9977    176.4881   8.7745213476e+01   3.5455554747e+01    0.2842214   0.07779603  58.62  0.001031356    3.403    0.706
       200  -7.5661    211.6682    176.2960   4.0238335826e+01   7.7788146434e+00    0.1014713   0.09887272 -71.02 0.0007027426    1.640    0.390
       201  -9.1390    159.1125    175.0674   5.0022619867e+01   1.5899557081e+01    0.3746389    0.2530324  65.64  0.001417544    2.737    0.635
       202  -9.1162    104.2805    174.4912   6.2846568156e+01   2.4766785768e+01    0.5312042    0.2340309  53.67  0.001576255    3.160    0.684
       203  -8.6046    224.6234    174.2567   3.7753528117e+01   6.2845212134e+00    0.1934305    0.1676203 -44.99 0.0008926851    1.662    0.398
       204 -10.4552     75.9061    170.8705   6.9898731651e+01   2.9746571603e+01    0.9918567    0.4390409 -85.73  0.003125691    4.689    0.787
       205  -8.7701     73.9917    160.0284   6.8998991954e+01   3.2545517924e+01    0.2637439    0.2032661   0.19  0.001336008    1.676    0.403
       206  -9.5014    175.6513    172.1446   4.6089708198e+01   1.3770229811e+01    0.2929917     0.221415 -36.52  0.001035428    1.361    0.265
       207  -8.3955    143.0318    172.5045   5.3111783892e+01   1.8962181968e+01    0.2378792    0.1953486 -72.45 0.0007560929    1.649    0.394
       208  -8.6639    134.8722    171.6242   5.4846021053e+01   2.0463679951e+01    0.2380418    0.2061813 -61.93 0.0006570204    1.371    0.271
       209  -9.4870    121.3516    170.3866   5.7893661215e+01   2.2916093865e+01    0.3630578    0.2676851 -84.99  0.001067939    1.966    0.491
       210  -9.0967     45.3444    171.2584   7.8476236745e+01   3.3517618837e+01     0.374914    0.2016734  60.87  0.001751944    1.862    0.463
       211  -8.6052    237.1715    169.4884   3.4970646168e+01   5.2503225452e+00    0.1726533    0.1362233 -28.52 0.0006443537    1.314    0.239
       212  -9.4374    230.6620    169.7890   3.6005710874e+01   6.0673782641e+00    0.2415223    0.1631306 -12.14  0.001551565    1.289    0.224
       213  -8.3710    205.6583    169.9002   4.0098924697e+01   9.5488169211e+00    0.2203428    0.1402271 -45.36 0.0007089656    1.886    0.470
       214  -8.3523    198.5954    169.8953   4.1340816714e+01   1.0594785521e+01    0.2198475    0.1433849 -45.76 0.0007534201    1.824    0.452
       215  -8.5862    149.9407    169.4975   5.1022049764e+01   1.8387284767e+01    0.2252727    0.1968904 -78.46 0.0008520163    1.551    0.355
       216  -8.4090    244.4023    169.2411   3.3873632348e+01   4.3571083536e+00    0.1476234    0.1449538 -22.26 0.0005693317    1.657    0.396
       217  -9.2095    167.0428    168.4361   4.7153540280e+01   1.5771964258e+01    0.3047183     0.221592  60.75  0.001114525    2.047    0.512
       218  -8.6078    218.8305    168.1816   3.7575029526e+01   7.9031312409e+00    0.1700684    0.1490097 -21.22 0.0006221221    1.261    0.207
       219  -7.7992    211.4369    167.9454   3.8751218891e+01   8.9902447326e+00    0.1552886    0.1008243 -53.05 0.0007460238    2.433    0.589
       220  -7.8519     88.8110    168.5974   6.6062078796e+01   2.8402966346e+01    0.2092548    0.1129036  43.57 0.0009349877    1.691    0.409
       221  -9.0097    191.8774    166.6312   4.1951776873e+01   1.2116824904e+01    0.2273029    0.1719167 -36.50  0.000547481    1.357    0.263
       222  -8.8266    184.9594    166.2788   4.3184094451e+01   1.3255064859e+01     0.209469    0.1785033 -55.51 0.0007524698    1.576    0.365
       223  -8.5712    111.5339    167.0332   5.9810815477e+01   2.5206082154e+01    0.2692986    0.1781237  50.25 0.0008177854    1.554    0.357
       224  -8.9268     20.8782    166.3909   8.5039525564e+01   3.7156114795e+01    0.3424531     0.118581  44.92  0.001121995    2.314    0.568
       225  -9.5301    137.8151    164.8868   5.2961424878e+01   2.1286757827e+01      0.60136    0.2597888  51.75  0.002101859    3.399    0.706
       226  -9.9764     95.0404    162.7364   6.3488396477e+01   2.8773191139e+01    0.8520128    0.4176098  66.27  0.002550638    4.795    0.791
       227  -8.6271    234.1140    164.8758   3.4585282181e+01   6.2497641793e+00    0.1692767    0.1411452 -27.31 0.0007013259    1.305    0.234
       228  -9.2354     34.1193    163.4323   8.1016198523e+01   3.6604740999e+01    0.6275757    0.1359594  46.84  0.002014124    3.826    0.739
       229  -8.2164    240.0300    164.0092   3.3555355100e+01   5.5781764166e+00    0.1591576    0.1316565 -42.33 0.0005193802    1.621    0.383
       230  -8.8052    212.8822    163.4742   3.7671957081e+01   9.4197615778e+00    0.2227428    0.1584116 -34.08   0.00060813    1.363    0.266
       231  -8.7307    159.4403    163.9034   4.7909114246e+01   1.7825777221e+01    0.2388992    0.2110887  66.34 0.0008428491    1.479    0.324
       232  -8.6056    246.1823    162.7219   3.2443414926e+01   4.9438580485e+00    0.1907402    0.1228595 -31.35 0.0005292109    1.368    0.269
       233  -8.5322    204.8647    162.6391   3.8872531515e+01   1.0735525787e+01    0.2256627    0.1614735 -35.74 0.0005023065    1.383    0.277
       234  -9.5330      3.9511    162.2838   8.9639966436e+01   3.9504446059e+01    0.4680698     0.149765  40.94  0.001695234    2.370    0.578
       235  -8.7883    151.7599    160.9684   4.9034275512e+01   1.9665631314e+01    0.2676455    0.2133379 -81.68 0.0008207295    1.911    0.477
       236  -9.0138    177.3457    160.3204   4.3522804749e+01   1.5465614830e+01    0.2652564    0.2148046 -52.37 0.0006565421    1.526    0.345
       237  -7.8100    242.2523    160.0044   3.2499450440e+01   5.7984752890e+00    0.1485274    0.1199879 -25.64 0.0005187416    1.241    0.194
       238  -8.8096    245.4296    158.5007   3.1773872378e+01   5.5728455532e+00    0.1621334    0.1212785 -13.83 8.892377e-05    1.040    0.038
       239  -9.8885    250.2209    157.6086   3.0949704254e+01   5.0643221573e+00    0.2864726    0.1278062 -32.13 0.0008766174    1.828    0.453
       240  -9.0931    227.4654    158.9763   3.4491696585e+01   7.9511020302e+00    0.2645997    0.1817329 -49.19  0.001085099    2.009    0.502
       241  -8.4459     60.5679    160.0207   7.2907005558e+01   3.4369117952e+01    0.2687116    0.1581306  61.18  0.001229366    1.809    0.447
       242  -8.7238    237.0881    158.6940   3.2999631049e+01   6.6583284266e+00    0.1998636    0.1341538 -32.94 0.0003845679    1.366    0.268
       243  -8.1071    128.0736    158.9772   5.4228760082e+01   2.4132998239e+01    0.2209997    0.1709149  69.03  0.000729208    1.681    0.405
       244  -9.4747    105.8470    157.8516   5.9760017413e+01   2.8131738993e+01    0.4854566    0.2949086  63.96   0.00122794    2.322    0.569
       245  -8.8413    196.5122    157.6835   3.9387859449e+01   1.2784737146e+01    0.2307715    0.1955288 -40.71 0.0007399874    1.347    0.258
       246  -8.4577    188.1154    157.6337   4.0920513578e+01   1.4142466721e+01    0.2179319    0.1656086 -41.79 0.0007066259    1.410    0.291
       247  -9.3017    167.5763    157.0280   4.4860287278e+01   1.7675670576e+01    0.3128627    0.2486498 -74.15  0.001241661    1.952    0.488
       248  -8.5733    217.9593    156.1807   3.5448888904e+01   9.7149559921e+00    0.2696922     0.143253 -46.77 0.0009405107    2.370    0.578
       249  -9.3123     81.6766    155.0254   6.6049019405e+01   3.2612747965e+01    0.4991987    0.3896796  65.18  0.001781151    1.330    0.248
       250  -8.9973    157.4783    155.9059   4.6790013911e+01   1.9620839776e+01    0.2449294    0.2155232  71.31 0.0007817682    1.485    0.327
       251  -9.2438    119.5528    154.8678   5.5619210025e+01   2.6465833744e+01    0.3702727     0.266994 -86.18  0.001194937    2.041    0.510
       252  -9.0520     49.8585    155.1289   7.5530799003e+01   3.6903913763e+01    0.4617704     0.189353  54.13  0.001746053    2.633    0.620
       253  -8.0691    204.8008    155.5623   3.7514733083e+01   1.1806250257e+01    0.1535673    0.1203616  46.15 0.0007260381    1.563    0.360
       254  -8.4743    144.5061    154.6828   4.9470107032e+01   2.2129068762e+01    0.2675809    0.2072664  66.61 0.0007928921    1.734    0.423
       255  -9.6082    241.9928    153.9727   3.1411045319e+01   6.6097508512e+00     0.278244    0.2014022  64.85  0.001628787    2.783    0.641
       256  -9.9015    133.0941    151.8344   5.1634341260e+01   2.4725004539e+01    0.6002612    0.3809229 -51.36  0.001469845    1.694    0.410
       257  -9.1125     67.8071    153.3162   6.9886579616e+01   3.5032637925e+01    0.4151886    0.2240973  63.79  0.001430523    2.313    0.568
       258  -7.9943    232.7679    153.6002   3.2670995665e+01   7.9319033179e+00    0.1392104    0.1132867  44.34 0.0006146577    1.616    0.381
       259  -9.7314     29.5966    150.8135   8.1323473214e+01   4.0183693743e+01    0.4904458    0.1944932  60.73   0.00186725    2.764    0.638
       260  -8.5036     20.7091    152.6082   8.4195591723e+01   4.0550833860e+01    0.1919597    0.1040816  38.76 0.0006185581    1.634    0.388
       261  -9.3245    243.3768    149.9578   3.0458375473e+01   6.9426225829e+00    0.2843555    0.1146102 -32.63  0.001105048    2.045    0.511
       262  -9.0151    189.5340    150.0467   3.9139491187e+01   1.5140611198e+01    0.2598127    0.2037929 -55.52 0.0008818932    1.663    0.399
       263  -8.2438    182.4566    150.9756   4.0666371649e+01   1.6181014423e+01    0.1977137    0.1238583 -40.23 0.0006937981    1.577    0.366
       264  -8.6296    162.7671    150.6758   4.4599684678e+01   1.9654639157e+01    0.2451275     0.183222 -70.32 0.0009457993    2.052    0.513
       265  -8.6258     98.4006    150.7267   6.0564744829e+01   3.0977197258e+01    0.2828086    0.2122594  65.32 0.0007548863    1.512    0.338
       266  -9.4614    248.8811    149.1203   2.9549331572e+01   6.3078284645e+00    0.2696358    0.1442302 -29.85 0.0008109252    1.504    0.335
       267  -8.2099    212.9872    149.6809   3.4980078530e+01   1.1411051781e+01    0.1683748     0.144669   1.11 0.0003477508    1.084    0.078
       268  -9.6867     40.2638    148.2821   7.7749683957e+01   3.9723456830e+01    0.5841383    0.2099821  52.94   0.00208393    2.969    0.663
       269  -8.7912      2.8442    149.8010   8.9462164425e+01   4.2625139310e+01    0.1940746    0.1225836  60.86 0.0005834674    1.354    0.261
       270  -8.4349    198.7941    148.9604   3.7244277492e+01   1.3781863576e+01     0.183917    0.1654169 -41.97 0.0005377878    1.311    0.237
       271  -9.7681     89.4413    146.2548   6.2351620442e+01   3.3492938391e+01    0.6844517    0.3852744  83.90  0.002342552    3.511    0.715
       272  -9.6711    233.7481    147.3273   3.1317778513e+01   8.6401078843e+00    0.2879853    0.1400629 -35.56  0.001136937    1.777    0.437
       273 -10.2506     54.9763    144.5341   7.2649429606e+01   3.8934166941e+01     0.853827    0.3585367  62.77  0.002753139    3.687    0.729
       274  -9.4878     55.6214    135.8127   7.1226934047e+01   4.1086461819e+01    0.4562162    0.2519535  -2.78  0.001552344    3.760    0.734
       275  -8.4401    223.1651    146.8162   3.2798159941e+01   1.0269129660e+01    0.1725217     0.148835 -24.28 0.0003282167    1.170    0.145
       276  -9.6762    139.2077    144.8954   4.8750992609e+01   2.5037748377e+01    0.4364402    0.3074399 -81.37  0.001301664    2.397    0.583
       277 -10.1163    106.7520    144.4951   5.7086570371e+01   3.0989843135e+01    0.6932907    0.3957694  67.59   0.00227036    3.140    0.682
       278  -8.4197     77.8677    146.5803   6.5849535003e+01   3.5224879649e+01    0.2871447     0.189482  87.99 0.0007766852    1.901    0.474
       279  -9.1690     13.4731    146.0222   8.5999740329e+01   4.2804841279e+01    0.3285107    0.1495829  54.03  0.001178767    1.981    0.495
       280  -7.6022    206.5349    146.4586   3.5402935998e+01   1.2913104703e+01    0.1284825    0.1095076 -12.10 0.0004084195    1.004    0.004
       281  -8.1813    175.7138    146.1317   4.0991238151e+01   1.8177426397e+01    0.2099108     0.170511 -59.44   0.00115624    1.577    0.366
       282 -10.3070    241.3535    143.6255   2.9521971048e+01   8.0525877291e+00    0.4769905    0.2467582  -8.41  0.002206885    2.868    0.651
       283  -8.9846    247.0779    143.6486   2.8749239853e+01   7.2530517877e+00     0.221284    0.1345394 -23.69  0.000414075    1.344    0.256
       284  -8.9938    165.4226    143.8227   4.2614780770e+01   2.0432198911e+01    0.2460956    0.2397394 -48.79 0.0007017439    1.183    0.154
       285  -8.0284    194.2488    143.4775   3.6927404753e+01   1.5411750409e+01    0.1591886    0.1281422  51.75 0.0006585573    1.525    0.344
       286 -10.4360     69.5349    141.0183   6.7529518358e+01   3.7839450443e+01    0.5806663    0.3606898  85.15  0.002177487    2.060    0.515
       287 -10.3656    148.9001    145.0825   4.6512753425e+01   2.3216667039e+01    0.5480312     0.393263  87.04   0.00170623    2.562    0.610
       288  -8.5962    182.0528    141.5100   3.8778848554e+01   1.7854229221e+01    0.2512448    0.1822595 -52.57 0.0006767515    1.650    0.394
       289  -9.1977      3.2288    141.9322   8.8997292229e+01   4.4568584817e+01    0.3115498    0.1347134  51.23  0.001337991    2.015    0.504
       290  -7.9023    250.5098    140.5082   2.7693344673e+01   7.1864901889e+00    0.1174469   0.09029388 -18.58 6.768315e-06    1.002    0.002
       291  -9.7064    124.9647    142.4814   5.1803916071e+01   2.8166946301e+01    0.5007063    0.3484001 -85.74    0.0016736    2.332    0.571
       292  -9.7680     23.5615    138.0240   8.2158612155e+01   4.4018954088e+01    0.5707406    0.2057269  57.40  0.002067594    2.998    0.666
       293  -8.0067    218.5452    138.4704   3.1829303678e+01   1.2185772141e+01    0.1259685    0.1060535 -19.28  0.000298111    1.038    0.036
       294  -8.4528    207.6156    137.6459   3.3406687120e+01   1.4083968134e+01     0.263064    0.1397239 -41.66 0.0008830898    1.833    0.454
       295  -8.6987    197.5295    137.4139   3.5070763101e+01   1.5826277931e+01    0.2359635     0.195141 -51.19 0.0008205353    1.434    0.303
       296  -8.7345    172.0584    137.6685   3.9924082243e+01   2.0332178296e+01     0.255456     0.185794 -53.07  0.000687389    1.599    0.375
       297  -8.5144    149.8743    136.4550   4.4441422353e+01   2.4729233985e+01    0.4733905    0.2780706  -5.18  0.001528757    4.141    0.759
       298  -8.9897    248.3859    134.7219   2.6845348730e+01   8.2274542749e+00    0.2508458    0.1426623 -32.88 0.0007723331    1.427    0.299
       299  -9.0831    250.7823    129.8904   2.5590489288e+01   8.5144737311e+00    0.4148195   0.08901767 -30.79  0.001405676    4.373    0.771
       300  -8.2986    162.4877    136.0423   4.1558970811e+01   2.2414452503e+01    0.2107875    0.1358862 -41.55 0.0006096974    1.533    0.348
       301  -9.0327     38.9787    135.9847   7.6803714285e+01   4.3031643429e+01    0.2960995    0.1768433  61.16 0.0007732867    1.699    0.411
       302  -7.7874    187.7537    135.3743   3.6389147779e+01   1.7876972092e+01    0.1306848    0.1023257 -58.32 0.0006944522    1.632    0.387
       303  -8.1721     95.6778    135.1811   5.8453208133e+01   3.5099459016e+01    0.2306843    0.1869255 -87.41  0.000693295    1.406    0.289
       304 -10.1827     83.5168    132.8353   6.1708910525e+01   3.7724458768e+01    0.6286462    0.3432543 -72.80  0.001465693    2.304    0.566
       305  -8.8260    237.5115    133.4510   2.8040838056e+01   9.9734747224e+00    0.2118396   0.09121955 -40.96 0.0006854718    2.195    0.544
       306  -8.1288    231.4067    133.7903   2.8961998265e+01   1.0848764278e+01    0.1685677   0.09908813 -23.16 0.0002830164    1.534    0.348
       307  -8.8054    112.7610    133.0340   5.3093125053e+01   3.2523096217e+01    0.3690993    0.2532785  70.84  0.001037125    2.042    0.510
       308 -10.2335    132.2116    130.7036   4.7414463082e+01   2.9319538830e+01    0.6411746    0.3980449 -64.06  0.001833979    2.167    0.539
       309  -9.1779    143.0379    131.3201   4.4894768530e+01   2.7077568548e+01      0.33671    0.2554543 -75.96 0.0008448201    1.844    0.458
       310  -9.9757     12.9661    129.1358   8.5026901512e+01   4.7194836096e+01    0.5546226    0.2119283  64.10  0.001933377    2.812    0.644
       311  -8.3212    247.0059    129.9728   2.6085935025e+01   9.0443908858e+00    0.1775011    0.1232068 -46.92 0.0006168016    1.665    0.399
       312  -8.1603    204.7002    130.1962   3.2304970314e+01   1.5731518160e+01     0.201664    0.1488159 -44.44 0.0006671497    1.410    0.291
       313  -8.2999    192.8477    130.0714   3.4308504380e+01   1.7843227739e+01    0.1976493    0.1730093 -49.19 0.0004675612    1.287    0.223
       314  -9.2516    168.2781    129.3322   3.8843432629e+01   2.2553945829e+01    0.2956738    0.2278233 -58.56 0.0005460122    1.562    0.360
       315  -9.3726    152.7594    128.6645   4.2034925774e+01   2.5701450921e+01    0.3851449    0.2313919 -53.97 0.0009640509    1.931    0.482
       316 -10.0756     99.3017    127.6943   5.5832147776e+01   3.6248112855e+01    0.5887012    0.3766544  83.81  0.001615952    2.627    0.619
       317  -9.5417     73.1848    129.2417   6.4348093825e+01   4.0273115738e+01    0.3560519    0.2485315  84.96 0.0008962164    1.717    0.418
       318  -8.8185    179.2777    133.7354   3.7633092282e+01   1.9696433104e+01    0.2708447    0.2015459 -59.65 0.0007942271    1.750    0.429
       319  -7.4501    220.5169    129.5324   2.9672419895e+01   1.3175943624e+01    0.1271501    0.1068159 -20.59 0.0001306174    1.015    0.014
       320  -7.8194    211.5615    128.7902   3.0893610199e+01   1.4774183542e+01    0.1824073    0.1076487 -43.25 0.0009335882    1.685    0.406
       321  -8.7599     50.3436    128.6783   7.1960995323e+01   4.3620598592e+01    0.2919516    0.1803269  67.84  0.000712452    1.814    0.449
       322 -10.5933     44.5818    123.4558   7.3217618243e+01   4.5700879251e+01      1.07745    0.4814464  74.08   0.00338841    3.851    0.740
       323  -9.3777     32.5960    129.0683   7.8189482753e+01   4.5516386950e+01    0.2452234    0.2264525  44.92 0.0003455938    1.120    0.107
       324 -10.3738     28.8469    122.5217   7.8774943375e+01   4.7621122106e+01    0.7165751    0.2896148  63.64  0.002481468    3.205    0.688
       325  -7.5934      1.4852    129.5287   8.8970807432e+01   4.7845159567e+01    0.1352806    0.1111181  70.44 0.0006209484    1.049    0.047
       326 -10.4982     60.5902    125.2485   6.7873691727e+01   4.3160429765e+01    0.8392246    0.4166329  65.41  0.002578087    3.057    0.673
       327  -9.9768    117.9439    125.2261   4.9930654625e+01   3.3303452747e+01    0.5636247    0.3627562  72.03  0.001372236    2.522    0.603
       328  -8.9961    178.9569    124.3238   3.5577720628e+01   2.1401074282e+01    0.2842095    0.2478457 -51.59 0.0006278509    1.256    0.204
       329  -7.9408    188.4792    123.9277   3.3717636067e+01   1.9666383774e+01    0.2053344    0.1248502 -38.34   0.00100385    1.526    0.345
       330  -9.3487    158.5997    121.5120   3.9070031795e+01   2.5923185469e+01    0.3520713    0.2633567 -88.18  0.001123985    2.103    0.524
       331  -8.4968     83.8902    122.4638   5.9525039753e+01   4.0244802185e+01    0.2677793    0.2594662 -50.35  0.001103833    1.089    0.082
       332  -8.0818    203.1368    122.1003   3.0787732743e+01   1.7278454554e+01    0.1786654     0.146864 -48.07  0.000427826    1.319    0.242
       333  -7.9591    195.1118    121.9253   3.2095564782e+01   1.8766263308e+01    0.2201538    0.1420219 -56.00 0.0007039568    2.025    0.506
       334  -8.6390    171.9714    121.3933   3.6261744936e+01   2.3279438768e+01    0.2531856    0.1885052 -51.44 0.0005012723    1.455    0.313
       335  -9.3769     71.2348    119.7121   6.3184520440e+01   4.3016348931e+01    0.4407484    0.2617888 -89.79  0.001391844    2.437    0.590
       336  -9.8473    141.6475    118.3581   4.2182660415e+01   3.0008173327e+01    0.4714488    0.3145491 -66.94  0.001162057    2.097    0.523
       337 -10.1247    131.0961    118.0097   4.4720608172e+01   3.2253112857e+01    0.6308441    0.4356669 -72.55  0.001927261    2.062    0.515
       338  -9.6888      3.0060    117.1603   8.7752491612e+01   5.0986506598e+01    0.5843311    0.2008962  62.72  0.002151213    3.045    0.672
       339  -7.5795    231.6864    117.3718   2.5512852717e+01   1.3101366046e+01    0.1257108   0.08681339 -53.42 0.0007034001    1.782    0.439
       340  -8.3540    185.6167    115.7572   3.2346217363e+01   2.1593307443e+01    0.1964904    0.1199886 -45.18 0.0003223546    1.626    0.385
       341  -9.9348    109.3236    113.8760   4.9680182911e+01   3.7595977408e+01    0.5823696    0.3675251 -75.66  0.001599125    2.449    0.592
       342  -8.7459    108.8470    107.3917   4.8185047367e+01   3.9190336729e+01    0.2247495    0.1474414  30.08 0.0009421088    1.745    0.427
       343  -8.4564    192.9906    114.8231   3.0830818816e+01   2.0328819066e+01    0.2405683     0.157869 -47.17 0.0005135594    1.565    0.361
       344  -9.9286     79.1029    112.4633   5.8953062560e+01   4.3579486218e+01    0.5688626    0.3655293  75.04  0.001884679    2.226    0.551
       345  -8.8952     59.9785    114.6229   6.6163850269e+01   4.6032537925e+01    0.4060831    0.2036467  17.64  0.001465118    2.782    0.641
       346  -8.2277    167.4689    114.0670   3.5412747699e+01   2.5517198190e+01     0.219194    0.1364435 -39.19 0.0004857105    1.534    0.348
       347 -10.0141     92.7699    112.3813   5.4398740847e+01   4.1153081056e+01    0.5874271     0.362447 -72.87  0.001355095    2.136    0.532
       348  -8.6375     93.3433    104.3479   5.2224365309e+01   4.2996326421e+01    0.3524314    0.2415669 -18.44  0.001347063    2.265    0.559
       349  -9.8831    121.8263    112.2118   4.5730139204e+01   3.5427549548e+01    0.3410909     0.277752 -65.44 0.0005822051    1.351    0.260
       350  -8.5314    174.8752    111.6254   3.3355244632e+01   2.4447391474e+01     0.283393     0.171415 -52.28 0.0006713991    1.878    0.468
       351  -8.9136    159.0075    111.4871   3.6536492187e+01   2.7750543443e+01     0.278836    0.1964065 -54.21 0.0006297479    1.560    0.359
       352  -9.7370    133.6532    109.0400   4.1811674427e+01   3.3621604088e+01    0.5439667    0.2880372 -49.44  0.001646962    1.949    0.487
       353  -9.7563     66.4574    110.2719   6.2933590649e+01   4.6205430122e+01    0.4741002    0.3052286  84.20  0.001517255    2.079    0.519
       354  -9.8848     14.6629    111.3077   8.2903857035e+01   5.1805842534e+01    0.4301189    0.1827868  58.29  0.001602334    2.522    0.603
       355 -10.4593    248.3582    107.2500   2.1298528093e+01   1.1829603525e+01    0.3670471    0.2116491 -40.64  0.002141215    1.510    0.338
       356  -8.1262     43.9735    109.0000   7.1154086204e+01   4.9638035287e+01    0.2378811   0.08365673  26.09 0.0008046443    2.958    0.662
       357  -8.9381      3.6246    108.6318   8.6959153942e+01   5.3210956942e+01     0.317779    0.1051288  22.96  0.001241712    2.946    0.661
       358 -10.7982     22.7714    102.4917   7.8664348501e+01   5.3557485955e+01    0.8223032    0.3745034  64.70   0.00199818    2.707    0.631
       359  -9.2540    139.9483    104.4594   3.9055723800e+01   3.3212519381e+01    0.3360339    0.2550233  85.74 0.0009329763    1.809    0.447
       360  -9.1356     78.6480    104.6351   5.7286168918e+01   4.5637603483e+01     0.372843    0.2473731   2.85  0.001345825    2.523    0.604
       361 -10.4583     45.5342    101.9290   6.9255112551e+01   5.1345035237e+01    0.8403958    0.4032281  66.73  0.002767896    3.436    0.709
       362  -8.5941    166.8462    104.0856   3.3044660179e+01   2.7471771980e+01    0.2270748    0.1914577 -64.47 0.0006575103    1.336    0.252
       363  -9.4450    150.4908    102.8102   3.6168592861e+01   3.1240336320e+01    0.4279292    0.2584511 -57.07  0.001122862    2.008    0.502
       364 -10.0931    128.3416    101.5949   4.1202305166e+01   3.6341439440e+01    0.4001054    0.3029939 -77.56 0.0008714316    1.719    0.418
       365  -8.4589    129.6580     97.6522   3.9775993293e+01   3.6882394177e+01    0.2447263    0.1906758   0.71  0.001102297    1.743    0.426
       366  -8.0076    175.4887    102.0337   3.0855501349e+01   2.6010910910e+01    0.2198184    0.1331123 -39.01 0.0005099132    1.539    0.350
       367 -11.1751    108.6458     98.8437   4.5959933418e+01   4.1190071875e+01    0.8710684    0.7738048  88.78  0.001616838    1.226    0.184
       368  -8.4921    107.3789     92.7142   4.4608542418e+01   4.2846615620e+01    0.3669268    0.2415099  24.97  0.001484528    2.026    0.507
       369  -8.4053    189.4286    107.9887   2.9826588662e+01   2.2151397232e+01    0.2116942    0.1244005 -37.76 0.0004849502    1.549    0.354
       370  -8.3271    159.8947    101.0379   3.3672319922e+01   2.9527560804e+01    0.2259438    0.1913961 -64.02 0.0005233793    1.301    0.231
       371  -9.2623     82.2554     99.9146   5.4837069416e+01   4.6172580332e+01    0.3713387    0.2690955  89.16 0.0009993473    1.794    0.443
       372 -10.1777     64.0100     96.1244   6.0641675800e+01   5.0263583688e+01    0.6799824    0.4183107 -87.38  0.001823284    2.325    0.570
       373  -9.1154     95.0227     96.8258   4.9673026102e+01   4.4468591350e+01    0.3049535    0.2496123 -80.73 0.0006748781    1.392    0.282
       374  -8.9901      7.5091    103.4936   8.5019094104e+01   5.4366235416e+01    0.3393671    0.1423545  55.92  0.001371253    2.482    0.597
       375  -8.0877    164.9618     93.9955   3.0780140286e+01   2.9705207253e+01    0.2303699    0.1707826 -65.33 0.0004826405    1.625    0.384
       376  -9.3467    139.0486     92.0966   3.5877845164e+01   3.5901480847e+01    0.4592172    0.2726305 -56.30  0.001402163    1.973    0.493
       377  -8.7368    246.5363     93.4809   1.8603480241e+01   1.3925579436e+01    0.1222888   0.09690454 -29.42 0.0001373038    1.023    0.023
       378  -8.3580    176.4848     93.0829   2.8372195479e+01   2.7347085980e+01    0.2187891    0.1329524 -38.17 0.0004597715    1.523    0.343
       379  -8.8937    120.4090     92.7619   4.0855472862e+01   3.9977179309e+01    0.2656701    0.2272176  20.03  0.001253086    1.349    0.259
       380  -9.9508    124.5846     90.7597   3.9142621270e+01   3.9463162029e+01    0.5156938    0.3376133 -52.10 0.0009587423    1.584    0.368
       381  -8.1888    157.6494     91.7553   3.1647045910e+01   3.1743807323e+01    0.2147487    0.1308218 -46.26  0.000629666    1.614    0.381
       382  -9.1523     46.6170     91.8828   6.6746015873e+01   5.3889078069e+01    0.4068654    0.2083809  14.24  0.001519165    2.709    0.631
       383  -9.5054     35.0480     90.0916   7.1400196444e+01   5.5740708296e+01    0.5042715    0.2705315  78.21  0.001549819    2.613    0.617
       384  -9.5138      5.2624     91.6854   8.4897495274e+01   5.7656489785e+01    0.3125311    0.1772627  57.96  0.001432542    1.803    0.445
       385  -8.7350     23.4451     89.8889   7.6552046999e+01   5.6911619491e+01    0.2742358    0.2135952  23.30 0.0009593482    1.389    0.280
       386  -8.3341    150.3252     88.2910   3.2230019694e+01   3.4053567622e+01    0.3191492    0.2143284 -72.63  0.001320798    2.160    0.537
       387 -10.1504     86.4871     85.8791   4.9438422980e+01   4.8776036829e+01     0.668512    0.4474459 -69.28  0.001062406    1.831    0.454
       388  -8.5517     64.7152     87.5940   5.8175955288e+01   5.2337215216e+01    0.3811112    0.2456847   0.49  0.001450946    2.644    0.622
       389  -7.6825    249.3247     86.6747   1.6853320370e+01   1.4352825615e+01    0.1232685   0.07682873 -52.21 0.0007048751    1.690    0.408
       390  -9.7575     48.7865     84.3348   6.4042059543e+01   5.5588896551e+01     0.589311     0.317616  63.66  0.001987152    2.829    0.646
       391  -8.1494    158.0083     83.7333   2.9335044140e+01   3.3117773172e+01    0.1990396    0.1913863 -69.63 0.0003962938    1.043    0.041
       392  -9.9739    104.7447     81.8389   4.2135073894e+01   4.5837354550e+01    0.7896407    0.3346845 -46.98  0.002143629    2.368    0.578
       393  -7.6990    170.4144     83.2256   2.6829206517e+01   3.0370758195e+01    0.2171916    0.1245091 -46.66  0.000942615    1.706    0.414
       394  -8.9518    140.8591     82.3939   3.2629545185e+01   3.7370317952e+01    0.3779807     0.209235 -47.33  0.001120505    1.819    0.450
       395  -7.9102     64.0073     82.5069   5.7053973869e+01   5.3739797870e+01    0.2131563    0.1215771  57.85 0.0005674549    2.294    0.564
       396  -9.5183     24.7431     80.6004   7.4342684208e+01   5.9297833430e+01    0.5072978    0.2682519  73.90  0.001409002    2.523    0.604
       397  -9.5244     10.1645     80.9058   8.1429804001e+01   6.0281571688e+01     0.401623    0.1863568  53.64   0.00167255    2.423    0.587
       398  -8.4521    150.4690     80.4174   2.9928589519e+01   3.5474621105e+01    0.2704321    0.1290565 -48.00 0.0006912131    2.176    0.540
       399  -8.8491     74.8256     80.4334   5.2109774946e+01   5.2334762689e+01    0.3440023    0.2260744 -65.78 0.0009094749    1.722    0.419
       400  -8.6343    119.2791     79.8651   3.7275533902e+01   4.2941778743e+01    0.2939323    0.2270287 -69.60 0.0007230006    1.511    0.338
       401  -8.2150    166.6418     79.2733   2.6418239214e+01   3.1903721420e+01    0.2013521     0.135274 -28.22 0.0005011149    1.544    0.352
       402  -8.0545    184.2084     77.9121   2.3055602174e+01   2.8160333656e+01    0.1951255    0.1042207 -36.42 0.0008561736    1.692    0.409
       403  -9.2920    128.0990     75.1126   3.3454417239e+01   4.1802920654e+01    0.3664034    0.2569907 -64.31 0.0006474572    1.703    0.413
       404  -8.4177    140.6399     75.1648   3.0489023560e+01   3.8778045152e+01    0.2418627    0.1802046 -54.42 0.0004877417    1.382    0.276
       405  -9.9124     63.1062     73.3978   5.4699104657e+01   5.6148839883e+01    0.4942049    0.3148333 -68.20  0.001177673    1.826    0.452
       406  -9.6798     82.4737     72.4165   4.6616754288e+01   5.2718143538e+01    0.4795366    0.3210617 -75.82  0.001043981    2.166    0.538
       407  -8.1606    163.4962     73.0434   2.5214331393e+01   3.3688981357e+01    0.2286711    0.1385595 -37.69  0.001019096    1.555    0.357
       408  -8.1210    151.4789     72.9593   2.7501199975e+01   3.6565984375e+01    0.2317437    0.1436961 -38.46 0.0004206646    1.551    0.355
       409  -8.5293    115.6886     72.8489   3.6004775687e+01   4.5209165122e+01    0.2880986    0.2035226 -57.23 0.0006387479    1.539    0.350
       410  -8.2206     42.7954     72.8187   6.3798130671e+01   5.9376386179e+01    0.2027669    0.1687818  75.13 0.0004924844    1.335    0.251
       411  -8.9891    105.9675     71.5475   3.8398401803e+01   4.7752250902e+01    0.2954894    0.2107998 -60.33 0.0006593537    1.573    0.364
       412  -9.1351     95.2302     71.1390   4.1679648848e+01   5.0274849166e+01    0.3884612    0.2563969 -63.31  0.001060163    1.849    0.459
       413  -9.5022     51.6190     69.5056   5.8629982109e+01   5.8968804221e+01    0.5047231    0.2979541 -82.08   0.00135731    2.656    0.623
       414  -8.8969     16.5175     69.7095   7.6445763703e+01   6.2854321964e+01    0.3041383    0.1868559  66.55  0.001124979    1.906    0.475
       415  -9.1885     31.5795     68.8440   6.8350639692e+01   6.1736650770e+01    0.4325495    0.1987583  -6.20  0.001212608    5.460    0.817
       416  -8.5407    147.0416     68.0143   2.6891760147e+01   3.8503464033e+01    0.2381423     0.211383 -61.83 0.0006849397    1.113    0.101
       417  -8.6073    138.7222     65.8983   2.7991104460e+01   4.0919039763e+01     0.296001     0.190974 -53.15 0.0008520457    1.638    0.389
       418  -8.7876    121.5138     65.4515   3.1951337231e+01   4.5242296719e+01     0.360122    0.2268729 -55.35 0.0008589091    1.773    0.436
       419  -8.7894     64.7098     63.1589   5.0551540513e+01   5.8298439827e+01    0.5140145    0.3069912 -11.86  0.001616647    4.041    0.753
       420  -8.8738    110.1755     63.4997   3.4361011005e+01   4.8370394814e+01    0.2947413     0.230762 -71.02 0.0005964253    1.486    0.327
       421  -8.7151     37.2803     63.8442   6.4014248185e+01   6.2362190582e+01    0.2743712    0.2116148  80.14  0.001091887    1.554    0.356
       422  -7.8713    158.2506     61.6300   2.2762183521e+01   3.6823831689e+01    0.1567014    0.1043596 -58.88 0.0003457295    1.631    0.387
       423  -9.3393     97.7191     60.1412   3.6923620318e+01   5.1985971875e+01    0.3922525    0.3078436 -38.95  0.001378953    1.299    0.230
       424  -9.6431     73.4079     59.4689   4.5506575035e+01   5.7451519663e+01    0.4436618    0.2695202 -55.92  0.001210021    1.797    0.444
       425  -7.8881    147.0000     58.9426   2.4024637678e+01   4.0043415640e+01    0.2440299   0.08386496 -34.10 0.0004919356    2.856    0.650
       426  -8.2968     89.0745     59.3312   3.9522021884e+01   5.4130340420e+01    0.2161852    0.2006967  62.78 0.0006295755    1.085    0.079
       427  -9.7703     23.5475     56.1965   6.9422007175e+01   6.5784024422e+01    0.5183407    0.2931535  75.62  0.002091747    2.746    0.636
       428  -9.3569      7.5316     57.0513   7.9120370464e+01   6.6721225096e+01    0.3381904    0.1977583  68.24  0.001155621    2.041    0.510
       429  -8.2895    130.5313     57.1185   2.6895328013e+01   4.4492036944e+01    0.2283532    0.1476186 -39.04  0.001005276    1.526    0.345
       430  -8.9500    119.1617     55.3696   2.9011124373e+01   4.7659457377e+01    0.4677257    0.2144001 -46.94  0.001525676    2.299    0.565
       431  -7.9125    140.1122     56.1500   2.4491173216e+01   4.2232971109e+01     0.213429    0.1687915 -63.43 0.0004001402    1.319    0.242
       432  -8.6987     44.2884     55.5710   5.7627650256e+01   6.3455002037e+01    0.2935014    0.2269489  76.26 0.0008848967    1.677    0.404
       433  -9.1736     62.9611     54.4642   4.8049214228e+01   6.0584839830e+01    0.3428549    0.2175627 -53.40 0.0006085386    1.621    0.383
       434  -8.8760     54.1071     53.4650   5.1833714019e+01   6.2392887210e+01    0.3707684    0.2082487 -68.29  0.001408868    2.624    0.619
       435  -7.6432    163.3230     53.2921   1.9343888906e+01   3.6870556309e+01    0.1434617    0.1130896  27.11 0.0002874609    1.612    0.380
       436  -8.2962    105.7964     53.0498   3.1768629254e+01   5.1396887065e+01    0.2407645    0.2007309 -69.82 0.0005594952    1.318    0.241
       437  -8.3990    170.6331     52.0632   1.7841207376e+01   3.5264456478e+01    0.2046004    0.1705737 -41.21 0.0005140709    1.127    0.112
       438  -9.4712     92.6168     50.4504   3.4824699015e+01   5.5054049922e+01    0.4435011    0.2719375 -56.17  0.001229292    1.945    0.486
       439  -7.6442    158.5278     49.5111   1.8945324509e+01   3.8622995387e+01    0.1493024     0.134205 -64.18 6.747604e-05    1.046    0.044
       440  -8.4946    144.7507     48.9733   2.1177490559e+01   4.2191435352e+01    0.2125392    0.1855149 -46.26 0.0005124585    1.113    0.101
       441  -8.1316    130.0036     48.9809   2.4156133108e+01   4.5974516851e+01    0.2456636    0.1732962 -65.17 0.0005412565    1.616    0.381
       442  -9.2038     82.3856     46.3978   3.6706316617e+01   5.8185965131e+01    0.3722086    0.2689404 -67.14  0.001263861    1.783    0.439
       443  -8.4149    112.1165     46.8369   2.7629339925e+01   5.0901358944e+01    0.2380434    0.1989447 -72.09 0.0006200083    1.294    0.227
       444  -8.4789     45.0496     44.3278   5.2814911549e+01   6.5927036494e+01    0.2443501    0.1998298 -84.27 0.0006598018    1.564    0.361
       445  -8.8857     16.8031     44.4558   7.0221984469e+01   6.9300356166e+01     0.246928    0.1963854  76.46 0.0006101803    1.488    0.328
       446  -7.9861    132.6384     42.7976   2.1382861677e+01   4.6251542490e+01    0.2103595    0.1307947 -43.44   0.00039442    1.581    0.367
       447  -8.8918     58.4091     42.5877   4.5137896360e+01   6.3966492472e+01    0.3054177    0.2273309 -77.74 0.0009368142    1.941    0.485
       448  -9.6039      5.0843     41.6048   7.7466600657e+01   7.0763957497e+01    0.4014423    0.2060587 -89.07   0.00158694    2.284    0.562
       449  -8.9256    105.8735     40.8477   2.6903097286e+01   5.3467187228e+01    0.3029115    0.1985111 -48.03 0.0007626766    1.598    0.374
       450  -8.5129     36.9691     40.5393   5.5848291259e+01   6.7979014800e+01    0.2516397    0.1984967 -75.07 0.0007141779    1.545    0.353
       451  -8.5695     95.7474     37.8953   2.8548695220e+01   5.6487566446e+01     0.282521    0.1947837 -53.64 0.0008025627    1.615    0.381
       452  -8.4101     80.8716     36.7718   3.2961383619e+01   6.0264975974e+01     0.282354    0.1854766 -61.61 0.0009822376    2.028    0.507
       453  -9.2185     69.7883     41.6232   3.9554350062e+01   6.1863145076e+01    0.3816701    0.2834908 -73.16  0.001074821    1.864    0.463
       454  -9.3670     26.1788     35.3416   6.0541208868e+01   7.0538843688e+01    0.2799222    0.2364641  84.23 0.0008312042    1.496    0.332
       455  -8.1950    125.9863     35.2922   1.9951988434e+01   4.9083908378e+01    0.2082015     0.190058  77.99 0.0004294844    1.050    0.048
       456  -8.5657    111.8695     34.1578   2.2623096328e+01   5.2946696311e+01    0.2352501    0.1945519 -67.24 0.0006102388    1.280    0.219
       457  -8.0652     88.5314     34.4736   2.9273058790e+01   5.8815054295e+01    0.1476419    0.1429384  55.09 0.0001593785    1.001    0.001
       458  -8.9043     48.6257     33.3189   4.5707263083e+01   6.7629235469e+01    0.2657631    0.2331641  69.95 0.0007018578    1.397    0.284
       459  -8.4823    119.4505     33.0633   2.0456910973e+01   5.1116849519e+01    0.2220637    0.1439986 -34.77 0.0005609583    1.559    0.359
       460  -8.7061     60.8584     32.6150   3.9163362268e+01   6.5405326194e+01    0.2677745    0.2045722 -50.77 0.0006156381    1.427    0.299
       461  -8.9531     72.2682     30.8952   3.3378590594e+01   6.3233061876e+01    0.2662787    0.2126875 -64.38 0.0007190972    1.517    0.341
       462  -8.9347     12.9465     30.1308   6.8092379655e+01   7.3034080645e+01    0.3058787    0.1838866 -79.16  0.001128285    2.048    0.512
       463  -8.6064    101.7148     29.3599   2.3118147857e+01   5.6267330289e+01    0.2679777    0.1698152 -45.20 0.0007333914    1.651    0.394
       464  -7.8407     42.2744     29.6427   4.7421772629e+01   6.9453223405e+01    0.1340548    0.1122029 -85.61 0.0003687344    1.650    0.394
       465  -8.8656     81.6579     27.3416   2.8150636829e+01   6.1590088983e+01    0.2966743    0.2233706 -69.31 0.0007548061    1.680    0.405
       466  -8.6942      3.6990     27.3872   7.4600269061e+01   7.4281049295e+01    0.2230728    0.1483665 -82.11 0.0006767021    1.640    0.390
       467  -8.8916     91.9699     26.3744   2.4439737802e+01   5.9177041621e+01    0.2759864    0.1937573 -49.68 0.0006216499    1.550    0.355
       468  -8.5965    209.8673     23.1044   5.5023971367e+00   2.9818405413e+01    0.2032683    0.1396727 -53.33 0.0003424624    1.229    0.187
       469  -8.3264    120.9596     21.6745   1.5579257282e+01   5.2191348482e+01    0.1989648    0.1834705 -89.42 0.0004656639    1.020    0.020
       470  -8.1835    104.3348     22.6897   1.9500850950e+01   5.6477682297e+01    0.1548006    0.1084077 -68.47 0.0006361435    1.679    0.404
       471  -9.3391     74.3796     19.7700   2.6758350511e+01   6.4429108910e+01    0.3793803    0.2262743 -47.84  0.001362329    1.936    0.484
       472  -9.0412     63.5878     20.8443   3.1576475395e+01   6.6772077280e+01    0.3316764    0.2298554 -55.60 0.0008867072    1.817    0.450
       473  -8.8218     48.5015     21.4735   3.9250931458e+01   6.9823230438e+01    0.2575874    0.2382224 -74.46 0.0007045451    1.328    0.247
       474  -8.0566     34.2248     22.4476   4.8519304185e+01   7.2153640007e+01     0.180453    0.1257638  45.87 0.0006216845    1.605    0.377
       475  -7.7112     19.6886     21.3025   5.8653384993e+01   7.4346932043e+01    0.1235971    0.1033324  65.30 0.0005407864    1.609    0.379
       476  -7.9824    112.6399     16.7494   1.5106816123e+01   5.4984008562e+01    0.1915123    0.1291411 -38.54 0.0002969468    1.509    0.337
       477  -8.3974     87.9888     17.5128   2.1251977897e+01   6.1355108734e+01     0.214974    0.1376863  65.82  0.000471694    1.520    0.342
       478  -7.9776     30.0359     15.9684   4.7475167488e+01   7.4014199011e+01    0.1934364    0.1664686  79.27 0.0006218633    1.686    0.407
       479  -7.6371      1.6662     16.3209   7.2407720631e+01   7.6937188584e+01    0.1224603   0.09249645  56.65 0.0007049706    1.702    0.412
       480  -8.2307     97.3057     15.0487   1.7629663695e+01   5.9237447914e+01    0.2005367    0.1815291 -37.89 0.0005602023    1.165    0.141
       481  -8.1898      7.5066     15.0297   6.6127866467e+01   7.6843972830e+01     0.169015    0.1097137  84.30 0.0008099828    2.545    0.607
       482  -7.7383     17.2399     13.9624   5.6497063682e+01   7.6127925563e+01    0.1670354    0.1022582 -50.40  0.000469742    1.577    0.366
       483  -7.6905     83.4006     10.7211   1.9005639063e+01   6.3312274087e+01    0.1487311    0.1049905 -73.21 0.0006988524    1.765    0.433
       484  -7.7377    191.5254    249.5239   5.4938248471e+01   9.4751078015e-01    0.1064269   0.07807521  14.77 0.0001342611    1.086    0.079
       485  -8.9398    175.4305    247.4440   5.7527213799e+01   3.0012557442e+00    0.2053374    0.1948702  83.31  0.001152407    1.920    0.479
       486  -8.8702    132.6207    248.1223   6.5718292548e+01   7.9770191340e+00    0.2901091    0.1573143  48.83 0.0009470888    2.216    0.549
       487  -8.3949     93.8871    249.2759   7.3641098576e+01   1.2422710292e+01    0.1956717   0.08490081  53.46 0.0009452087    2.820    0.645
       488  -9.2000    243.0697    246.1724   4.6192031545e+01  -3.9865801082e+00    0.2891211    0.1209558 -22.82  0.001843184    2.207    0.547
       489  -8.9282    218.5871    247.0692   5.0099946162e+01  -1.6653745556e+00     0.277536    0.1054737 -29.93  0.001612742    2.660    0.624
       490  -8.5516    156.0095    247.9411   6.1180088275e+01   5.2059911668e+00    0.1587796    0.1163277  45.14 0.0005112477    1.673    0.402
       491  -8.1098    112.8567    248.3160   6.9688074803e+01   1.0323391657e+01     0.145986    0.1234711  40.35 0.0008216256    1.210    0.174
       492  -9.0053    103.7228    246.6967   7.1400207135e+01   1.1658435133e+01    0.3180456    0.1944124  80.60  0.001758572    2.973    0.664
       493  -9.4315    224.4852    245.5114   4.8951107830e+01  -2.1057842617e+00    0.2216239    0.1388349 -16.18   0.00132699    1.400    0.286
