#   1 NUMBER                 Running object number                                     
#   2 MAG_AUTO               Kron-like elliptical aperture magnitude                    [mag]
#   3 X_IMAGE                Object position along x                                    [pixel]
#   4 Y_IMAGE                Object position along y                                    [pixel]
#   5 X_WORLD                Barycenter position along world x axis                     [deg]
#   6 Y_WORLD                Barycenter position along world y axis                     [deg]
#   7 A_WORLD                Profile RMS along major axis (world units)                 [deg]
#   8 B_WORLD                Profile RMS along minor axis (world units)                 [deg]
#   9 THETA_WORLD            Position angle (CCW/world-x)                               [deg]
#  10 FWHM_WORLD             FWHM assuming a gaussian core                              [deg]
#  11 ELONGATION             A_IMAGE/B_IMAGE                                           
#  12 ELLIPTICITY            1 - B_IMAGE/A_IMAGE                                       
         1 -12.8937     58.0252     81.8473   8.3562048860e+01   5.3879119336e+01     2.440303     1.540336  12.48   0.01185585    1.878    0.468
         2 -12.3934      4.0730     32.5184   9.1846110867e+01   6.8757020630e+01     1.035447    0.8704741 -84.61  0.001555021    1.906    0.475
         3 -13.3271     83.6593     65.8813   6.9471024968e+01   5.3162241648e+01     4.435055     1.667706 -52.07   0.01435038    3.953    0.747
         4  99.0000     62.0428     32.7487   6.5234809226e+01   6.2288639685e+01     2.902866     1.940094 -19.37   0.01652899    1.471    0.320
         5 -12.0298     88.4486     31.7339   5.5668169579e+01   5.7666612348e+01     1.542356    0.6705956  53.14  0.006592329    2.396    0.583
         6 -13.9354    110.3529     63.2309   6.0228610863e+01   4.8437610972e+01     4.516101     2.879896  15.93   0.01922533    2.257    0.557
         7 -11.8743     57.8534     54.9726   7.5227672794e+01   5.9292321183e+01     1.301134    0.7584371 -16.61   0.00604965    2.156    0.536
         8 -12.6702    138.6634     54.8000   5.0313315113e+01   4.3474961546e+01     1.632551    0.7358882 -39.43  0.006629628    2.293    0.564
         9 -12.3995    161.9456     51.6893   4.4630642065e+01   3.8424490623e+01     1.532044    0.9486118 -32.45  0.007359935    1.732    0.423
        10 -12.0508    151.1448     47.3317   4.5431290640e+01   4.1623125550e+01     2.821921    0.9448974 -25.18   0.00831565    4.955    0.798
        11 -12.8343    244.4919     10.6105   2.5004292046e+01   2.5067463421e+01     1.695524    0.8328686 -50.15  0.009835837    1.687    0.407
        12 -12.7602     97.4582     45.9480   5.8143672990e+01   5.3882800333e+01     1.507093    0.8480772  48.82  0.007138213    1.726    0.421
        13  -9.2769    102.9694     24.5639   4.8849349793e+01   5.5531776436e+01    0.3121069    0.2036826  21.83  0.001052807    1.732    0.423
        14  -8.9654     90.2164     22.4286   5.1562451803e+01   5.8437544118e+01    0.3629832    0.2199439 -28.98  0.001576112    1.776    0.437
        15  -8.9440     92.4420     16.9667   4.8817622469e+01   5.8571216986e+01    0.3293244    0.1766416 -15.45  0.001411064    2.212    0.548
        16  -9.8659     38.0566     22.0736   7.0873959387e+01   6.7281907748e+01     0.401145    0.3238557  50.93  0.001834793    2.010    0.503
        17 -10.8352     44.9717     18.7358   6.6296612271e+01   6.6798483578e+01    0.5249691    0.3357117  24.05  0.001886728    1.398    0.285
        18  -8.3712     23.7295     26.4292   7.9600633699e+01   6.8254020232e+01    0.1609854   0.09699503   6.77  0.000721218    1.627    0.385
        19  -8.8703    202.6643    250.3226   8.0324813150e+01  -6.2886002764e+00      0.11115   0.09371437  51.74 0.0007050585    1.711    0.415
        20 -10.1281    188.3510    249.2318   8.2949709655e+01  -4.1008413381e+00    0.2840434    0.2270565  20.52   0.00136441    1.045    0.043
        21  -8.6362     51.0320    156.3187   1.0102464775e+02   3.6654438747e+01    0.1809854    0.1681618  84.12 0.0003551818    1.071    0.067
        22  -8.5813     32.3059    155.6837   1.0601881347e+02   3.8794610726e+01    0.1369156   0.09011737  70.71 0.0003467692    1.627    0.385
        23  -9.4785      1.7424    144.6490   1.1293931512e+02   4.3905114871e+01    0.3504536    0.1400986  89.37  0.001469617    2.739    0.635
        24 -10.2253     34.5191    144.1199   1.0391085745e+02   4.1464745384e+01    0.2548493    0.2176789  18.11 0.0009398697    1.401    0.286
        25  -9.2971     29.5466    143.3205   1.0520885559e+02   4.2126294869e+01    0.2531401    0.1172983 -73.87 0.0008479679    1.971    0.493
        26  -9.1468     15.7963    137.1545   1.0831518588e+02   4.4776569739e+01    0.2923813    0.1659856  85.38  0.001082016    1.902    0.474
        27  -8.9284     24.9861    135.3315   1.0544937572e+02   4.4506810144e+01    0.3890077    0.1756709  85.28  0.001408107    3.562    0.719
        28  -9.0021     30.4359    132.8821   1.0350487162e+02   4.4646373222e+01    0.2931794    0.1761001 -87.47 0.0009496979    1.812    0.448
        29 -10.0368      8.7594    131.6186   1.0966179491e+02   4.6615847943e+01    0.2964257     0.202408 -65.41 0.0004316464    1.187    0.158
        30  -8.0694     77.3179    133.3157   8.9439389466e+01   3.9002100923e+01    0.1525188    0.1103768 -27.45 0.0007038674    1.652    0.395
        31  -8.6457     61.7414    132.9841   9.4082654406e+01   4.1232898427e+01    0.1999074    0.1749172 -61.17 0.0002482983    1.040    0.038
        32  -8.4550     43.4976    132.4395   9.9520399031e+01   4.3492502647e+01    0.1374856    0.1219468 -69.44 0.0001003538    1.024    0.023
        33  -9.4977     83.3960    129.6897   8.6847847823e+01   3.8981604227e+01    0.2581291    0.2407455 -33.35 0.0002947729    1.086    0.079
        34  -9.0777     73.8884    130.2906   8.9857252663e+01   4.0256855516e+01    0.1933652    0.1871262  -7.55 0.0003922858    1.107    0.097
        35  -9.6648     24.3854    129.2262   1.0478296236e+02   4.6067695163e+01    0.3052598    0.2953295  16.49  0.001006149    1.232    0.188
        36  -7.7155    130.3144    129.7075   7.3429124292e+01   3.0480605695e+01    0.1559905    0.1255391  83.04 0.0002173282    1.595    0.373
        37  -8.8835     10.1889    125.6253   1.0852794914e+02   4.7981507497e+01    0.2194185    0.1478323 -79.71  0.000865728    1.299    0.230
        38  -9.6912      3.6442    124.9598   1.1036929380e+02   4.8539780989e+01    0.2891551    0.1848094 -81.88  0.001043039    1.366    0.268
        39  -9.8577     89.2379    122.2405   8.3406729695e+01   3.9872684218e+01    0.5425175    0.2843155 -50.21   0.00223061    1.789    0.441
        40 -10.9517     41.3185    109.9596   9.6159930451e+01   4.9277172064e+01     0.534251    0.2901085 -33.99  0.001333642    2.093    0.522
        41 -11.4789     56.1028    107.9639   9.0774978723e+01   4.8112992723e+01    0.7701784    0.4591364 -37.13    0.0019365    1.734    0.423
        42  -9.5991     47.2553    111.2449   9.4436098696e+01   4.8341385268e+01    0.2754363    0.2207062 -22.08 0.0004713429    1.353    0.261
        43 -10.8989     43.2923    122.5772   9.7890224502e+01   4.5974826495e+01    0.3701011    0.2333305 -70.96 0.0002390013    1.523    0.344
        44 -10.2591     44.7979    115.9578   9.6178864746e+01   4.7452420291e+01    0.3853246     0.334989  31.93  0.002289914    1.296    0.228
        45  -9.0617     34.7447    121.2419   1.0035956545e+02   4.7144675322e+01    0.3059622    0.1077371 -48.16  0.001184957    2.571    0.611
        46  -8.5331     24.8586    121.8213   1.0355129129e+02   4.7855341562e+01    0.1866781    0.1518126 -50.08 0.0002520815    1.146    0.128
        47  -9.4314     10.7044    120.0348   1.0765671150e+02   4.9305654702e+01    0.3046378    0.1425712 -49.83  0.001114376    1.867    0.464
        48  -9.0843     94.3175    120.0244   8.1340314325e+01   3.9553526135e+01    0.2142425     0.188721 -46.45 0.0003959596    1.083    0.077
        49  -9.2605     70.9330    120.1713   8.8631282328e+01   4.3184676384e+01    0.2667254    0.1956952  52.80  0.001090553    1.579    0.367
        50  -8.8971     63.2835    120.6439   9.1160134742e+01   4.4109805512e+01    0.1449668    0.1098172  81.22 0.0005191249    1.667    0.400
        51 -10.2300     76.9127    120.6325   8.6850428364e+01   4.2202180714e+01    0.4405192    0.3208294 -78.33  0.002091395    1.657    0.397
        52 -10.6773      3.9487    113.9174   1.0893477347e+02   5.1174899325e+01    0.5189046    0.2345839 -54.81  0.001761717    1.750    0.429
        53  -9.5295     81.5343    115.8114   8.4287628853e+01   4.2667161725e+01    0.2644135    0.2032714  33.91  0.000697242    1.376    0.273
        54  -9.9596     13.1860    113.1152   1.0592458222e+02   5.0820258775e+01    0.5500324    0.1963365 -52.67  0.002254558    2.197    0.545
        55  -8.7716     64.4803    114.1166   8.9369779674e+01   4.5552489007e+01    0.2208235    0.1302945 -54.61   0.00100847    1.530    0.347
        56  -8.7388     90.3316    113.2385   8.0909646408e+01   4.1851340149e+01    0.2670399    0.1834124  20.29 0.0008995401    1.722    0.419
        57  -8.5365     32.8514    112.7951   9.9502515945e+01   4.9391138988e+01    0.1982988    0.1559273 -39.98 0.0004050751    1.228    0.186
        58  -8.1050     20.6000    112.7092   1.0348428390e+02   5.0407599193e+01    0.1399402   0.08059973 -37.57 0.0003301635    1.796    0.443
        59  -8.6162     82.1494    111.0731   8.2951846395e+01   4.3704942959e+01    0.2324957    0.1887532 -25.39 0.0004868275    1.303    0.232
        60  -8.4131     26.6418    111.2989   1.0128127930e+02   5.0283628230e+01    0.1312401   0.09477664  67.49 0.0007035611    1.708    0.415
        61 -10.1255    128.5508    108.8660   6.8607472079e+01   3.5555655065e+01     0.266425    0.2292511  45.30 0.0006169188    1.185    0.156
        62  -9.1608     90.2060    107.7000   7.9551542554e+01   4.3173863377e+01    0.2575419    0.1954079  19.29 0.0008084649    1.480    0.324
        63  -9.6516     77.4358    107.4917   8.3588767265e+01   4.5288406830e+01    0.3278261    0.2321739 -32.26  0.001578407    1.485    0.326
        64 -10.0442     70.4951    104.4845   8.5133268824e+01   4.7028557180e+01     0.263456     0.225029  22.74  0.001442684    1.249    0.199
        65 -10.9825     65.2688    102.6108   8.6430213701e+01   4.8202647739e+01    0.5948124    0.4004343 -12.89  0.002367886    1.939    0.484
        66 -10.6279    113.9270    105.2412   7.1725289446e+01   3.9345001385e+01    0.4626246    0.3190553  -9.64  0.001902264    2.147    0.534
        67  -9.2051     13.7507    105.2483   1.0454657007e+02   5.2670978955e+01    0.3459886    0.1667467 -13.69  0.001529834    3.077    0.675
        68  -8.4919    161.4632    105.0156   5.9395245812e+01   2.9163060953e+01    0.2279176    0.1488183 -43.31 0.0003559752    1.500    0.334
        69  -8.7997     35.7075    104.9728   9.7073464718e+01   5.1025169599e+01     0.276825    0.1813729 -12.09  0.001099818    1.908    0.476
        70 -11.0609    111.9382    100.3253   7.0959592140e+01   4.0822401052e+01    0.5963125    0.3825015 -19.19  0.002381105    2.241    0.554
        71 -10.4963     72.4067     89.0683   8.0442046112e+01   5.0269654470e+01    0.4082508    0.3283496  58.94  0.001223414    1.592    0.372
        72 -11.5084     12.4112     67.6127   9.7782383788e+01   6.1322686003e+01    0.8293821    0.3922274 -10.54 0.0004877444    2.705    0.630
        73 -10.8496      4.2645     53.9206   9.7946834063e+01   6.4634331434e+01     1.556435    0.7564398  -9.71  0.007084745    2.347    0.574
        74 -11.7558     45.1349     96.7319   9.2028052287e+01   5.2039763739e+01    0.7231776    0.6361883 -74.32  0.004338107    1.245    0.197
        75  -9.4736    215.0272    249.2918   7.7806812476e+01  -7.8287055718e+00    0.1747755    0.1342738  12.77 0.0007677178    1.052    0.049
        76 -12.2264     30.9807     72.7898   9.1512122876e+01   5.8817998187e+01     1.194489    0.8960708 -26.19  0.002498642    1.227    0.185
        77 -10.5575    165.1211    248.5336   8.7504916984e+01  -5.6677705409e-01    0.3389753    0.1912902  30.51  0.001796045    1.546    0.353
        78  -9.1055    133.3345    247.6895   9.3925139622e+01   4.3855489416e+00    0.1297461   0.08897303  59.30 0.0007043718    1.678    0.404
        79 -11.9799    177.1728    242.5081   8.4163973625e+01  -1.4001556909e+00     0.672249    0.3619103  29.42  0.003443409    1.665    0.399
        80  -8.9914    245.2417    241.9899   7.1097935634e+01  -1.0710560464e+01    0.1477949   0.08538327 -30.67  0.000475809    1.609    0.379
        81 -11.0543     40.2852     61.7054   8.4562913668e+01   6.0204034818e+01    0.6333467     0.389698   9.71  0.003350089    1.802    0.445
        82 -11.2668     42.7585     53.8390   8.0998321594e+01   6.1452204216e+01     0.648055    0.3594104 -18.19  0.001232455    2.187    0.543
        83 -11.5800    135.7803     76.6183   5.7597296765e+01   4.0486310278e+01    0.7801538    0.5103701 -62.89  0.001210695    2.093    0.522
        84 -12.5994    140.2007     72.5664   5.5318420338e+01   4.0202508391e+01     1.530358    0.5134541  49.05 0.0006475328    2.856    0.650
        85 -10.6945     80.5531     99.9478   8.0639706066e+01   4.6557259512e+01    0.4788615    0.3208414  28.92 0.0005957243    1.595    0.373
        86 -10.4993     75.3287     98.5500   8.2008033530e+01   4.7692639774e+01    0.7670513     0.438738 -45.31  0.002778639    1.625    0.384
        87  -9.8734      5.4734    104.1508   1.0711581153e+02   5.3415943118e+01    0.1954938    0.1778406 -13.87  0.001294457    1.295    0.228
        88  -8.7030    144.9827    103.0349   6.2779444267e+01   3.3251932664e+01    0.2460347    0.1929675  -0.58 0.0004534081    1.653    0.395
        89 -12.0240    119.0530     99.0586   6.8561879441e+01   3.9657532780e+01    0.8733083    0.5394828 -62.48  0.003493079    2.184    0.542
        90 -10.1785    105.2057     97.7613   7.2245812827e+01   4.2697397775e+01    0.2572016    0.2053916 -25.71 0.0008364539    1.318    0.241
        91 -10.2518    112.6009     94.0569   6.9004283028e+01   4.2036912149e+01    0.3470356     0.276581  30.46 0.0003773454    1.296    0.229
        92 -10.4196    107.4824     94.0394   7.0511243735e+01   4.3058680060e+01    0.3483073    0.2326662  34.33 0.0009949397    1.557    0.358
        93  -8.1924    105.2761    103.6307   7.3838297870e+01   4.1385883926e+01    0.1530756    0.1221305 -84.50 0.0003140909    1.681    0.405
        94  -8.2664     29.5752    103.5326   9.8895275570e+01   5.1913708545e+01    0.1333878    0.1121205 -55.27 0.0001478036    1.014    0.014
        95  -9.4507     61.0652     98.0577   8.6749677536e+01   4.9830629963e+01    0.4663556    0.1757814 -45.38  0.001175022    2.439    0.590
        96  -9.6518     34.1703     99.1772   9.6437395424e+01   5.2548424180e+01    0.2117061    0.2017226 -49.35 0.0002734823    1.120    0.107
        97  -8.5990     14.8679     99.9209   1.0329665895e+02   5.3863998453e+01    0.1940157     0.136716 -50.64 0.0003393423    1.181    0.154
        98  -9.3696      3.3104     99.2973   1.0712369528e+02   5.4669501520e+01    0.4157436    0.1752045 -44.61  0.002030807    2.070    0.517
        99  -8.1935    142.8197     97.1900   6.1724100626e+01   3.4931860389e+01     0.210242    0.1808953   9.17 0.0004622299    1.332    0.249
       100  -8.8814     22.3702     96.9078   1.0014608886e+02   5.4056005755e+01    0.1943435    0.1679771  29.97 0.0006350235    1.373    0.272
       101  -9.2407     10.8949     97.1955   1.0420769233e+02   5.4749873442e+01    0.2674386    0.1599573 -12.62  0.001177524    2.051    0.512
       102  -9.2888     85.4544     94.2516   7.7485854364e+01   4.7038082337e+01    0.3519759    0.2968227  -8.52   0.00186204    1.255    0.203
       103  -9.9205    135.4677     93.3909   6.2528377149e+01   3.7330905872e+01    0.3759187    0.1417154  42.63  0.001175333    2.757    0.637
       104  -8.4971     55.2420    100.5932   8.9381032414e+01   4.9974243118e+01    0.1786113    0.1332981   4.49 0.0004000926    1.549    0.354
       105  -7.6344    178.6427     92.2816   5.2422885883e+01   2.7725683164e+01    0.1530884    0.1155726 -81.75 0.0007015903    1.666    0.400
       106 -11.3822    121.6563     87.5111   6.4533521357e+01   4.1508768322e+01     0.571183    0.4449868 -36.01   0.00282141    1.290    0.225
       107 -11.0880    114.3590     87.2954   6.6533876182e+01   4.3080029369e+01    0.6306576    0.3834017  61.78  0.001678632    2.306    0.566
       108 -10.3561    108.9446     88.9155   6.8594843958e+01   4.3846413602e+01    0.4164835    0.2761389 -16.23    0.0017463    2.083    0.520
       109 -10.8200    106.0746     86.6714   6.8793223363e+01   4.4878998051e+01    0.4589235    0.3604509  -2.91   0.00148018    1.506    0.336
       110  -8.9683     23.1003     89.8699   9.8498909618e+01   5.5641870182e+01    0.3829393    0.2267302 -29.05  0.002011383    1.773    0.436
       111  -9.0416    173.9751     87.0865   5.1994539137e+01   2.9753163912e+01    0.2130707    0.2091425 -74.92 0.0003310836    1.024    0.023
       112  -8.5382    177.4564     85.5061   5.0892269323e+01   2.9234492635e+01    0.2112391    0.1388276  44.61 0.0006234461    1.622    0.383
       113  -8.9219     15.0951     85.4004   1.0055752438e+02   5.7221429044e+01    0.2934983     0.263011 -54.51  0.001996959    1.119    0.106
       114  -8.3636      7.7977     87.4193   1.0362426345e+02   5.7188516544e+01    0.1601559     0.107295 -18.40 0.0005864472    1.642    0.391
       115  -9.8006    166.4398     84.9441   5.2962455254e+01   3.1890278669e+01    0.3095996    0.2153132  59.21  0.001451107    1.483    0.326
       116  -9.7627    161.8187     84.0648   5.3700740619e+01   3.3124760967e+01    0.2682338    0.2104083  68.52  0.000811669    1.376    0.273
       117 -10.2584    192.2227    234.0755   7.9792104390e+01  -2.2997443093e+00    0.2644754    0.2357536  36.36  0.001718681    1.301    0.231
       118  -8.7968    220.8970    239.6418   7.5138336388e+01  -7.2485473009e+00    0.2137547     0.148103 -16.11  0.001318541    1.343    0.255
       119 -11.7762    169.8846     77.1995   5.0168501200e+01   3.2464384786e+01      0.81111    0.5394794  67.37  0.001224022    1.655    0.396
       120  -9.3937      8.1791     75.8969   1.0128886655e+02   5.9761307441e+01    0.3000959    0.2282266  35.73  0.001930174    1.658    0.397
       121  -9.2533      7.4842     80.5214   1.0246795642e+02   5.8768250923e+01    0.3703337    0.1703434 -20.29  0.001746694    2.683    0.627
       122  -9.7746     15.3227     75.2203   9.8339635311e+01   5.9488151612e+01    0.2909817    0.2410046  36.58  0.001237318    1.512    0.338
       123 -10.3934    187.1138     72.4814   4.5740210400e+01   2.9240888654e+01    0.3092336    0.1900638 -32.50  0.001400907    1.731    0.422
       124  -9.8134    160.9479     74.0761   5.1124674852e+01   3.5102723891e+01    0.2215224    0.2150856  70.04 0.0003419477    1.017    0.017
       125 -11.1412    193.4921     71.0710   4.4312298348e+01   2.8000496414e+01    0.3274333    0.3129943 -23.51  0.001938195    1.182    0.154
       126 -11.5096    168.9797     67.4354   4.7688476387e+01   3.4320999252e+01    0.9497764     0.558603 -82.73  0.003445039    3.202    0.688
       127  -9.9396    173.3966     66.1855   4.6521875218e+01   3.3479504103e+01    0.3094755    0.2767788 -39.47  0.001148112    1.154    0.134
       128 -11.5293     29.9316     60.8106   8.8631660236e+01   6.1417842334e+01     0.901874    0.5753974  29.37  0.002684534    1.765    0.433
       129  -9.6328    177.9673     68.2683   4.6248673135e+01   3.2065836911e+01    0.2466655    0.2106238 -32.46 0.0003993622    1.244    0.196
       130  -8.7524     44.3317     68.9412   8.5100883674e+01   5.8285015853e+01     0.292278    0.1678483  -2.51  0.001339153    2.340    0.573
       131 -11.0866    186.1754     47.0800   3.9354261025e+01   3.3326578507e+01    0.6576745    0.3854628 -13.17  0.002760509    2.905    0.656
       132 -10.5187    174.9051     56.2603   4.3578487840e+01   3.4663776739e+01    0.5536061    0.3385742 -10.13  0.002259304    2.838    0.648
       133 -11.3406    179.9694     50.9422   4.1319752299e+01   3.4243393986e+01     0.896562    0.2624797 -33.83  0.003039293    3.529    0.717
       134  -8.7049    176.9766     45.9935   4.0485960328e+01   3.5648763427e+01    0.2110858    0.1941725  80.32 0.0003999291    1.029    0.028
       135  -8.7640    167.9792     59.7022   4.5752000828e+01   3.5785715262e+01    0.2016627    0.1756223  70.36  0.000386173    1.108    0.098
       136 -12.1146    200.9910     57.6249   3.9828433755e+01   2.8375557345e+01     1.097583    0.3134829  62.20    0.0037235    3.566    0.720
       137  -9.9745    213.6834     56.0950   3.7732883049e+01   2.5751656996e+01    0.1883504    0.1615122 -54.23 0.0005319706    1.096    0.088
       138  -8.6891    238.0000    219.9969   6.8607642505e+01  -6.6825313954e+00    0.2002798   0.06288011 -38.74 0.0008108535    3.001    0.667
       139 -11.4548    128.1188     80.0746   6.0588738893e+01   4.1557459407e+01    0.6790203    0.4593548 -41.90            0    1.496    0.332
       140  -8.8159     23.6497     44.0078   8.6146636600e+01   6.5233419071e+01     0.197276    0.1631164  25.45 0.0007806582    1.455    0.313
       141  -9.6005     29.9470     42.9982   8.2896554176e+01   6.4828550858e+01    0.2228812    0.1836539   0.21 0.0003475838    1.160    0.138
       142  -9.5589     25.2394     39.1081   8.3703104090e+01   6.5975781071e+01    0.2875896    0.2175076 -25.44 0.0007468407    1.059    0.056
       143 -10.9779     31.0010     37.4795   8.0408632240e+01   6.5689522864e+01    0.2492437    0.2027935  -4.42 0.0005046936    1.099    0.090
       144 -10.2079    219.6545    218.4514   7.1734930999e+01  -3.8666036079e+00    0.2228234    0.1896665 -17.83 0.0006525541    1.151    0.131
       145 -10.5691    111.3474     35.9182   5.0725878050e+01   5.2338573501e+01    0.6571352    0.5175757 -18.95  0.002944619    1.369    0.270
       146  -9.6408    163.9528     36.6609   4.0048159225e+01   3.9989728748e+01    0.2515963    0.1916054 -49.95 0.0006451758    1.368    0.269
       147  -9.6855    120.4837     31.6916   4.7042303178e+01   5.0828302868e+01    0.2932834    0.2542769 -75.46 0.0008540556    1.390    0.281
       148 -10.3594    212.8826    216.6465   7.2716236823e+01  -2.5749593706e+00    0.2516622     0.178856  20.82 0.0009052509    1.305    0.234
       149  -8.2257     55.9844    216.9172   1.0694264279e+02   2.1620295767e+01    0.1460177    0.1235415  72.01            0    1.004    0.004
       150  -9.2636    156.7531     30.4135   3.9473500052e+01   4.2476980122e+01     0.439054    0.1596546  69.22  0.001403775    3.090    0.676
       151  -9.7218    131.5184     30.1948   4.4123033457e+01   4.8470708184e+01    0.4536651    0.1717772  58.54  0.001811046    2.350    0.574
       152  -8.9541    125.5882     27.7608   4.4587271374e+01   5.0126237804e+01    0.2165796    0.1480549 -60.64  0.001091941    1.941    0.485
       153  -8.7376    229.6488    203.2973   6.7091135215e+01  -2.8999649064e+00    0.1138934     0.106696  85.08 0.0004628999    1.687    0.407
       154 -10.1984    107.6242     25.1340   4.7864965663e+01   5.4459380271e+01    0.2787663    0.2367332  -4.07 0.0009915431    1.255    0.203
       155  -9.1092     16.3496    176.4165   1.1217570156e+02   3.5196812092e+01    0.4149062    0.1096522 -78.86  0.001411202    3.898    0.743
       156 -10.0099    132.1662     24.8265   4.2267093444e+01   4.8933250126e+01    0.2626513    0.1880897  35.99  0.001274076    1.448    0.309
       157  -9.5438      7.0419    175.5149   1.1426932403e+02   3.6173879441e+01    0.3487369   0.07678236 -59.17    0.0012941    3.673    0.728
       158  -9.9291     20.4161    173.0308   1.1090190657e+02   3.5649323173e+01    0.2306436    0.1428848  59.93  0.001278164    1.602    0.376
       159  -8.8088     32.2406     20.0003   7.2699101423e+01   6.8295965552e+01    0.2149611    0.1369577  12.12  0.001042878    1.448    0.309
       160  -9.7926      6.1339    166.5811   1.1376698897e+02   3.8353469316e+01    0.2250959    0.1363648 -88.09  0.001085592    1.398    0.285
       161 -10.0215      6.0694    158.1447   1.1306227796e+02   4.0372664933e+01    0.3211498    0.1486475 -71.61   0.00162952    1.716    0.417
       162  -8.9700     37.6353     15.6363   6.8188001490e+01   6.8211593026e+01     0.208238    0.1925955 -22.34  0.001512448    1.516    0.340
       163  -8.8126     84.9699     22.1991   5.3038355511e+01   5.9513596374e+01    0.4089697    0.1817249  45.45  0.001905013    1.953    0.488
