#   1 NUMBER                 Running object number                                     
#   2 MAG_AUTO               Kron-like elliptical aperture magnitude                    [mag]
#   3 X_IMAGE                Object position along x                                    [pixel]
#   4 Y_IMAGE                Object position along y                                    [pixel]
#   5 X_WORLD                Barycenter position along world x axis                     [deg]
#   6 Y_WORLD                Barycenter position along world y axis                     [deg]
#   7 A_WORLD                Profile RMS along major axis (world units)                 [deg]
#   8 B_WORLD                Profile RMS along minor axis (world units)                 [deg]
#   9 THETA_WORLD            Position angle (CCW/world-x)                               [deg]
#  10 FWHM_WORLD             FWHM assuming a gaussian core                              [deg]
#  11 ELONGATION             A_IMAGE/B_IMAGE                                           
#  12 ELLIPTICITY            1 - B_IMAGE/A_IMAGE                                       
         1  -9.8059     58.4607     15.4677   5.5185492379e+01   6.5849992268e+01    0.1279841    0.1085648  26.83 0.0001066284    1.030    0.029
         2 -10.1587     99.3222    206.6410   9.3688527835e+01   1.7646583393e+01    0.1479682    0.1016696  63.63 0.0007043954    1.771    0.435
         3  -9.7359    210.6885    201.3420   6.8014488542e+01   1.7625087058e+00    0.1126727    0.1048323 -70.68 0.0007045897    1.699    0.411
         4 -10.3599     88.2422    198.2599   9.5312000790e+01   2.1153904986e+01    0.2151217    0.1202831 -77.42 0.0007984798    2.413    0.586
         5  -9.7827    172.6682    191.3510   7.3812184740e+01   9.2328213346e+00    0.1329357    0.1139992  79.27 0.0007047378    1.775    0.437
         6 -10.3790    138.7623    189.7352   8.1259852010e+01   1.5119276873e+01    0.2189609    0.1232447 -62.04 0.0008891817    2.402    0.584
         7 -10.3883    120.5068    185.5140   8.5025155397e+01   1.9064954503e+01    0.3091475    0.1437351 -71.28 0.0008106384    5.787    0.827
         8 -10.2436    108.5192    185.0336   8.8025264587e+01   2.1124474785e+01    0.2073258    0.1320661 -88.33 0.0008101476    2.657    0.624
         9  -9.6294    203.6492    184.3225   6.6175314280e+01   5.6672557848e+00    0.1221635    0.1094392 -85.01 0.0007048332    1.749    0.428
        10 -10.4995     76.5053    175.4891   9.5139879012e+01   2.8309305081e+01    0.1465202    0.1363939  65.78 0.0001207787    1.055    0.052
        11 -10.3085    121.2322    169.2663   8.1852314809e+01   2.2660862860e+01    0.2335803    0.1276681 -64.13 0.0008843752    2.393    0.582
        12 -10.4375    138.8365    164.7160   7.6444050041e+01   2.0567422554e+01     0.286298    0.2087197 -82.11  0.001239992    2.132    0.531
        13 -10.4836     98.4158    165.2287   8.7274282387e+01   2.7489859040e+01    0.2132045    0.1472295 -71.85 0.0009489551    1.700    0.412
        14 -10.5668     79.9773    163.9703   9.2304130500e+01   3.0690054451e+01    0.3869369    0.1986505 -87.50  0.001145754    4.345    0.770
        15 -10.2634    177.3364    160.6658   6.6712313041e+01   1.4440890283e+01    0.1408709    0.1177324 -86.62 0.0004421838    1.742    0.426
        16 -10.4328     92.7720    160.1864   8.7942504411e+01   2.9652771367e+01    0.2672363    0.1583347  68.91 0.0009581989    2.834    0.647
        17 -10.3249    104.9391    157.6095   8.3992949297e+01   2.8260327056e+01    0.3100565    0.2128272 -78.88  0.001314556    1.978    0.494
        18 -10.2315    167.6657    157.3278   6.8097425585e+01   1.6866784097e+01    0.1446033    0.1200539  89.79 0.0007051795    1.720    0.419
        19 -10.5634     49.4039    155.1738   1.0001472077e+02   3.7057345664e+01    0.2100078    0.1323453 -83.47 0.0009487372    1.734    0.423
        20 -10.4683     81.4114    154.2393   9.0168644338e+01   3.2940310089e+01    0.2190285    0.1453973 -74.96 0.0009514194    1.753    0.430
        21 -11.1800    107.2506    145.3428   8.0805247137e+01   3.0846752733e+01    0.5274637    0.3163166  69.66  0.001792047    3.195    0.687
        22 -10.5642     38.7810    147.2017   1.0216045181e+02   4.0327788900e+01    0.2539642    0.1267543  63.19 0.0009525897    2.792    0.642
        23 -10.5884    148.6041    145.0076   6.9793288838e+01   2.3090771086e+01    0.3778877    0.2435024 -79.20  0.001327259    3.250    0.692
        24 -10.8244     55.3397    145.1201   9.6603122282e+01   3.8958459427e+01    0.4060062    0.2349385  79.28    0.0015647    2.602    0.616
        25 -10.6845    124.7560    142.7717   7.5374078091e+01   2.8210258747e+01    0.4721453    0.2360297 -66.96  0.001399119    3.936    0.746
        26 -11.1321     87.7631    143.4973   8.6172700808e+01   3.4659299844e+01     0.373923    0.2217797 -78.33  0.001390756    2.531    0.605
        27  -9.8992     81.3079    139.6534   8.7375775472e+01   3.6674825704e+01    0.1591632    0.1187172  73.40 0.0003812972    1.701    0.412
        28 -10.7867     23.3370    138.2400   1.0588187544e+02   4.4145525438e+01    0.3889406    0.1758302  74.21  0.001337792    3.583    0.721
        29 -10.2169    231.6729    133.6767   5.1182010057e+01   9.9819706399e+00    0.1305645   0.09412285  -8.69 0.0005743912    1.691    0.409
        30 -11.4265     83.4079    132.0662   8.5111166536e+01   3.8261887552e+01    0.4646457    0.3219832  78.93  0.001842711    2.126    0.530
        31 -10.8263    131.5146    131.0030   7.0828679938e+01   2.9592837823e+01    0.2465971    0.1521192 -48.57  0.001035881    1.613    0.380
        32 -10.4968     12.8496    129.5580   1.0824416433e+02   4.7219906253e+01    0.2761156    0.1460517  65.60  0.001206387    2.332    0.571
        33 -11.3528     98.4733    126.6327   7.9168297135e+01   3.7002671358e+01    0.7596471    0.3573792 -64.23  0.002450514    3.117    0.679
        34 -10.3252     73.0228    129.5110   8.7914791806e+01   4.0552822931e+01    0.2204188    0.1175877  53.58 0.0008095036    2.466    0.595
        35 -10.9373     59.3940    124.3644   9.1419667589e+01   4.3836166692e+01    0.5321038    0.2960516  83.48  0.001711494    3.838    0.739
        36 -10.3428    117.4800    125.4999   7.3306185500e+01   3.3654626571e+01    0.1547385     0.153115 -70.19 6.598731e-05    1.052    0.049
        37 -11.3480     43.3254    122.2658   9.6612154605e+01   4.6369396168e+01    0.8415069    0.4058504 -87.07  0.002690097    3.879    0.742
        38 -11.0575     28.6991    122.8464   1.0187288141e+02   4.7700292479e+01    0.3875806    0.1905802  77.34  0.001336043    3.578    0.721
        39 -10.6804     70.8867    119.7774   8.6489625669e+01   4.3352861370e+01     0.296611    0.2043366  88.70  0.001243532    2.116    0.527
        40 -10.7939      2.4938    116.1669   1.1018971075e+02   5.1308697878e+01     0.540858    0.1929493  86.80  0.001692113    4.524    0.779
        41 -11.0269    108.6634    112.9333   7.2660471463e+01   3.8311086766e+01    0.6489526    0.3079295 -61.93  0.002029427    3.362    0.703
        42 -11.2099     78.7777    112.1696   8.1988768177e+01   4.3986217123e+01    0.6546133    0.3638783 -78.98  0.002003042    4.045    0.753
        43 -11.2774     92.4439    112.5013   7.7557995283e+01   4.1513813502e+01    0.5314998    0.3255865 -70.40   0.00203218    2.381    0.580
        44 -10.5331     66.7780    111.1824   8.5911241472e+01   4.6131131272e+01    0.2602245     0.161714  71.06 0.0009584983    2.858    0.650
        45 -10.8340     13.8411    110.6905   1.0536294919e+02   5.2025129716e+01     0.307334    0.1426202  81.61  0.001098825    3.476    0.712
        46 -11.7916     45.7257    102.6509   9.1690550450e+01   5.1107163899e+01    0.7587374    0.3824517  65.72  0.002100139    5.781    0.827
        47 -11.1552     24.1606    103.8265   1.0030077191e+02   5.2997640133e+01    0.3799165    0.1805176  69.79  0.001163662    4.941    0.798
        48 -10.4189    150.0000    103.0082   5.9133840871e+01   3.1665404177e+01    0.2583311   0.08469646 -41.58 0.0008077573    2.979    0.664
        49 -10.1512      6.4012    102.6202   1.0697743255e+02   5.4539811848e+01    0.2661557     0.111753 -89.72 0.0009580399    3.362    0.703
        50 -11.0225     81.7258     99.1020   7.7541384482e+01   4.6601619448e+01    0.4438911    0.2193881 -62.70  0.001532506    2.872    0.652
        51 -11.4369     63.2875     95.9637   8.3327147019e+01   5.0367751910e+01    0.5870508    0.3630626 -86.65  0.002088645    3.367    0.703
        52 -10.7477     94.6160     96.8890   7.2611586171e+01   4.4714778132e+01    0.3129673    0.2011006 -62.05  0.001303561    1.939    0.484
        53 -11.1633    124.9931     91.3205   6.2058835772e+01   3.9545644322e+01     0.290886    0.2237724 -70.64  0.001347204    1.635    0.388
        54 -11.6309    109.3504     99.3251   6.8745739503e+01   4.1221873321e+01    0.6970797    0.4819236  86.72  0.002700565    2.584    0.613
        55 -11.0462     34.5590     89.4073   9.3065986972e+01   5.5616910864e+01    0.4803122    0.2220855 -73.25  0.001747649    3.086    0.676
        56 -10.9345     86.3426     86.8074   7.2387148657e+01   4.8517086141e+01    0.3173207     0.234262 -89.29  0.001364146    2.205    0.547
        57 -11.0178     49.1632     85.1988   8.5931277408e+01   5.4902881269e+01    0.5206978    0.3051361  68.23  0.001769029    4.112    0.757
        58 -11.3133    104.7937     83.6361   6.5481618990e+01   4.5474158836e+01    0.4902484    0.3141456 -76.38  0.001753653    3.156    0.683
        59 -11.3848     74.3480     80.2792   7.4623281924e+01   5.2117341589e+01    0.3629227    0.2383735 -71.15   0.00148981    2.456    0.593
        60 -10.3416      9.6610     81.3077   1.0199770307e+02   5.9621523281e+01    0.1279259    0.0968463  61.56 0.0005825125    1.682    0.406
        61 -10.8369    119.1484     79.7230   6.0178675129e+01   4.3114471860e+01    0.3089407    0.1708177 -52.89  0.001225601    2.138    0.532
        62 -12.2186     63.3406     72.4398   7.6321553870e+01   5.5649731442e+01    0.9718549    0.4071854 -54.61  0.003520404    2.881    0.653
        63 -10.4501    105.7153     71.7253   6.1444090505e+01   4.7587292623e+01    0.3036955    0.1789271 -60.33  0.001179046    2.520    0.603
        64 -11.0080     24.2904     80.4996   9.5340795543e+01   5.8736116997e+01    0.4067335    0.2266268  79.46  0.001449471    4.103    0.756
        65 -10.9820     51.1147     69.1680   8.0295791877e+01   5.8215665894e+01    0.5034657    0.1992186 -61.76  0.001453403    5.055    0.802
        66 -11.1294      7.5813     56.8890   9.7369201099e+01   6.5385454148e+01    0.3603182    0.1631014 -75.31  0.001450277    3.264    0.694
        67 -10.8096     44.1201     54.9651   7.8518746486e+01   6.2106297213e+01    0.3722726    0.2215747 -55.92   0.00176831    2.019    0.505
        68 -10.4921     54.3135     54.9683   7.3963955267e+01   6.0589294678e+01    0.2108893    0.1158271 -64.98 0.0007047046    4.310    0.768
        69 -10.4421     30.4225     50.6570   8.3581541460e+01   6.4691773184e+01    0.2421732    0.1273755 -66.17  0.000961882    3.319    0.699
        70 -10.9986      5.0129     41.5510   9.4272709854e+01   6.8794816409e+01     0.331616    0.1782183 -79.77  0.001400784    3.650    0.726
        71 -10.3326     80.3494     36.6712   5.6713317804e+01   5.8765006865e+01    0.1336017    0.1098547 -84.18 0.0007048764    1.763    0.433
        72  -9.8408    195.5021     31.5453   3.3020373625e+01   3.2653743928e+01     0.125715    0.1077589 -74.99 0.0001186376    1.017    0.016
