#   1 NUMBER                 Running object number                                     
#   2 MAG_AUTO               Kron-like elliptical aperture magnitude                    [mag]
#   3 X_IMAGE                Object position along x                                    [pixel]
#   4 Y_IMAGE                Object position along y                                    [pixel]
#   5 X_WORLD                Barycenter position along world x axis                     [deg]
#   6 Y_WORLD                Barycenter position along world y axis                     [deg]
#   7 A_WORLD                Profile RMS along major axis (world units)                 [deg]
#   8 B_WORLD                Profile RMS along minor axis (world units)                 [deg]
#   9 THETA_WORLD            Position angle (CCW/world-x)                               [deg]
#  10 FWHM_WORLD             FWHM assuming a gaussian core                              [deg]
#  11 ELONGATION             A_IMAGE/B_IMAGE                                           
#  12 ELLIPTICITY            1 - B_IMAGE/A_IMAGE                                       
         1 -15.4362    207.8269    111.0636   8.8301285463e+01   1.6869733700e+01     5.258135     2.118993 -50.74   0.01676201    3.371    0.703
         2 -14.5957    165.4139     87.6170   9.0486453307e+01   3.1403682240e+01      2.30078      1.15157 -58.92   0.00737125    3.243    0.692
         3 -14.3136    152.2403     64.6854   8.6494968198e+01   3.8797242728e+01     2.094372     1.205394 -71.42  0.006823485    3.540    0.717
         4 -14.7666    240.8087     70.1807   7.2983079686e+01   1.5964676116e+01      2.51857     1.197634 -52.22   0.01038184    2.276    0.561
         5 -14.2592    188.9534     81.4707   8.3990506159e+01   2.6628255730e+01      1.50501    0.8492934 -57.73  0.005776643    2.277    0.561
         6 -13.5761    220.2425     45.6721   6.9438571027e+01   2.4329951176e+01    0.8334089    0.5612579 -59.05  0.003809881    1.488    0.328
         7 -12.8000    189.3987     18.9159   6.6008708586e+01   3.5495484724e+01    0.5813135    0.4568144  51.49  0.001452225    1.321    0.243
         8 -12.0809     82.5453    230.0405   1.3633072906e+02   1.7901435775e+01    0.2641831    0.1381236  43.74  0.001492416    1.596    0.373
         9 -13.2672    143.4328    249.6198   1.2706706114e+02   5.3522917025e+00    0.8746849    0.1757807  37.84  0.002630742    5.462    0.817
        10 -11.1495     99.5889    250.5305   1.3508214636e+02   1.1926581365e+01    0.2329619   0.08896497  42.26  0.001172207    2.040    0.510
        11 -19.3472     24.8671    138.7477   1.3970109923e+02   4.4325445977e+01     18.85927     1.930172 -71.94   0.04066071   10.091    0.901
        12 -12.6925     72.3909    230.5374   1.3827313452e+02   1.9229810305e+01    0.3210676    0.1787669  72.73  0.001650466    1.791    0.442
        13 -11.9332     96.1516    226.6722   1.3340997632e+02   1.6515395042e+01    0.2057015    0.1222814  56.16 0.0007906936    1.415    0.294
        14 -10.9486    250.0000    229.9860   1.0527338166e+02  -8.8027992854e+00    0.1684732   0.06020004 -31.83 0.0008027409    2.945    0.660
        15 -12.1613     58.4420    220.7739   1.4007693917e+02   2.2905606368e+01    0.2955989   0.09830405  52.44  0.001363612    2.509    0.601
        16 -11.1499      9.8141    214.5006   1.4856995618e+02   2.9576789705e+01    0.2151034      0.17799 -82.04  0.001538687    1.412    0.292
        17 -13.6583     85.5481    204.8601   1.3318562464e+02   2.2262848981e+01    0.9412088    0.4583548  73.15   0.00395037    3.022    0.669
        18 -14.3744     73.9052    196.7783   1.3472824694e+02   2.5600102579e+01     1.052361    0.6437386  72.16  0.003795995    1.629    0.386
        19 -12.4449    244.2496    203.7399   1.0168233931e+02  -4.8076326808e+00    0.4508103    0.3334173  44.95  0.002801701    1.581    0.367
        20 -12.1812     58.5441    201.9657   1.3843297345e+02   2.6608589103e+01    0.2564222    0.1961389  87.27  0.000892222    1.148    0.129
        21 -12.3688    249.6941    192.6592   9.8707312181e+01  -4.2347359543e+00    0.6120542    0.2068954 -35.00  0.002606112    2.913    0.657
        22 -14.6652     84.6390    182.6532   1.3070562261e+02   2.7022204665e+01     1.559681     0.850225  68.77  0.004943602    2.204    0.546
        23 -12.0317     87.9696    177.0309   1.2919340681e+02   2.7734629614e+01    0.3023716    0.2859558 -28.55  0.000837641    1.400    0.286
        24 -12.4450    196.7433    177.4112   1.0540322368e+02   7.4825397250e+00    0.6984997    0.5337081   7.69  0.003105753    1.473    0.321
        25 -12.4014    200.4047    181.7067   1.0552502995e+02   6.0624297691e+00    0.5328742    0.4573427 -24.55  0.002840435    1.212    0.175
        26 -14.1977    177.8628    170.9539   1.0796247245e+02   1.2359699536e+01     1.439188    0.9695284 -42.07  0.007117461    1.589    0.371
        27 -11.4873     94.2852    167.2467   1.2627966580e+02   2.8898109727e+01    0.2523627    0.2113713  74.66 0.0004382597    1.105    0.095
        28 -12.7562    180.8434    161.6011   1.0542845753e+02   1.3486704508e+01    0.6047874    0.4368362 -39.47   0.00295197    1.454    0.312
        29 -12.9077     83.3309    162.6533   1.2821511780e+02   3.1660790948e+01    0.3754404    0.3320704 -47.34  0.001172725    1.348    0.258
        30 -12.4219     99.4752    159.4227   1.2375967553e+02   2.9798466655e+01    0.5044168    0.3363521 -33.16  0.002321907    2.215    0.548
        31 -13.2936    186.9744    151.0996   1.0189426975e+02   1.4163493806e+01    0.7767318    0.6009217  47.79  0.002601972    1.275    0.215
        32 -12.8218    199.1877    146.7686   9.8456043248e+01   1.2362359831e+01    0.8318282    0.6814801  55.55  0.004366687    1.313    0.238
        33 -14.6079    194.7794    126.8873   9.4695964024e+01   1.6976332781e+01     2.326474     1.066877 -43.49   0.00782645    2.207    0.547
        34 -12.8773     77.7489    152.0786   1.2797251106e+02   3.4933418276e+01    0.5841067    0.3972099 -49.84  0.003045707    1.596    0.374
        35 -12.4988    138.5955    151.5771   1.1278770628e+02   2.4241420403e+01    0.6849298    0.3859446  62.23  0.002665072    2.362    0.577
        36 -13.2925     68.7115    143.9692   1.2901592642e+02   3.8125467644e+01    0.7317156    0.3758461  65.95    0.0029865    2.707    0.631
        37 -11.9997    136.0044    137.9982   1.1050318157e+02   2.7717742371e+01    0.4927982    0.3817433  -2.05  0.002257896    1.866    0.464
        38 -11.3057     98.3330    143.5970   1.2122049312e+02   3.3620076451e+01     0.239998    0.2345481 -55.27 0.0004633533    1.153    0.133
        39 -10.8457    178.2044    141.0000   1.0146849407e+02   1.7986568854e+01    0.2772787    0.2230163  44.62  0.001199589    1.212    0.175
        40 -14.9875    175.5868     69.5773   8.3133847349e+01   3.2037770883e+01     2.095072     1.192461 -65.71  0.007483875    2.779    0.640
        41 -12.2925    132.8195    247.1035   1.2871832670e+02   7.4054676074e+00    0.2750328     0.139955  39.45 0.0009604654    1.616    0.381
        42 -11.2923     47.1305    131.2172   1.3282678021e+02   4.3848739627e+01    0.2893575    0.1535982  41.77  0.001404452    1.973    0.493
        43 -10.1614    104.3182    129.0161   1.1668665362e+02   3.5946957410e+01    0.2098314     0.185934 -60.28 0.0006415892    1.101    0.091
        44 -13.3897    163.0821    118.1413   9.9283830782e+01   2.5968327671e+01      1.21519    0.8236871 -78.59  0.004761284    2.375    0.579
        45 -12.9569    169.5653    114.8380   9.6981639809e+01   2.5123043168e+01      0.91685    0.6033632 -70.93  0.003586397    2.324    0.570
        46 -12.3953    180.7821    116.4442   9.4972307212e+01   2.2178512878e+01    0.5019305    0.2968654  50.87  0.002105763    1.695    0.410
        47 -12.4761    228.2080    108.6176   8.4184092803e+01   1.2702746870e+01     0.648598    0.4513117 -41.60  0.003227363    1.366    0.268
        48 -10.7818    237.0164    105.4798   8.2037500873e+01   1.1305277924e+01    0.2365915    0.1846354 -34.33  0.001265041    1.180    0.152
        49 -11.1243    238.4891    244.4980   1.0951504234e+02  -8.7425601713e+00    0.2057742    0.1043532 -29.65  0.001215693    2.182    0.542
        50 -11.5380    120.6022    249.3911   1.3119163401e+02   8.9539384801e+00    0.2154345    0.1698043  43.39 0.0007860395    1.159    0.137
        51 -12.6372    243.0095     86.8691   7.6713370469e+01   1.2947825337e+01    0.7966889    0.5114664 -47.43  0.003238523    1.484    0.326
        52 -12.1746     89.6816    244.4648   1.3631535789e+02   1.4360721073e+01    0.2228298    0.1689722  60.59 0.0001773705    1.025    0.025
        53 -12.2365    228.8275     90.6928   7.9697057177e+01   1.5499406919e+01    0.7385893    0.4829313 -63.04   0.00336581    1.901    0.474
        54 -11.7514    143.8252     68.5208   8.9647153336e+01   4.0220285169e+01    0.3745878    0.2948475  70.04  0.001794736    1.400    0.286
        55 -12.4941    213.7453     61.6535   7.4497041450e+01   2.3634188882e+01    0.8513089    0.4851873 -68.05   0.00339675    2.420    0.587
        56 -13.0712    204.1085     50.9378   7.3003475902e+01   2.7618509289e+01    0.7811339    0.7114872 -50.51  0.004397233    1.077    0.071
        57 -10.7678    104.0593    238.0321   1.3307095263e+02   1.3328963051e+01    0.1831306    0.1430171  56.59  0.000442217    1.012    0.012
        58 -12.9966    241.3421     49.3827   6.7889373184e+01   1.8814923458e+01    0.5933268    0.3720161  82.59  0.002962417    1.772    0.436
        59 -11.4870     85.5188    235.0086   1.3622969363e+02   1.6588026483e+01     0.192201    0.1249621  73.77 0.0009359146    1.471    0.320
        60 -11.8193    240.4487     38.4777   6.5366901243e+01   2.0475136348e+01     0.669927    0.3573801 -72.07  0.002948612    2.307    0.567
        61 -11.6079    171.5143     39.5266   7.4784972020e+01   3.7649125444e+01    0.2702473    0.2462893  71.40 0.0007922621    1.038    0.037
        62 -12.9775    185.0286     30.2288   6.9870790489e+01   3.5309942221e+01    0.5815808    0.3992023 -74.86   0.00279954    1.622    0.384
        63 -11.6515    249.0728     24.1742   6.1220491193e+01   2.0297163135e+01    0.4149702    0.2117112 -48.29  0.002074738    1.698    0.411
