#   1 NUMBER                 Running object number                                     
#   2 MAG_AUTO               Kron-like elliptical aperture magnitude                    [mag]
#   3 X_IMAGE                Object position along x                                    [pixel]
#   4 Y_IMAGE                Object position along y                                    [pixel]
#   5 X_WORLD                Barycenter position along world x axis                     [deg]
#   6 Y_WORLD                Barycenter position along world y axis                     [deg]
#   7 A_WORLD                Profile RMS along major axis (world units)                 [deg]
#   8 B_WORLD                Profile RMS along minor axis (world units)                 [deg]
#   9 THETA_WORLD            Position angle (CCW/world-x)                               [deg]
#  10 FWHM_WORLD             FWHM assuming a gaussian core                              [deg]
#  11 ELONGATION             A_IMAGE/B_IMAGE                                           
#  12 ELLIPTICITY            1 - B_IMAGE/A_IMAGE                                       
         1 -12.7940    248.5523    101.7305   6.5814752037e+01   9.0900825031e+00     1.033842    0.5867671 -22.61  0.004583985    1.815    0.449
         2 -13.6118     12.3033    103.9384   1.2098044417e+02   5.1719468333e+01    0.7796419    0.6193051 -73.25  0.005878901    1.088    0.081
         3 -13.6095      3.5174    121.5735   1.2497488742e+02   4.8570558784e+01    0.9081156     0.554496  63.60  0.006229122    1.651    0.394
         4 -13.3442    204.5170     33.9273   5.4180263343e+01   2.9828442019e+01     1.301851    0.9387358 -31.14  0.005060345    1.389    0.280
         5 -12.6429      2.8093     16.7197   1.0635453839e+02   6.9955136755e+01    0.9306748    0.2106097 -57.24  0.003963281    3.424    0.708
         6 -12.5744      3.9699      4.7985   1.0141217738e+02   7.1936081379e+01    0.6901527    0.5002274 -11.85  0.005410012    1.365    0.267
         7 -13.8124    223.6948     16.0079   4.6649011939e+01   2.7013145787e+01     1.175559    0.9528065  29.78  0.001891086    1.460    0.315
         8  -8.7677     66.3217    239.6377   1.2291418386e+02   1.9590508071e+01     0.113469    0.0559408  68.75 0.0007041625    1.779    0.438
         9 -11.0495    184.5260    249.1605   1.0502392252e+02   5.9747405127e-01    0.3401352    0.1922596  22.53  0.001846212    2.596    0.615
        10 -12.0081    176.2118    249.7462   1.0643108556e+02   1.8610743246e+00    0.6549383    0.2358875  34.33  0.002708583    3.688    0.729
        11 -11.4178    142.8854    248.5780   1.1165041548e+02   7.2932911302e+00    0.4220456    0.2352505  69.60  0.002394609    2.361    0.576
        12 -12.5553    135.3413    236.9866   1.1164198506e+02   1.0088136799e+01    0.7326049    0.4455484 -53.95  0.004739162    2.081    0.519
        13 -11.5521    124.8475    240.6095   1.1374055022e+02   1.1197369517e+01    0.4353424    0.1671236  43.30  0.002256195    2.147    0.534
        14 -12.4443    123.4100    247.5945   1.1465652463e+02   1.0416665759e+01    0.6097129    0.4201684  56.66  0.004441405    1.079    0.074
        15 -10.8339    110.2278    247.6796   1.1674422084e+02   1.2359067573e+01    0.3139802    0.1948755  49.65  0.001526613    1.256    0.204
        16 -11.3941     99.9532    247.9969   1.1837388414e+02   1.3789192355e+01    0.3890219     0.291721  63.87  0.002720561    1.057    0.054
        17 -11.6823    113.5130    230.6044   1.1459834337e+02   1.4433573621e+01    0.4624307    0.3103864  34.87  0.002866402    1.799    0.444
        18 -10.9924     97.4270    239.3269   1.1803448276e+02   1.5449572968e+01    0.3204457    0.1744353  67.60  0.001807949    1.723    0.420
        19 -12.8398    102.9475    237.9240   1.1702674883e+02   1.4871151440e+01    0.7324077    0.5358025 -57.23  0.004232445    1.813    0.448
        20 -11.1422    102.4266    231.2782   1.1649933844e+02   1.5981255389e+01    0.2467981    0.2015594 -76.99  0.001041253    1.391    0.281
        21 -10.2753     98.5403    231.2193   1.1713216543e+02   1.6556119258e+01    0.2064175    0.1839914  64.00 0.0009532985    1.321    0.243
        22 -11.6050     87.7021    248.4929   1.2029794167e+02   1.5416374297e+01    0.4686988    0.2670096  55.58  0.001715832    1.280    0.219
        23 -10.2054     81.5790    248.0072   1.2119253189e+02   1.6313712529e+01    0.2718777    0.1242247 -76.16  0.001669267    2.499    0.600
        24 -11.4196     82.7281    240.0867   1.2041440839e+02   1.7371408661e+01    0.4657296     0.185557  57.54 0.0009510488    2.076    0.518
        25 -10.3630     84.1714    230.2859   1.1939086639e+02   1.8732184576e+01    0.3640924     0.176751 -75.35   0.00217467    2.265    0.559
        26 -10.7767     90.9792    241.6996   1.1925290808e+02   1.5992214852e+01    0.2508842    0.1599665  56.64  0.001077669    1.165    0.141
        27 -11.4862     68.3593    245.7406   1.2302506871e+02   1.8380776721e+01     0.309268    0.2670944  56.01  0.002580471    1.511    0.338
        28  -9.2623     56.7703    250.4023   1.2503127924e+02   1.9107016606e+01    0.2136094    0.1564629 -76.75  0.001689887    1.576    0.365
        29 -10.5955     60.3194    247.3304   1.2432371546e+02   1.9142528466e+01    0.1839914    0.1416067  59.20 0.0007989407    1.298    0.230
        30 -10.9268     58.6946    244.6634   1.2439511151e+02   1.9753568522e+01    0.2283852    0.1768765 -66.69    0.0018809    1.778    0.437
        31 -14.8343     24.2700    220.1316   1.2812082312e+02   2.7664864718e+01     1.304552     1.089796  80.76   0.01161398    1.393    0.282
        32 -14.0022      8.9072    210.7890   1.2997934961e+02   3.0784642660e+01     2.200851    0.8166167 -81.56   0.01364265    2.195    0.544
        33 -12.2889     38.5806    206.5113   1.2502488358e+02   2.8518413573e+01    0.6396212    0.4098212  58.15  0.004734772    1.287    0.223
        34 -12.3533    119.8076    236.2355   1.1412383907e+02   1.2614324807e+01    0.6736966    0.5114272 -19.24  0.001392862    2.911    0.657
        35  -9.4407     54.9889    235.4942   1.2436276090e+02   2.1656833803e+01    0.2038743   0.09719111  67.22  0.001305899    1.754    0.430
        36  -9.6805     76.9878    232.6149   1.2073245562e+02   1.9326687577e+01    0.2886119     0.126838  85.72  0.001400713    3.381    0.704
        37 -10.2330    249.6050    230.7978   9.1951186687e+01  -7.8277158591e+00    0.1359172    0.1023016 -31.18 0.0009552727    1.708    0.415
        38  -9.8525     56.5994    228.3427   1.2363432459e+02   2.2632273510e+01    0.2024427    0.1314688  85.61 0.0009518855    1.292    0.226
        39 -10.7002     79.3363    225.3365   1.1976210128e+02   2.0204646492e+01    0.2882037    0.1753415 -75.82  0.001483965    1.664    0.399
        40 -11.3869     90.3010    223.4975   1.1778781157e+02   1.8990990314e+01    0.4354233    0.3157282 -69.35  0.003136577    1.536    0.349
        41 -10.6586     74.1325    237.1514   1.2153005459e+02   1.8977280465e+01    0.2418329    0.1402645 -73.66 0.0009945137    1.791    0.442
        42  -9.2808     65.0704    224.2442   1.2199168604e+02   2.2261393762e+01    0.2227641    0.1177784 -48.02  0.001179862    3.778    0.735
        43  -8.7172     45.6464    225.2191   1.2513468692e+02   2.4458936069e+01    0.1243829   0.07922476 -75.93 0.0004892048    1.548    0.354
        44 -10.1922     98.8835    223.8963   1.1638661339e+02   1.7688935174e+01    0.1599966    0.1372617  59.53 0.0006837382    1.250    0.200
        45 -10.0883     70.5318    218.9470   1.2068105255e+02   2.2457225918e+01    0.2753465    0.1719171 -85.76  0.001698443    1.494    0.331
        46  -9.9828     60.2920    220.2332   1.2246088907e+02   2.3544855222e+01    0.1584241     0.134042  69.12 0.0003714625    1.306    0.234
        47 -10.2569    153.8273    229.9663   1.0773076823e+02   8.0997942133e+00    0.1912461    0.1369187  49.27 0.0003658966    1.093    0.085
        48 -11.4468    132.6646    249.0489   1.1332883928e+02   8.8090530930e+00    0.6428208    0.2263545  53.80  0.003148656    2.502    0.600
        49 -10.4275    107.7901    216.9827   1.1416339144e+02   1.7503309207e+01    0.3759396    0.1644332  60.45  0.001296376    2.401    0.584
        50  -9.9296     50.9081    218.6155   1.2385895467e+02   2.4966418746e+01    0.2707799    0.1332747  73.88 0.0008678201    1.854    0.461
        51 -10.2910     46.3420    214.5223   1.2430964554e+02   2.6215093431e+01    0.2816578     0.110579  58.83  0.001597224    2.130    0.531
        52  -9.4622    116.2772    216.3486   1.1261355746e+02   1.6294900365e+01    0.2125128    0.1570857  32.79 0.0008462316    1.695    0.410
        53  -9.9562     87.7709    211.3449   1.1707089410e+02   2.1422749597e+01    0.3000288    0.1888657 -67.61  0.001721522    1.668    0.400
        54  -9.3381     58.5316    212.5175   1.2215893246e+02   2.5105781445e+01    0.1952545    0.1008293  54.56 0.0006877917    1.558    0.358
        55 -10.0107     55.8954    209.0221   1.2232669105e+02   2.6051089928e+01    0.3034574    0.1384121 -71.79  0.001808435    2.066    0.516
        56  -9.7830    110.8787    211.3651   1.1300737905e+02   1.7975368152e+01    0.1815425    0.1363149  83.38 0.0004605018    1.288    0.224
        57  -9.6589     99.2397    209.7575   1.1489590305e+02   2.0027818619e+01    0.2557725    0.1366997  71.02 0.0009920537    2.112    0.527
        58  -9.9719    246.6744    206.1679   8.8326060938e+01  -4.7714281783e+00    0.2876506    0.1054159  29.74  0.001110165    3.469    0.712
        59  -8.9124    113.8129    204.4070   1.1167416448e+02   1.8714267274e+01    0.1890095   0.09022694 -64.32  0.000492567    2.388    0.581
        60  -9.5366    106.4922    203.2962   1.1287785841e+02   2.0059636601e+01    0.2215372    0.1336708 -83.18  0.000904796    1.932    0.482
        61 -10.6986     63.0449    208.9869   1.2111490410e+02   2.5167871987e+01    0.3723362     0.317819 -13.81  0.002569292    2.476    0.596
        62  -8.8288     72.5155    203.4267   1.1898789312e+02   2.4940766454e+01    0.1158468   0.08564691  71.74 9.192382e-05    1.049    0.047
        63 -13.7930      6.6206    244.9708   1.3176947986e+02   2.5390703824e+01     1.042304    0.5818778  66.57  0.008817875    1.165    0.142
        64  -8.8315     96.8102    199.2116   1.1418351189e+02   2.2270750315e+01    0.1421947    0.1319857  67.91 0.0003309934    1.295    0.228
        65 -13.8031     27.1746    247.0510   1.2905261075e+02   2.2987739447e+01     1.645496    0.7544104  38.31   0.01089389    2.589    0.614
        66  -9.1637    100.2895    198.3129   1.1344055559e+02   2.1908829758e+01    0.1008315    0.0967472  -9.81 0.0002345626    1.586    0.370
        67  -9.5551    250.0025    193.7817   8.5552358581e+01  -3.9091605444e+00    0.1871485    0.1215468   5.91  0.001057596    1.629    0.386
        68 -11.9198     51.5411    192.1638   1.2170399174e+02   2.9682326476e+01    0.3838892    0.2823124  86.07   0.00152109    1.088    0.081
        69  -8.7725     25.8256    192.4420   1.2620717128e+02   3.2450277190e+01    0.1653686    0.1025427 -79.67  0.001189591    1.360    0.265
        70  -8.7939     21.7093    193.3014   1.2695822135e+02   3.2700402066e+01     0.153212    0.0975282  86.91  0.000287884    1.174    0.148
        71  -9.9716     19.0198    188.5483   1.2711000706e+02   3.3848495938e+01     0.279155    0.1159961 -86.05  0.001624926    2.049    0.512
        72  -9.1633    191.5772    191.6779   9.5382135158e+01   7.0137327261e+00    0.1511901    0.1275669 -53.34 0.0005779888    1.446    0.309
        73  -8.4388     38.6363    192.3058   1.2399217332e+02   3.1127931260e+01    0.1183488   0.05983033  68.53 0.0007037956    1.739    0.425
        74  -9.8728     30.8543    193.3099   1.2540919518e+02   3.1771974200e+01    0.1833692    0.1144589 -84.96 0.0006691781    1.294    0.227
        75 -10.0284      9.9671    187.0309   1.2854696559e+02   3.4971523509e+01    0.2449798    0.1113779 -89.61   0.00136791    1.755    0.430
        76 -10.1856     70.8676    186.9988   1.1768169724e+02   2.8243126129e+01    0.2103367    0.1411351  51.69  0.001357861    1.369    0.270
        77 -11.7579     58.3702    184.9230   1.1980836104e+02   3.0246040380e+01    0.2263282    0.1852855 -89.89 0.0004652794    1.154    0.133
        78  -8.3813    107.3388    185.7090   1.1055512463e+02   2.3152215445e+01    0.1310651   0.08316398  71.01 0.0003191418    1.644    0.392
        79  -8.7981     24.6321    184.2978   1.2585630506e+02   3.4107457795e+01     0.115495   0.05752168  68.24  0.000256118    1.730    0.422
        80  -8.4578     65.6607    181.7486   1.1812352134e+02   2.9947133068e+01    0.0954578    0.0924302 -44.39 0.0002445081    1.570    0.363
        81  -9.6409     36.9106    180.1154   1.2334060610e+02   3.3653500339e+01    0.1836631    0.1317701 -79.27 0.0006787067    1.238    0.192
        82  -8.6936     26.9719    179.6953   1.2510905081e+02   3.4760994932e+01    0.1465136    0.1072784  81.09 0.0003704504    1.020    0.020
        83  -9.1822     81.0848    178.5344   1.1478913528e+02   2.8500255757e+01    0.1735285    0.1531229 -66.58 0.0006000611    1.349    0.258
        84  -8.3355    111.0813    178.0000   1.0877011868e+02   2.4023426117e+01    0.2064738   0.06617002  42.96 0.0007972906    2.907    0.656
        85 -11.3818    248.6901    172.1691   8.1609943892e+01  -1.0037898677e+00    0.4263316    0.3036742 -12.10  0.002462752    1.390    0.281
        86 -10.8061     70.1317    172.9893   1.1630630221e+02   3.1107215814e+01    0.2303109    0.1912204  84.43 0.0004174115    1.063    0.059
        87 -11.6794      2.4146    171.4431   1.2892478990e+02   3.8573429088e+01    0.5243324    0.1955392 -77.04  0.002331439    2.035    0.509
        88 -11.5978      9.8617    156.8772   1.2658924002e+02   4.0830151873e+01     0.976141    0.2976918  79.53  0.002871453    8.101    0.877
        89 -11.4215     11.7190    171.2220   1.2725368842e+02   3.7833887328e+01     0.575626    0.2097392  67.59  0.002916717    2.867    0.651
        90 -11.2613     12.4606    167.4742   1.2686238792e+02   3.8503484576e+01    0.2976051    0.1751184  35.45  0.002057465    2.071    0.517
        91 -11.0281      9.5002    164.9855   1.2723438273e+02   3.9246728632e+01    0.3067961    0.1609154 -64.92  0.002023391    1.786    0.440
        92 -10.8813     54.2608    171.9101   1.1931194823e+02   3.3322663260e+01    0.3392363    0.1856882  55.89  0.001270827    1.673    0.402
        93  -9.8655     27.3196    171.6299   1.2442579395e+02   3.6307398219e+01    0.2287834     0.151896 -57.44 0.0009537516    1.802    0.445
        94  -9.6087     18.0278    172.0619   1.2616919336e+02   3.7105335944e+01    0.1716614    0.1207618  81.14  0.001134468    1.050    0.048
        95  -9.6034     91.6379    168.4132   1.1138740972e+02   2.8992527870e+01    0.2137497     0.165564  64.63 0.0005090593    1.156    0.135
        96 -11.0400     38.9940    167.9852   1.2189873664e+02   3.5840528782e+01    0.2564131    0.2047587 -57.97 0.0003882015    1.566    0.361
        97 -11.8636     78.2936    164.9595   1.1368346351e+02   3.1635879505e+01    0.4810747    0.3865753  57.08  0.002105928    1.217    0.178
        98  -8.2095     64.6811    167.2658   1.1674353408e+02   3.2980026170e+01     0.122092   0.07542688  71.29 0.0002454307    1.554    0.357
        99  -9.7432     68.1184    166.1311   1.1591502698e+02   3.2768812939e+01    0.1841458    0.1425835  85.26 0.0004436617    1.075    0.070
       100 -11.1989    243.2364    155.3515   7.9052126435e+01   2.2976495743e+00    0.3288791    0.2495475  62.83  0.001774486    1.752    0.429
       101 -11.2062    245.4018    162.3712   8.0162361744e+01   9.1062555470e-01    0.3798645     0.222625 -37.80  0.001917564    1.839    0.456
       102 -11.3462    248.8790    159.4042   7.8959665129e+01   6.5481133986e-01     0.469351    0.2950532 -40.09  0.002435589    1.791    0.442
       103  -9.9865     23.9832    161.9713   1.2427435739e+02   3.8561126453e+01    0.1643095    0.1254132  87.32 0.0004795019    1.054    0.051
       104  -8.8775     66.7812    161.3743   1.1561935757e+02   3.3926481385e+01    0.1416868    0.1132924  39.11 0.0002175966    1.510    0.338
       105  -8.8536     43.1125    161.1823   1.2043393526e+02   3.6784368978e+01    0.1611307    0.1063058  74.36 0.0004191213    1.331    0.248
       106 -11.0674     82.8057    157.4941   1.1173566677e+02   3.2549603932e+01      0.43841    0.2197075  52.62  0.002186454    1.963    0.491
       107  -9.1339     91.7977    156.3643   1.0964120139e+02   3.1455730356e+01    0.1581836    0.1192715  38.72 0.0001046446    1.505    0.335
       108  -8.2517    228.4386    155.4518   8.1641325699e+01   5.2173518450e+00    0.1362594    0.1247439  15.72 0.0001531624    1.045    0.043
       109 -10.4168     32.1823    153.6473   1.2190260216e+02   3.9477252963e+01    0.2216116    0.1699969 -74.26  0.001119197    1.213    0.176
       110 -10.6227     26.1881    155.0544   1.2324419308e+02   3.9763869792e+01    0.2037979    0.1363258  67.42 0.0009514639    1.332    0.249
       111 -10.5362     12.3598    153.3661   1.2583918646e+02   4.1332310458e+01    0.2333791    0.1029105 -82.91   0.00105648    1.818    0.450
       112 -10.8184    249.6209    150.9344   7.7033752100e+01   1.6755548168e+00    0.3344423    0.2597622 -28.30  0.001922744    1.285    0.222
       113 -10.7969     92.8207    149.9482   1.0843612603e+02   3.2653480721e+01    0.2781575    0.2492693  88.48 0.0009023344    1.058    0.055
       114 -11.0882     23.4364    149.7242   1.2331745341e+02   4.1117929182e+01    0.2689775    0.1655612  57.22  0.001798849    1.563    0.360
       115  -8.4922     47.6789    150.3167   1.1832468728e+02   3.8550500912e+01    0.1244475   0.07445686  74.65 0.0004658204    1.661    0.398
       116 -10.3678     80.8251    148.4508   1.1086510411e+02   3.4750428473e+01    0.2298138    0.1942971 -86.40 0.0006000238    1.023    0.023
       117 -11.7827     68.3319    143.9612   1.1299916875e+02   3.7419969555e+01    0.5984649    0.3510637  77.75  0.002199323    2.006    0.502
       118 -11.7869      2.3857    143.2048   1.2703246959e+02   4.4175335816e+01    0.4276707    0.1402478 -75.67  0.002011749    2.250    0.555
       119 -11.8366    247.7977    142.5061   7.5492216151e+01   3.2217020101e+00    0.5665522    0.4594073  27.76  0.003046532    1.171    0.146
       120 -12.7050    248.5228    133.9914   7.3460016341e+01   4.3042940476e+00     1.426467    0.4921443 -26.62  0.004893372    3.322    0.699
       121 -10.1186    249.8054    117.7988   6.9492821339e+01   6.4197632953e+00    0.2872094    0.2596589   2.08 0.0008256834    1.036    0.035
       122 -12.1558    247.6413    112.6859   6.8617560882e+01   7.6432491222e+00    0.6276698     0.543272  33.91  0.003560585    1.174    0.148
       123 -10.5773    160.5122    250.2549   1.0900915337e+02   4.3016716308e+00    0.2449972    0.1082406  37.36  0.001295858    2.164    0.538
       124  -9.0970     39.0005    146.5005   1.1974549606e+02   4.0288303852e+01    0.1683006   0.07155561  58.30 0.0008106863    2.600    0.615
       125  -9.8726    133.2272    141.1835   9.7829943149e+01   2.7490203399e+01    0.3028336    0.2113219 -62.97  0.001106829    1.524    0.344
       126  -9.3736     44.8212    139.8154   1.1770452418e+02   4.1103606696e+01    0.1741906    0.1414095 -71.43 0.0004494716    1.172    0.147
       127  -9.8265    106.4697    135.7363   1.0288413264e+02   3.3493560110e+01    0.3403142    0.2516404 -10.34  0.001165146    2.441    0.590
       128 -12.9464      7.9872    132.3592   1.2497943211e+02   4.6000899676e+01    0.6577442     0.332332 -51.54  0.003950915    2.236    0.553
       129 -13.6098      2.7449     84.7789   1.2102462228e+02   5.6392987919e+01     1.397741    0.2590905 -68.59  0.005561262    3.471    0.712
       130 -11.5960    150.2729    247.4839   1.1034718140e+02   6.2788370574e+00    0.2855431    0.2508948  52.75  0.002274619    1.194    0.162
       131 -10.9199     74.0625    244.3419   1.2206690839e+02   1.7861989402e+01    0.2702621    0.2061707 -79.58  0.002205797    1.459    0.315
       132  -9.6801     44.2915    129.9947   1.1657529771e+02   4.3286406858e+01    0.1710528    0.1278327 -78.69  0.000494654    1.082    0.076
       133  -8.8603    113.3009    129.3032   1.0002372458e+02   3.3692705347e+01    0.1324601    0.1120813 -16.72 0.0002580465    1.589    0.371
       134  -9.1259     58.8908    127.7228   1.1280299551e+02   4.2145620629e+01    0.1682373    0.1419472  89.29 0.0003602142    1.072    0.067
       135 -10.8992    243.6043    120.6362   7.1167240716e+01   7.3104450581e+00    0.4130667    0.1691216 -44.04  0.001517319    2.803    0.643
       136 -11.0475    239.1519    120.4551   7.1861710302e+01   8.2942044175e+00    0.4731473    0.2348402 -14.85  0.001683478    3.072    0.674
       137  -8.5502     50.3406    122.6828   1.1410700314e+02   4.4238130618e+01    0.1279939    0.0822487  76.78  0.000704883    1.709    0.415
       138 -12.2006     16.0868    120.5423   1.2199885534e+02   4.7887830912e+01    0.3900481    0.1731144 -82.43  0.001639912    2.000    0.500
       139  -8.7202     93.2242    133.3608   1.0555591281e+02   3.6167382335e+01    0.1690485    0.1186041  54.53 0.0003241162    1.450    0.310
       140 -10.5373    231.9236    116.6536   7.2170253275e+01   1.0470229622e+01     0.253742    0.1970892 -14.96 0.0008465514    1.309    0.236
       141  -9.2347    235.9845    146.0090   7.8270747361e+01   5.0910709512e+00    0.2205243    0.1549337  12.79 0.0004822016    1.595    0.373
       142 -10.1201     29.7220    108.0413   1.1710390899e+02   4.9480589312e+01    0.1710913    0.1229426 -70.05 0.0004472732    1.092    0.084
       143  -8.3401     71.7361    100.3270   1.0457107187e+02   4.6598491813e+01    0.1298696   0.09521934 -88.07 0.0003276989    1.567    0.362
       144  -9.1177     96.3595    145.9835   1.0700739132e+02   3.2947048373e+01    0.1845485    0.1512304 -73.10 0.0004250669    1.131    0.116
       145 -12.6584      8.6257    143.5586   1.2580097075e+02   4.3634243368e+01    0.5164266    0.3773367 -42.52  0.003737937    1.969    0.492
       146  -9.7860    161.4953     79.9691   7.6094128461e+01   3.3638875291e+01    0.2365318    0.1515559 -36.73 0.0005681592    1.547    0.353
       147 -11.6564      3.2720    133.3330   1.2606651020e+02   4.6137962632e+01    0.3854284    0.1883901 -86.57  0.001505492    1.627    0.385
       148 -11.9221     88.3279    238.0189   1.1936860441e+02   1.6928539634e+01    0.4833309    0.2263021  60.09  0.002899022    1.797    0.444
       149 -10.9944    198.0585    245.8350   1.0241989307e+02  -1.1996563985e+00    0.2198133    0.1226754  39.38  0.001367167    1.367    0.269
       150 -11.2034    116.7182    249.8784   1.1592462368e+02   1.1092432356e+01    0.4461126    0.2324783  46.11  0.002040158    1.507    0.336
