#   1 NUMBER                 Running object number                                     
#   2 MAG_AUTO               Kron-like elliptical aperture magnitude                    [mag]
#   3 X_IMAGE                Object position along x                                    [pixel]
#   4 Y_IMAGE                Object position along y                                    [pixel]
#   5 X_WORLD                Barycenter position along world x axis                     [deg]
#   6 Y_WORLD                Barycenter position along world y axis                     [deg]
#   7 A_WORLD                Profile RMS along major axis (world units)                 [deg]
#   8 B_WORLD                Profile RMS along minor axis (world units)                 [deg]
#   9 THETA_WORLD            Position angle (CCW/world-x)                               [deg]
#  10 FWHM_WORLD             FWHM assuming a gaussian core                              [deg]
#  11 ELONGATION             A_IMAGE/B_IMAGE                                           
#  12 ELLIPTICITY            1 - B_IMAGE/A_IMAGE                                       
         1 -13.0701    236.7561     26.1742   3.5458059284e+02   2.5271879417e+01    0.8277649    0.6424043 -46.83  0.004203684    1.072    0.067
         2 -10.3118     16.2280     10.7456   4.2074729620e+01   7.6677344722e+01    0.2105195    0.1423152  29.86 0.0006892413    1.477    0.323
         3 -10.0362    227.3264      9.5302   3.5136563074e+02   2.8896672310e+01    0.2227773    0.1679361 -51.97 0.0006881169    1.026    0.026
         4  -9.4933    125.1318    242.9691   5.6527558843e+01   8.6278531133e+00    0.2303282   0.07978728 -55.18  0.001047905    3.571    0.720
         5 -10.5070    100.8511    247.4065   6.2002293656e+01   1.0813988705e+01    0.4206507       0.2279 -72.39    0.0023194    2.711    0.631
         6  -8.8895     74.8044    249.9329   6.7669996026e+01   1.3382738134e+01     0.188725   0.09139078 -59.40 0.0008073935    2.502    0.600
         7 -10.6686     76.1787    244.8404   6.6993665447e+01   1.4108286772e+01    0.2095124    0.1970862 -61.61 0.0004611008    1.330    0.248
         8 -15.9744     69.0752    147.3815   5.8052856015e+01   3.6383971786e+01     16.52645     8.230194  76.33    0.0478457    3.923    0.745
         9 -10.3825    106.0708    213.9542   5.7338492311e+01   1.6098400707e+01    0.3295087    0.2280508 -55.17   0.00138599    1.648    0.393
        10  -9.0411     80.9727    214.6512   6.3257469255e+01   1.9207508557e+01    0.1807773    0.1373852  38.26 0.0004099524    1.116    0.104
        11  -8.8834    165.0038    210.9639   4.4237535705e+01   8.6687770195e+00    0.1467535    0.1239315 -19.44 0.0008502305    1.169    0.145
        12  -9.9274    210.7568    198.7569   3.3845410965e+01   4.5964132658e+00    0.2141233    0.1635193  -6.84 0.0005157618    1.076    0.071
        13 -10.5160    192.1923    193.2924   3.6197229610e+01   7.8109235680e+00    0.6237018    0.3466206 -62.59  0.002054707    6.825    0.853
        14 -11.6003     68.4480    192.9720   6.4117942434e+01   2.5401798314e+01    0.4158101    0.2502674  74.59  0.001336341    2.010    0.503
        15 -11.1298     74.3963    190.7485   6.2338284248e+01   2.5138366679e+01    0.4407205    0.2527196 -75.24  0.002109955    1.991    0.498
        16 -12.0447     71.4548    184.7046   6.2415582131e+01   2.6900365160e+01    0.3180587    0.2571903  75.87 0.0006527167    1.263    0.208
        17  -9.5044    142.3388    187.3039   4.5296143197e+01   1.6041395829e+01    0.1377172   0.09865797  -5.09 0.0007039509    1.673    0.402
        18  -8.6663    236.4333    185.5332   2.7505998391e+01   3.2962667263e+00     0.114668   0.08688551 -14.43 0.0001353554    1.007    0.007
        19 -18.1625      5.7147    219.7484   8.1148158079e+01   2.6097876191e+01     3.371588     2.109206  68.83   0.01583785    1.355    0.262
        20 -10.5044    102.8585    237.9523   6.0669628015e+01   1.2160255501e+01    0.3334015    0.1730541 -54.26  0.001064104    2.283    0.562
        21 -10.0405    163.8585    237.1754   4.8134444331e+01   4.8256096328e+00    0.1627177    0.1337238  21.07 0.0004014806    1.150    0.130
        22 -11.5829     63.1240    181.6928   6.4308337297e+01   2.8673627929e+01    0.4570496    0.2342903  45.34   0.00114722    1.765    0.433
        23  -9.4671    174.8086    179.2253   3.7057197865e+01   1.2595384769e+01    0.1838689    0.1742664  -0.96 0.0004450477    1.162    0.139
        24 -11.7518    172.9170    173.5512   3.6403220868e+01   1.3877984267e+01    0.7043891    0.4399318 -17.26  0.002601956    1.959    0.489
        25 -11.0784    179.5587    166.1788   3.3708798370e+01   1.4143017640e+01    0.5901707    0.3927218 -61.60  0.002892746    2.280    0.561
        26 -16.2575     22.6609    175.1525   7.4885988070e+01   3.4693127496e+01     7.039974     2.801089  71.07   0.02770625    2.811    0.644
        27  -9.0603     71.1581    232.8004   6.7137472683e+01   1.6863767820e+01    0.1856319    0.1348186  49.82   0.00100753    1.205    0.170
        28 -10.8900    104.3791    170.8500   5.1776394295e+01   2.5353280317e+01     0.320023    0.2687706 -79.28  0.001053213    1.328    0.247
        29 -10.3014    111.1036    167.4467   4.9469452876e+01   2.5056642442e+01    0.3865449     0.251411  87.84  0.001620162    2.528    0.604
        30 -11.5270     96.2625    227.3447   6.1038088377e+01   1.4854531461e+01    0.9389451    0.4965004  29.62  0.004984998    1.603    0.376
        31 -11.0420    114.7793    228.4521   5.7087846483e+01   1.2320338780e+01    0.3556816    0.2434535 -49.88  0.001165527    1.704    0.413
        32 -10.8650     49.1604    161.8258   6.6057310760e+01   3.5263962385e+01    0.2371209     0.211708  81.41 0.0003005681    1.053    0.050
        33 -11.5206     50.0551    154.9747   6.4985220846e+01   3.6915412434e+01    0.3989275    0.2573051  72.57  0.001887352    1.650    0.394
        34  -8.6504    116.9575    158.0592   4.6293051522e+01   2.6202829331e+01     0.166678    0.1637392  35.65 0.0003462812    1.012    0.011
        35  -9.2314    126.5074    155.4897   4.3378929553e+01   2.5143303913e+01     0.220473    0.1425868 -63.78 0.0003651208    1.847    0.459
        36 -11.4314    133.3905    144.9872   3.9558795287e+01   2.6219955497e+01     1.128854    0.3448103 -55.34  0.003152471    4.518    0.779
        37 -11.4745     87.8996    144.5439   5.1856257837e+01   3.4244113696e+01    0.6056299    0.4397609 -17.99  0.002736954    1.932    0.482
        38 -15.4447     54.7685    221.6784   7.0007745346e+01   2.0892627597e+01     2.860191     1.448217 -63.93   0.01512347    2.210    0.548
        39  -8.9110    126.8355    136.7805   3.9450017711e+01   2.9243341441e+01    0.2033744     0.176818  87.10 0.0006646832    1.333    0.250
        40 -10.7236     45.3972    135.5628   6.3959823395e+01   4.2597206897e+01    0.2505839     0.230373 -80.39 0.0002020382    1.061    0.058
        41 -11.8267    110.0332    228.8511   5.8163505427e+01   1.2852320703e+01    0.4890947    0.2892677  30.79  0.002063957    1.406    0.289
        42 -15.4429     10.0603    206.4301   7.9700799438e+01   2.8553531708e+01    0.6960437    0.4458815  10.88  0.002452549    1.945    0.486
        43 -11.7984    104.2735    131.4020   4.4418053325e+01   3.4673835342e+01    0.6577603    0.4896793  -4.31  0.001961999    1.926    0.481
        44 -11.4950     89.5540    131.6272   4.8853439639e+01   3.7210611773e+01     0.283794    0.2625494 -57.53 0.0004336908    1.086    0.079
        45 -10.8729    108.9245    145.1809   4.5966260129e+01   3.0551311023e+01     0.303206    0.2950293  85.81 0.0006885797    1.033    0.032
        46  -9.2978     26.9230    129.1926   6.9553887781e+01   4.6268301348e+01    0.3219967    0.1719939  36.03 0.0007679166    1.819    0.450
        47  -9.7306     22.7995    129.2293   7.1016124027e+01   4.6628293291e+01    0.2367343     0.221664 -64.79 0.0006958295    1.144    0.126
        48  -9.8056    162.2573    127.3367   2.9046984010e+01   2.4453024619e+01    0.3862512     0.268791 -53.90  0.001882894    1.519    0.342
        49 -10.4652    111.4216    125.8686   4.1142067021e+01   3.4670965016e+01    0.3205237    0.2637219 -16.45  0.000686152    1.483    0.326
        50  -9.7513     83.4010    222.8248   6.3493972438e+01   1.7298953338e+01    0.2801951    0.2324477 -80.34 0.0009920963    1.400    0.285
        51  -9.9924     75.2810    121.3030   5.1293522388e+01   4.2227274893e+01      0.38686    0.3068531  60.19  0.001795731    1.316    0.240
        52 -10.3351     98.3712    121.0754   4.3850161836e+01   3.8274361449e+01    0.2745845    0.2410815   8.20 0.0006784729    1.330    0.248
        53  -9.8892     27.5372    121.2701   6.8380519224e+01   4.8371722589e+01    0.3493563     0.161435  49.89  0.001408867    2.243    0.554
        54 -10.5635    116.5550    121.2676   3.8631717899e+01   3.4760202093e+01    0.3338735    0.1824005  53.70  0.001293733    2.131    0.531
        55 -11.9418     89.0032    222.4973   6.2182067190e+01   1.6667435593e+01    0.9738189    0.3356085  41.59  0.004178699    2.424    0.587
        56 -12.0767    126.5463    228.5012   5.4571260868e+01   1.0811591143e+01    0.4042687    0.2174765  30.81  0.002204909    1.552    0.356
        57 -11.8152     53.2213    117.0484   5.8204921823e+01   4.6617605054e+01    0.5571108    0.4246832  47.24  0.001327644    1.321    0.243
        58 -10.1607    134.6286    106.6047   3.0203150437e+01   3.4336615430e+01    0.5341484    0.1400459 -49.63  0.001406996    4.316    0.768
        59  -8.7946     98.2344    111.4400   4.1571818610e+01   4.0659244615e+01    0.2151147    0.1444475  53.19 0.0006776251    1.597    0.374
        60  -9.7504    107.7100    116.0009   3.9858123961e+01   3.7728270112e+01    0.2486154    0.2211705  46.32 0.0004602837    1.140    0.123
        61 -16.1961      4.6747    243.5647   8.2010066044e+01   2.1523861995e+01     1.246845    0.3414238  48.45  0.006247631    2.303    0.566
        62 -11.0132    114.2656    108.4239   3.6054262929e+01   3.8192166170e+01    0.3596112    0.2893576  89.13  0.001701309    1.497    0.332
        63  -9.1531     92.7702    108.2257   4.2484500838e+01   4.2485587052e+01     0.224792     0.201982  86.19  0.001141009    1.160    0.138
        64 -10.6203     38.0475    101.9910   6.1279484642e+01   5.2571543698e+01    0.4248346    0.3031422  37.19  0.001648619    1.447    0.309
        65 -10.8204     63.1945    224.7426   6.8296321568e+01   1.9329023377e+01      0.23338    0.1912144 -81.49 0.0004085201    1.374    0.272
        66  -9.6867    194.4862    224.5625   4.0714474750e+01   2.9634729741e+00    0.2080473    0.1019012 -38.21   0.00106448    2.061    0.515
        67  -9.4627    122.3634     99.6795   3.1474019152e+01   3.8458494958e+01    0.1634178    0.1222875 -89.66 0.0007040891    1.778    0.438
        68  -8.5673     87.4179     95.4960   4.0862266969e+01   4.6622577460e+01    0.1549869    0.1486046 -59.51 7.396593e-05    1.030    0.029
        69 -11.0225     59.7874     92.2498   5.0221460420e+01   5.2264953617e+01     0.504872    0.3537171 -26.47  0.002245086    1.835    0.455
        70  -9.4167    102.9625     92.0133   3.4836837125e+01   4.4311590650e+01    0.4353192    0.2495346  73.39  0.001352557    3.695    0.729
        71 -11.0492     53.1012     83.1054   5.0564931212e+01   5.5628693769e+01    0.7377915    0.2757818  50.27  0.002202177    3.981    0.749
        72  -9.7787    110.1344    222.8905   5.7469485143e+01   1.3904138971e+01    0.1867626    0.1531116  47.37  0.000496381    1.217    0.178
        73  -9.6175    184.1969     76.9711   1.2424185100e+01   2.9096757859e+01     0.222967    0.1626788  -5.71  0.001080472    1.951    0.487
        74  -9.3227     75.0221     82.0694   4.1368698689e+01   5.2214710656e+01     0.245845    0.1855624  78.59 0.0006901297    1.699    0.411
        75  -9.2607     85.6956     73.9789   3.4848476801e+01   5.1994978548e+01    0.2137045    0.1922041 -58.97 0.0003028736    1.102    0.092
        76 -11.3027     30.0760     72.4138   5.8477254953e+01   6.1314506597e+01    0.3133791    0.2926551 -76.53  0.001778472    1.067    0.063
        77 -10.8536    174.9441    222.3536   4.3983434050e+01   5.6359070466e+00     0.223894    0.1564909 -24.32 0.0008831561    1.408    0.290
        78 -12.0201    188.0762     64.0357   8.4524527042e+00   3.0288559633e+01    0.4452829    0.4023024 -27.09 0.0007369483    1.206    0.171
        79  -8.7791    132.6554     68.3507   1.9501962824e+01   4.2455954858e+01     0.164582    0.1139236 -72.96 5.673019e-05    1.812    0.448
        80  -9.3865     78.0346     68.2099   3.5651201188e+01   5.4833445397e+01    0.3581332    0.1933786  63.23   0.00123187    3.020    0.669
        81 -13.6164    205.0483     52.4269   3.4085631404e+00   2.8323176033e+01     1.154042    0.9307253  34.47  0.004727775    1.686    0.407
        82 -12.6905    211.0249     47.6949   1.6241596627e+00   2.7718050466e+01    0.5524631    0.4689284 -43.96  0.001055563    1.101    0.092
        83 -10.1687     23.8450     52.3629   5.6172154581e+01   6.6975035257e+01    0.2143632    0.1673619  44.24 0.0007756818    1.438    0.304
        84 -11.3701     19.7989     46.9015   5.6864331417e+01   6.8677789421e+01    0.4314437    0.2062447 -43.82   0.00169652    1.967    0.492
        85  -9.4016     45.6745     38.1037   3.7826512051e+01   6.7184129443e+01    0.2196362     0.183865  45.71 0.0003658051    1.276    0.216
        86  -9.0356     64.9397    249.1602   6.9688737368e+01   1.4605498307e+01    0.1397122    0.1172903  19.69 0.0003674797    1.266    0.210
        87  -9.9622     60.6719     21.3840   2.1829050391e+01   6.7167665774e+01     0.248982    0.2209232  72.65 0.0006294885    1.272    0.214
        88  -8.5945    189.3274     15.2900   3.5515453674e+02   3.6359854189e+01    0.1180396   0.09654355  42.17 0.0005478457    1.618    0.382
        89 -11.2099    160.3675    223.5076   4.6972639090e+01   7.2932272087e+00    0.2442752    0.1934424  -9.96  0.001642591    1.210    0.174
        90 -10.7309     69.0078    243.6784   6.8440096997e+01   1.5121500441e+01    0.3242853    0.2261376 -45.80  0.002074742    1.883    0.469
