#   1 NUMBER                 Running object number                                     
#   2 MAG_AUTO               Kron-like elliptical aperture magnitude                    [mag]
#   3 X_IMAGE                Object position along x                                    [pixel]
#   4 Y_IMAGE                Object position along y                                    [pixel]
#   5 X_WORLD                Barycenter position along world x axis                     [deg]
#   6 Y_WORLD                Barycenter position along world y axis                     [deg]
#   7 A_WORLD                Profile RMS along major axis (world units)                 [deg]
#   8 B_WORLD                Profile RMS along minor axis (world units)                 [deg]
#   9 THETA_WORLD            Position angle (CCW/world-x)                               [deg]
#  10 FWHM_WORLD             FWHM assuming a gaussian core                              [deg]
#  11 ELONGATION             A_IMAGE/B_IMAGE                                           
#  12 ELLIPTICITY            1 - B_IMAGE/A_IMAGE                                       
         1 -12.0181     13.8075     21.0127   2.9187536316e+02   7.4428251190e+00   0.02977309   0.01700487  58.30  0.002614841    2.373    0.579
         2 -10.3813     52.4215     22.6330   2.9143244034e+02   7.1851652279e+00   0.02397395  0.008418982 -54.79  0.001856341    2.676    0.626
         3 -11.3615     41.9600     17.8716   2.9152522528e+02   7.3040902470e+00   0.02549744   0.02079601   8.14  0.001138262    1.296    0.229
         4 -10.2856     39.7723      1.4815   2.9144776688e+02   7.5036455474e+00   0.02601983  0.008698244  31.78  0.001963834    2.744    0.636
         5 -10.4737     39.7907     10.9279   2.9150699601e+02   7.3963438881e+00   0.01369911    0.0102887  56.19  0.001475756    1.488    0.328
         6 -11.1487     41.1770      6.5293   2.9146304911e+02   7.4376624585e+00   0.02994785   0.01775472  13.75  0.002714538    1.984    0.496
         7 -10.5066     27.1970     15.9294   2.9168625442e+02   7.4176238701e+00    0.0197096   0.01560146  13.84  0.002212868    1.314    0.239
         8 -11.6672     34.9292     13.6393   2.9158110485e+02   7.3957075825e+00   0.02651113   0.01733566 -83.82  0.002558134    2.010    0.503
         9 -12.0608     30.0612      7.0509   2.9159679230e+02   7.5006394057e+00   0.02399985   0.02017939 -71.99  0.002127273    1.269    0.212
        10 -10.4739     68.8295     12.3616   2.9117531975e+02   7.1998892823e+00   0.01423849  0.009566992 -67.09  0.001461052    1.596    0.373
        11 -11.6868    212.2797     11.3825   2.8948895405e+02   6.3167802240e+00   0.01714962   0.01187741  25.91  0.001093139    1.430    0.301
        12  -9.8545    118.8949     12.1536   2.9058701259e+02   6.8908815143e+00   0.01009059  0.008759005  57.97 0.0004996505    1.231    0.188
        13  -9.9097     88.4969      8.3588   2.9091944794e+02   7.1230913706e+00    0.0184002  0.005784349 -56.70  0.001348094    2.968    0.663
        14 -10.4017     86.2591     12.6002   2.9097240626e+02   7.0888816467e+00    0.0159336  0.008608512  20.17  0.001254633    2.024    0.506
        15 -11.5940     55.0880      4.3927   2.9128635923e+02   7.3756162645e+00   0.03005047   0.01778127  38.24  0.002270249    1.650    0.394
        16 -10.4655     58.1310     10.0954   2.9128655675e+02   7.2920260920e+00   0.01966784   0.01282714  -7.91  0.001855238    2.077    0.518
        17 -10.6341     70.9008      7.3422   2.9111941740e+02   7.2439772997e+00   0.01494424   0.01384389  83.25  0.001198097    1.163    0.140
        18 -10.6556     65.1178      7.1790   2.9118622851e+02   7.2817435114e+00   0.02344726   0.01297318   6.39   0.00195152    2.619    0.618
        19 -11.2830     22.3653      9.4067   2.9170194476e+02   7.5215749769e+00   0.01818484   0.01458401 -15.82  0.001309092    1.394    0.282
        20 -11.3879      3.6458     10.2468   2.9192698317e+02   7.6278873909e+00   0.01416583    0.0121834  15.38 0.0003012814    1.172    0.147
        21 -10.8546      2.4790      6.3669   2.9191629333e+02   7.6791347317e+00   0.01287989   0.01196329  14.33 0.0005781642    1.066    0.062
        22 -10.5002     92.5725      9.5524   2.9087917765e+02   7.0842055273e+00   0.01266706   0.01004532 -11.76  0.000529614    1.427    0.299
        23 -11.4692     13.5978      8.5043   2.9179919073e+02   7.5860920552e+00   0.02575587   0.01533307  23.65  0.002054164    1.710    0.415
        24 -11.5859    151.2394      6.0696   2.9016972586e+02   6.7582862065e+00   0.02671205   0.01236361 -48.46  0.001404911    2.177    0.541
        25  -9.7296    132.5231      9.4737   2.9041042977e+02   6.8363769887e+00  0.006642837  0.006417219  -6.56 3.414493e-06    1.031    0.030
        26 -11.9060    141.1923      7.6458   2.9029734472e+02   6.8030696310e+00   0.03395394   0.00814034  38.81  0.002184918    3.818    0.738
        27 -10.2560    218.8198      6.8651   2.8938397323e+02   6.3270765606e+00  0.009211057  0.007811517  64.03  0.000453276    1.301    0.232
        28 -10.8394    184.5006     11.8142   2.8981660310e+02   6.4855133678e+00   0.01223219  0.009309523  27.43 0.0005248032    1.289    0.224
        29 -10.6976    160.6279      4.3790   2.9004912161e+02   6.7188768625e+00   0.01049992    0.0104422 -30.55 0.0008941522    1.027    0.026
        30 -10.0280    107.8830      4.9542   2.9067070201e+02   7.0411100025e+00    0.0094776  0.009187181  33.31  0.001174079    1.029    0.028
        31 -10.1740    235.8226      3.6623   2.8916502955e+02   6.2569706444e+00   0.01581504  0.006119514 -46.98  0.001224476    2.692    0.629
        32 -11.0799    130.8437      3.5339   2.9039265266e+02   6.9142116296e+00   0.01713916   0.01005844  45.88  0.001074584    1.803    0.445
        33 -10.2148    120.9974      4.0752   2.9051144721e+02   6.9694207970e+00     0.010046  0.009784019  49.78 0.0005533811    1.049    0.047
        34 -11.1302    199.0369      2.7488   2.8958932501e+02   6.4974441084e+00    0.0208904   0.01002691  26.97   0.00163324    2.075    0.518
        35  -9.7303     91.2723      3.0312   2.9085333590e+02   7.1662722290e+00   0.01276762  0.008062948  43.99  0.001270216    1.625    0.385
        36 -11.6053     80.7700      1.5889   2.9096741644e+02   7.2479266474e+00   0.01679441  0.008870048  23.71 0.0006410475    1.958    0.489
        37 -10.5135     10.3265      1.5843   2.9179408115e+02   7.6848598543e+00   0.01473081  0.007602593  27.24  0.001265481    1.913    0.477
        38 -10.6643     19.7291      2.8894   2.9169189837e+02   7.6118536305e+00   0.01765207  0.009394177 -46.40  0.001623153    1.930    0.482
        39  -9.5387     21.7725    179.4430   2.9277486831e+02   5.5927628752e+00  0.009385894  0.006441319   9.49 0.0009351237    1.667    0.400
        40 -10.2336    195.2521    249.9880   2.9118845727e+02   3.7136838431e+00  0.008696156  0.005743254 -61.09 0.0006205738    1.546    0.353
        41 -11.6619      3.1896    248.7090   2.9342426645e+02   4.9196378884e+00   0.02837359   0.02250519  39.30  0.003218394    1.249    0.199
        42 -12.7428      9.9288    245.1077   2.9332306095e+02   4.9189624026e+00    0.0358865   0.01635884  18.92  0.002865916    2.649    0.622
        43 -10.4138      4.7076    167.0794   2.9289739294e+02   5.8389375962e+00   0.01590661    0.0118864  85.88  0.001676381    1.666    0.400
        44  -8.8811    247.2862    155.3602   2.8998721164e+02   4.4643065593e+00  0.007101176  0.004915667 -29.07  0.000702213    1.683    0.406
        45  -9.2402    243.1946    154.9780   2.9003255711e+02   4.4941841332e+00  0.008899497  0.005242305 -61.25 0.0004771174    1.736    0.424
        46 -10.1926      3.2057    153.8006   2.9283199924e+02   5.9992670213e+00   0.01562501  0.003787299  34.64  0.001028561    3.508    0.715
        47  -9.8301      5.3572    150.6989   2.9278741148e+02   6.0212480288e+00  0.007124299  0.004930106  58.58 0.0005029646    1.711    0.416
        48  -9.9216      8.7600    148.9518   2.9273663441e+02   6.0200810437e+00  0.008597941  0.005585307 -59.09 0.0003741706    1.550    0.355
        49 -10.0352     21.9134    143.2866   2.9254713929e+02   6.0031497351e+00   0.01167468  0.009438232 -79.39  0.001308689    1.379    0.275
        50  -9.6840      8.6112    134.8203   2.9264998622e+02   6.1817217845e+00   0.01309665  0.006089615 -56.96  0.001136517    2.100    0.524
        51 -10.9804     12.7499    130.5520   2.9257478940e+02   6.2046663536e+00   0.02110896   0.01162172  53.41  0.001411923    2.261    0.558
        52  -9.3351     21.0339    125.9724   2.9244906542e+02   6.2054916537e+00  0.007798394   0.00769062   3.16 0.0003996937    1.009    0.009
        53  -9.3024    226.4546    124.4952   2.9003622344e+02   4.9448022638e+00  0.006606692  0.006450843  41.22 0.0002240577    1.035    0.034
        54 -11.0772     22.1840    119.2944   2.9239376947e+02   6.2743066066e+00    0.0224934   0.01292371 -86.94  0.001866349    2.787    0.641
        55  -9.4123    250.5028    115.9882   2.8970190827e+02   4.8911884444e+00   0.01020082  0.004788995 -39.52 0.0008105831    2.586    0.613
        56 -11.3807     65.5273    111.1193   2.9183471372e+02   6.0986601613e+00   0.02181766   0.01185164 -60.92  0.002040776    1.873    0.466
        57 -11.0267      4.0366    113.5104   2.9257021727e+02   6.4523293726e+00   0.02108264    0.0129347   2.82  0.001602057    2.196    0.545
        58 -11.5054      6.1008    108.9396   2.9251740287e+02   6.4915347668e+00   0.01792056   0.01487122  17.35  0.001643662    1.218    0.179
        59  -9.6778     96.0119    113.4967   2.9149260648e+02   5.8823588544e+00  0.009325341  0.004999684  50.73 -0.0002441938    2.214    0.548
        60 -11.5602     12.9002    109.2382   2.9243957925e+02   6.4460870361e+00   0.02014502   0.01362849  88.01  0.001958353    2.008    0.502
        61 -10.3667     58.8259    107.0489   2.9188768497e+02   6.1864990891e+00   0.01331708  0.008632489 -12.51  0.001239052    2.109    0.526
        62  -9.2735     81.5050     99.5579   2.9157498952e+02   6.1308920619e+00  0.006625715  0.006411027  35.86 9.751562e-05    1.033    0.032
        63 -11.2055     61.7436     98.8260   2.9180190693e+02   6.2618660186e+00   0.01270802  0.009630192  87.55  0.001349205    1.620    0.383
        64 -10.9205      7.2656     97.8821   2.9243448434e+02   6.6100381817e+00   0.01735292  0.009197149   7.72  0.001387195    2.800    0.643
        65  -9.0881    129.4944     97.5232   2.9100025978e+02   5.8556481009e+00  0.006611262  0.006466973  15.99 0.0001341735    1.005    0.005
        66 -10.0716     37.9243     96.5808   2.9206695081e+02   6.4350556181e+00   0.01739624  0.009692504  68.45  0.001350788    3.171    0.685
        67 -11.1394     26.5676     90.1880   2.9215997701e+02   6.5780570393e+00   0.03724381   0.02131672  54.09  0.003376869    2.158    0.537
        68 -12.0175     17.8606     94.4096   2.9228851687e+02   6.5839687070e+00   0.02225141   0.01730878 -21.65  0.002016218    1.449    0.310
        69 -11.7826     11.0534     87.5420   2.9232527335e+02   6.7041444488e+00   0.03051361   0.01577268 -64.14  0.002757774    2.053    0.513
        70  -9.8411     48.1734     94.8051   2.9193569264e+02   6.3917215436e+00  0.009623483  0.008701883  46.65  0.000348755    1.125    0.111
        71 -11.1063     18.1568     87.8965   2.9224421204e+02   6.6561653862e+00   0.02336684   0.01426441 -24.56  0.001050753    2.207    0.547
        72 -10.0127      3.9321     95.0232   2.9245565275e+02   6.6631493266e+00   0.01041103   0.01001744  10.18  0.001124419    1.024    0.023
        73 -10.4115     84.2089     93.9207   2.9150791557e+02   6.1781611600e+00    0.0140664   0.01082992  13.33  0.001003529    1.369    0.270
        74  -9.4010     69.0123     92.9841   2.9168007045e+02   6.2831575988e+00  0.007701622  0.007408407  19.29            0    1.019    0.019
        75  -8.7595    158.6989     90.7184   2.9061569285e+02   5.7510498361e+00    0.0067444  0.005040596 -22.17 0.0002419395    1.548    0.354
        76 -10.3446    118.1853     89.9706   2.9108517524e+02   6.0118289701e+00   0.02051699  0.008728136  31.03  0.001716598    2.226    0.551
        77 -10.5974     44.4505     89.5862   2.9194658043e+02   6.4741140178e+00   0.02130174  0.008218467  41.41  0.001663011    2.624    0.619
        78 -10.2332      3.0395     78.4599   2.9236231017e+02   6.8569259084e+00  0.009962064  0.008814615 -58.00 0.0002951019    1.148    0.129
        79 -10.1592      1.6412     89.6294   2.9244871629e+02   6.7386239377e+00   0.01444688  0.008409058 -57.83  0.000530865    1.712    0.416
        80 -10.8317      3.3965     83.5567   2.9239007409e+02   6.7967935306e+00   0.02416325   0.01255764 -37.86  0.002090354    2.306    0.566
        81  -9.9304     76.8247     88.8492   2.9156257144e+02   6.2816491601e+00   0.01062784   0.00913517 -21.95  0.001042757    1.235    0.191
        82  -9.6724     64.8260     88.5376   2.9170120620e+02   6.3596680643e+00   0.01099501  0.008109076 -67.82 0.0009206311    1.443    0.307
        83  -9.6015    124.2164     86.9969   2.9099586448e+02   6.0080817309e+00    0.0091487   0.00866042 -45.51 0.0004093275    1.066    0.062
        84  -9.7887     92.7836     85.2207   2.9135281303e+02   6.2237447385e+00   0.00966385  0.008688635  55.31 0.0004760263    1.164    0.141
        85 -10.5740     54.3889     83.8451   2.9179406314e+02   6.4777392720e+00   0.01135937   0.01007758  -6.07 0.0003619152    1.179    0.152
        86  -9.0036     43.2520     84.3124   2.9192753426e+02   6.5414764855e+00  0.006698478  0.004919381 -30.22 0.0001934432    1.520    0.342
        87  -9.8563    100.4056     83.1874   2.9125075275e+02   6.1994698833e+00  0.009232437  0.006539696 -78.33 0.0005222234    1.663    0.399
        88 -11.6285     64.1483     81.4277   2.9166450418e+02   6.4446654595e+00   0.01767141   0.01643242 -35.79   0.00121649    1.087    0.080
        89 -10.4068     65.8625     75.3593   2.9160629805e+02   6.5029776926e+00   0.01289393   0.01203961  17.86 0.0009636057    1.055    0.052
        90 -10.0313    250.3639     80.7853   2.8948175976e+02   5.2915343708e+00  0.009541328  0.005892034 -50.09 0.0005750778    1.618    0.382
        91 -10.0609     89.1511     80.3782   2.9136493605e+02   6.3013349648e+00   0.01226615  0.009849694 -78.99 0.0007027336    1.392    0.282
        92  -9.6926     85.2105     79.7755   2.9140731643e+02   6.3326653415e+00  0.008674872  0.007332179 -23.20 0.0009901148    1.265    0.209
        93  -9.3615     79.2218     79.5765   2.9147623555e+02   6.3721241383e+00  0.008858047  0.006412566  10.16 0.0002646075    1.528    0.345
        94  -9.6250     24.1135     78.9334   2.9211815679e+02   6.7211587988e+00   0.01121189  0.007790369 -24.77  0.001128483    1.725    0.420
        95 -10.8901     16.5914     76.0674   2.9218838237e+02   6.8002865986e+00   0.02032266   0.01255083  44.09  0.002011587    1.668    0.400
        96  -9.4957    176.7036     77.2366   2.9032020678e+02   5.7918765127e+00   0.01055666  0.005659516  13.97 0.0008899742    2.345    0.574
        97 -10.2148     56.0054     75.4284   2.9172226849e+02   6.5633513541e+00   0.01528983   0.01052742  59.52  0.001544527    1.744    0.427
        98 -10.6565     46.4276     75.1509   2.9183280125e+02   6.6258975303e+00   0.01675729   0.01183275   3.00  0.001624916    1.677    0.404
        99 -10.2737     37.5505     75.2906   2.9193775073e+02   6.6793292111e+00   0.01584953   0.01099665 -42.43 0.0009160804    1.498    0.332
       100  -9.5941     32.4945     73.4414   2.9198542553e+02   6.7316637370e+00   0.01005682  0.008864516 -33.08 2.412635e-05    1.166    0.142
       101 -10.8645     36.3380     71.5389   2.9192841801e+02   6.7294698310e+00   0.02423575   0.01252797 -35.30   0.00154359    2.476    0.596
       102 -11.4189      4.2256     73.7747   2.9231902429e+02   6.9028349979e+00    0.0218705   0.01296189  30.66  0.001242744    1.631    0.387
       103  -9.4908    136.5761     74.2464   2.9077095745e+02   6.0759554499e+00  0.008989473  0.006078936 -47.90 0.0002985799    1.492    0.330
       104  -9.5439     96.0075     73.5818   2.9124188994e+02   6.3359330459e+00  0.009791577  0.006295883  30.86  0.000386832    1.507    0.336
       105 -10.1501     91.4692     70.5730   2.9127614553e+02   6.3983193861e+00   0.01921372   0.01197981  78.59  0.001322457    2.508    0.601
       106 -10.4752     80.6766     72.1211   2.9141233989e+02   6.4477895606e+00   0.01433611  0.009549708  56.49  0.001424365    1.773    0.436
       107 -10.5740    106.0343     71.7692   2.9111303286e+02   6.2941767260e+00   0.01044654  0.009550389 -55.67 0.0004003814    1.110    0.099
       108  -9.4230    216.8147     72.3973   2.8982076214e+02   5.5963977616e+00   0.00882758   0.00636782  11.39 0.0003620315    1.525    0.344
       109 -10.6869     44.2877     68.7163   2.9181748694e+02   6.7122717590e+00   0.02508508   0.01329871  48.80  0.002227553    2.155    0.536
       110 -10.3194     51.5607     67.7408   2.9172608938e+02   6.6782607054e+00   0.01883723   0.01144282   5.36  0.001712307    2.171    0.539
       111  -9.9219    114.2214     66.4753   2.9098383596e+02   6.3033729342e+00   0.01227717   0.00840586  51.62  0.001027557    1.610    0.379
       112  -9.4301    130.0321     69.5176   2.9081781807e+02   6.1704099056e+00  0.009681015  0.006503521  26.35 0.0003262891    1.471    0.320
       113 -10.8234     16.6130     64.5400   2.9211580588e+02   6.9311342975e+00    0.0209354   0.01637989  37.39  0.001329737    1.258    0.205
       114 -10.3211     35.1683     64.8458   2.9190011334e+02   6.8127615602e+00   0.01894467   0.01109761  39.30  0.001568188    1.679    0.405
       115 -10.7690     40.0010     62.1892   2.9182676078e+02   6.8129950804e+00   0.02170179   0.01214568 -36.84  0.001964379    2.107    0.525
       116  -9.8213     38.2710     59.6783   2.9183127844e+02   6.8522408169e+00   0.01278624   0.01034097 -28.83 0.0002642317    1.328    0.247
       117  -9.5918    133.4672     63.9483   2.9074254610e+02   6.2122606463e+00   0.01021942   0.00668977 -65.12  0.001028024    1.612    0.380
       118 -10.8364      8.3377     46.4454   2.9209931096e+02   7.1878843152e+00   0.02590769    0.0200451 -68.10  0.001689997    1.369    0.270
       119 -12.4099      7.8713     59.3127   2.9218554386e+02   7.0446062326e+00   0.05166392   0.01927776 -52.51  0.004113588    2.554    0.609
       120 -11.0961      2.3246     59.5370   2.9225202069e+02   7.0763600650e+00   0.02183723   0.01245458 -53.77  0.001490797    1.728    0.421
       121 -10.2649      2.3960     54.2376   2.9221793236e+02   7.1361219535e+00   0.02078533   0.01382936 -16.82  0.001952243    1.963    0.491
       122 -10.7925     26.8058     57.0671   2.9194934707e+02   6.9529291447e+00   0.01451453   0.01417864 -72.83  0.001819168    1.060    0.056
       123 -11.8287     17.4600     44.9062   2.9198261474e+02   7.1489206621e+00   0.03730381   0.02935156 -81.91  0.004145679    1.456    0.313
       124 -12.5522     20.2162     57.0251   2.9202637477e+02   6.9942065711e+00   0.01708469   0.01439862  38.77 0.0006737185    1.176    0.150
       125  -9.6610    127.2628     61.8390   2.9080192258e+02   6.2748487724e+00   0.01106222  0.008628007  37.93 0.0004199989    1.263    0.208
       126  -9.7640     53.6542     62.1094   2.9166617007e+02   6.7292501878e+00   0.01162616  0.008635139  40.46 0.0006995715    1.340    0.254
       127  -9.3685    247.0590     61.5786   2.8939926134e+02   5.5300784996e+00   0.00955518  0.006386426  28.33 0.0002752961    1.465    0.317
       128  -9.7185    202.0494     60.6635   2.8991940227e+02   5.8217846481e+00   0.00915685  0.007927239  23.23 0.0002647741    1.140    0.123
       129 -10.4683     19.1948     52.2020   2.9200807582e+02   7.0553153705e+00   0.01245554  0.009881244  22.10 0.0006844363    1.258    0.205
       130  -8.8212    157.3129     60.2653   2.9044020921e+02   6.1054807953e+00  0.006699383   0.00505279 -19.10 0.0002370455    1.542    0.352
       131  -9.4794     67.7196     60.3696   2.9149034169e+02   6.6617350055e+00   0.00933804   0.00633545  14.76 0.0006212389    1.608    0.378
       132  -8.9094    178.4935     59.5133   2.9018763782e+02   5.9818994406e+00  0.006688738  0.006386393  50.06  0.000105541    1.070    0.065
       133  -9.4751     60.3697     58.1270   2.9156241244e+02   6.7328245457e+00  0.009280821  0.006449324 -77.07 0.0006792675    1.690    0.408
       134 -10.2494     53.8790     57.2919   2.9163326506e+02   6.7825784050e+00   0.01870898   0.01409321   6.45  0.002020197    1.475    0.322
       135 -10.2311     62.8897     61.8919   2.9155652932e+02   6.6744216230e+00    0.0104769  0.008679346 -25.65 0.0006523927    1.296    0.228
       136  -9.6366     71.5437     57.1985   2.9142558015e+02   6.6740116136e+00  0.009290787  0.006593934 -61.57 0.0005815797    1.443    0.307
       137 -11.6178    114.0601     54.4611   2.9091012716e+02   6.4408071508e+00   0.01487556   0.01306956 -44.08 0.0005929826    1.150    0.130
       138 -10.9858    106.4125     53.6647   2.9099471071e+02   6.4974335529e+00   0.02059543   0.01303127  54.59   0.00199636    1.866    0.464
       139  -8.9239    174.2951     55.6875   2.9021265023e+02   6.0515203670e+00   0.00682161   0.00506364  63.27  0.000285239    1.597    0.374
       140 -11.7986     86.3984     53.6327   2.9122904036e+02   6.6222358311e+00     0.025853   0.01611147  36.98  0.001855444    1.560    0.359
       141 -10.2538     34.3791     53.1387   2.9183584892e+02   6.9506411190e+00   0.01553754   0.01001125 -32.90  0.001232798    1.806    0.446
       142 -11.9303     66.5621     52.4287   2.9145399305e+02   6.7591122618e+00   0.03023512   0.01247774  24.16   0.00213811    2.589    0.614
       143 -11.0174     75.0299     49.7929   2.9133814730e+02   6.7364675343e+00   0.01429673  0.009882276  21.81  0.001492929    1.472    0.321
       144 -11.1681     77.8722     46.1994   2.9128222673e+02   6.7596199168e+00   0.02256281   0.01443472   2.60  0.001963072    2.024    0.506
       145  -8.9409    176.2803     52.3014   2.9016808689e+02   6.0775612931e+00  0.006761991  0.004999683 -26.04 0.0001740148    1.547    0.353
       146  -9.1144    161.2763     50.3829   2.9033157235e+02   6.1929410259e+00    0.0071568  0.004853376 -30.61 0.0007001465    1.714    0.417
       147  -9.3635    212.0356     48.9588   2.8972887279e+02   5.8921965155e+00  0.007927191  0.007422702  24.59 0.0003201759    1.047    0.045
       148  -9.5642    102.2745     48.2978   2.9100942195e+02   6.5841111586e+00  0.006715734  0.004989317 -26.40 0.0002165926    1.530    0.346
       149  -9.6092     38.2912     48.5622   2.9176121277e+02   6.9783786424e+00  0.008987397   0.00644888  11.01 0.0009304464    1.536    0.349
       150 -10.6967     68.6797     46.7917   2.9139372196e+02   6.8099809497e+00   0.01099139   0.01067279  14.54 0.0002671767    1.009    0.008
       151 -11.0394     70.7914     43.0666   2.9134553575e+02   6.8391691589e+00   0.01462842    0.0124911 -75.16 0.0002956727    1.260    0.206
       152  -9.3363    136.4797     46.5029   2.9059743019e+02   6.3915544469e+00  0.006616895   0.00645898   2.88 0.0008103183    1.010    0.010
       153  -9.1830    155.2482     44.3590   2.9036417719e+02   6.2989019217e+00  0.006920842  0.004844393 -32.68 0.0002442603    1.604    0.377
       154 -10.7908     23.4796     40.2189   2.9188254667e+02   7.1648865385e+00   0.03362432    0.0183544  78.60  0.002369364    4.024    0.752
       155 -10.6711     26.3816     35.2284   2.9181714252e+02   7.2035839425e+00   0.01617886   0.01203726 -26.71  0.001016921    1.521    0.343
       156 -12.3091    140.2225     40.8016   2.9051768872e+02   6.4329436810e+00   0.01275345   0.01169636  42.80 0.0003712442    1.096    0.088
       157 -10.4190     35.8938     40.6396   2.9173955114e+02   7.0832093854e+00   0.01738247    0.0114269 -52.13  0.001793492    1.514    0.340
       158 -10.1490      3.7409     41.8272   2.9212425507e+02   7.2687656104e+00   0.01831932    0.0108256   5.73    0.0016262    2.280    0.561
       159  -9.1328    183.3483     41.7077   2.9001862656e+02   6.1536513532e+00  0.007043571  0.004948609  58.33 0.0007029215    1.669    0.401
       160 -10.3028    134.5122     39.5220   2.9057650096e+02   6.4830485212e+00   0.01511933   0.01031545  44.07 0.0006069175    1.497    0.332
       161  -9.8325    130.7122     39.3086   2.9061966334e+02   6.5091439573e+00   0.01044603  0.008440001 -88.50 0.0005593487    1.436    0.304
       162 -10.6207    151.2059     36.7164   2.9036334191e+02   6.4108381374e+00   0.02027144   0.01135105 -85.73  0.001632977    2.946    0.661
       163 -11.0206    120.9175     36.4172   2.9071618873e+02   6.6029617911e+00   0.02515635   0.01573048  76.32  0.002229686    2.476    0.596
       164 -10.7546      1.8470     35.8711   2.9210908432e+02   7.3481161372e+00   0.01892991   0.00999667 -66.49   0.00170438    2.087    0.521
       165 -10.9867      2.3275     27.8027   2.9205277273e+02   7.4367582920e+00   0.01956841   0.01362934 -67.68 0.0009083104    1.538    0.350
       166 -10.1136      7.2709     28.3126   2.9199795388e+02   7.4003957972e+00   0.01461715  0.008095216  34.28 0.0007493417    1.730    0.422
       167 -10.2958     70.1100     35.5633   2.9130632599e+02   6.9285920453e+00   0.01407722  0.007627914 -44.64 0.0007658826    1.936    0.483
       168 -11.5592     20.4523     31.7227   2.9186468592e+02   7.2801050224e+00   0.03195747   0.01900991 -13.60 0.0005363409    2.601    0.615
       169 -12.4192     50.4346     33.8310   2.9152618161e+02   7.0703691772e+00   0.01925942   0.01284911  39.33 0.0003520368    1.479    0.324
       170 -11.8525    134.7002     33.7634   2.9053802036e+02   6.5472315665e+00   0.01450194   0.01099644 -35.13 0.0004191117    1.411    0.291
       171  -8.8855    167.3019     33.6892   2.9015584048e+02   6.3447846342e+00  0.006855165  0.005051746  62.53 0.0004267909    1.607    0.378
       172 -10.6805    145.2925     33.0309   2.9040935596e+02   6.4895281596e+00   0.01203839  0.009515868  12.22 0.0005803314    1.331    0.248
       173 -10.0989    110.4830     32.4547   2.9081349301e+02   6.7128918163e+00   0.01123292  0.006715596 -77.40 0.0005785392    2.155    0.536
       174 -10.7854     42.7679     30.5601   2.9159554815e+02   7.1550476196e+00   0.02534763   0.01530727   6.88  0.002316221    2.147    0.534
       175 -10.4136     44.9394     26.2560   2.9154300618e+02   7.1904465875e+00   0.01708647   0.01153954  31.60  0.001785834    1.435    0.303
       176 -10.0742    187.9530     29.4447   2.8988743182e+02   6.2640102740e+00   0.01338938   0.01009018 -25.57  0.001050033    1.504    0.335
       177 -10.5311    151.4956     29.5179   2.9031458045e+02   6.4907116857e+00   0.01127506    0.0107899 -13.08 0.0005020427    1.050    0.047
       178  -9.7965     69.9928     28.9350   2.9126599497e+02   7.0045661921e+00   0.01001475  0.009859912  -9.46 0.0004468052    1.014    0.014
       179 -11.6998     77.8651     25.1534   2.9114987943e+02   6.9985919730e+00   0.02482316   0.01670956 -28.77  0.002490127    1.762    0.432
       180 -11.0257     74.9105     21.3490   2.9116057910e+02   7.0601259571e+00   0.01772726   0.01473096  65.77   0.00109479    1.353    0.261
       181  -9.6271    141.8162     26.8562   2.9041115036e+02   6.5812616978e+00   0.01338522  0.007906131  11.22   0.00121372    2.092    0.522
       182  -9.6183     34.3321     26.5320   2.9166919426e+02   7.2530656782e+00   0.01162197  0.006176078 -60.27  0.001033997    1.903    0.475
       183  -9.4254    243.7314     26.0395   2.8921391181e+02   5.9538692222e+00  0.008604861  0.005882867 -62.14 0.0008844655    1.505    0.336
       184 -10.5416    114.0888     25.4284   2.9072698210e+02   6.7701877250e+00   0.01221637   0.01081175 -59.35  0.000553345    1.152    0.132
       185  -9.7307     22.0298     22.4441   2.9178785797e+02   7.3756775153e+00   0.01153388  0.008175309  18.54 0.0007564926    1.465    0.318
       186  -9.5001    229.5431    248.0772   2.9077641086e+02   3.5219395685e+00   0.01010516  0.006598568 -61.45  0.001021171    1.567    0.362
       187 -10.0198     13.0524     16.0881   2.9185327317e+02   7.5033962557e+00    0.0173708    0.0108208  31.58  0.001746254    1.551    0.355
       188  -9.1702    229.7971     24.9655   2.8936992722e+02   6.0532354456e+00  0.008572714  0.005278789 -59.65 0.0003455314    1.643    0.391
       189 -10.5794    104.1609     28.2567   2.9086114641e+02   6.7998767428e+00   0.01671082    0.0127695  65.02 0.0008828891    1.541    0.351
       190 -10.3361     59.2782     24.7016   2.9136502277e+02   7.1191385842e+00   0.01259317   0.01091448 -54.55  0.000915021    1.165    0.142
       191 -10.3600     34.0799    247.4759   2.9305550552e+02   4.7426625739e+00   0.01034822  0.006438611  28.63  0.001024127    1.569    0.363
       192 -10.0471     89.0492     21.1703   2.9099366479e+02   6.9742875488e+00   0.02029031  0.009328732 -71.83   0.00141621    2.941    0.660
       193  -9.7803    124.3931     21.7923   2.9058333167e+02   6.7472840910e+00  0.009731675  0.005901034 -49.15 0.0009481734    1.654    0.396
       194 -10.3291      2.5567     20.6750   2.9200530446e+02   7.5162586527e+00   0.01586165   0.01143627 -25.20  0.001415659    1.614    0.380
       195  -9.5087     84.9176     21.2221   2.9104243313e+02   6.9993824646e+00   0.01093002  0.007442275 -11.63  0.000814556    1.900    0.474
       196 -12.3604      5.0689    240.7757   2.9335289303e+02   4.9982809193e+00   0.02872868   0.01927892  37.00  0.002913458    1.454    0.312
       197  -9.7799    217.6438    245.1599   2.9089692887e+02   3.6291652061e+00   0.01350956  0.004488808  30.28 0.0009929454    2.817    0.645
       198  -9.8616    146.5126    244.5026   2.9172314677e+02   4.0791278735e+00  0.006615624   0.00646809   7.00 0.0008105526    1.005    0.005
       199 -10.3884     39.7221    243.9471   2.9296755271e+02   4.7478857957e+00   0.01561154  0.008842451  69.85  0.001230536    3.070    0.674
       200  -9.6745     60.5406    241.2778   2.9270754745e+02   4.6493270286e+00   0.01252912   0.00581552  27.67  0.001069968    2.121    0.528
       201 -11.1208     20.5908     16.8712   2.9176971160e+02   7.4478451002e+00   0.01275871  0.009342623  23.19 0.0005872845    1.366    0.268
       202 -10.9867     32.2016     20.5439   2.9165654042e+02   7.3342427576e+00   0.02494851   0.01201087  36.87  0.001828286    1.988    0.497
       203  -9.6320    202.4864    239.9934   2.9104140958e+02   3.7822177424e+00  0.009983563   0.00659028 -60.33 0.0007296224    1.539    0.350
       204 -11.4502     20.8490    236.0322   2.9313884391e+02   4.9546947679e+00    0.0166335   0.01001046 -75.49   0.00155113    2.047    0.512
       205 -10.3902    163.8907     20.1561   2.9011043895e+02   6.5195914366e+00   0.01013644  0.008880243  55.92 0.0004021778    1.206    0.171
       206  -9.4167    131.9068     20.3728   2.9048635800e+02   6.7165797518e+00  0.009252372  0.006286494  10.71 0.0005267864    1.676    0.403
       207  -9.9949     65.1514     17.4930   2.9125076626e+02   7.1644966236e+00   0.01213689   0.01078134  67.01 0.0009320187    1.225    0.184
       208 -10.5699    190.6592     17.0374   2.8977750569e+02   6.3878139386e+00  0.009412196  0.008765111 -43.69 0.0005799697    1.083    0.077
       209 -11.0507    108.2250     16.4455   2.9073910996e+02   6.9086173133e+00   0.01140251   0.00978358 -61.00 0.0003858825    1.192    0.161
       210  -9.9156    156.5174     13.9979   2.9015792645e+02   6.6354451324e+00    0.0101687  0.006574052 -59.92 0.0008150127    1.569    0.363
       211  -9.5979    144.3445     14.3010   2.9030239069e+02   6.7079310640e+00  0.007039683  0.005031963 -21.30 0.0007038055    1.680    0.405
       212 -11.9421      4.2780    232.6382   2.9331144778e+02   5.0957481185e+00   0.01996124    0.0162268  59.20  0.000449348    1.354    0.261
       213 -12.7139      9.6867    231.8427   2.9324324686e+02   5.0713709628e+00   0.03089527   0.02458665 -16.23  0.002776356    1.415    0.293
       214 -12.1809      8.7134    227.9525   2.9323038261e+02   5.1216460462e+00   0.02627692   0.01845492   9.86  0.001784369    1.603    0.376
       215  -9.8225    217.6856    235.8702   2.9083820466e+02   3.7344324415e+00   0.01150508  0.008131037 -41.00  0.001207664    1.482    0.325
       216  -9.1879    183.3594    236.2584   2.9124126523e+02   3.9436924377e+00  0.006859572  0.005051653 -15.69 0.0006972066    1.623    0.384
       217  -9.6295     99.0157     11.4828   2.9081579711e+02   7.0222275225e+00    0.0103564  0.006343967  31.26  0.001019545    1.577    0.366
       218  -9.2829    210.6236    235.7362   2.9091976612e+02   3.7799268331e+00  0.006955336  0.005041532 -15.91 0.0003479979    1.671    0.401
       219  -9.0660    155.5654    235.5175   2.9156117829e+02   4.1249892333e+00  0.006570096  0.006455997  -1.26 4.146299e-05    1.009    0.009
       220  -9.8342    249.1645    234.1493   2.9046023431e+02   3.5578940049e+00  0.009970594  0.008862621 -14.96 0.0005383875    1.180    0.152
       221  -9.8440     79.9771    231.7728   2.9242099691e+02   4.6369596380e+00   0.01023572  0.008388438  51.72 0.0006360324    1.286    0.222
       222  -9.0860    124.2973    230.3473   2.9189409952e+02   4.3780903658e+00  0.007090771  0.004947406 -27.76 0.0005528772    1.678    0.404
       223  -9.3164    209.7846    229.4360   2.9089005761e+02   3.8567266908e+00  0.009235194  0.006456664  11.10 0.0009390394    1.598    0.374
       224  -9.4299    140.6767    227.3318   2.9168384975e+02   4.3105991480e+00  0.007069681  0.005023221  62.44 0.0007050204    1.703    0.413
       225 -10.2643     25.6816    224.9784   2.9301340886e+02   5.0505559293e+00  0.009636378  0.008698799 -60.60 0.0008737261    1.131    0.116
       226 -11.1971      2.3086    219.8422   2.9325473542e+02   5.2534995792e+00   0.01833669  0.008914151 -73.95  0.001454294    2.832    0.647
       227 -10.1280     31.9764    225.0000   2.9293993005e+02   5.0113620974e+00   0.01128764  0.003741852  27.90 0.0008055735    2.964    0.663
       228 -11.0642      7.4716    216.9351   2.9317622225e+02   5.2546677044e+00   0.01921542   0.01205583 -56.37  0.001940164    1.586    0.369
       229 -10.0285     16.3321    212.3116   2.9304374304e+02   5.2524896357e+00  0.007049736  0.005012786 -23.28 0.0007043702    1.675    0.403
       230  -9.7285    209.3618    212.1145   2.9078635212e+02   4.0561520648e+00   0.01118634  0.009386515   2.73 0.0009329945    1.269    0.212
       231  -9.4562    249.4969    211.5112   2.9031427057e+02   3.8128941538e+00  0.006613581  0.006469956  10.65 6.241017e-05    1.001    0.001
       232  -9.6175    246.8761    206.9217   2.9031602067e+02   3.8813521145e+00   0.01046822  0.008627785 -32.72 0.0008334036    1.277    0.217
       233 -10.0509      2.3900    206.1778   2.9316858279e+02   5.4084590795e+00  0.009375066  0.006502931 -77.85 0.0009461078    1.701    0.412
       234  -9.5372    196.8625    203.8485   2.9088041720e+02   4.2279233072e+00  0.009586183  0.007788389  58.81 0.0007519379    1.354    0.261
       235 -10.4902      9.5768    203.4865   2.9306771103e+02   5.3946584618e+00   0.01206057   0.01135594  23.18 0.0007794088    1.043    0.041
       236  -9.1647    181.5648    199.4916   2.9103173753e+02   4.3726932280e+00  0.006583814  0.006446433  44.65 9.907616e-05    1.038    0.036
       237  -9.7212     23.7713    197.1393   2.9286201242e+02   5.3790830399e+00   0.01033354  0.009212803  63.31  0.001222934    1.205    0.170
       238  -9.4867      6.6925    192.3024   2.9303166658e+02   5.5397282617e+00  0.006856879  0.005026598  61.23            0    1.601    0.375
       239 -10.2981     15.5140    185.1171   2.9288356466e+02   5.5669284106e+00   0.01385962  0.007917428 -64.78  0.001307459    1.856    0.461
       240  -9.0644    250.4787    183.4777   2.9012672878e+02   4.1251117308e+00  0.006609855  0.006463787   8.27 0.0008098806    1.004    0.004
