#   1 NUMBER                 Running object number                                     
#   2 MAG_AUTO               Kron-like elliptical aperture magnitude                    [mag]
#   3 X_IMAGE                Object position along x                                    [pixel]
#   4 Y_IMAGE                Object position along y                                    [pixel]
#   5 X_WORLD                Barycenter position along world x axis                     [deg]
#   6 Y_WORLD                Barycenter position along world y axis                     [deg]
#   7 A_WORLD                Profile RMS along major axis (world units)                 [deg]
#   8 B_WORLD                Profile RMS along minor axis (world units)                 [deg]
#   9 THETA_WORLD            Position angle (CCW/world-x)                               [deg]
#  10 FWHM_WORLD             FWHM assuming a gaussian core                              [deg]
#  11 ELONGATION             A_IMAGE/B_IMAGE                                           
#  12 ELLIPTICITY            1 - B_IMAGE/A_IMAGE                                       
         1 -11.1220     10.0901     15.6059   1.0440903605e+02   6.9703847970e+01    0.2326973    0.1387702  -4.66 0.0007359487    1.497    0.332
         2 -11.5548      4.1550     18.0812   1.0822017877e+02   6.9882268519e+01    0.3482392    0.2326004  -6.45  0.001363097    1.200    0.167
         3 -11.5535    129.6778     24.3400   6.9613249586e+01   4.8647428049e+01     0.400126    0.2895911 -60.93  0.001799969    1.704    0.413
         4 -11.7828     60.0844     22.6471   8.7016352552e+01   6.2503515534e+01    0.5591497    0.4198906 -73.65  0.002941987    3.328    0.699
         5 -10.8630     64.0334     14.3138   8.2504231443e+01   6.2725569578e+01     0.544245    0.2354056  21.56  0.002159911    3.935    0.746
         6 -12.3883     82.4236      6.6213   7.4331331009e+01   6.0102635287e+01    0.8236707    0.2629831  54.84  0.003671025    2.638    0.621
         7 -11.2122     74.2088      7.0503   7.6693686592e+01   6.1596142130e+01    0.2466065     0.179086   8.15 0.0003157055    1.383    0.277
         8 -11.9870     70.3304     15.0580   8.0837332527e+01   6.1567244750e+01    0.3242806    0.2170739 -10.79  0.001054775    1.578    0.366
         9 -12.0525     21.4771     18.6905   1.0048282128e+02   6.8179494832e+01    0.4998702    0.4616739  26.65  0.003533821    1.699    0.411
        10 -11.3090     75.8887     15.3711   7.9315094755e+01   6.0542572205e+01    0.5250874    0.3021408   0.26  0.002191041    2.204    0.546
        11 -10.2300     34.9320     15.7610   9.3584585948e+01   6.6937193069e+01    0.2901338    0.1695628  -0.07 0.0009826297    1.797    0.444
        12 -10.7773     55.0918     13.2678   8.5042622142e+01   6.4292728771e+01    0.2806571    0.1689495 -18.04 0.0003670177    1.696    0.410
        13 -10.2116    100.1842     13.1935   7.2297600703e+01   5.6037396078e+01    0.1988115    0.1526478  15.28  0.001280554    1.393    0.282
        14 -10.7088     26.3748     13.8386   9.6342076766e+01   6.8216679888e+01    0.1895026    0.1262027   4.71 0.0002668606    1.263    0.208
        15 -10.6898      5.8860      7.9990   1.0322344678e+02   7.1036836140e+01    0.6440049    0.1896595  34.85  0.003093098    3.938    0.746
        16 -12.0219     23.0823      7.5634   9.5072616484e+01   6.9307375504e+01    0.6052112    0.3632443  43.14   0.00385727    2.273    0.560
        17 -13.1035     31.4845      2.1851   8.9158338468e+01   6.8803402252e+01    0.3870448    0.1616433  33.56  0.000828735    2.045    0.511
        18 -12.0889     11.9252      2.3662   9.7823175127e+01   7.1099791973e+01    0.3467842    0.1930627   8.21   0.00231701    1.635    0.388
        19 -11.0104     16.7421      1.6394   9.5256851596e+01   7.0659106403e+01    0.1990619    0.1244861  -2.27 0.0004936928    1.339    0.253
        20 -10.3204    118.2603     11.9453   6.8097823471e+01   5.2347177945e+01    0.2004252    0.1938819  73.79  0.001004681    1.166    0.143
        21 -10.4850    117.2269      7.9994   6.7090112487e+01   5.2908340968e+01    0.2025674    0.1808212 -21.89  0.000589061    1.332    0.249
        22 -11.6388    115.9635      3.1370   6.5840946132e+01   5.3569766951e+01     0.287078    0.1951765  -2.51  0.000427696    1.875    0.467
        23  -9.6668      5.1774     11.8226   1.0519152677e+02   7.0624033366e+01    0.1520126   0.09238408 -12.22  0.001064808    1.346    0.257
        24  -9.6853    185.7615     10.9637   5.7932076480e+01   3.7315918187e+01    0.1605255     0.133225 -83.59 0.0003121158    1.074    0.069
        25 -10.2606    178.5039      8.5372   5.8197009101e+01   3.9186648174e+01    0.2544155    0.1016711  52.70   0.00117022    2.526    0.604
        26  -9.9631     85.9524     10.6571   7.4869890509e+01   5.9086591612e+01      0.16089    0.1268372  43.71 0.0008410917    1.078    0.072
        27 -10.3961     59.7502     10.4428   8.2364827888e+01   6.3811154478e+01    0.2036698    0.1635996  42.90 0.0006638581    1.311    0.237
        28  -9.6090     50.9770     11.0278   8.5565585179e+01   6.5157066526e+01    0.1865438    0.1083252  17.56 0.0007784487    1.708    0.414
        29  -9.7782    108.0835      9.6533   6.9419347538e+01   5.4710135325e+01    0.1830368    0.1633924 -33.26  0.001283872    1.341    0.254
        30 -10.5560    127.4683      8.1653   6.5288387918e+01   5.0670768563e+01    0.1897386    0.1502237  85.01 0.0003413162    1.315    0.239
        31  -9.6898    228.9481      5.5169   5.2817467677e+01   2.8580645134e+01    0.1659544   0.09213624  82.64 0.0004649246    1.512    0.338
        32  -9.6818    176.5255      4.4638   5.7485587350e+01   4.0020587489e+01    0.1676609    0.1215131  -6.10 0.0008678609    2.133    0.531
        33  -9.5881     59.4602      5.5062   8.0492666890e+01   6.4302246251e+01    0.2397699   0.09348162  47.98  0.001221416    2.202    0.546
        34  -9.5223    146.2880      4.3250   6.1268681446e+01   4.6820390465e+01     0.120371   0.07943957  42.73 0.0002100686    1.608    0.378
        35  -8.9809    139.3174      1.6979   6.1576826747e+01   4.8589549472e+01    0.1185609   0.08283532 -78.09 0.0004061242    1.621    0.383
        36  -9.5699     13.3898    221.7341   1.4214754981e+02   2.5681189856e+01    0.1609318   0.09177828 -70.23 0.0006477038    1.557    0.358
        37 -10.2776    247.1629    250.0742   9.8337926986e+01  -1.4470284813e+01    0.2318432    0.1542267  -4.64  0.001201061    1.403    0.287
        38 -10.8014    250.3926    245.5761   9.7003709870e+01  -1.4242104230e+01    0.4555775    0.1330518 -37.55  0.001937027    3.171    0.685
        39 -12.4720    226.3124    246.4435   1.0151314171e+02  -1.1206066365e+01    0.5684754    0.3709032  -9.71  0.003283799    1.608    0.378
        40 -12.0830    237.1151    246.4420   9.9524368274e+01  -1.2664425587e+01    0.3848926    0.2603244  15.73  0.002392738    1.368    0.269
        41 -10.1408    141.8443    220.8742   1.1446931337e+02   7.0374438836e+00     0.216933    0.1918888  12.72 0.0007763917    1.246    0.198
        42  -9.5214    250.4746    219.4535   9.2381886458e+01  -1.0352716060e+01    0.1252167    0.1009548 -13.28  0.000808118    1.029    0.028
        43 -11.1964    153.4574    234.0712   1.1408165519e+02   2.3662255615e+00    0.2901005    0.2190116 -36.01  0.001021829    1.487    0.327
        44 -11.3823    235.4715    216.5337   9.4520584948e+01  -7.7738009709e+00    0.2982918    0.1855323 -27.16  0.001618045    1.518    0.341
        45 -10.3393    191.6777    217.4891   1.0320023636e+02  -1.0042276686e+00    0.2348752    0.1669368 -34.47  0.001238386    1.417    0.294
        46  -9.4486    115.4907    244.5205   1.2365445856e+02   6.6662261771e+00     0.132591    0.1178936  51.93 5.594647e-05    1.038    0.037
        47 -10.9394      9.7729    217.0544   1.4249721112e+02   2.7085929818e+01    0.2953208    0.1733635  65.25 0.0009568239    1.501    0.334
        48  -9.5333     37.9816    217.4940   1.3685336224e+02   2.3871808452e+01    0.1765966    0.1175234  42.15 0.0005129904    1.538    0.350
        49 -10.3438     30.9911    215.7304   1.3813500452e+02   2.5100567966e+01    0.2605837    0.1672942  43.55     0.001518    1.568    0.362
        50  -9.6489    201.5471    215.5484   1.0084073853e+02  -2.2991452769e+00    0.1379818    0.1204094  -2.99  0.000805517    1.080    0.074
        51  -9.4396    137.0003    216.0000   1.1474410129e+02   8.9279490679e+00    0.2373951    0.0777356  38.97 0.0007958937    2.897    0.655
        52 -10.7224    241.4090    211.7219   9.2559718583e+01  -7.8374218091e+00    0.2773868    0.2265244 -67.28  0.001629735    1.905    0.475
        53  -9.7307    170.3090    213.3155   1.0693905738e+02   3.5258997054e+00    0.1436322    0.1092142  -4.65 0.0004017309    1.632    0.387
        54 -11.0709     21.2176    212.2780   1.3983275327e+02   2.6975656224e+01    0.3519412    0.1765593  61.15  0.001814346    1.925    0.481
        55 -10.2067    208.9607    212.0824   9.8722381129e+01  -2.8888722712e+00    0.2039997    0.1830142  -6.56 0.0004708395    1.005    0.005
        56  -9.6598      2.2913    212.3235   1.4360410241e+02   2.8861299495e+01    0.1789702    0.1196695 -77.17 0.0004782629    1.254    0.202
        57 -12.0594      4.6032    207.1010   1.4276491623e+02   2.9816428336e+01    0.5733244    0.2643364  87.30  0.002886851    2.026    0.507
        58  -9.3420    184.4480    208.5266   1.0304949582e+02   1.9678032916e+00    0.1412822    0.1302217  -1.19 0.0001231971    1.045    0.043
        59 -11.3122     18.5919    202.8327   1.3954743626e+02   2.9422603344e+01    0.3809641    0.2167825 -63.32 0.0008104495    1.619    0.383
        60  -9.5258    223.5953    201.8176   9.3954914022e+01  -3.4066825493e+00    0.1849667     0.119895 -50.54 0.0006875435    1.711    0.415
        61 -10.2518    175.2836    202.6729   1.0390001133e+02   4.7922379527e+00    0.2348321    0.2173389  76.21 0.0005547004    1.246    0.198
        62  -9.2390    218.2754    201.6603   9.4934561931e+01  -2.5144747299e+00    0.1267408    0.1080675 -71.88 0.0003221959    1.614    0.380
        63  -9.7819     34.6302    201.0531   1.3592434898e+02   2.8089423260e+01    0.1803019    0.1394172 -80.86  0.000482597    1.105    0.095
        64  -9.6179    227.1471    196.8482   9.2333891132e+01  -3.0804593865e+00    0.1903273    0.1466749  -8.82 0.0007132363    1.353    0.261
        65  -9.4040    203.0036    195.9789   9.6825874158e+01   1.1510555984e+00    0.1703927    0.1580149 -11.95 0.0006118374    1.008    0.008
        66 -10.3413    215.4761    194.5114   9.4084780423e+01  -7.2046865944e-01    0.2410641     0.119982 -32.99 0.0007435816    2.112    0.527
        67  -9.7805    232.3068    191.2982   9.0309619972e+01  -2.9054060237e+00    0.1351969   0.09711134  -8.84 0.0002709958    1.591    0.372
        68 -10.7491    187.3119    190.0460   9.8879225507e+01   5.1735666988e+00    0.3658108    0.1255047 -42.41  0.001238854    2.906    0.656
        69  -9.2792      1.5208    188.4510   1.4191415253e+02   3.4364927729e+01    0.1227473   0.09448285 -86.77 0.0002281344    1.016    0.016
        70  -9.4735     61.7717    185.0094   1.2765338597e+02   2.8548999971e+01    0.1920957    0.1062937 -66.29 0.0008786297    1.654    0.395
        71  -9.9211    167.2978    183.6527   1.0193654376e+02   1.0339394097e+01    0.1520261    0.1202286  89.61 0.0007035256    1.679    0.404
        72 -11.2639     15.9415    182.5403   1.3819892536e+02   3.4465006624e+01    0.3926606    0.2120231  86.21  0.001771169    1.839    0.456
        73  -8.9339     24.2795    180.6565   1.3608189257e+02   3.4099780047e+01    0.1351337   0.08400355  76.09 0.0004187748    1.631    0.387
        74  -9.7265      1.9798    180.2759   1.4110865773e+02   3.6234147707e+01    0.1672492    0.1361803  89.24  0.000598339    1.074    0.069
        75 -10.3789    244.4176    178.3030   8.5637063830e+01  -2.4928463334e+00    0.2570362    0.1122311 -37.40  0.001110349    2.057    0.514
        76 -10.8701    224.2377    178.3621   8.9218168233e+01   8.4039583343e-01     0.251017    0.2209173 -48.81 0.0005270169    1.174    0.149
        77  -9.0261     36.4334    178.4756   1.3294237935e+02   3.3331348511e+01    0.1347334    0.1121739 -81.47 0.0002739783    1.014    0.014
        78 -10.0867    200.1725    176.8022   9.3537395903e+01   5.4864212107e+00    0.2022245    0.1659928 -14.28 0.0005003453    1.329    0.247
        79  -9.7010     70.1839    177.6019   1.2446263071e+02   2.9197315201e+01    0.1766565    0.1416422  18.84 0.0005726569    1.578    0.366
        80 -10.8941     18.0945    173.0755   1.3670196440e+02   3.6535438101e+01    0.3352381    0.1384454  59.24  0.001360479    3.151    0.683
        81  -9.5079     74.9486    171.0363   1.2218349144e+02   3.0135077477e+01    0.2303087    0.1709369 -31.44  0.001118223    1.736    0.424
        82  -9.8218      4.6764    168.6896   1.3940225628e+02   3.8752161839e+01    0.1237771   0.07915806 -50.03 0.0003895259    1.653    0.395
        83  -9.4574    210.0098    166.2315   8.9399455001e+01   5.7802566024e+00    0.1800538    0.1219921  42.94 0.0005948052    1.596    0.373
        84 -11.2659     36.4904    162.5098   1.3083279670e+02   3.7263053533e+01    0.2743015    0.2166512 -56.70  0.001223331    1.214    0.177
        85 -11.1866     36.9592    157.8801   1.3005463733e+02   3.8358493552e+01    0.2466537    0.1778738 -68.39 0.0002998671    1.180    0.153
        86  -9.6987     67.1473    165.1650   1.2323675114e+02   3.2749756379e+01    0.2042432    0.1605367  75.88 0.0008566388    1.343    0.255
        87 -10.6802     51.9189    163.7007   1.2699952439e+02   3.5156682484e+01    0.3184349    0.1788158 -43.13  0.001116602    2.045    0.511
        88 -10.9697     44.3698    162.4352   1.2878030679e+02   3.6389887840e+01    0.3565508    0.1714549 -66.00  0.001588949    1.813    0.449
        89 -10.1908     48.1801    159.8164   1.2738474116e+02   3.6588706917e+01    0.2851293    0.2404582 -21.37  0.001336139    1.499    0.333
        90  -9.5088    200.4827    162.5644   9.0485079258e+01   8.3513987469e+00    0.1463807    0.1380961 -45.45 0.0001622001    1.034    0.033
        91  -9.7076    247.3321    158.6564   8.1258171584e+01   6.0413242520e-01    0.1348787   0.09991249 -68.81 0.0007050629    1.756    0.431
        92 -10.1180    238.2015    158.6029   8.2747499081e+01   2.1635008411e+00    0.1812326     0.128702  28.38  0.000918398    1.742    0.426
        93 -11.4469     22.8671    156.3508   1.3351445202e+02   4.0156494349e+01    0.3991946    0.3421057 -88.12  0.002135762    1.094    0.086
        94 -10.2810     11.9586    153.3058   1.3592979033e+02   4.1849018429e+01    0.2783484    0.1611464   9.76  0.001441637    2.540    0.606
        95 -10.4273    178.3076    151.5643   9.2667484873e+01   1.5175831523e+01    0.2738123    0.2305804 -53.72 0.0005595844    1.159    0.137
        96  -9.8280     27.2216    147.6673   1.3117180983e+02   4.1868338086e+01    0.2145151   0.07435416 -57.59 0.0005823108    2.266    0.559
        97 -10.2401    207.0273    146.0482   8.5646675158e+01   1.0449482429e+01    0.2258684     0.210514 -48.44 0.0006989619    1.014    0.014
        98  -9.1740    147.5048    156.5150   1.0079282123e+02   2.0476709829e+01    0.1562147    0.1515433 -71.80 6.290452e-05    1.010    0.010
        99  -9.8838     30.5530    144.5136   1.2979530901e+02   4.2316304593e+01    0.1346906    0.1125859 -68.91 3.060637e-05    1.006    0.006
       100 -10.5456     22.6659    144.1350   1.3189813067e+02   4.3152309886e+01    0.1962927    0.1672416  60.50 0.0005140323    1.303    0.233
       101 -10.1463      2.7734    144.1796   1.3719954218e+02   4.4725600827e+01    0.1802106    0.1194889 -51.82  0.001080193    1.403    0.287
       102  -9.2169     50.6510    140.6695   1.2351026025e+02   4.1051091314e+01    0.1475068   0.09800427 -34.00 0.0007048685    1.766    0.434
       103  -9.8466     19.6246    139.7774   1.3210432018e+02   4.4474105904e+01    0.2063365    0.1071435 -66.11 0.0006488105    1.564    0.360
       104 -10.4000     16.2547    139.7589   1.3302799729e+02   4.4760766432e+01    0.2855439    0.1246337  12.07  0.001204684    3.587    0.721
       105 -10.4224     55.9784    137.1082   1.2131705935e+02   4.1263129449e+01    0.4832952    0.2791374  86.84  0.001269413    2.976    0.664
       106 -10.1080    236.7545    138.5839   7.8870513085e+01   6.1939071864e+00    0.1663916    0.1346458  68.99 0.0005045758    1.474    0.322
       107 -10.5081     87.9025    137.9874   1.1231835456e+02   3.6332081228e+01    0.2170906    0.2049082 -51.33 0.0003512639    1.037    0.036
       108 -10.6079      9.2088    136.6753   1.3453293445e+02   4.6046263529e+01    0.2297464    0.1541509 -58.65 0.0002926146    1.228    0.185
       109 -10.5184      2.7798    136.3078   1.3623133427e+02   4.6586155480e+01    0.2713839    0.1240766 -62.56  0.001386713    1.652    0.395
       110 -10.3674     21.5036    135.8575   1.3100050623e+02   4.5256870732e+01     0.239281    0.1830729  71.93 0.0009208008    1.471    0.320
       111  -9.2007    250.3156    134.3055   7.5907021777e+01   4.5506255689e+00      0.12794    0.1011906 -13.49 0.0003609642    1.625    0.384
       112 -10.1747    106.9896    133.2725   1.0591765807e+02   3.4081739420e+01    0.2694275    0.2234731 -50.66 0.0009424502    1.159    0.137
       113 -10.8215     37.0746    130.5109   1.2562711816e+02   4.5065275223e+01    0.3157682    0.2709918 -56.99   0.00100902    1.031    0.030
       114 -11.5495     33.3023    126.0182   1.2594273438e+02   4.6527181178e+01    0.3338275     0.231828  47.25 0.0003562338    1.696    0.411
       115  -9.2426    227.0011    131.9943   7.9073694028e+01   9.2895627608e+00    0.1689999      0.15305 -53.52 0.0004868185    1.029    0.028
       116 -10.4239     73.9547    129.3185   1.1445459848e+02   4.0658224075e+01    0.2624051    0.1980633 -54.82 0.0007954876    1.219    0.180
       117  -9.3197    243.4065    128.5028   7.5757855359e+01   6.8517930444e+00    0.1378731     0.115013 -50.27 0.0001055053    1.022    0.021
       118 -11.1092      2.3257    123.9832   1.3471364237e+02   4.9499213471e+01    0.4957582    0.1349693 -61.32  0.002083699    2.471    0.595
       119  -9.6897     82.0926    125.1900   1.1112816469e+02   4.0376575622e+01    0.2213896    0.1885962 -31.64 0.0006983483    1.214    0.176
       120  -9.7755    226.3112    124.3149   7.7546151125e+01   1.0891879414e+01    0.1353541    0.1111517  -8.02 0.0007031954    1.636    0.389
       121  -9.4883    219.5540    124.4938   7.8699178965e+01   1.2207782446e+01    0.1444554    0.1282234 -54.06 0.0002798904    1.007    0.007
       122 -11.1245     10.5756    122.4209   1.3209169572e+02   4.9307861848e+01    0.2524055    0.2095881 -76.59  0.001051379    1.142    0.124
       123 -10.8271     21.0328    121.3292   1.2880432493e+02   4.8755079037e+01    0.2560223    0.1744452 -19.88  0.001282009    1.804    0.446
       124  -9.9019     33.3881    118.8692   1.2459334517e+02   4.8214090706e+01    0.1913248     0.140656 -53.83 0.0005073653    1.148    0.129
       125 -11.7038     22.8396    106.1031   1.2545573138e+02   5.2120098182e+01    0.4141889    0.2932737  77.82  0.002280964    1.961    0.490
       126 -11.9667     17.6171    115.9337   1.2891627306e+02   5.0290106807e+01    0.5076032    0.2352558 -49.15  0.002499273    1.794    0.442
       127 -12.1042     15.3584    109.0466   1.2840294502e+02   5.2044322660e+01    0.4825259    0.3555278  23.90  0.001056061    1.622    0.383
       128 -10.0258    249.8195    118.5909   7.2812575029e+01   7.4810861615e+00    0.1720005    0.1250525  76.89 0.0009448141    1.687    0.407
       129  -9.4319    220.3735    117.1509   7.6963030980e+01   1.3447165263e+01    0.2087507     0.117513 -52.33 0.0004420101    1.682    0.406
       130 -11.1228     51.0748    116.2258   1.1855211776e+02   4.6895211515e+01    0.3810377    0.1738973 -55.38 -5.119154e-05    1.901    0.474
       131  -9.4989     86.4330    116.5005   1.0777301614e+02   4.1696547036e+01    0.1473183    0.1380709 -45.67  6.23079e-05    1.012    0.012
       132  -8.9394    166.3305    115.7024   8.6836937531e+01   2.5493981607e+01    0.1578726    0.1199219 -85.20 0.0002621594    1.640    0.390
       133  -9.3282    182.5037    114.4996   8.3187593453e+01   2.2113408339e+01    0.1516346    0.1426077 -67.51 0.0008106823    1.005    0.005
       134 -10.0134     35.0000    113.9850   1.2313636288e+02   4.9196247200e+01      0.25999    0.1661586 -64.03   0.00137366    1.432    0.301
       135 -11.6484     35.8578    109.3170   1.2190774828e+02   5.0186976818e+01    0.3733743    0.2740259  56.93 0.0009168457    1.763    0.433
       136 -10.6825    249.0364    111.9833   7.1588726298e+01   8.8039248623e+00    0.2101804    0.1722469 -52.96 0.0006151891    1.025    0.024
       137  -8.7866    212.6658    112.6798   7.7252194400e+01   1.5898227524e+01    0.1394436    0.1161098   1.67 0.0007049483    1.701    0.412
       138 -10.3611     56.1563    107.9631   1.1507772181e+02   4.8165614863e+01    0.4425094    0.1714083 -54.54  0.001743962    2.313    0.568
       139  -9.7175     91.4789    107.9777   1.0411720022e+02   4.2753632677e+01    0.2188135     0.140201 -48.53 0.0003796008    1.498    0.333
       140 -10.4909      6.8194    107.3621   1.3079888038e+02   5.3019310986e+01    0.2484095    0.2256215 -71.31 0.0005910345    1.172    0.147
       141 -10.7756      2.5189    105.3857   1.3181852469e+02   5.3728617822e+01    0.2231005    0.1708706 -56.21 0.0001781578    1.023    0.023
       142 -11.1189    243.7057    104.6287   7.0824184730e+01   1.1111704220e+01    0.2362717    0.1505095 -36.32 0.0006505447    1.595    0.373
       143 -10.1039    223.3262    103.9306   7.3620255815e+01   1.5303032923e+01    0.2205219    0.1825564 -84.12  0.000426403    1.228    0.186
       144 -10.5518    247.9394    102.4775   6.9819679648e+01   1.0682331541e+01    0.1834337    0.1298238  63.25  0.000732616    1.591    0.372
       145 -10.0403    119.6286    101.6761   9.4468215485e+01   3.8678117687e+01    0.2348271    0.1823301  -2.84  0.001091915    1.700    0.412
       146 -10.4113     35.7793    101.5121   1.2024907645e+02   5.1959257985e+01    0.2565384    0.1874581  33.29  0.001483876    1.573    0.364
       147 -11.9278      3.1118    100.1908   1.3074464354e+02   5.4846926147e+01    0.2640665     0.229773 -85.52 0.0003536557    1.294    0.227
       148 -10.5004      1.7689     94.1608   1.3010695032e+02   5.6242400008e+01    0.3505049   0.09833452 -55.98  0.001230548    2.361    0.576
       149  -9.5698    145.2985    100.6475   8.7749906438e+01   3.3317141213e+01    0.1578251    0.1189224 -79.54 0.0002547766    1.693    0.409
       150 -10.6177     62.0340     98.6564   1.1088744487e+02   4.9450314807e+01    0.3122019    0.2261466 -41.65 0.0006879276    1.258    0.205
       151 -10.3302     66.2782     98.5341   1.0947774595e+02   4.8876305288e+01    0.2867137    0.2157715  -0.39  0.001052922    1.563    0.360
       152  -9.2232     27.9057    100.8124   1.2271183266e+02   5.2867342273e+01    0.1434265   0.09966666  15.32 0.0002973691    1.667    0.400
       153 -10.1802    161.1962     99.2080   8.3804834733e+01   2.9992985005e+01    0.2543117    0.1729647   8.76 0.0009588831    2.861    0.650
       154 -10.1821     92.6236     97.2268   1.0090215934e+02   4.4867496227e+01    0.2123183    0.1301559 -37.74  0.000952577    1.649    0.393
       155 -10.6311     20.1618     96.6880   1.2443352119e+02   5.4437035762e+01     0.257989    0.1534955 -54.82  0.001437685    1.366    0.268
       156  -9.8262     57.4634     96.5134   1.1183899599e+02   5.0533351778e+01    0.1363839    0.1225815 -36.01 -3.427695e-05    1.023    0.022
       157 -10.0252     31.4912     91.9803   1.1952180162e+02   5.4466930313e+01      0.26661    0.1685521 -58.35  0.001196956    1.460    0.315
       158 -11.3425     25.6805     91.6350   1.2144903982e+02   5.5072711224e+01    0.2572687     0.213048 -19.10 0.0003331096    1.208    0.173
       159  -9.8032    162.7563     92.1535   8.1664821771e+01   3.0987463389e+01    0.1944743    0.1770523   9.13 0.0004288067    1.324    0.245
       160 -12.1013     11.0142     90.9947   1.2636780657e+02   5.6348685732e+01    0.3571159    0.2214078  17.72   0.00212157    1.891    0.471
       161 -10.9265      4.6406     86.5389   1.2766539611e+02   5.7704981200e+01    0.4383765    0.2420207 -61.72  0.002508249    1.524    0.344
       162  -9.1296    178.2775     91.7230   7.8466871444e+01   2.7487437312e+01    0.1454061    0.1097303 -77.88 0.0006905004    1.498    0.333
       163 -10.4769    158.0184     90.1452   8.2143157529e+01   3.2456021517e+01    0.2721623    0.2193587 -44.77  0.001389634    1.249    0.199
       164 -10.5786     95.8051     90.6738   9.8125277096e+01   4.5629949994e+01    0.4501895    0.2456423  18.47  0.001567449    3.400    0.706
       165  -9.1422    135.3472     90.3369   8.7360202332e+01   3.7561799157e+01    0.1549857    0.1188593   9.94 0.0005728559    1.779    0.438
       166 -10.7130    112.0881     86.0868   9.2171303970e+01   4.3347870961e+01    0.3638272    0.2933879  84.04  0.001823507    1.641    0.391
       167 -11.3719     48.2906     86.0218   1.1220016955e+02   5.3908590895e+01    0.5024414    0.3953697 -73.29   0.00112794    1.659    0.397
       168 -10.8724     42.0222     82.4644   1.1344554608e+02   5.5367387345e+01    0.4399163    0.2945563  70.71  0.001999995    3.152    0.683
       169  -8.9779     21.3007     91.3273   1.2289400336e+02   5.5508820816e+01    0.1336711   0.07666282 -35.31 0.0004002435    1.640    0.390
       170 -10.5493     22.9586     86.7843   1.2128621749e+02   5.6338404293e+01    0.2415151    0.1465783 -46.49 0.0004951782    1.341    0.254
       171 -11.1148     66.6879     85.2279   1.0573019971e+02   5.1597396096e+01    0.3900831    0.2550392 -10.52  0.001677824    2.024    0.506
       172  -9.6862     14.9527     83.9518   1.2347821337e+02   5.7562310046e+01    0.2028106    0.1508816  13.59  0.001305402    1.528    0.345
       173 -10.6164    118.0206     82.7067   8.9607376817e+01   4.2752569003e+01    0.2818389    0.2118217 -30.20 0.0009479941    1.420    0.296
       174  -9.6150     87.8828     83.5784   9.8471679410e+01   4.8467664319e+01    0.1830711    0.1321141  51.62 0.0005426478    1.584    0.369
       175 -10.0085     29.5831     81.8051   1.1771718908e+02   5.6784369438e+01    0.2093044    0.1698946   7.10  0.001176244    1.314    0.239
       176 -11.0277     23.2200     79.9921   1.1956565183e+02   5.7725515538e+01    0.3505949    0.1987223 -32.85 0.0004249302    1.654    0.395
       177 -11.4572     21.0890     76.9765   1.1959600592e+02   5.8515884885e+01    0.4000407    0.2152035 -26.93  0.001982953    1.950    0.487
       178 -11.7800     11.9533     78.8527   1.2339798466e+02   5.8830130200e+01    0.4678985     0.211728 -47.50 0.0004961201    1.700    0.412
       179 -10.9337      2.9276     78.8209   1.2666931833e+02   5.9411619963e+01    0.2651253    0.2252946 -21.79  0.001207963    1.201    0.167
       180 -11.7970      6.8019     73.4683   1.2405009739e+02   6.0261171919e+01    0.3315935    0.2289603   4.17  0.001117478    1.600    0.375
       181 -10.3992     91.7345     77.8750   9.5611371420e+01   4.8850916493e+01    0.2938246    0.2019868 -32.88  0.001481703    1.475    0.322
       182 -10.2811     70.9938     79.3243   1.0259824843e+02   5.2105343053e+01    0.1891562    0.1652803  13.52 0.0005175076    1.127    0.113
       183 -10.5085    151.6289     77.6143   8.0183303370e+01   3.6189962174e+01    0.4320398    0.2345777  51.21  0.001871204    1.776    0.437
       184 -11.7367     62.4689     71.6545   1.0316751861e+02   5.4835078435e+01      0.34767    0.3164606 -20.03  0.001309194    1.080    0.074
       185  -9.2376    177.5238     76.5170   7.4830672203e+01   3.0357696100e+01    0.1465489    0.1296481 -82.42 -3.074095e-05    1.074    0.069
       186  -9.7054    122.0510     76.4742   8.6764169518e+01   4.3021497455e+01     0.219937    0.1379599  49.68 0.0008192367    1.552    0.356
       187 -12.1308     44.7939     75.2826   1.1047293834e+02   5.6477694796e+01    0.2344382    0.2070992  10.58 0.0002860727    1.184    0.155
       188 -10.7419     27.5518     69.7422   1.1527792656e+02   5.9372523414e+01    0.2809405    0.1480946 -39.27  0.001506233    1.613    0.380
       189 -11.1773     37.5787     69.4465   1.1143411523e+02   5.8415168733e+01      0.53903    0.4212454  62.85  0.003142219    2.081    0.519
       190 -11.0620     30.9648     65.9856   1.1291926563e+02   5.9755356111e+01    0.3071466    0.1896635 -49.99 0.0006946949    1.523    0.343
       191 -10.3721    138.6961     74.7448   8.2249786820e+01   3.9642687968e+01    0.3143483    0.2374178 -76.19  0.001018123    1.683    0.406
       192 -10.6435    108.9510     74.2196   8.9561426006e+01   4.6165870728e+01    0.3521736    0.2290301 -38.92   0.00171247    1.575    0.365
       193 -11.3278    102.6417     73.2669   9.1033079936e+01   4.7600078259e+01    0.3208511    0.2735962 -87.84  0.001300041    1.548    0.354
       194 -11.6903     94.3892     68.7939   9.2052521762e+01   4.9973141510e+01     0.595144    0.3022112 -30.11  0.002441181    2.282    0.562
       195 -10.5725     99.5449     64.7791   8.9311337353e+01   4.9652966725e+01    0.2985247    0.2023467 -21.60  0.001492976    1.686    0.407
       196  -9.6778     83.9603     72.4771   9.6360121973e+01   5.1230345706e+01    0.1907335    0.1305229  37.42 7.174598e-05    1.447    0.309
       197 -11.3761     76.3097     70.9906   9.8337954275e+01   5.2801380901e+01    0.4535468    0.3357894  56.89  0.001726472    1.780    0.438
       198  -8.9896    212.6279     70.3247   6.7817982027e+01   2.3399759394e+01    0.1492353   0.09307499 -74.20 0.0007031465    1.816    0.449
       199 -10.2678    144.6516     69.9034   7.9577271264e+01   3.9099991400e+01    0.2141576    0.1809924  -7.37 0.0006840378    1.451    0.311
       200 -10.1522     68.6990     69.9760   1.0053505113e+02   5.4204420183e+01    0.1941932    0.1747186  -8.41 0.0002481323    1.018    0.017
       201  -9.8393     68.7189     66.7097   9.9507566073e+01   5.4782710268e+01     0.204147    0.1658054 -12.37 0.0002173978    1.177    0.150
       202 -11.1090     50.2117     68.6365   1.0656413511e+02   5.7070001939e+01    0.3922197    0.2386714 -13.90  0.001950442    2.028    0.507
       203 -11.1781     50.8815     63.8924   1.0485827066e+02   5.7842192668e+01    0.5431763    0.2634533 -26.34  0.002361451    2.590    0.614
       204  -9.0150    167.9626     70.0000   7.4926099961e+01   3.3671806828e+01    0.2236964   0.07756837  57.17 0.0004049454    2.769    0.639
       205 -12.0725     57.7297     74.0647   1.0553349582e+02   5.5056219413e+01    0.4692564    0.3558002  64.13  0.000385082    2.101    0.524
       206  -9.8577    123.3327     68.4788   8.4110178350e+01   4.4109703532e+01    0.2256172    0.1320851 -38.13 0.0005821037    1.786    0.440
       207 -11.9481     17.8950     67.1649   1.1825998692e+02   6.0704711580e+01    0.5703368    0.2818538   1.65  0.001398226    2.653    0.623
       208 -10.6839     18.4069     60.6135   1.1625064227e+02   6.1895377178e+01    0.3358649    0.2600194  73.50   0.00200886    2.408    0.585
       209  -9.9024     16.4878     73.1008   1.2033474496e+02   5.9656970889e+01    0.2346409    0.0903192 -51.22  0.001126219    2.025    0.506
       210 -11.9155      3.9577     65.0037   1.2310169958e+02   6.2097866043e+01    0.3906173    0.3133076  77.18  0.001706447    1.963    0.490
       211 -10.4427    139.0929     65.7024   7.9619563228e+01   4.1050592885e+01    0.2029045    0.1708367  53.11 0.0005400619    1.123    0.110
       212 -11.3893     57.9788     61.3474   1.0150445208e+02   5.7317423468e+01    0.6712164    0.2239151 -32.73  0.002241854    4.211    0.763
       213 -11.5084     63.5683     60.2362   9.9189889021e+01   5.6686354659e+01    0.4249226    0.2345924  32.55  0.001747174    1.804    0.446
       214 -10.1066    217.1180     64.8643   6.6019474800e+01   2.3282461209e+01    0.2701599    0.1655815  72.67 0.0009140095    1.639    0.390
       215 -10.6351     77.1088     63.7746   9.5808571295e+01   5.3924375177e+01    0.3340839     0.210024 -36.52 0.0008204347    1.571    0.363
       216  -9.7873     41.8340     64.2032   1.0828549189e+02   5.8906838293e+01    0.1688942    0.1539197 -13.05 0.0003702452    1.149    0.130
       217 -10.5282      6.9774     41.3165   1.1517577605e+02   6.6150435825e+01    0.2503329    0.1168437 -42.03 0.0008059883    1.688    0.407
       218 -10.8552      4.3944     47.3077   1.1812955411e+02   6.5312296502e+01    0.2952989    0.1294007 -32.24   0.00155416    1.986    0.496
       219 -11.8653      5.0436     51.6396   1.1911456394e+02   6.4507810405e+01    0.3918999    0.2282344 -35.63 0.0008960718    1.345    0.256
       220 -10.4200     11.1042     62.7888   1.1973452984e+02   6.2049661096e+01    0.1932692    0.1727045 -28.12 0.0003839007    1.185    0.156
       221 -11.0242      6.7628     58.8060   1.2039447448e+02   6.3091863238e+01    0.3662733    0.2732701 -74.19   0.00237728    1.871    0.465
       222  -9.8037    201.2910     61.9696   6.7536827550e+01   2.7245586643e+01    0.1825911    0.1583337 -63.53 0.0003155298    1.099    0.090
       223 -10.8968     83.8569     61.6997   9.3005122309e+01   5.3097953048e+01    0.4224818      0.26654  32.84   0.00179573    1.565    0.361
       224 -11.1916     86.8319     56.2221   9.0318106532e+01   5.3431852939e+01    0.3250358    0.2460517  -2.93 0.0008526738    1.449    0.310
       225 -11.0740     87.2235     52.2478   8.8895474957e+01   5.3962388451e+01    0.2729502    0.2189909 -33.95 0.0008676319    1.312    0.238
       226 -10.7799     45.3329     50.7084   1.0261943518e+02   6.0793340006e+01    0.4523567    0.1841054 -33.66  0.002038497    2.489    0.598
       227 -11.4703     29.7522     60.8278   1.1186250278e+02   6.0825062829e+01    0.6035846    0.2281025  18.11  0.002379911    3.496    0.714
       228 -12.6086     37.5511     51.1455   1.0575475175e+02   6.1666092675e+01    0.6984467    0.5001948 -10.38  0.004068903    1.293    0.226
       229 -10.7399     47.6218     57.9944   1.0417402003e+02   5.9291477529e+01    0.3117793    0.2744443 -84.16   0.00195887    1.828    0.453
       230  -9.6833     43.7096     57.2932   1.0540911858e+02   5.9900848726e+01    0.1813203    0.1402876 -45.87 0.0001786652    1.407    0.289
       231 -11.0670    128.5155     57.1842   7.9551108266e+01   4.4744350480e+01    0.3291935    0.2656567   4.25 0.0008345077    1.517    0.341
       232  -9.1501    160.6811     60.6644   7.3850382218e+01   3.6847925097e+01    0.1402133    0.1080526  26.35 0.0007049117    1.701    0.412
       233 -10.6913    123.1655     56.4529   8.0585922710e+01   4.6032652964e+01    0.2981405    0.2055863 -54.56  0.001178252    1.751    0.429
       234 -11.9216    128.5388     50.3166   7.7521708309e+01   4.5730285897e+01    0.6106174    0.3802454  -5.54  0.002264881    2.653    0.623
       235 -10.3865    113.9674     48.6078   8.0423648541e+01   4.9141440084e+01    0.4173023    0.2513406 -58.15  0.001882259    2.501    0.600
       236 -10.1076    114.5311     57.4131   8.2998049878e+01   4.7749192812e+01    0.2483422    0.1752816  47.51 1.297019e-05    1.321    0.243
       237 -10.8513    117.5111     54.9707   8.1507471161e+01   4.7477058736e+01    0.4054735    0.2675445  30.02  0.002005834    1.721    0.419
       238 -10.9356    101.3297     55.9531   8.6035519241e+01   5.0690412198e+01    0.5293863     0.189606  50.29  0.002007712    2.750    0.636
       239 -10.6395     75.2173     56.0257   9.3898858100e+01   5.5509318787e+01    0.2014787    0.1719094  23.39 0.0003297037    1.101    0.091
       240  -9.9310     62.5619     54.8610   9.7765334532e+01   5.7721707077e+01    0.2499744    0.1662413  50.96  0.001330992    1.993    0.498
       241 -10.5820     12.6042     51.8333   1.1603600396e+02   6.3937521344e+01    0.3006417    0.1605026 -49.65  0.001612009    1.654    0.395
       242  -9.4486    179.5287     50.9627   6.8169378018e+01   3.3876480868e+01    0.1846246    0.1328435 -38.09 0.0003787977    1.505    0.336
       243 -10.7221     70.0027     50.5174   9.3764599243e+01   5.7226845027e+01    0.2972945    0.2752328 -88.66  0.001498036    1.578    0.366
       244 -10.6069     81.6977     50.1007   8.9865023417e+01   5.5285315326e+01    0.2065714    0.1676961  44.66  0.000329094    1.283    0.220
       245  -8.9824     77.2739     50.6551   9.1441579109e+01   5.5982062282e+01     0.117419    0.1043632 -72.99 0.0002025665    1.622    0.384
       246  -9.3708    220.9289     48.9806   6.2172122952e+01   2.4828933821e+01    0.1525136    0.1256352 -76.65            0    1.008    0.008
       247 -11.3413    152.8647     47.9798   7.1913373932e+01   4.0504520953e+01    0.3973247    0.2555782  69.70  0.001336862    1.540    0.351
       248 -10.8675    104.0758     47.2625   8.2520435276e+01   5.1388803088e+01    0.4175267    0.2160972 -39.28  0.001975277    2.100    0.524
       249  -9.0978     94.3975     49.5014   8.5896131734e+01   5.3002522895e+01    0.1320047    0.1161714  16.43 -0.0005102077    1.063    0.059
       250 -10.8849     60.7642     46.6515   9.5589792781e+01   5.9264531626e+01    0.3079401    0.2932597 -15.82  0.001526431    1.287    0.223
       251  -9.4213     78.7486     47.3781   8.9864206591e+01   5.6204148940e+01    0.1779425    0.1089258  33.19 0.0009318201    1.554    0.357
       252 -11.1405     11.3219     44.4828   1.1431141471e+02   6.5298691577e+01    0.4070513    0.1873869 -33.24   0.00164861    1.857    0.462
       253 -10.6102    142.4498     45.4584   7.3201890384e+01   4.3246838690e+01    0.3378508    0.2298329 -76.69  0.001053485    1.980    0.495
       254  -9.1569    233.4223     45.4453   6.0084079743e+01   2.2682093151e+01    0.1254615    0.1007224 -74.27 0.0001214541    1.012    0.012
       255 -10.2177    163.9419     45.3003   6.9255486414e+01   3.8290671812e+01    0.1848262    0.1571879  66.50 0.0002425958    1.077    0.071
       256 -10.1564     51.2601     44.9859   9.8426510956e+01   6.0896023763e+01    0.1870728    0.1522414   1.05 0.0003172004    1.048    0.046
       257 -11.0213     52.2599     41.1365   9.6689823713e+01   6.1322196991e+01    0.2723627    0.2176894  46.37  0.000951757    1.629    0.386
       258 -10.7352    121.7404     42.9078   7.6832011666e+01   4.8227504660e+01     0.311761    0.2774353  70.39  0.001919249    1.165    0.142
       259  -9.8848    110.4019     41.8443   7.9181629034e+01   5.0798577207e+01     0.225214    0.1667356  62.19 0.0005230951    1.408    0.290
       260 -10.3995     23.6590     41.3045   1.0803433494e+02   6.4735367157e+01    0.1878915    0.1791335  20.42 0.0009267363    1.512    0.339
       261 -12.6649     26.1023     36.4393   1.0529580679e+02   6.5237082270e+01    0.4010951    0.3787708 -25.09  0.003062445    1.487    0.328
       262 -11.5970     20.7516     37.6323   1.0798515525e+02   6.5589279773e+01    0.2828092    0.1837947 -26.66 0.0006820297    1.271    0.213
       263  -9.5655    220.4287     41.5321   6.0680465421e+01   2.5976472603e+01     0.127405    0.1037496 -77.87 8.324871e-05    1.009    0.009
       264 -11.3165     97.9994     31.9748   7.9106048991e+01   5.4556339319e+01    0.3478788    0.2213501  37.39 0.0004143744    1.446    0.308
       265 -10.8456    101.0959     28.5848   7.7193043084e+01   5.4313919595e+01    0.2327422    0.2117414 -72.04 0.0004036261    1.392    0.282
       266 -10.8734     97.1727     41.0209   8.2332472597e+01   5.3611723013e+01    0.3530777    0.2390426  46.91  0.001178386    1.348    0.258
       267 -11.7804    101.8096     36.8438   7.9732585707e+01   5.3205593894e+01    0.5990098    0.2917794  35.73  0.002455279    2.209    0.547
       268 -11.9607     97.1642     36.9549   8.0985794450e+01   5.4127401586e+01    0.2497399    0.2059505  45.69 0.0002978854    1.129    0.114
       269 -10.4753     67.0005     41.0110   9.1463822952e+01   5.9090892855e+01    0.3149935    0.1893877   6.30   0.00156387    2.195    0.544
       270 -10.6021     70.2413     35.9620   8.8589590072e+01   5.9226233291e+01    0.2679513    0.1772996  17.82  0.001525854    1.549    0.354
       271  -9.9525    226.0636     40.0563   5.9773798162e+01   2.4972002430e+01    0.2044063    0.1217202 -70.24 0.0006347442    1.611    0.379
       272  -9.1962    215.5486     40.5391   6.1017084764e+01   2.7169454760e+01    0.1286426    0.1047708 -79.87 0.0001151637    1.008    0.008
       273 -10.8368     89.2774     39.4680   8.4009226264e+01   5.5348357908e+01    0.2332945    0.2059572 -52.55 0.0005500886    1.440    0.305
       274 -10.5085     82.8422     30.2186   8.2663531053e+01   5.7691676596e+01    0.2951844    0.2244199 -78.05  0.001608894    2.430    0.589
       275 -11.8873     80.7748     37.7465   8.5917372421e+01   5.7151129222e+01    0.4592757    0.3903222 -72.95  0.002812176    1.804    0.446
       276 -10.9820     77.5903     33.6099   8.5430128115e+01   5.8243837489e+01    0.4152827     0.222457  -4.36  0.001789109    3.124    0.680
       277 -10.2091     43.4136     38.5514   9.9085351810e+01   6.2897913702e+01    0.3516754    0.2269187 -54.09  0.001496366    2.480    0.597
       278  -9.1516    188.2435     39.3435   6.4125712160e+01   3.3449242107e+01    0.1165096    0.1009211  29.98 0.0002406821    1.566    0.361
       279  -9.2719     61.8001     37.9607   9.2141193013e+01   6.0338632606e+01    0.1482414   0.09039653 -30.21 0.0002201518    1.633    0.388
       280 -10.2179    166.5388     36.5732   6.6598035965e+01   3.8817225279e+01    0.1318818    0.1141118  77.85 8.479434e-05    1.008    0.008
       281  -9.3447    127.4758     36.4373   7.3632772771e+01   4.7772621938e+01    0.1314396    0.1159694  53.85 0.0001017285    1.007    0.007
       282 -10.6009     18.2154     32.0428   1.0707813321e+02   6.6673748155e+01    0.3381298    0.2690523  -6.12  0.002525322    1.101    0.092
       283 -11.4744      5.7362     31.4521   1.1243574126e+02   6.7816551801e+01    0.5415175    0.2375007 -26.36  0.002508134    2.181    0.542
       284 -10.8478      2.1791     24.1469   1.1146692879e+02   6.9175000150e+01    0.4265107    0.1749661 -40.87  0.002489561    1.967    0.491
       285 -10.2536    181.2501    248.5144   1.1062394154e+02  -4.8264899826e+00    0.2716509   0.08988431 -35.74 0.0009042185    4.515    0.779
       286 -10.0905      8.0067     20.9797   1.0752916588e+02   6.9166987648e+01    0.1913655    0.1229037 -26.26 0.0008998239    1.238    0.192
       287 -12.1066     74.3425    238.3071   1.3146715038e+02   1.4356229189e+01    0.5042592    0.3793899 -81.31  0.002688334    1.288    0.224
       288  -9.9846     85.0148     34.9905   8.3701026125e+01   5.6716257322e+01    0.1723749    0.1502385  73.72 0.0004591591    1.536    0.349
       289  -9.6618    139.8611     33.8946   7.0436726342e+01   4.5290290855e+01    0.1733905    0.1433671  89.03 0.0003544362    1.279    0.218
       290 -10.0211    129.8929     32.8593   7.2075956337e+01   4.7658014036e+01    0.2322589     0.168322 -49.11  0.001240898    1.592    0.372
       291  -9.5819    206.2320     33.6300   6.0605238137e+01   3.0128318851e+01    0.1672205    0.1027312  62.64 0.0002293494    1.557    0.358
       292  -9.8530    124.4858     32.9941   7.3230427916e+01   4.8841588620e+01    0.2255051    0.1463415  56.14  0.001223819    1.355    0.262
       293  -9.1474     60.3471     33.7020   9.1088212781e+01   6.1129062522e+01    0.1067467    0.0985231  73.21 0.0005039953    1.679    0.404
       294  -9.9469    145.1178     32.1835   6.8998059857e+01   4.4292017449e+01     0.186453    0.1559839  53.71 0.0002912527    1.118    0.106
       295 -10.3423     50.5223     27.9933   9.2449045082e+01   6.3337667528e+01    0.2188409     0.157848   5.20 0.0003340083    1.250    0.200
       296  -9.8965     42.8014     31.7611   9.6802175272e+01   6.3923688280e+01    0.1760518    0.1307071   8.15  0.000898274    1.156    0.135
       297 -10.0356    177.1593     31.1893   6.3706345968e+01   3.7021547909e+01    0.1836507    0.1356636 -72.96 0.0005910169    1.351    0.260
       298  -9.2837     90.0300     31.5258   8.1084753320e+01   5.6178021462e+01    0.1835381    0.1106945  47.75 0.0004705895    1.484    0.326
       299  -9.9227     73.2833     31.3156   8.5942386064e+01   5.9283519122e+01    0.2226232    0.1255872  35.21 0.0003894228    1.606    0.377
       300 -11.6692     70.5536     26.0340   8.4870957687e+01   6.0375145624e+01    0.4532132    0.2775229  37.38  0.002658988    1.423    0.297
       301 -10.2911     49.9398     31.4577   9.3981650794e+01   6.2980304354e+01    0.2051046    0.1694313  49.52 0.0007614194    1.694    0.410
       302 -10.8216    214.6335     27.4111   5.8383607702e+01   2.9067145695e+01    0.2092022     0.168425 -80.46 0.0001699498    1.018    0.018
       303 -11.1140     10.4250     34.4721   1.1137918798e+02   6.6985857113e+01    0.3620759    0.1896402  10.07  0.001205685    1.962    0.490
       304 -10.1441    109.6600    243.2350   1.2470764865e+02   7.8684250666e+00    0.2861347    0.1925325  68.40  0.001020784    1.647    0.393
       305 -10.7079    129.4400     19.0526   6.8109826499e+01   4.9237988491e+01    0.1781133    0.1494151  15.27 0.0005436212    1.396    0.284
       306  -8.8721     63.6132    243.6931   1.3419763462e+02   1.4748977312e+01    0.1152684    0.1005162 -21.05 0.0007017348    1.806    0.446
       307 -11.1699     37.5884    243.0068   1.3919011508e+02   1.8322843954e+01    0.2893694    0.1799762  51.85  0.001748426    1.398    0.285
       308 -11.7665     35.5081    239.9930   1.3933926374e+02   1.9215370933e+01    0.4044626    0.2111112 -45.11  0.001859166    3.430    0.708
       309 -10.5944     88.8875    241.4082   1.2881432546e+02   1.1518940754e+01    0.2533091     0.161108 -46.49  0.001308211    2.011    0.503
       310 -10.7953    156.4977    241.0795   1.1454049382e+02   5.2384547143e-01    0.1910978    0.1337772 -49.03  0.001030037    1.581    0.367
       311  -9.5542     16.4867     26.8941   1.0592598182e+02   6.7581799258e+01    0.1547525   0.08997488 -34.14 0.0003881826    1.485    0.326
       312 -10.5366     87.9892     25.1358   7.9432053428e+01   5.7287227788e+01    0.3534543    0.2512432 -86.22  0.001136017    2.770    0.639
       313 -11.1785     84.8021     20.9514   7.8831116216e+01   5.8334342935e+01    0.2775552    0.1773154  15.80  0.001252256    1.768    0.435
       314  -9.2735     36.2674     26.6435   9.7418699446e+01   6.5441231820e+01   0.09657691   0.09021577 -38.37 0.0005671851    1.634    0.388
       315 -10.6824      9.9563     25.2512   1.0825841152e+02   6.8400778282e+01    0.2646646    0.1561385   0.59  0.001729746    1.599    0.375
       316 -13.0654     19.9804    248.5514   1.4283763083e+02   1.9256113267e+01     1.232583    0.2684127  45.36   0.00525735    3.268    0.694
       317  -9.9925    210.7104     24.5467   5.8195706530e+01   3.0270382366e+01    0.1694202    0.1008763  86.52 0.0006609093    1.542    0.352
       318 -10.3884    173.9288     24.1067   6.2436448633e+01   3.8588782070e+01    0.1917055    0.1566432  82.01 0.0003396666    1.039    0.038
       319 -10.1194     93.8997     24.1606   7.7528535485e+01   5.6237447426e+01    0.1743544    0.1658333  71.24 0.0006581574    1.270    0.212
       320  -9.6282     35.0571     22.7863   9.6388097492e+01   6.6083803776e+01    0.1918941    0.1056321  11.06 0.0009516535    1.998    0.499
       321  -9.9913    135.1791     22.0967   6.7942877562e+01   4.7651453004e+01    0.2758344    0.1161474  43.12  0.001183161    2.559    0.609
       322  -9.6574    120.4810     21.1514   7.0468290395e+01   5.0998509913e+01    0.1641466    0.1257319 -23.61 0.0007840911    1.514    0.340
       323  -9.4665     50.3032    240.3172   1.3650556668e+02   1.7269780050e+01    0.1105888   0.09589018 -46.06 0.0005191526    1.623    0.384
       324 -10.1942     46.5215     20.5807   9.1037158652e+01   6.4803735926e+01    0.3062994     0.120863  39.88  0.001539019    2.338    0.572
       325 -10.0424    162.2054     20.0274   6.3051425128e+01   4.1720173082e+01    0.1690779    0.1476366  83.08 0.0003251215    1.050    0.047
       326 -10.9781    108.0630     17.2124   7.1848600644e+01   5.4036929165e+01    0.2656818     0.173916  55.35 0.0004560555    1.305    0.234
       327 -10.4544    195.7367    238.2930   1.0603386849e+02  -5.3813528812e+00     0.260276    0.2035326   5.63  0.001535939    1.273    0.215
       328  -9.8746    217.4851     16.5164   5.5900434146e+01   2.9752693843e+01    0.2081514   0.08674542  61.42  0.001029726    2.262    0.558
       329  -9.3269    146.6130     15.5002   6.4196267374e+01   4.5731409231e+01    0.1226649     0.105302  65.66  0.000126804    1.042    0.041
       330  -9.8303     49.7768     15.3742   8.7754839188e+01   6.4898314771e+01    0.2330127    0.1274859  40.21  0.001385838    1.660    0.398
       331 -11.1424     31.4141    237.3871   1.3990824771e+02   2.0264231271e+01    0.2866145    0.1831678  85.12 0.0009795283    1.342    0.255
       332 -10.8137     29.4335    232.9713   1.3993182679e+02   2.1448450355e+01    0.2877116    0.1644797  53.41  0.001129799    1.535    0.349
       333 -10.0277     72.6107    250.0910   1.3305485741e+02   1.2146779555e+01     0.193415    0.1770187  -3.68  0.001259466    1.628    0.386
       334 -10.2057    159.9360    235.8581   1.1299456638e+02   9.2513394259e-01    0.2106878    0.1769675  10.41 0.0007044005    1.268    0.211
       335 -13.1900     16.3242    238.2443   1.4279039131e+02   2.1804182849e+01       1.3285    0.3818318  37.75  0.006012786    3.136    0.681
       336 -10.3002    177.6103    234.8334   1.0913485986e+02  -1.8453630266e+00    0.2568152    0.1962734   5.91 0.0009051602    1.453    0.312
       337 -10.0509    167.0120    233.7493   1.1116308137e+02   1.2669342974e-01    0.1907344    0.1734734  25.87  0.001156576    1.005    0.005
       338 -12.2483      5.8156    244.8503   1.4509269336e+02   2.1550476513e+01      0.59215    0.3384508  77.07  0.002865094    1.399    0.285
       339  -9.9714     30.5227     12.9738   9.4226857042e+01   6.7812244724e+01    0.1529498   0.09345668 -24.21  0.000503059    1.525    0.344
       340 -10.2629     79.7576    231.5375   1.2956775957e+02   1.5016148739e+01    0.2287678    0.1245169  36.38    0.0005891    1.859    0.462
       341  -9.4117     58.3324    230.2913   1.3391347335e+02   1.8367132011e+01    0.1152273    0.1016596 -34.21 0.0003748392    1.631    0.387
       342  -9.5144    249.2931    227.3173   9.4004764215e+01  -1.1415461813e+01    0.1254573    0.0811023  -8.78 0.0004406816    1.602    0.376
       343  -9.9922    190.5132    226.4579   1.0504409730e+02  -2.4618116653e+00    0.2525176    0.1296448 -42.93  0.000677439    2.001    0.500
       344  -9.1088    140.6275    227.3041   1.1577182734e+02   5.9204631188e+00    0.1467576    0.1032539  66.85 0.0007031503    1.758    0.431
       345 -10.1032    129.7553    226.8333   1.1807669829e+02   7.8969106983e+00    0.2958784    0.1639061  59.14  0.001248082    2.255    0.556
       346  -9.8215     87.5128    227.4975   1.2741441242e+02   1.4718971192e+01    0.1367955    0.1187373  70.28 0.0008105508    1.004    0.004
       347 -10.4345     66.7055    226.6201   1.3176818991e+02   1.8013729203e+01    0.3454722    0.1521984  48.87  0.001033563    2.081    0.520
       348 -10.8839      1.4540    245.0047   1.4585473381e+02   2.1966008447e+01    0.2332942   0.08761294 -76.08  0.000500439    2.229    0.551
       349 -10.5843    120.2239    226.4090   1.2010753325e+02   9.6166325571e+00    0.1968015    0.1190101  48.91 0.0005042484    1.559    0.359
       350 -10.2957     10.5302    226.5087   1.4304077025e+02   2.4931760689e+01    0.1211887   0.08977269  80.60 1.868587e-05    1.020    0.019
       351  -9.9578    181.0000    224.9396   1.0673932547e+02  -5.9005468740e-01    0.2157817   0.07720293 -46.37 0.0007996029    2.923    0.658
       352  -9.4162    156.3038    224.3526   1.1188528627e+02   3.7854896725e+00        0.142    0.1079534  -7.52 0.0007040444    1.706    0.414
       353  -9.2384     80.6458    223.3371   1.2838445965e+02   1.6699295242e+01    0.1497795   0.09126201  68.86 0.0007043098    1.800    0.444
       354 -10.8359    123.5981    221.3668   1.1859878279e+02   1.0120585197e+01    0.4782262    0.2433839  44.72  0.002093374    1.831    0.454
