#   1 NUMBER                 Running object number                                     
#   2 MAG_AUTO               Kron-like elliptical aperture magnitude                    [mag]
#   3 X_IMAGE                Object position along x                                    [pixel]
#   4 Y_IMAGE                Object position along y                                    [pixel]
#   5 X_WORLD                Barycenter position along world x axis                     [deg]
#   6 Y_WORLD                Barycenter position along world y axis                     [deg]
#   7 A_WORLD                Profile RMS along major axis (world units)                 [deg]
#   8 B_WORLD                Profile RMS along minor axis (world units)                 [deg]
#   9 THETA_WORLD            Position angle (CCW/world-x)                               [deg]
#  10 FWHM_WORLD             FWHM assuming a gaussian core                              [deg]
#  11 ELONGATION             A_IMAGE/B_IMAGE                                           
#  12 ELLIPTICITY            1 - B_IMAGE/A_IMAGE                                       
         1 -14.8482     68.4325    144.3100   1.0191462713e+02   3.7426056408e+01     4.796787     2.607696  69.66   0.01012864    3.082    0.675
         2 -14.5115    201.4558     40.1804   4.2852351712e+01   3.0296378322e+01     1.682242     1.406757  20.39  0.003735763    1.620    0.383
         3 -14.5157    212.9095     29.0359   3.8824022158e+01   2.9077306301e+01     1.285637    0.9978027  -0.52  0.003454583    1.917    0.478
         4 -11.2159      2.1412      4.1041   8.8932489825e+01   7.4068646562e+01    0.4342288   0.09433298 -46.55  0.001757063    4.133    0.758
         5 -12.8504    241.0782      4.6246   3.1117545138e+01   2.5763782268e+01    0.4950652    0.4871033  33.15  0.003301947    1.469    0.319
         6 -12.7354    234.8031      4.2250   3.1461678780e+01   2.7106715325e+01    0.4976281    0.3506974 -50.07  0.003249182    1.259    0.206
         7  -8.9855     59.3260      7.3074   6.2048465225e+01   6.6247949417e+01     0.130292   0.07790089  19.78 0.0003428143    1.652    0.395
         8 -10.0240    112.3831    205.8242   1.0052126639e+02   1.6109704209e+01    0.2847394    0.2022278  67.86 0.0006759007    1.626    0.385
         9 -11.0477    139.1194    249.7437   1.0075499999e+02   3.5945100127e+00    0.3700095    0.1657939  38.28  0.001806918    1.835    0.455
        10 -16.0492      6.5547    173.8965   1.2165561577e+02   3.6686438211e+01     7.570059     1.101819 -73.09   0.02428833    4.699    0.787
        11 -16.5220     40.7883    197.5643   1.1590217104e+02   2.7922323140e+01     9.097181      3.33558  58.96   0.03521712    3.306    0.698
        12 -11.9352    193.1639    195.2578   8.0859776680e+01   4.3460814339e+00     1.011111     0.551174 -63.52  0.003287804    4.989    0.800
        13 -15.7519     21.5221    222.6088   1.2183416696e+02   2.4542472124e+01     2.213247     1.074199  83.85     0.012063    1.950    0.487
        14  -9.1781    120.3478    194.1945   9.6882251304e+01   1.7303318491e+01    0.1956951    0.1333076 -70.09 0.0007970929    1.734    0.423
        15 -16.4212      9.3861    208.3637   1.2334582582e+02   2.8721253956e+01     3.092408     1.637918 -87.23   0.01817869    1.596    0.374
        16 -10.3499    149.5513    187.5498   8.8902250031e+01   1.3595126764e+01    0.2996821    0.2560235  73.55 0.0008435767    1.415    0.293
        17  -9.2518     72.2549    188.2632   1.0754955665e+02   2.6130428680e+01    0.1856176    0.1405881  73.65 0.0003677806    1.307    0.235
        18  -9.1264     77.2611    185.6384   1.0598524234e+02   2.6042913776e+01    0.1908503    0.1248401  52.96 0.0005088886    1.498    0.333
        19  -9.7017     79.8683    183.1697   1.0500204364e+02   2.6249998689e+01    0.2190587    0.1739339  70.93  0.000708074    1.249    0.200
        20  -9.3634     68.9889    182.7362   1.0762448942e+02   2.7883467744e+01    0.1891963     0.170129  68.88 0.0005596505    1.051    0.048
        21  -9.9949     99.3148    180.8858   9.9830428073e+01   2.3805460513e+01    0.2501248    0.2069212  31.20  0.000623967    1.273    0.214
        22  -9.0824     90.0137    180.9889   1.0216347993e+02   2.5247278703e+01    0.1666984    0.1548893  74.38 0.0003297186    1.007    0.007
        23 -10.6354    189.2599    177.5155   7.8174318828e+01   8.3282907896e+00    0.5200503    0.3261844 -54.40  0.002361594    1.973    0.493
        24 -10.7668    146.4819    171.9790   8.6631688060e+01   1.7495814716e+01    0.3419698    0.2544363 -82.77 0.0008828135    1.927    0.481
        25 -13.2785     80.1709    160.1110   1.0137358021e+02   3.1798167243e+01     1.541366    0.6266974  55.88  0.001172145    4.012    0.751
        26 -13.8012     68.8139    155.4908   1.0369516370e+02   3.4570328607e+01    0.6660016    0.5783492 -42.13  0.002035544    1.259    0.206
        27 -14.4597     52.3434    188.9309   1.1238081123e+02   2.8562435107e+01     1.750975     1.107036  76.47  0.009183407    1.631    0.387
        28  -9.1873    110.8596    167.8403   9.4661830882e+01   2.4949289254e+01    0.2053265     0.171756  81.21 0.0004439099    1.324    0.245
        29 -12.3150     67.2826    174.0390   1.0687711464e+02   3.0204924446e+01    0.4857386    0.3043496 -39.31  0.002284952    2.063    0.515
        30  -9.6746    135.7348    165.4143   8.7919246704e+01   2.0989996562e+01     0.296222    0.1401275  43.94  0.001127458    2.109    0.526
        31 -16.6001     21.9203    249.9607   1.2332981385e+02   1.9113333407e+01     9.070232     2.711233  25.03   0.01623545   15.252    0.934
        32 -11.0820     32.4111    156.9259   1.1370006799e+02   3.8484392384e+01    0.4817622    0.3027715  16.18  0.002354317    2.105    0.525
        33 -12.4557     87.5808    153.6386   9.8224905028e+01   3.2267646233e+01    0.6405482    0.4557773 -25.51  0.002952715    1.897    0.473
        34 -11.3988    133.6586    144.4374   8.3959500373e+01   2.6214435027e+01     1.212806    0.3435529 -55.01   0.00296442    5.118    0.805
        35 -10.7481    174.2685    148.9174   7.5250966826e+01   1.6969740539e+01     0.329964    0.2963618  55.93   0.00089618    1.224    0.183
        36 -10.0002    164.4048    149.2174   7.7549313940e+01   1.8918397671e+01    0.2166917    0.1446399 -54.14 0.0004849979    1.632    0.387
        37 -10.4286    144.0036    146.0020   8.1701126577e+01   2.3783013486e+01    0.4618747    0.1928018 -57.50  0.001413694    3.358    0.702
        38 -10.7705     28.7671    143.9918   1.1310884465e+02   4.2028863494e+01    0.3069937    0.2692432  81.17  0.001951147    1.118    0.105
        39 -10.1467    198.5507    140.2989   6.8171842730e+01   1.3770494135e+01    0.2926661    0.2256656 -68.90 0.0008845353    1.719    0.418
        40 -11.1113    101.7810    139.1371   9.1377727004e+01   3.3482856045e+01    0.5842031    0.3749854 -22.71  0.002313606    2.378    0.579
        41 -12.3150     89.0266    138.9420   9.4966285135e+01   3.5686117240e+01    0.3033587    0.2638048 -40.32 0.0004030426    1.180    0.153
        42 -10.5358     25.7490    137.4908   1.1312471699e+02   4.3910820831e+01    0.3425962    0.1837683  39.57  0.001727568    2.024    0.506
        43 -12.1862     71.6016    169.1520   1.0506680697e+02   3.0804733076e+01    0.3481661      0.27279 -37.51  0.001857644    1.523    0.344
        44 -10.7125    105.9405    130.8459   8.8349265705e+01   3.4754847957e+01    0.3942441    0.3492246 -59.78  0.001678111    1.113    0.102
        45 -10.3864    111.0624    129.8526   8.6668888127e+01   3.4043991847e+01    0.3389275    0.2599828   5.56 0.0007171676    1.703    0.413
        46 -10.2027     34.5933    171.6549   1.1478839062e+02   3.4673336950e+01    0.3098395    0.1791245  63.17  0.001364688    1.790    0.441
        47 -11.1432    135.6259    128.1915   7.9613969191e+01   2.9553128385e+01    0.5127353    0.1832167 -50.47  0.001595548    2.944    0.660
        48  -9.8343    160.8926    127.7690   7.3278978953e+01   2.4268295323e+01    0.3076419    0.2083972 -68.75  0.001243153    2.094    0.523
        49 -10.2638     28.5193    128.4966   1.1108210501e+02   4.5904783727e+01    0.2135866    0.1096865  39.95 0.0009321408    2.148    0.534
        50 -10.9994     98.2579    125.8481   8.9408152384e+01   3.7345098297e+01    0.3231252    0.2590144 -16.97  0.000623499    1.498    0.333
        51 -10.6601    117.0225    124.0116   8.3590617516e+01   3.4284555309e+01    0.2954163    0.2297436   7.82 0.0009438962    1.633    0.388
        52  -9.8432     87.5042    120.8242   9.1450238958e+01   4.0403659499e+01    0.3691508    0.2472737  76.51  0.001504555    2.357    0.576
        53 -10.0807    107.5895    118.9072   8.5004596393e+01   3.7304051286e+01    0.2281901    0.2087078  13.75 0.0003736215    1.168    0.144
        54 -10.3777     32.8963    118.8537   1.0823646827e+02   4.7907905952e+01    0.2164938    0.1609777 -47.81  0.000745732    1.261    0.207
        55  -9.1752    167.4997    112.4998   6.7899235940e+01   2.6008917176e+01    0.1563379    0.1484342 -64.44 -0.0006942971    1.086    0.079
        56 -10.1873    205.4211    110.1194   5.9723021966e+01   1.8083474503e+01    0.3003756    0.2234716  44.97 0.0009602484    1.461    0.315
        57 -10.9708     33.9390    108.7280   1.0612039900e+02   5.0307554409e+01    0.2984476    0.2298849 -70.40  0.001667755    1.192    0.161
        58 -10.5794    115.6563    108.5708   7.9995481382e+01   3.8121258914e+01    0.3464036    0.2851122  23.66   0.00168926    1.325    0.245
        59 -10.1949    134.5245    105.5516   7.4007203257e+01   3.4822358581e+01    0.4489007    0.1493604 -47.42  0.001358586    3.101    0.678
        60  -9.4118    138.2560    105.4208   7.3003543689e+01   3.4033020767e+01    0.2133225    0.1512216  58.26 0.0005204504    1.588    0.370
        61 -11.5283     38.8649    102.4601   1.0322589668e+02   5.1362210854e+01    0.5639425    0.2469139  47.94  0.002213775    3.221    0.690
        62 -11.1607    247.4992    102.5015   5.1397396281e+01   1.0908251622e+01    0.2875502    0.1793159  23.05  0.001274329    2.896    0.655
        63  -9.4428    125.3541     92.8508   7.2868040928e+01   3.9507310396e+01    0.2436606    0.1880521 -59.04  0.001136784    1.456    0.313
        64 -10.6951     52.9696     91.1774   9.5659281759e+01   5.2488223641e+01    0.2614065    0.1853081 -51.21 0.0007556422    1.250    0.200
        65  -9.7054    156.4489     88.4910   6.3872522858e+01   3.3308175330e+01    0.3424552    0.2282184 -76.07  0.001275498    2.383    0.580
        66  -9.4869     74.8721     85.0275   8.6206126655e+01   5.0810109123e+01    0.2078688    0.1922517  89.07 0.0005515474    1.320    0.243
        67 -10.2058    159.0024     82.4770   6.1600243963e+01   3.3830456491e+01    0.2415403    0.2037875 -38.64 0.0005891481    1.179    0.152
        68 -10.1683    112.5143     82.1572   7.3277733278e+01   4.4432922408e+01    0.3670026    0.2534311  72.84  0.001413172    2.256    0.557
        69  -9.6497     69.4937     81.4829   8.7052818977e+01   5.2417760261e+01     0.211842    0.1820559  77.44 0.0001391521    1.564    0.361
        70 -10.8551     13.4307     59.8687   1.0322778799e+02   6.3149091669e+01    0.2471966    0.1891969 -54.93 0.0004153962    1.175    0.149
        71 -13.6510    191.6213     47.3624   4.6012523767e+01   3.1641230008e+01    0.9773436    0.7474998  46.29 0.0009060655    1.464    0.317
        72 -11.3794    203.4938    200.2461   7.9721525593e+01   1.7420189341e+00    0.2965682    0.1654445  42.60  0.001422472    1.885    0.470
        73 -11.3266    139.6794     45.2932   5.4505514522e+01   4.4543486999e+01    0.3824304    0.2823962 -75.73 0.0006947389    1.750    0.429
        74 -11.8570    192.4832    205.1978   8.2851019258e+01   2.7050464534e+00    0.4138321    0.1807822  27.62  0.001621032    2.695    0.629
        75 -10.3797      1.7601     29.1151   9.9642608581e+01   6.9939705730e+01    0.1631629    0.1350169 -41.44 0.0005575494    1.218    0.179
        76 -10.5124    198.0042     23.7906   3.9167180761e+01   3.3138252960e+01    0.2563297    0.1975919 -13.01  0.001055285    1.700    0.412
        77  -9.1402     37.4641     56.5875   9.1820286419e+01   6.1768552918e+01    0.1294935    0.1083928 -25.78 8.137235e-05    1.015    0.014
        78  -9.6004    189.6621     15.0046   3.7880942258e+01   3.6075982571e+01     0.177162    0.1564321 -61.74 0.0006044057    1.123    0.109
        79 -16.2374      3.6251    247.4833   1.2636537700e+02   2.1409498510e+01      1.24558     1.023075 -66.79   0.00689626    1.618    0.382
        80 -11.2949    107.9795    203.6019   1.0121137149e+02   1.7292589861e+01    0.3363083    0.2486899  24.73 0.0005289156    1.500    0.333
        81 -10.0135     89.9722    213.1199   1.0657033057e+02   1.8013444083e+01     0.362476    0.2016027  69.95  0.001601122    2.424    0.588
