#   1 NUMBER                 Running object number                                     
#   2 MAG_AUTO               Kron-like elliptical aperture magnitude                    [mag]
#   3 X_IMAGE                Object position along x                                    [pixel]
#   4 Y_IMAGE                Object position along y                                    [pixel]
#   5 X_WORLD                Barycenter position along world x axis                     [deg]
#   6 Y_WORLD                Barycenter position along world y axis                     [deg]
#   7 A_WORLD                Profile RMS along major axis (world units)                 [deg]
#   8 B_WORLD                Profile RMS along minor axis (world units)                 [deg]
#   9 THETA_WORLD            Position angle (CCW/world-x)                               [deg]
#  10 FWHM_WORLD             FWHM assuming a gaussian core                              [deg]
#  11 ELONGATION             A_IMAGE/B_IMAGE                                           
#  12 ELLIPTICITY            1 - B_IMAGE/A_IMAGE                                       
         1 -13.5117    246.3674     59.5617   3.5506971170e+02   2.0599927590e+01    0.9403366    0.7426479 -44.61  0.007053375    1.135    0.119
         2 -11.9422      3.6062     10.6579   4.4677481245e+01   7.7770126606e+01     0.515717    0.3009417 -57.87  0.002768558    1.924    0.480
         3 -11.0827      9.5568     13.8846   4.0985803808e+01   7.6545762677e+01    0.2284024    0.1884931  47.81 0.0009585205    1.514    0.339
         4  -9.2004     90.2783      6.9733   3.5871994270e+02   6.1004212641e+01    0.1759514    0.1654602 -80.77 0.0004397714    1.097    0.089
         5  -9.8867     18.0002      3.5065   2.6606653975e+01   7.7077441190e+01    0.1663928    0.1041026  59.90 0.0008105264    2.568    0.611
         6 -10.7448     27.5088    231.4961   7.0039227401e+01   2.0580949823e+01    0.1951051    0.1765146  80.05 0.0006261481    1.210    0.174
         7 -10.6535     28.3376    250.1680   7.0741564056e+01   1.6771757537e+01    0.2047648    0.1439712  20.77  0.001314874    1.371    0.271
         8 -12.5540     29.8981    156.6991   6.4055998062e+01   3.8415371010e+01    0.8389766    0.5233119  -0.95  0.001453644    2.116    0.527
         9 -15.3508      5.4564    238.5903   7.5428941756e+01   2.1063135054e+01     9.704187     1.751262 -79.14   0.03400896    5.489    0.818
        10 -13.4711      3.5893    169.3654   7.3263719980e+01   3.7275615889e+01     1.673719    0.7295134  86.24  0.004636876    2.237    0.553
        11 -15.6399     12.6005    162.5364   7.0094677127e+01   3.8388502784e+01     9.707088     2.687006  89.66   0.02814379    4.608    0.783
        12  -9.3375    154.6713    229.5960   4.0745894699e+01   6.5469388194e+00    0.2971054    0.1079329 -49.26  0.001343378    3.007    0.667
        13 -11.0751     61.4996    229.8083   6.1779004055e+01   1.7460844516e+01    0.3059693    0.2196744  85.89  0.001415426    1.624    0.384
        14  -9.2963     73.0000    229.0386   5.8952060953e+01   1.6331927640e+01    0.3153923   0.07390548 -66.81  0.001057565    4.991    0.800
        15 -11.0434     86.9366    225.1843   5.5242076270e+01   1.5481900476e+01    0.4060538    0.2147062  62.76  0.001772145    2.872    0.652
        16  -9.5636    111.9726    244.1726   5.1541799486e+01   9.0286342243e+00    0.1818813    0.1692452 -37.93 0.0006419843    1.276    0.216
        17 -10.8127     61.8515    222.6374   6.1096364309e+01   1.8910509727e+01    0.3087473    0.1831041  52.45  0.001137812    1.641    0.391
        18 -10.6309     71.4670    241.9810   6.0428776229e+01   1.3970837971e+01    0.2487856    0.1688583  56.76 0.0008665519    1.539    0.350
        19 -11.9679     64.5927    215.5992   5.9786528692e+01   2.0104788899e+01    0.6140352    0.2100601  47.82  0.002313268    2.989    0.665
        20 -11.7864     57.1702    211.4510   6.1301961255e+01   2.1861778702e+01    0.4873216    0.2380622  48.64  0.001767208    1.928    0.481
        21  -8.7899     93.7548    214.0380   5.2363960956e+01   1.6912937702e+01    0.1606587     0.114597 -63.09 0.0008851599    1.599    0.374
        22 -13.4133      4.1261    192.2110   7.4140527811e+01   3.1501733933e+01     1.294675     1.074211 -83.49  0.008088759    1.235    0.191
        23 -11.4986     75.6727    182.5565   5.3193791419e+01   2.6317531462e+01    0.6343518    0.3160828  65.64   0.00224178    3.302    0.697
        24 -11.8189     70.2073    177.9730   5.4143779104e+01   2.8158666428e+01    0.4742005    0.3105812 -48.66  0.001713651    1.658    0.397
        25  -9.1467    148.2101    181.9418   3.4825233129e+01   1.5955596185e+01    0.2467789     0.174585 -59.96  0.001294881    1.709    0.415
        26 -10.4575     99.0113    181.1517   4.6640330840e+01   2.3395668806e+01    0.3208095    0.2894156  17.86 0.0007857039    1.090    0.083
        27 -10.3623     73.1204    171.1666   5.2384898892e+01   2.9458055502e+01    0.2606262     0.202557 -81.22 0.0008249806    1.383    0.277
        28 -10.6202     76.8651    169.4050   5.1042118297e+01   2.9379746588e+01    0.2456776    0.1998267 -86.89 0.0005769348    1.329    0.248
        29 -12.7842     69.6320    166.7195   5.2789578599e+01   3.1054496548e+01    0.9626604    0.4981973 -51.25    0.0015836    2.020    0.505
        30 -12.9960     81.3706    161.3379   4.8490115206e+01   3.0752210665e+01     2.005068    0.8281133  57.07  0.005648353    4.585    0.782
        31 -13.6341     66.1321    143.1993   5.0258284302e+01   3.7671094432e+01     1.413749     1.005515  77.55  0.003865823    1.640    0.390
        32 -11.7370     38.8283    152.3969   6.0647291222e+01   3.8649417759e+01    0.3454908    0.3006784  -5.36 0.0005098463    1.337    0.252
        33 -11.8236    249.7595    141.9956   1.0322412727e+01   8.6305612110e+00    0.3359576    0.2291604   4.84  0.002187007    1.999    0.500
        34 -13.0510     37.4909    140.1581   5.9590710290e+01   4.2139230689e+01    0.6126794    0.3698559  -2.38  0.002531741    2.318    0.569
        35 -10.7988     54.3042    137.8989   5.3375182596e+01   4.0725970060e+01    0.4047874    0.2605019 -84.18  0.001768029    1.726    0.421
        36 -14.2358      8.9491    206.9942   7.3480138281e+01   2.7619127661e+01     3.657588     1.489091   3.11   0.01128902    4.455    0.776
        37 -10.9878     83.0924    133.0128   4.2858780636e+01   3.7717199577e+01    0.3655209    0.3463581  -4.86  0.001060344    1.153    0.133
        38  -9.7707     87.9872    130.0166   4.0688708101e+01   3.7657708950e+01    0.3605406    0.2725323 -46.36  0.001317784    1.356    0.263
        39  -9.3447    105.6362    130.2663   3.5440505234e+01   3.4464471162e+01    0.2786151    0.2400986  78.99  0.001409335    1.288    0.223
        40  -8.5961    124.7853    164.0910   3.7129034090e+01   2.3297992107e+01    0.1878319    0.1155471 -53.73 0.0008575639    1.662    0.398
        41 -12.2320     54.9212    146.6709   5.4521182055e+01   3.8273437015e+01    0.7091814    0.5393071  37.82  0.001595628    1.277    0.217
        42  -9.7112    100.3150    125.1066   3.5839675072e+01   3.6689351837e+01    0.3579172    0.2254367  20.57  0.001440613    2.135    0.532
        43 -12.7333    247.5427    119.5277   6.4891576694e+00   1.2138167572e+01    0.5950563    0.3259951 -50.10  0.003544817    1.732    0.422
        44 -11.9082     28.2204    237.0953   7.0151959066e+01   1.9360974684e+01    0.3970718    0.1917682 -70.01  0.001598371    2.314    0.568
        45 -10.2333     25.7208    119.1213   6.1179670064e+01   4.9182840509e+01    0.2820601    0.1815271 -54.84 0.0008876425    1.512    0.339
        46 -12.1477     69.5216    129.3618   4.6612290941e+01   4.0843045333e+01    0.5387771    0.3859415 -59.87 0.0001465789    1.373    0.272
        47 -11.1794     51.7618    115.3012   5.0284125630e+01   4.7219369086e+01    0.5955157     0.339499  69.82  0.002218987    2.515    0.602
        48  -9.4609    100.0233    114.9517   3.3541469131e+01   3.9207224399e+01     0.224059    0.2174947  81.19 0.0003317226    1.018    0.018
        49  -9.4925    204.4480    110.8479   1.0221833352e+01   2.0020513824e+01    0.2319408    0.1859952  36.36  0.001438673    1.542    0.352
        50 -10.5281     17.2365    116.8315   6.4293020708e+01   5.0560345847e+01    0.2450719    0.2199198  64.91 0.0006521047    1.095    0.087
        51 -10.4279     85.7158    119.8012   3.9174580023e+01   4.0643177330e+01    0.3135768    0.2829719  31.09  0.000411315    1.154    0.134
        52  -9.9378     24.0037    105.2673   5.9847538106e+01   5.3190278638e+01     0.200561    0.1972728   8.35  0.001002099    1.090    0.082
        53  -8.6748     75.0054     97.9615   3.7490806775e+01   4.8051929868e+01    0.1877156    0.1734173 -63.26   0.00039986    1.067    0.063
        54 -11.3427     15.4679     92.8633   6.1733973160e+01   5.7320336012e+01    0.3371751    0.2542982  53.23 0.0003268256    1.404    0.288
        55 -10.0338     52.0000     92.9721   4.5220293841e+01   5.3129040952e+01    0.2545854    0.0847052 -60.13            0    2.944    0.660
        56  -9.8170     26.4748     83.1664   5.4572467666e+01   5.8936634969e+01    0.3427724    0.2186836  77.27  0.001506207    2.012    0.503
        57  -8.2469    124.6874     81.2949   1.7653279473e+01   4.1464941282e+01    0.1521273    0.1138881 -81.56 0.0002271014    1.596    0.374
        58 -13.6983    229.4931     69.6996   3.5855129751e+02   2.2019840797e+01     1.197201    0.8863515 -54.47  0.008142295    1.114    0.102
        59 -10.0874    249.3282    249.2034   2.7241328584e+01  -5.2355133993e+00    0.1613141   0.08779467 -18.54  0.001205997    1.382    0.276
        60  -9.3144     79.9981     64.0354   2.5189134687e+01   5.4825844779e+01    0.2301597    0.1792464  88.81 0.0004822276    1.612    0.380
        61 -10.0817     73.4652     62.0215   2.6869781110e+01   5.6599290362e+01    0.3718823    0.2555637 -68.88 0.0009738042    1.879    0.468
        62  -8.8863     82.8594     61.8417   2.3406161529e+01   5.4656788066e+01    0.1983004    0.1710538 -88.72 0.0002676712    1.277    0.217
        63  -9.8884     75.6872     56.9855   2.4179613500e+01   5.7149212853e+01    0.4454811     0.217558 -57.99  0.001613963    2.821    0.646
        64 -10.5267     20.4224     73.2044   5.5435813423e+01   6.2128254407e+01    0.3074181    0.2529526  67.73 0.0008076199    1.361    0.265
        65 -11.1240      2.7708     42.5117   5.8598248651e+01   7.1060187864e+01    0.2979672    0.1737543 -68.03  0.001517279    1.677    0.404
        66 -12.0340      3.5589     24.2864   5.1651481127e+01   7.5070927600e+01    0.4719497    0.3204263 -35.02  0.002738413    1.355    0.262
        67  -9.2678     60.0718     21.0580   1.4291719368e+01   6.6547491835e+01    0.2021242    0.1889135  54.77  0.000475839    1.043    0.042
        68 -10.0838     58.0167    248.0009   6.3951551946e+01   1.4263905756e+01    0.2071838    0.1132248  50.76  0.001142488    1.707    0.414
        69 -10.6247    210.5548    247.1357   3.2916656823e+01  -1.7527609439e+00    0.1781548    0.1039007  13.30 0.0006750725    1.473    0.321
        70 -10.8528     50.9737    244.3463   6.5310000748e+01   1.5685529285e+01      0.50492    0.1850773 -75.91  0.002250256    3.394    0.705
