#   1 NUMBER                 Running object number                                     
#   2 MAG_AUTO               Kron-like elliptical aperture magnitude                    [mag]
#   3 X_IMAGE                Object position along x                                    [pixel]
#   4 Y_IMAGE                Object position along y                                    [pixel]
#   5 X_WORLD                Barycenter position along world x axis                     [deg]
#   6 Y_WORLD                Barycenter position along world y axis                     [deg]
#   7 A_WORLD                Profile RMS along major axis (world units)                 [deg]
#   8 B_WORLD                Profile RMS along minor axis (world units)                 [deg]
#   9 THETA_WORLD            Position angle (CCW/world-x)                               [deg]
#  10 FWHM_WORLD             FWHM assuming a gaussian core                              [deg]
#  11 ELONGATION             A_IMAGE/B_IMAGE                                           
#  12 ELLIPTICITY            1 - B_IMAGE/A_IMAGE                                       
         1 -10.2772     12.4407     51.0862   1.1087536929e+02   6.5014578140e+01    0.3679136   0.07687078 -61.11  0.001377358    3.113    0.679
         2 -10.8621    210.1314     23.2535   4.6075856445e+01   2.9315094766e+01    0.5477479    0.3816977  39.39  0.001121255    1.721    0.419
         3 -11.9205    216.7610     15.5755   4.3254898061e+01   2.8523253026e+01    0.8051308    0.6996076 -50.97  0.002756365    1.047    0.045
         4 -12.2729    201.9242     31.8241   4.9515688317e+01   3.0367682545e+01     1.145634    0.9380221  20.75  0.006031853    1.461    0.315
         5 -10.2743     12.6594      7.1971   9.4418285953e+01   7.3848436130e+01     0.319943    0.1219191 -50.63  0.001531865    2.406    0.584
         6  -9.3765     67.0363    238.4989   1.2036507308e+02   1.8492745234e+01    0.2328053    0.1248879  48.73 0.0009538847    1.409    0.290
         7 -11.0793    126.5861    245.0453   1.1061880547e+02   9.3548606624e+00    0.3401875    0.2759043  22.65  0.002501602    1.480    0.324
         8 -11.0391    102.1208    250.1112   1.1528676490e+02   1.2066060128e+01    0.6283226    0.1701066  38.82  0.001984789    3.097    0.677
         9 -10.9302    113.2346    248.5254   1.1325520762e+02   1.0758516593e+01    0.5629128    0.2458087  34.76  0.002998712    2.260    0.558
        10 -11.0896    119.7829    247.5929   1.1204494296e+02   9.9672410913e+00    0.8228976     0.393796  68.79  0.003557608    4.290    0.767
        11  -9.1702     53.0123    250.5326   1.2345832357e+02   1.8257806691e+01    0.1526643   0.07592949  44.83 0.0003344847    1.546    0.353
        12 -14.6224     46.3966    197.6319   1.2113010869e+02   2.8413100789e+01     11.02385     3.946425  76.98   0.03721013    5.519    0.819
        13 -11.0051    134.1792    233.9832   1.0809369596e+02   9.8420284631e+00    0.3463026    0.2465196 -53.17  0.002345924    1.759    0.432
        14 -14.5327      9.0298    241.6837   1.3001693293e+02   2.4390861273e+01     2.278724      1.39637  45.28  0.004075019    1.473    0.321
        15  -9.1029    128.2934    236.3423   1.0940676562e+02   1.0372881309e+01    0.1046761   0.08444098  12.91 0.0003387615    1.658    0.397
        16  -8.4940     73.8900    203.8758   1.1627479124e+02   2.3743364025e+01    0.1674905    0.1522516  71.15  0.001215857    1.223    0.183
        17 -12.3751     41.0977    209.8712   1.2301639223e+02   2.6659412309e+01    0.7896129    0.5807657 -59.45  0.005587873    1.772    0.436
        18  -9.6157     59.0220    188.2850   1.1779110657e+02   2.8764120870e+01     0.430503    0.2202547 -73.92  0.002303325    1.879    0.468
        19 -10.6579     96.2065    247.0020   1.1602983517e+02   1.3334995492e+01    0.3706789    0.2343109  58.35  0.002576499    1.295    0.228
        20 -10.2483     66.8236    181.4196   1.1546192745e+02   2.9177908882e+01     0.353758    0.2671508 -37.84  0.001595373    2.014    0.503
        21 -10.2075     71.5373    175.8177   1.1381646564e+02   2.9726473532e+01    0.3053679    0.2401094 -44.17  0.001004222    1.702    0.412
        22  -7.7983     99.4779    180.4968   1.0830542338e+02   2.4650760182e+01     0.129628    0.1140217  67.61 9.053376e-05    1.022    0.021
        23  -7.8840    195.9976    169.0139   8.6257067194e+01   9.4997056794e+00    0.1644202    0.1484125   9.00 0.0004589767    1.025    0.025
        24 -11.5822    116.3385    230.0628   1.1088713216e+02   1.3108209485e+01    0.7791485    0.2021509  41.25  0.003219415    3.028    0.670
        25 -10.5696     79.0960    159.5488   1.1001454404e+02   3.2208929876e+01     0.582307    0.2923456  69.14   0.00235874    2.863    0.651
        26  -9.9227     80.5107    165.8940   1.1055828503e+02   3.0603433253e+01    0.2728655     0.244138 -69.88 0.0005204167    1.206    0.171
        27 -10.8369     86.4744    159.3102   1.0824071527e+02   3.1166950302e+01    0.6905059    0.3608018 -44.36  0.001692621    2.515    0.602
        28 -11.5912     68.0621    162.1939   1.1295172749e+02   3.3163892545e+01    0.4159321    0.2790852 -44.92  0.001223438    1.937    0.484
        29  -9.5394    142.0053    229.7263   1.0618577050e+02   9.2796411592e+00    0.2202381    0.1465934 -17.32  0.001196194    2.778    0.640
        30 -10.2330     97.0404    225.7924   1.1398156379e+02   1.6600953308e+01     0.243484    0.1564355  54.47 0.0005506703    1.260    0.207
        31 -10.0681     72.6107    154.3093   1.1082462451e+02   3.4311221932e+01     0.482123    0.2186148  55.89  0.002059934    2.447    0.591
        32 -11.3804     68.6855    144.3252   1.1035042195e+02   3.7148551405e+01    0.7480329    0.4578039  76.99  0.003169121    1.890    0.471
        33  -9.2913    101.5462    142.5674   1.0180317656e+02   3.2503970980e+01    0.4855497    0.2436861 -37.76  0.001817978    3.062    0.673
        34 -10.6165     88.2632    142.9632   1.0519784951e+02   3.4586029680e+01    0.4014473    0.2878483  26.03  0.001440518    1.766    0.434
        35 -10.4565     58.4441    131.8305   1.1111504695e+02   4.1441044227e+01    0.5945157    0.2115792 -69.46  0.002248236    2.805    0.643
        36  -8.8622    111.0445    131.7915   9.7287253982e+01   3.3271957562e+01    0.2646969    0.2104172  15.59   0.00131953    1.664    0.399
        37  -8.2438    105.8460    130.8069   9.8410371897e+01   3.4434501455e+01    0.2116658     0.169176  79.94  0.001086447    1.372    0.271
        38  -9.2070     98.2584    128.4498   9.9897688297e+01   3.6304804572e+01    0.2805218     0.225354 -32.70 0.0008025346    1.507    0.336
        39  -8.4682    116.4876    126.7165   9.4805377793e+01   3.3403709939e+01    0.3229482     0.177268  55.17   0.00131637    2.088    0.521
        40 -10.6472    103.6467    228.9382   1.1308106005e+02   1.5137803958e+01    0.3430567     0.242941  51.57  0.002336988    1.112    0.101
        41  -8.0808    107.4989    120.4589   9.5733624187e+01   3.6509113488e+01    0.1470529    0.1395244 -72.88 1.707783e-05    1.017    0.017
        42  -9.3413     59.7039    229.8746   1.2103261059e+02   2.0851701078e+01    0.2259702    0.1448026 -89.72 0.0009375907    1.504    0.335
        43  -8.1709    167.5122    112.9758   7.9292184011e+01   2.5531709494e+01    0.2191407    0.1290158 -60.56  0.000808062    2.442    0.591
        44  -7.9590    134.6898    112.6729   8.6843529518e+01   3.2842899211e+01    0.1548887    0.1232906  -4.27  0.000704018    1.661    0.398
        45  -9.5918     17.7619    110.0221   1.1939733088e+02   5.0821682816e+01    0.2771581    0.1200056 -72.69  0.001352158    1.818    0.450
        46  -8.0197    205.9572    109.7748   7.0858278636e+01   1.7410432979e+01    0.1907504    0.1232852  49.43 0.0004349421    1.626    0.385
        47  -9.4627     22.0388    108.4911   1.1795103414e+02   5.0847196741e+01    0.2079088    0.1398895 -75.00 0.0006823136    1.183    0.155
        48 -14.5293      6.9499    202.6960   1.2883428444e+02   3.1506563081e+01     15.18275     1.325468 -79.88   0.03669234   12.618    0.921
        49  -8.8708     32.6543    100.0432   1.1345633548e+02   5.1952683446e+01     0.317789    0.1019384 -67.29  0.001250404    2.547    0.607
        50  -8.3231     32.6670     86.9950   1.1108968864e+02   5.5092003648e+01     0.217609   0.09654699 -87.53 0.0007051735    4.360    0.771
        51  -9.1508     56.3493    246.9894   1.2270864510e+02   1.8424238537e+01    0.1440715      0.10434  74.34  0.001135208    1.176    0.150
        52 -10.1345     92.2960    234.8470   1.1567053315e+02   1.5771034069e+01    0.2118788     0.169507  78.45 0.0006964355    1.221    0.181
        53  -9.5418    147.1980     51.5725   6.5074933467e+01   4.1792784589e+01    0.5160992    0.3115415 -68.49  0.001881967    2.717    0.632
        54 -10.3276     59.9379    245.4535   1.2202272788e+02   1.8238872047e+01    0.4633695    0.1969662  85.68  0.002440448    3.128    0.680
        55  -9.6134    160.4542    227.5624   1.0257691664e+02   6.7214743595e+00    0.2564017    0.1521996  18.13  0.001322265    2.431    0.589
        56 -10.9900     65.4260    242.4780   1.2091212702e+02   1.8045458064e+01    0.3267197     0.184301  47.85 0.0007722459    1.352    0.261
        57 -11.2688    192.9993     38.2239   5.2618139472e+01   3.1842558439e+01    0.5079307    0.4012625 -16.31  0.001967766    1.348    0.258
        58 -10.6814     85.8262    223.7798   1.1585265297e+02   1.8507330168e+01    0.5112436    0.1816908  52.91  0.002403444    2.527    0.604
        59  -9.0814    148.3475     44.5488   6.2355174078e+01   4.2593637298e+01    0.3044294    0.2357187 -59.91 0.0008727068    1.463    0.317
        60  -9.4988     32.6909     28.6771   9.3886089361e+01   6.7988282829e+01    0.4587889     0.113255 -53.77  0.001372307    5.173    0.807
        61  -9.1460    134.4700    242.4535   1.0897570779e+02   8.5714322403e+00     0.113645    0.0875333  45.52 0.0001102938    1.006    0.006
