#   1 NUMBER                 Running object number                                     
#   2 MAG_AUTO               Kron-like elliptical aperture magnitude                    [mag]
#   3 X_IMAGE                Object position along x                                    [pixel]
#   4 Y_IMAGE                Object position along y                                    [pixel]
#   5 X_WORLD                Barycenter position along world x axis                     [deg]
#   6 Y_WORLD                Barycenter position along world y axis                     [deg]
#   7 A_WORLD                Profile RMS along major axis (world units)                 [deg]
#   8 B_WORLD                Profile RMS along minor axis (world units)                 [deg]
#   9 THETA_WORLD            Position angle (CCW/world-x)                               [deg]
#  10 FWHM_WORLD             FWHM assuming a gaussian core                              [deg]
#  11 ELONGATION             A_IMAGE/B_IMAGE                                           
#  12 ELLIPTICITY            1 - B_IMAGE/A_IMAGE                                       
         1 -15.7040    196.0654    168.8892   8.1801326860e+01   8.4451692538e+00     2.975096      1.47365 -44.28    0.0107976    2.119    0.528
         2 -14.1537    110.2786     51.8199   7.0318610333e+01   5.0485052809e+01     1.594374     1.005408 -44.66   0.00566391    1.705    0.413
         3 -14.6223    132.5483     57.2178   6.6319518647e+01   4.4504922237e+01     2.969198     1.586328 -43.06   0.01222516    1.951    0.487
         4 -14.2574    150.1753     36.9294   5.5603679761e+01   4.3186229703e+01     2.628929     1.713922 -79.08   0.01134642    2.195    0.544
         5 -15.2692    108.6346     74.0731   7.8442999027e+01   4.6779815505e+01     2.582392     2.432203 -81.38   0.01062147    1.218    0.179
         6 -15.4909     69.9336     59.2273   8.6078110649e+01   5.6767000405e+01     2.725403     1.642873  32.85   0.01344624    1.777    0.437
         7 -14.7855    179.5619     80.5222   6.3240559440e+01   2.8914842009e+01     2.251412     1.306164 -56.31  0.006869682    2.104    0.525
         8 -15.7499     32.0489     93.9557   1.0913153625e+02   5.3706917002e+01     3.266482     1.218761 -64.90   0.01208484    2.313    0.568
         9 -12.8991    247.2253     42.4633   4.3585783553e+01   1.8705184278e+01    0.8080919    0.5743099 -36.29  0.003360769    1.320    0.242
        10 -13.6675    198.6913     28.7401   4.5542012955e+01   3.1900465488e+01     1.867209    0.9709045 -88.57  0.007601202    2.493    0.599
        11 -14.3132    170.1006     35.8406   5.1691777063e+01   3.8256627114e+01     1.644174     1.005823 -26.39   0.00545819    1.761    0.432
        12 -13.8645    190.5686     37.3149   4.8998850496e+01   3.2850492261e+01     1.592518    0.9839056 -77.37  0.007073721    2.008    0.502
        13 -14.3777     55.2265     94.5176   1.0151996665e+02   5.1126773591e+01     2.247499     1.270407  88.17  0.007815141    4.142    0.759
        14 -12.6488    172.3505     18.6438   4.6127289153e+01   3.9729231219e+01    0.7769563    0.5470147  81.53   0.00311261    1.398    0.285
        15 -13.9288     49.2815     40.9564   8.7336671222e+01   6.3141084600e+01     1.415367    0.8624113 -37.01  0.005265681    1.430    0.301
        16 -14.2221     15.5099     14.7588   9.2088347978e+01   7.1243050585e+01     1.039369    0.6997352   3.14  0.004658653    1.441    0.306
        17 -12.8312    224.9576     14.5134   3.9131804845e+01   2.7212313290e+01    0.6837854    0.5624098 -60.58  0.003263212    1.077    0.071
        18 -13.8399    230.2288      4.4099   3.6329091539e+01   2.7090703527e+01     1.260752    0.5211656  81.92  0.004877609    2.435    0.589
        19 -13.5319     39.7417      6.3563   7.5738088473e+01   6.9684535991e+01    0.8927993    0.5551036  -2.75  0.003733224    1.572    0.364
        20 -11.7733     29.8947      2.2550   7.8220701359e+01   7.1498456518e+01    0.4164591    0.1990267  34.70  0.002059624    2.109    0.526
        21 -13.1974    148.2266    150.7627   8.8366991575e+01   2.1769846186e+01    0.9865341    0.7178829 -64.65  0.003355998    1.610    0.379
        22 -11.9978    164.0249    248.1682   1.0166244638e+02   1.0081103324e+00    0.4369607    0.3542483  64.55  0.002573261    1.503    0.335
        23 -11.6255    163.9930    243.0057   1.0097733641e+02   1.7658965127e+00     0.381045    0.2361646  52.47  0.001523779    1.669    0.401
        24 -14.9695    119.7528    247.3650   1.0982432895e+02   8.0306850653e+00     1.900435     1.256438  43.96   0.01197149    1.217    0.178
        25 -15.6925     85.6923    241.9545   1.1560419229e+02   1.3967829788e+01     2.346295     1.149697  41.67   0.01303114    1.716    0.417
        26 -15.1604     75.1391    206.7380   1.1418366062e+02   2.2220457632e+01     2.692841     1.393922  77.48   0.01231476    2.529    0.605
        27 -14.7874     52.1069    198.9692   1.1817845616e+02   2.6905596606e+01     1.068849     0.976501  36.75  0.005049345    1.418    0.295
        28 -14.5632     16.3501    216.4501   1.2640554669e+02   2.7293116889e+01    0.9363639    0.3836961  76.56  0.004003774    2.345    0.574
        29 -16.4162     36.7370    242.5565   1.2436334734e+02   2.0143739772e+01       2.1638    0.6319956  54.35  0.009871823    2.704    0.630
        30 -16.4690     14.3777    198.4453   1.2569338977e+02   3.1143718955e+01     1.702257    0.9658377  69.30   0.01045112    1.453    0.312
        31 -15.6938     34.6401    189.7548   1.2098633117e+02   3.0931087153e+01     1.039041    0.6877949 -86.68  0.003742473    1.274    0.215
        32 -15.6420     21.9778    185.1110   1.2324483364e+02   3.3256043355e+01     1.171749      0.61979  79.17  0.005769392    1.721    0.419
        33 -10.5940     76.9896    165.2553   1.0853316958e+02   3.1152358146e+01    0.2624674    0.1875359 -68.33 0.0004410454    1.314    0.239
        34 -12.4072     81.1325    159.5848   1.0663993135e+02   3.1875468529e+01     0.658488    0.4722582  38.15  0.002650964    1.475    0.322
        35 -12.1785     73.4180    160.5785   1.0871753459e+02   3.2769174323e+01    0.4628086    0.3630854  71.19  0.001501636    1.241    0.194
        36 -12.6123     64.2589    161.5355   1.1112243306e+02   3.3804501514e+01    0.4711815    0.2697997 -47.25  0.001548251    2.028    0.507
        37 -12.2885     30.4715    121.8766   1.1440069419e+02   4.7176916485e+01    0.5195806     0.416859  67.48  0.002043142    1.322    0.243
        38 -13.5630     18.4220    124.8320   1.1818718694e+02   4.7486793982e+01    0.8512095     0.754047  79.19  0.004625504    1.179    0.152
        39 -14.8452     20.5023    144.2402   1.1988157484e+02   4.2712983221e+01     1.771936    0.5297566 -65.18  0.005738842    2.514    0.602
        40 -15.0368      7.7120    147.1640   1.2329452600e+02   4.3058836218e+01      1.41606    0.6413647 -88.52  0.005336203    1.998    0.499
        41 -12.8939     68.1208    144.1649   1.0749894245e+02   3.7449785861e+01    0.7405317    0.4551134  70.18  0.002821432    2.012    0.503
        42 -12.1744     58.1524    135.4445   1.0875242659e+02   4.0882288813e+01     0.702055    0.4205307  67.23  0.003267804    2.083    0.520
        43 -11.3322     86.4489    142.6209   1.0234057489e+02   3.5116261543e+01    0.2584593    0.2334587 -47.96 0.0003678763    1.181    0.153
        44 -11.1005    186.6411    139.6467   7.7235742800e+01   1.5921482373e+01    0.4815152        0.288 -37.11  0.002076788    1.660    0.397
        45 -13.5871    211.3988    131.3710   7.0368243124e+01   1.2182914761e+01     1.307013       1.0591  81.90  0.004908614    1.676    0.403
        46 -12.7633    234.2486    242.2319   8.8101085190e+01  -8.8382540465e+00    0.7435551    0.3884534  19.46  0.003696562    1.894    0.472
        47 -12.1209    242.3531    237.8177   8.5995901011e+01  -9.4568704118e+00    0.4380734    0.2774801 -20.92  0.002834359    1.546    0.353
        48 -15.2952     48.0098    238.2420   1.2212846605e+02   1.9598417507e+01    0.9169616    0.5513814  70.58  0.003425081    1.388    0.280
        49 -15.2098     65.6805    121.9811   1.0418331833e+02   4.3189389488e+01     1.726332     1.521102  13.05    0.0100355    1.372    0.271
        50 -10.6534    192.5760    128.7624   7.3399713438e+01   1.6745793682e+01    0.3359582    0.3301118 -78.30  0.001569374    1.102    0.093
        51 -13.2871    244.2570    123.8033   6.2971552200e+01   6.8071557589e+00    0.8300583    0.6360934  39.85  0.002904886    1.446    0.308
        52  -9.2990     96.5038    128.5099   9.6745394632e+01   3.6854552991e+01    0.1487681    0.1396796 -49.57 -6.131269e-05    1.083    0.076
        53 -10.8618     47.0449    223.0521   1.2120817468e+02   2.2597068419e+01    0.2088183    0.1318192  71.81 0.0003734074    1.331    0.249
        54 -14.9781     72.4879     86.4482   9.3681865838e+01   5.0632555396e+01     1.968788     1.367532  50.53  0.007419386    1.731    0.422
        55 -12.7128    231.3821    112.9167   6.2474674148e+01   1.1224314649e+01    0.9444458    0.4817535 -42.70  0.004068692    1.823    0.452
        56 -13.6516    210.1062    109.5478   6.5271766625e+01   1.6429359303e+01     1.115599    0.9185772 -68.27  0.003094627    1.416    0.294
        57 -13.4824    222.2754    109.1638   6.3066466947e+01   1.3811143800e+01    0.9898465    0.6157127 -36.29  0.003053845    1.475    0.322
        58 -11.5736    129.6060    118.9321   8.5503853791e+01   3.2738791963e+01    0.5155499    0.3182614 -51.89  0.001327623    1.632    0.387
        59  -9.4950    106.5054    120.0437   9.2020956420e+01   3.7071269072e+01     0.230475    0.1448612 -50.96 0.0004880118    1.521    0.343
        60 -12.3105      1.7717    113.7834   1.2151093343e+02   5.1222821986e+01    0.7203264    0.3770473  87.50  0.002732317    1.875    0.467
        61 -12.2258      2.3656    102.5200   1.1998743374e+02   5.3809845593e+01    0.7750731    0.3209783 -61.56  0.003991387    1.767    0.434
        62 -11.1362    153.3042    110.4514   7.7343699561e+01   2.9375179134e+01     0.477493    0.4133555  77.10   0.00202484    1.314    0.239
        63 -11.7380    249.5214    103.8451   5.7592064722e+01   9.0198472333e+00    0.5285928     0.310089 -41.48  0.002589288    1.500    0.333
        64 -11.1006    106.3774    113.4333   9.0431231750e+01   3.8641870964e+01    0.4424584    0.3723531 -11.20  0.001394738    1.431    0.301
        65  -9.4552     44.4555    219.7572   1.2144515745e+02   2.3556068745e+01    0.1553261    0.1292264 -82.93 0.0006055245    1.282    0.220
        66 -11.9789    217.7965     99.0422   6.1303843254e+01   1.6560339497e+01    0.5592544    0.4721687 -21.73  0.002244938    1.207    0.171
        67 -13.4802    231.2016     92.8306   5.7644561874e+01   1.4641147013e+01     1.057455    0.7563925 -72.01  0.005150856    1.781    0.439
        68 -13.6908    222.4927     82.9003   5.6489148058e+01   1.8222473560e+01     1.130007    0.8881586  37.95  0.003871663    1.480    0.324
        69 -13.9068    227.5548     69.2861   5.2341349951e+01   1.9237294195e+01     1.474558    0.9431644 -75.65  0.005841703    2.040    0.510
        70 -13.1043    135.4905     93.8064   7.7111401823e+01   3.6925095670e+01     1.156032    0.9039452  85.20  0.004621295    1.697    0.411
        71 -12.1772    248.2038     90.9066   5.4766166716e+01   1.1349422477e+01    0.6634991    0.4129761 -33.86  0.003114292    1.430    0.301
        72 -13.6981    187.0834     60.6276   5.6182385107e+01   3.0367697178e+01     1.457299     1.117181  74.08  0.007248903    1.365    0.268
        73 -15.0234    212.3502    170.6212   7.8963948557e+01   5.0226696930e+00     2.615336    0.9200756 -41.21  0.009649424    2.862    0.651
        74 -13.7198    168.3864     62.3636   6.0100090689e+01   3.4807015768e+01     1.665941    0.6214395 -41.24  0.005736901    2.631    0.620
        75 -12.1624    216.5072     72.4736   5.4724139225e+01   2.1299777555e+01    0.4315372    0.3470603 -76.01  0.001651408    1.345    0.256
        76 -14.7275    152.0488     87.3654   7.1138946191e+01   3.4362998721e+01     2.005522     1.658944  84.73  0.005841095    1.449    0.310
        77 -10.2771     44.4089     69.6668   9.8904838290e+01   5.8005246710e+01    0.2576683    0.2045823 -34.31  0.001045746    1.132    0.117
        78 -16.2134    202.4176    202.0774   8.7045717128e+01   1.6332022342e+00     2.143831     1.852418  11.82  0.008270423    1.026    0.025
        79  -9.4484      3.6764    247.1788   1.2998384331e+02   2.2821209797e+01    0.1213135   0.07264037 -81.25 0.0004074775    1.553    0.356
        80 -12.2946     57.5898     35.9860   8.1953535483e+01   6.2837849294e+01    0.5372309    0.3287045 -48.25  0.002752294    1.890    0.471
        81 -11.9611    215.0886     25.0364   4.2684622808e+01   2.8329749265e+01    0.4918574    0.2868582  35.43  0.001206752    2.640    0.621
        82 -16.0897    154.7013    191.8976   9.4957152912e+01   1.2047713967e+01     2.589227     1.459588 -54.64   0.01039842    2.066    0.516
        83 -11.5912     34.5894    209.4303   1.2255410993e+02   2.6775626211e+01    0.2876724    0.2239913 -49.10 0.0008505409    1.846    0.458
        84 -12.0282    183.9043    187.8104   8.8067354440e+01   7.3637240655e+00    0.4706859    0.3855039  74.59  0.002034688    1.690    0.408
        85 -11.2691     62.1336    181.0050   1.1411366054e+02   2.9577497275e+01    0.3817644    0.2633981 -31.14  0.001943365    2.431    0.589
        86 -11.0556     67.2206    175.3921   1.1225881167e+02   3.0175218086e+01    0.2441419    0.2165577 -60.72 0.0007849808    1.269    0.212
        87 -12.7994    123.8631    158.7684   9.5882957180e+01   2.4794360575e+01     0.844601    0.5885829  67.79  0.002818788    1.741    0.425
        88 -13.7479    127.5638    171.1997   9.7343977910e+01   2.1343134665e+01      1.71863     1.123264  65.42  0.007761058    1.890    0.471
        89 -11.6872    117.0996    163.1085   9.8353640800e+01   2.5061348894e+01    0.5803466    0.2964168 -59.81   0.00219384    2.104    0.525
        90 -12.7319    143.1370    161.5688   9.1835463613e+01   2.0456397393e+01    0.8868471    0.5169815 -57.27  0.003518884    1.923    0.480
        91 -13.5933    140.0582    149.6624   9.0076710871e+01   2.3673368267e+01     1.196946    0.8818872 -24.67  0.003860432    1.707    0.414
