#   1 NUMBER                 Running object number                                     
#   2 MAG_AUTO               Kron-like elliptical aperture magnitude                    [mag]
#   3 X_IMAGE                Object position along x                                    [pixel]
#   4 Y_IMAGE                Object position along y                                    [pixel]
#   5 X_WORLD                Barycenter position along world x axis                     [deg]
#   6 Y_WORLD                Barycenter position along world y axis                     [deg]
#   7 A_WORLD                Profile RMS along major axis (world units)                 [deg]
#   8 B_WORLD                Profile RMS along minor axis (world units)                 [deg]
#   9 THETA_WORLD            Position angle (CCW/world-x)                               [deg]
#  10 FWHM_WORLD             FWHM assuming a gaussian core                              [deg]
#  11 ELONGATION             A_IMAGE/B_IMAGE                                           
#  12 ELLIPTICITY            1 - B_IMAGE/A_IMAGE                                       
         1 -13.4956    136.5559    143.8627   3.4061572770e+01   2.5582678672e+01     3.815799     2.318217 -47.02   0.01715491    1.656    0.396
         2 -13.4113    190.0711    114.5825   1.6345657146e+01   2.1064634745e+01     2.897063     1.329307 -35.89   0.01252299    2.039    0.510
         3 -15.8350    243.4779    130.4598   1.1924072356e+01   9.8490130181e+00     3.970594     1.766098 -36.86   0.01963531    1.760    0.432
         4 -13.7783    193.4688    193.8402   3.1432378763e+01   7.1802883577e+00     3.850417     2.569113  68.67   0.01363594    6.729    0.851
         5 -14.8919    243.6754     83.4364   2.6069505767e+00   1.6404377052e+01     5.457517     1.648722 -50.55   0.02051216    3.959    0.747
         6 -14.8864    207.5564    115.4309   1.3768567514e+01   1.7757056708e+01     6.917071     1.547251 -38.59   0.02270018    3.780    0.735
         7 -10.8255    249.6413     16.7252   3.4871395770e+02   2.3526868431e+01    0.4934825    0.1518617 -35.80 0.0008844821    2.290    0.563
         8 -10.5696    245.5981      2.3338   3.4604284641e+02   2.5704787140e+01    0.5462164    0.2741775 -80.75  0.002790262    1.898    0.473
         9 -10.2128    221.8710     13.8898   3.4949216910e+02   2.8964304341e+01    0.3265463    0.2328183  59.13   0.00137802    1.813    0.448
        10 -11.6050    219.1160     10.4362   3.4887549259e+02   2.9870772442e+01    0.6147549    0.2809481  59.21  0.002606078    2.741    0.635
        11 -10.5457    239.6962      4.9765   3.4679092972e+02   2.6503654029e+01    0.3665965    0.1763544 -49.98  0.001685568    1.469    0.319
        12 -11.3665    232.4638      8.4245   3.4780263257e+02   2.7493917918e+01    0.5652386    0.2698485  55.04  0.002785873    3.068    0.674
        13 -11.3212    229.9376      4.9051   3.4717478236e+02   2.8326445753e+01    0.6429523    0.2458207  58.66  0.003124596    3.568    0.720
        14  -9.5226    120.3178      9.2535   3.5702626335e+02   5.3286230391e+01    0.3069318    0.2546003 -48.98 0.0009647448    1.243    0.195
        15 -10.9222    180.4273      5.3892   3.4991830067e+02   3.8699877653e+01    0.5422765    0.2545441  53.43  0.002544416    2.684    0.627
        16  -9.3735    212.4157      2.7566   3.4748757433e+02   3.1995973347e+01    0.1794628    0.1472721   1.64 0.0009890678    1.848    0.459
        17  -9.1109    209.1497      1.6302   3.4738477406e+02   3.2777626213e+01    0.2221774    0.1455628  70.93  0.001404895    1.676    0.403
        18  -9.9977    171.6774      2.5005   3.4972989313e+02   4.1015555598e+01    0.2686826    0.1725577 -66.07  0.001276881    1.321    0.243
        19  -8.8998     18.1957      2.8335   3.1117622609e+01   7.7808931475e+01    0.1779791    0.1324854   4.72 0.0004599328    1.331    0.249
        20 -10.4863    242.0621    206.4037   2.5446516621e+01  -2.7435855412e-01    0.3086443    0.2307284  41.29  0.001612687    2.134    0.531
        21 -10.5887    249.4759    247.2504   3.0405132788e+01  -5.6603305796e+00    0.6104071    0.1957773 -30.73  0.003489431    2.636    0.621
        22 -11.3633    243.3637    244.8494   3.0979741577e+01  -4.8817844908e+00    0.4075851    0.3010792  23.86  0.003305205    1.707    0.414
        23  -9.2414    213.9853    205.9434   2.9818147376e+01   2.8580068646e+00    0.2389262    0.1819909  39.16   0.00127413    1.787    0.441
        24  -8.7465    190.0609    243.9816   3.9704350479e+01   4.0880577707e-01    0.1360899   0.09981812   6.44 0.0003591507    1.023    0.023
        25  -8.5663    129.4211    242.6975   5.1588547496e+01   7.6160919900e+00    0.1804897     0.123756 -58.98 0.0007986702    1.991    0.498
        26 -12.7190    245.2338    179.1885   2.0510759658e+01   2.8890651315e+00     0.850887    0.6040064 -13.26  0.006115412    1.152    0.132
        27 -12.7907    227.5908    166.7787   2.0910028160e+01   6.7603409225e+00      1.27758    0.9973952 -81.72  0.007245236    2.939    0.660
        28 -12.0545    187.1893    174.4357   2.9180255244e+01   1.1195217453e+01    0.6276723    0.3984323 -37.43  0.001671054    1.480    0.324
        29 -14.4391    177.3086    166.2369   2.9558147753e+01   1.4120302526e+01     3.120459     1.670664 -48.67   0.01470636    2.042    0.510
        30 -10.2825    246.5181    233.9863   2.8962469949e+01  -3.9644318279e+00    0.2710734    0.2405773  31.71  0.002073312    2.158    0.537
        31  -8.2253    245.0447    193.5100   2.2931994435e+01   1.0429855947e+00    0.1419465   0.09713548  23.21  0.001014533    1.543    0.352
        32 -10.0824    227.5459    192.2054   2.5350154156e+01   3.1717301407e+00    0.2237255    0.1871705  -7.42 0.0005265464    1.172    0.147
        33  -8.7497     85.3406    187.5108   5.5376514545e+01   2.4205299815e+01    0.2790235    0.2010245 -28.22  0.001008188    1.751    0.429
        34  -9.5920    130.9941    179.6510   4.2292876376e+01   1.8971064220e+01    0.2775074    0.2064578 -49.79 0.0004857849    1.451    0.311
        35 -10.5810      8.6496    201.5750   7.7456924181e+01   2.9602670963e+01    0.2243116    0.2099878  55.47 0.0004764546    1.179    0.152
        36  -8.7989    154.5560    179.0034   3.6704211875e+01   1.5368030668e+01    0.2020951    0.1300473 -43.58  0.001026508    1.591    0.371
        37 -10.4287    128.4215    169.9218   4.1219828905e+01   2.1422949368e+01    0.6107239    0.1831402 -51.44  0.001999414    3.514    0.715
        38 -13.6609    173.0613    111.6585   1.8686471466e+01   2.4886282387e+01     2.138934     2.054513  41.05   0.01282911    1.121    0.108
        39 -10.2815    239.3613    228.8748   2.9290517991e+01  -2.7219247542e+00    0.2948632    0.1980244  36.74  0.001998918    2.193    0.544
        40  -9.9138    116.3256    165.6239   4.3558792634e+01   2.4379653075e+01    0.2626161    0.2405628  -1.94 0.0003457219    1.121    0.108
        41  -9.5369    232.9756    225.0215   2.9702331381e+01  -1.6472915763e+00     0.260914    0.1658523  41.14  0.001689524    2.534    0.605
        42 -12.2288    212.9271    136.5168   1.7361866700e+01   1.3481498183e+01    0.7068395    0.2718645 -36.96  0.001295137    2.246    0.555
        43  -8.5620    113.4143    150.2479   4.1445683547e+01   2.8389335822e+01    0.2030593    0.1486273 -66.42 0.0009424819    1.578    0.366
        44 -13.2448    227.5916    146.2897   1.7094436238e+01   9.7814184363e+00      1.25551     0.688327  60.31  0.005876698    3.675    0.728
        45 -11.1126    162.5254    142.9072   2.7886304741e+01   2.0975556262e+01    0.4081945    0.3151606  44.78 0.0006902513    1.374    0.272
        46 -10.6152     68.0013    144.0586   5.4152964006e+01   3.7465340665e+01    0.7486625    0.4082565  57.82  0.002892258    2.213    0.548
        47 -10.5388    154.3867    144.1864   2.9934822956e+01   2.2209649885e+01    0.3171071    0.2014354 -50.15  0.001485859    1.637    0.389
        48 -11.3378    149.2591    143.1719   3.0880887485e+01   2.3361322129e+01    0.4753578    0.3466604   1.05  0.001147488    1.799    0.444
        49 -10.5507    161.4197    135.7903   2.6576860925e+01   2.2567107396e+01    0.4043359    0.2452959 -49.05  0.001141214    1.678    0.404
        50 -11.2385    160.9048    128.8241   2.5124871002e+01   2.4028219386e+01    0.5566503     0.361812 -48.04  0.001881391    1.526    0.345
        51  -9.5700    165.7286    133.4850   2.5162624724e+01   2.2204766546e+01    0.2617264    0.1902314 -40.28 0.0006956852    1.306    0.235
        52 -12.2899    223.7082     82.4906   4.4929999410e+00   1.9933477803e+01    0.7494577    0.6089312  -5.20    0.0031016    1.590    0.371
        53 -11.0937    152.3812    126.3289   2.6405657079e+01   2.6194854335e+01    0.4071661    0.3751003  76.03  0.001918015    1.217    0.178
        54 -10.3888    142.0123    126.0200   2.8730969596e+01   2.8329386761e+01    0.3635341    0.2143664 -52.21  0.001202367    1.780    0.438
        55 -12.8886    239.4557     97.6379   5.9269597558e+00   1.5114415229e+01    0.7165487    0.4103935 -24.69  0.001370787    1.826    0.452
        56  -9.0660     78.3981    124.1944   4.6857342153e+01   4.1015101095e+01    0.2801415    0.2138819  32.75 0.0005362225    1.306    0.234
        57  -7.6452    116.2820    123.2921   3.4771135830e+01   3.4120045621e+01    0.1512939    0.1232867  -8.71 0.0002403065    1.532    0.347
        58 -11.4636    133.2220    119.7502   2.9389480614e+01   3.1458879146e+01    0.5169367    0.4982375 -27.26  0.002077273    1.053    0.051
        59  -9.8577    134.7646    112.9917   2.7323089881e+01   3.2586972527e+01    0.4019881    0.2259954 -45.05   0.00116562    1.759    0.431
        60 -10.5571    134.8630    107.3190   2.5842907847e+01   3.3765963635e+01    0.6411236    0.2296223 -46.99   0.00154518    2.799    0.643
        61 -11.7237     66.8756    107.0736   4.7194260875e+01   4.7419067629e+01     1.739249     1.005106  46.13  0.007123078    1.765    0.434
        62 -12.7184     46.4379    105.7425   5.5112419646e+01   5.0812109065e+01     1.161595     1.030612   7.91  0.006104322    1.221    0.181
        63  -9.8939    148.2505    114.0443   2.4388074941e+01   2.9524889474e+01    0.2692213    0.2193141  52.77 0.0005455813    1.279    0.218
        64 -11.2962     37.7890    105.2406   5.8678333711e+01   5.2013331677e+01     0.445078    0.3948636  28.77  0.000940154    1.157    0.136
        65 -12.5145      5.7827    105.7086   7.2639363113e+01   5.4590199879e+01     1.032407    0.8640794 -37.47  0.005869955    1.268    0.212
        66 -10.9732      6.0243     99.6974   7.1932009037e+01   5.6221635812e+01    0.4581911    0.3845118 -39.82  0.001912488    1.235    0.190
        67 -11.3420    124.3660    106.1889   2.8238235398e+01   3.6282423107e+01    0.8820326    0.3933563 -45.02  0.002806102    2.244    0.554
        68 -10.2859    120.0859    102.7087   2.8462291546e+01   3.7973860859e+01    0.3070887    0.2967917  30.79  0.001279231    1.084    0.077
        69 -11.4610     54.5498    109.9900   5.2677797242e+01   4.8549650795e+01    0.6306751    0.5025597 -54.88  0.001633592    1.250    0.200
        70  -9.8432    142.1354    106.5624   2.3900868850e+01   3.2348234426e+01    0.3825727    0.2969555  87.25 0.0009009438    1.649    0.394
        71  -8.2700    107.4459    105.0000   3.2717822277e+01   4.0174404861e+01    0.3578716   0.08902299  42.72 0.0009400214    3.977    0.749
        72  -8.9135    228.7421    234.1580   3.1717317383e+01  -2.3273996086e+00    0.1332882    0.1206751  63.74 0.0009511544    2.793    0.642
        73  -9.1338    159.4019    100.8285   1.8674276671e+01   2.9740273677e+01    0.2838919    0.1807383 -27.61  0.001119592    1.837    0.456
        74  -9.9021    171.2855     97.9364   1.5668842189e+01   2.7738559930e+01    0.3913631    0.2452275 -30.59  0.001137521    1.694    0.410
        75  -8.8824    170.8346     92.8771   1.4476366155e+01   2.8733505280e+01    0.2538576    0.2148792  77.12 0.0006416088    1.290    0.225
        76  -9.4360    198.5951     97.1920   1.1024290163e+01   2.2353249369e+01    0.2681352      0.21532  32.76  0.000410852    1.529    0.346
        77  -8.0689    106.7831     95.5488   3.0299315418e+01   4.2469783703e+01    0.2079441    0.1487953  57.92 0.0003724715    1.479    0.324
        78  -8.2600    154.2267     94.2370   1.8012931179e+01   3.2112955461e+01    0.1956839     0.163396 -72.00 0.0003413738    1.284    0.221
        79 -11.8975     18.0153    194.1163   7.4644098829e+01   3.0525219642e+01    0.5774372    0.5172148 -41.93  0.002336413    1.395    0.283
        80  -9.4612    121.8454     89.9047   2.4386095823e+01   4.0319370013e+01    0.3737814    0.2095316 -34.48  0.001195311    2.070    0.517
        81  -8.6964    127.0523     89.9999   2.3059200489e+01   3.9106954525e+01    0.2343808    0.2280214 -73.07 0.0006856117    1.023    0.023
        82  -9.5314    196.0026     87.7342   9.1884956896e+00   2.4380542805e+01    0.2955239    0.2324851   6.07  0.000870927    1.780    0.438
        83  -7.7463    149.4878     89.5846   1.7746408024e+01   3.4051889436e+01    0.1476111    0.1399243 -74.01  0.000105025    1.021    0.021
        84  -8.7917    169.0664     84.3738   1.2598678816e+01   3.0601355003e+01    0.2747476    0.1885493 -25.41  0.001118012    1.683    0.406
        85  -8.3725    147.8375     84.8374   1.6782160828e+01   3.5316246078e+01    0.2101213    0.1979814   7.61 0.0003654541    1.231    0.187
        86  -8.7620    179.9823     66.7047   6.2519989486e+00   3.1063465435e+01    0.1931447    0.1867272 -25.17 0.0003860085    1.206    0.171
        87 -10.8056    175.9670     67.4907   7.0419098607e+00   3.1837439950e+01    0.5417699    0.2980099 -70.34  0.002204537    2.608    0.617
        88  -9.6176    177.9107     62.9044   5.5492275485e+00   3.2106191103e+01    0.2952051    0.1909031 -22.35  0.001053787    1.903    0.475
        89 -11.4497    176.8104     74.8368   8.8389443366e+00   3.0483578947e+01    0.6927382    0.5806226 -81.71 0.0009892553    1.222    0.182
        90  -9.6701    185.9698     74.7162   7.4460817544e+00   2.8514462004e+01    0.2452735    0.2331709 -30.83 0.0003904832    1.174    0.149
        91  -8.2237    140.2369     79.9718   1.7025520873e+01   3.7992058822e+01     0.229652    0.1711146 -84.25  0.001063468    1.627    0.385
        92 -14.7733    203.7991    177.6205   2.6743654815e+01   8.3137108050e+00     2.941347     2.506215  60.28   0.01884242    1.847    0.459
        93  -9.4575    198.1162     75.3919   5.9562962011e+00   2.5875878353e+01    0.2806507    0.2244675  39.97 0.0006508812    1.575    0.365
        94  -9.4211    202.6857     67.6913   3.5483400813e+00   2.6091221902e+01    0.1945839    0.1737503 -39.95 0.0007962898    1.146    0.127
        95  -9.5113    202.0661     72.0258   4.6535622211e+00   2.5580360858e+01    0.2828763    0.2540197  -2.19 0.0005417329    1.405    0.288
        96  -8.3261    132.7973     74.6213   1.7106627324e+01   4.0754933201e+01    0.2025548    0.1415509  69.00 0.0001082213    1.540    0.351
        97 -10.2849    184.0103     78.4819   8.6780774430e+00   2.8335520450e+01    0.4017538    0.3147344   9.26  0.001347089    1.854    0.461
        98  -9.5289    190.2591     67.4616   5.0407120374e+00   2.8712105302e+01    0.2515028    0.2050987 -58.87 0.0001406834    1.100    0.091
        99  -9.7899    181.6421    202.0320   3.5031717074e+01   7.4610765716e+00    0.3762695     0.216994  26.64  0.001078811    1.617    0.381
       100  -7.7699    108.4576     66.5250   2.0710648002e+01   4.8148592839e+01    0.1530398    0.1465946  37.95 -2.200117e-05    1.117    0.105
       101  -9.4814    153.7569     64.4246   9.8042954464e+00   3.7485889695e+01    0.2564984    0.2245214 -24.46 0.0006042834    1.304    0.233
       102  -8.7255    183.0163     61.4659   4.4729065383e+00   3.1182544419e+01    0.2416006    0.1883134 -17.16 0.0007490262    1.592    0.372
       103  -8.8499    198.7215     70.9915   4.8214811425e+00   2.6414026205e+01    0.1921772     0.178879 -37.62 0.0005340033    1.166    0.143
       104  -9.6570    144.1959     59.5412   1.0104929621e+01   4.0598323646e+01    0.3064703    0.2601917  83.11 0.0006780414    1.147    0.128
       105  -8.8016    181.7543     56.6095   3.3735444135e+00   3.2176020022e+01    0.1861401    0.1245684  83.54 0.0007570774    1.618    0.382
       106  -9.0202    183.7122     52.2055   1.9757060967e+00   3.2365819645e+01     0.221467    0.1425696 -52.12  0.000683106    1.389    0.280
       107  -8.6638    178.3381     52.3184   2.6796983707e+00   3.3564618184e+01    0.1306341    0.1062606  27.52 0.0007049235    1.706    0.414
       108  -8.5655    229.4402    197.9825   2.6011872159e+01   2.1721874676e+00    0.1602436    0.1225926   1.55 9.070738e-05    1.135    0.119
       109  -9.5726    160.2252     49.1223   4.2928629061e+00   3.8279926189e+01    0.2433904    0.2199515  24.69 0.0009798565    1.413    0.292
       110  -9.1434    162.8344     44.2373   2.5029288310e+00   3.8340132738e+01    0.2601044    0.2109009  34.19 0.0005285735    1.618    0.382
       111  -9.5937    243.5366     44.2617   3.5460403657e+02   2.1473306731e+01    0.4441462    0.1601333 -54.95   0.00210086    2.602    0.616
       112  -9.0821    249.8931     41.5628   3.5363574919e+02   2.0703004552e+01    0.2448429    0.1223501 -20.95  0.001226379    2.785    0.641
       113  -9.7005    192.2884     39.8726   3.5785446955e+02   3.2117353377e+01    0.2214611      0.17827  77.92 0.0004037757    1.286    0.223
       114  -8.2682    158.4980     30.9523   3.5917338702e+02   4.1140168639e+01    0.1935783    0.1312039 -33.23 0.0006668591    1.517    0.341
       115  -7.9809     99.3609     30.1984   9.4483033661e+00   5.6371716611e+01    0.1882178    0.1302971 -44.94 0.0002807072    1.530    0.346
       116  -9.0439    201.9606     28.8282   3.5425451791e+02   3.1380093191e+01    0.1705338    0.1649146  73.07 0.0007873914    1.330    0.248
       117  -8.3250     83.3320     28.9394   1.3403729061e+01   6.0568670923e+01    0.1854307    0.1840557 -28.10 0.0004040478    1.103    0.093
       118  -8.5312    202.6735    231.3210   3.5664036798e+01   7.0261909137e-01   0.09564317   0.08570972  30.30  0.000693467    1.684    0.406
       119 -10.4175    244.7479     26.5715   3.5092415311e+02   2.3313583564e+01    0.2898303    0.1815439  57.83  0.001878018    2.154    0.536
       120 -10.0650    250.0200     24.3353   3.5019853699e+02   2.2642019017e+01    0.2663496     0.229594 -66.75  0.002126768    1.243    0.195
       121 -11.1297    179.2077     23.6471   3.5488074094e+02   3.7051565457e+01    0.5933148    0.3244477  74.54  0.003039685    1.771    0.435
       122  -8.6527     88.5256     23.6298   9.4506798175e+00   5.9978159372e+01    0.3194404    0.1995182   9.61  0.001335966    2.618    0.618
       123  -9.4893    222.7897     23.0045   3.5144492793e+02   2.7793099520e+01    0.3223981    0.1551562  48.48  0.001537918    3.431    0.709
       124 -10.1944    217.9822     22.0335   3.5152876596e+02   2.8851419630e+01    0.2688324    0.2328003 -55.67  0.001187661    1.169    0.145
       125  -8.7644    215.0029     20.2422   3.5131181700e+02   2.9649131992e+01    0.1706069    0.1291855 -69.71 0.0004739921    1.127    0.112
       126  -9.7684    195.2346     19.7640   3.5255177857e+02   3.3870811166e+01    0.2154331    0.1708921 -47.47 0.0002789958    1.154    0.134
       127 -10.4110    241.8771     18.9246   3.4952280974e+02   2.4662111087e+01    0.2761846    0.1663605  72.33  0.001282717    1.909    0.476
       128 -10.8236    203.4340     18.3273   3.5162028206e+02   3.2259194424e+01    0.3409755    0.2006112  86.26  0.001953774    1.663    0.399
       129  -9.3552     63.3858    228.9682   6.5358694477e+01   1.8123231442e+01    0.2069415    0.1857271   8.00 0.0005635042    1.258    0.205
       130  -9.8876    250.0480    222.4265   2.6741072166e+01  -2.9738865361e+00    0.2050086    0.1269831 -26.67 0.0004454419    1.342    0.255
       131  -9.3897    239.7324    221.6038   2.8148141578e+01  -1.8986620659e+00    0.1960433    0.1365589  17.33 0.0008258151    1.387    0.279
       132  -9.1196    235.4060    217.6794   2.8212081385e+01  -9.9419862246e-01    0.3181987    0.2371057  55.52  0.001884439    3.671    0.728
       133  -8.3017    156.1158    222.4853   4.3310699975e+01   7.5236421256e+00    0.1824582    0.1043653  27.96 0.0004259066    1.498    0.332
       134  -8.7519    204.4025    221.2356   3.3860905830e+01   1.8578645078e+00    0.1619361   0.09864842 -32.19 0.0005510722    1.547    0.354
       135 -10.3439    190.7399     14.9846   3.5168259870e+02   3.5384070298e+01    0.3032439    0.1488914  64.67  0.001538991    2.122    0.529
       136  -7.9837     98.5662     13.5189   2.5191168040e+00   5.8553091888e+01     0.139948    0.1242025  80.92 3.796369e-05    1.033    0.032
       137  -9.9304    200.3281    220.1963   3.4422816421e+01   2.4634977349e+00    0.2205241    0.1691681  12.33 0.0004231329    1.154    0.133
       138  -8.9130    225.5548    218.8360   2.9940675056e+01  -1.2649350054e-01    0.1765293    0.1414964  24.27 0.0008388955    1.531    0.347
       139  -9.6452    221.1409    216.2291   3.0254977096e+01   6.7732592108e-01    0.2226279     0.206536  -0.51 0.0008566151    1.577    0.366
       140 -10.2657    215.8198    212.6711   3.0580556108e+01   1.7320735956e+00    0.3640507    0.2773675  59.81  0.001938049    3.228    0.690
       141  -8.6533    175.4288    213.2126   3.8018538122e+01   6.5138588620e+00    0.1557686    0.1162312 -50.52 0.0009487257    1.777    0.437
