#   1 NUMBER                 Running object number                                     
#   2 MAG_AUTO               Kron-like elliptical aperture magnitude                    [mag]
#   3 X_IMAGE                Object position along x                                    [pixel]
#   4 Y_IMAGE                Object position along y                                    [pixel]
#   5 X_WORLD                Barycenter position along world x axis                     [deg]
#   6 Y_WORLD                Barycenter position along world y axis                     [deg]
#   7 A_WORLD                Profile RMS along major axis (world units)                 [deg]
#   8 B_WORLD                Profile RMS along minor axis (world units)                 [deg]
#   9 THETA_WORLD            Position angle (CCW/world-x)                               [deg]
#  10 FWHM_WORLD             FWHM assuming a gaussian core                              [deg]
#  11 ELONGATION             A_IMAGE/B_IMAGE                                           
#  12 ELLIPTICITY            1 - B_IMAGE/A_IMAGE                                       
         1  -8.4032    146.0480     14.4303   6.7509104336e+01   4.6391038028e+01     0.173046    0.1665793  58.08 0.0003119185    1.152    0.132
         2  -9.6948     80.5063     12.8107   8.1714592269e+01   6.0715315765e+01    0.2709849    0.2016096 -46.35 0.0009497885    1.923    0.480
         3  -9.4447     50.4718     12.0817   9.1531055533e+01   6.5829822490e+01    0.2804937    0.2238005 -43.88  0.001432772    1.944    0.486
         4  -9.5059    105.2074     11.3407   7.4657619163e+01   5.5905832295e+01    0.3222131    0.1579432 -11.26  0.001524852    2.703    0.630
         5  -7.8351    151.0068     12.5120   6.6153712760e+01   4.5397171554e+01    0.1926754      0.10895  64.79 0.0004188004    1.468    0.319
         6  -8.0648     15.9180     10.7500   1.0584100159e+02   7.0170788590e+01     0.143678     0.104937  -0.90 0.0003151766    1.091    0.084
         7  -9.1603     92.4792      9.1425   7.7012427774e+01   5.8725549172e+01    0.2405978    0.1584332  70.55  0.001328292    1.961    0.490
         8  -7.9644     72.3110      9.3003   8.2823384800e+01   6.2538468428e+01    0.1251277   0.07398038  23.60   0.00030132    1.604    0.377
         9  -9.4602     39.5665      7.0887   9.3668756761e+01   6.7892566389e+01    0.2446517     0.221846  53.51  0.001214728    1.958    0.489
        10  -9.2468     14.1458      3.4932   1.0347636997e+02   7.1225409537e+01    0.4016571    0.1614681 -25.57  0.002226268    2.346    0.574
        11  -7.6366     18.4549      2.5256   1.0095034749e+02   7.0905056328e+01    0.1496259   0.08001942  16.26 0.0001118882    1.669    0.401
        12  -9.0384     75.5226      3.5236   7.9543073268e+01   6.2459125797e+01    0.1694935    0.1042091  58.09 5.111492e-05    1.772    0.436
        13  -7.9855    125.7254      5.6777   6.8483760497e+01   5.1875003487e+01    0.1278105   0.08037286  37.07 0.0002008267    1.577    0.366
        14  -9.3392    105.7803      3.6750   7.1876112780e+01   5.6420137794e+01    0.2308657    0.1709688 -31.80  0.001458919    1.632    0.387
        15  -8.0376    250.2005     11.0636   5.4861345810e+01   2.2716914483e+01    0.1464415   0.08392258 -41.35 0.0008222396    1.755    0.430
        16  -7.8019    250.3213      3.6653   5.3503319772e+01   2.3537184046e+01    0.1271715   0.06501001 -68.17  0.000307853    1.705    0.413
        17  -8.0377    243.3207      3.3141   5.3944846894e+01   2.5035118879e+01    0.1054133   0.08357603  57.48 0.0005032194    1.655    0.396
        18  -8.4940    115.9984      1.4823   6.9009050326e+01   5.4374878037e+01    0.1942307    0.1003307  59.30  0.001020435    1.559    0.359
        19  -9.5562     60.0984      2.9179   8.4161108309e+01   6.5206025733e+01    0.2195503    0.1407185  32.67 0.0002736133    1.248    0.199
        20  -7.8940     67.7438      1.5939   8.1118175259e+01   6.4014215785e+01    0.1475622   0.09969609  52.90 0.0003690718    1.555    0.357
        21  -8.4405     39.5017      1.7184   9.1281407328e+01   6.8440849905e+01    0.1907844   0.08192145  38.74 0.0007513471    2.067    0.516
        22  -7.2342    209.3074    236.3398   1.0779338259e+02  -6.9970986186e+00    0.1348086   0.09158916   2.97 0.0006122898    1.684    0.406
        23  -8.8966    248.8264    249.6788   1.0263454688e+02  -1.4781740223e+01    0.3022927    0.1548672  22.85  0.001640978    1.862    0.463
        24  -9.1773    249.4128    245.4519   1.0180473450e+02  -1.4307448151e+01    0.4084912    0.1927092 -10.64  0.001643286    3.793    0.736
        25  -7.5995    238.7014    250.3190   1.0458506051e+02  -1.3473504984e+01    0.1015092   0.09563565  44.49 0.0003509289    1.617    0.382
        26  -9.0463    226.0623    250.4902   1.0696674653e+02  -1.1676470679e+01    0.2278722    0.1019014  31.56 0.0005157268    2.001    0.500
        27  -9.7766    218.3366    248.8834   1.0816550646e+02  -1.0292325669e+01    0.3321691    0.2183281   8.65  0.001888108    1.593    0.372
        28  -9.5043    212.1188    250.4177   1.0961348076e+02  -9.5574955271e+00    0.3892272     0.148129  43.59  0.001671742    2.642    0.622
        29  -9.3593    202.5849    249.3101   1.1128561139e+02  -7.8956030853e+00    0.2549191    0.1929542  16.36  0.001169126    1.201    0.168
        30  -8.5523    197.4744    250.5094   1.1248200962e+02  -7.2557813445e+00    0.1287301    0.1063666  22.64 7.185603e-05    1.005    0.005
        31  -9.3803    190.4982    244.4942   1.1289869450e+02  -5.1808844896e+00    0.1880102    0.1588689  25.27 0.0009489055    1.004    0.004
        32 -10.4052    185.9036    249.4276   1.1460368711e+02  -5.1966475221e+00    0.4260165    0.3133646  38.94  0.001964104    1.197    0.165
        33  -9.8630    180.7511    249.3963   1.1562951790e+02  -4.3336109782e+00    0.2733545     0.193362  23.17 0.0009312943    1.360    0.265
        34  -9.2664    170.4809    250.4781   1.1785930986e+02  -2.7805913197e+00    0.2869353    0.1102105  39.86  0.001215831    2.187    0.543
        35 -10.0194    164.6232    246.4422   1.1844032219e+02  -1.1103327770e+00    0.3098511    0.2253714  17.90 0.0005013711    1.536    0.349
        36 -10.4467    156.8451    245.8671   1.1994434957e+02   3.2826648607e-01    0.3932736    0.2924397  -5.45  0.001500615    1.898    0.473
        37  -8.9824    144.2202    249.2150   1.2300024473e+02   1.9137306740e+00    0.3137487    0.2104602 -23.00  0.001565759    2.412    0.585
        38  -9.1078      4.4756    249.5023   1.4928279980e+02   2.1871119829e+01     0.264437   0.07450601  58.03  0.001253567    2.922    0.658
        39  -8.6766    178.5549    235.4172   1.1384639975e+02  -1.6414048438e+00    0.3069262    0.1958147   2.86  0.001232777    2.488    0.598
        40  -9.3839    159.9782    235.5141   1.1772478765e+02   1.6147382160e+00    0.3288341     0.212651  19.03  0.001577732    1.968    0.492
        41  -7.3808    135.6857    236.2906   1.2294653066e+02   5.7633252227e+00    0.1372894   0.09577308  65.11 0.0002022157    1.591    0.372
        42  -8.0227    243.8728    235.3616   1.0104596188e+02  -1.2154927815e+01    0.1732915   0.09782349  23.33 0.0004585648    1.706    0.414
        43  -7.6421    123.4998    237.5253   1.2567434418e+02   7.6397248081e+00    0.1347389     0.116977  49.63 0.0004072188    1.057    0.054
        44  -7.9224    204.4422    234.8158   1.0849391034e+02  -5.9577619549e+00     0.176617    0.1168371 -21.79 0.0009336768    1.705    0.414
        45  -8.3614    170.7728    233.0024   1.1506614379e+02   1.5029002563e-01    0.1800366    0.1718461  10.38 0.0005561624    1.113    0.102
        46  -7.6757    153.5240    232.5102   1.1861482971e+02   3.3154260555e+00    0.1380796    0.1210612  39.80  6.98941e-05    1.018    0.017
        47  -7.9923    213.8314    231.1389   1.0599637893e+02  -6.9172006812e+00    0.1817553    0.1380951   3.93 0.0005235413    1.298    0.230
        48  -7.2061    122.3073    231.3382   1.2507757075e+02   9.0644899116e+00    0.1288233    0.1081729  -2.82 0.0003082001    1.680    0.405
        49  -7.4095    246.2845    230.3456   9.9710415119e+01  -1.1787183877e+01    0.1285607   0.08236776  -3.05 0.0002597579    1.646    0.392
        50  -8.4120    241.5863    230.2363   1.0055072293e+02  -1.1088039754e+01    0.1755976    0.1031312 -21.42 0.0009362075    1.733    0.423
        51  -7.3214    208.2837    229.3487   1.0677590402e+02  -5.7172881465e+00    0.1354796   0.09425339  -0.15 0.0004257746    1.651    0.394
        52  -7.5776    158.4958    229.4643   1.1707981595e+02   2.9909083889e+00    0.1392794    0.1221303  29.72 0.0001372963    1.089    0.082
        53  -9.9932      2.5544    236.4641   1.4889877156e+02   2.4609552837e+01    0.3971734    0.1379185  85.46  0.001830295    3.002    0.667
        54  -7.8070    195.6336    228.1302   1.0910731550e+02  -3.3681605556e+00     0.178139    0.1208197 -26.77 0.0009287195    1.644    0.392
        55  -7.7097    152.1745    227.6303   1.1813530393e+02   4.4787034796e+00    0.1961498    0.1198988  32.18 0.0005621354    1.626    0.385
        56  -8.9890    184.0090    235.4622   1.1273278442e+02  -2.5972326669e+00     0.358319    0.2039606 -22.96  0.001587489    2.600    0.615
        57  -8.9052    248.4829    224.1730   9.8192425838e+01  -1.1209494799e+01    0.3343274    0.1870687   2.80  0.001569477    2.478    0.596
        58  -7.7123    211.6423    225.6608   1.0545250559e+02  -5.6783232003e+00    0.1426555   0.09460653   3.80 0.0007038852    1.816    0.449
        59  -8.0386    167.7175    225.0029   1.1438759639e+02   2.1522486334e+00     0.183841    0.1756861   0.55 0.0003837456    1.116    0.104
        60  -8.7179    127.7210    224.2559   1.2289693468e+02   9.5443250703e+00     0.237088    0.2103224  14.09 0.0003490164    1.361    0.265
        61  -7.8848    240.3187    224.3374   9.9715307100e+01  -1.0027447009e+01    0.1338496   0.08652119  -0.65 0.0007049282    1.705    0.414
        62  -7.5161    218.5101    224.0021   1.0380201167e+02  -6.5453067398e+00     0.185233    0.1045921 -15.26 0.0008095691    2.471    0.595
        63  -7.6671    105.3811    222.7689   1.2753573799e+02   1.3725730599e+01    0.1766382     0.125241 -51.90  0.000531104    1.616    0.381
        64  -8.0808    206.8700    221.8887   1.0572327585e+02  -4.2486135594e+00    0.2106516    0.1654689   7.41 0.0004884277    1.262    0.208
        65  -8.0486    174.8106    221.7564   1.1232798866e+02   1.4624384550e+00    0.2255127    0.1444454   0.01 0.0006743622    2.670    0.626
        66  -7.9680    147.4696    221.4615   1.1816402417e+02   6.5358802425e+00     0.141152    0.1270542  38.10 0.0008079594    1.058    0.055
        67  -7.9241    116.0044    221.4724   1.2504499991e+02   1.2181404583e+01     0.187092    0.1226211  16.51  0.000634021    2.496    0.599
        68  -8.3475      8.7492    221.2386   1.4689974435e+02   2.7100101817e+01    0.1797493   0.06500242 -65.70 0.0008956763    2.467    0.595
        69  -7.8812    242.5020    219.9982   9.8514947995e+01  -9.7012074014e+00     0.181006   0.09689298 -15.32 0.0008094973    2.450    0.592
        70  -8.5646    194.9600    218.2872   1.0749351113e+02  -1.5477934114e+00    0.2589174    0.1911357 -28.89 0.0008890806    1.441    0.306
        71  -8.5127    157.2007    217.6866   1.1541937230e+02   5.4842960160e+00    0.2187632    0.1924071 -74.77 0.0006386906    1.321    0.243
        72  -8.0161    150.7384    216.5958   1.1665027336e+02   6.9020462870e+00    0.2076629    0.1620009   4.43 0.0005864317    1.686    0.407
        73  -8.2228    204.4910    215.8850   1.0510429228e+02  -2.8118246194e+00    0.1949605    0.1311379 -34.84  0.001008199    1.540    0.351
        74  -8.0452    248.7230    215.0951   9.6470494108e+01  -9.8886513585e+00    0.1735553    0.1428114 -10.63  0.000556813    1.043    0.041
        75  -7.3603    144.2910    215.3062   1.1785802079e+02   8.3607143968e+00    0.1366815    0.1121214   0.46 0.0003449914    1.576    0.365
        76  -7.3893    131.6460    213.7045   1.2041125862e+02   1.1024564112e+01     0.140248    0.1131556   4.30 0.0006627538    1.690    0.408
        77  -8.4007    186.6450    210.7966   1.0785833873e+02   1.3231403239e+00     0.302644    0.2039831  14.21  0.001108638    1.851    0.460
        78  -8.1384    170.4422    210.7140   1.1131730394e+02   4.3698790983e+00     0.188809    0.1368092 -32.07 0.0009392462    1.568    0.362
        79  -8.1874    162.3055    208.2812   1.1266231936e+02   6.3943984994e+00    0.3468027    0.2119192  -2.82  0.001152029    4.051    0.753
        80  -8.1667    147.0375    208.8724   1.1616359137e+02   9.1727848817e+00    0.2193332    0.1757721  -9.62 0.0007502505    1.655    0.396
        81  -7.7596    108.0121    209.4837   1.2507820246e+02   1.6154527098e+01    0.1839512     0.127279  12.73 0.0006010513    2.389    0.582
        82  -7.7200     77.8441    209.3398   1.3180624241e+02   2.1094325904e+01    0.1716545    0.1232108  33.21 0.0002689612    1.587    0.370
        83  -7.4402    177.2843    207.3295   1.0921725290e+02   3.7354241524e+00    0.1436677    0.1101181  -1.55 0.0003577225    1.610    0.379
        84  -8.2504    247.9618    206.0565   9.4898886538e+01  -8.3719743001e+00    0.2091087    0.1395976  -0.55 0.0006764823    1.668    0.401
        85  -7.2957    124.3032    206.2396   1.2087309924e+02   1.3970533770e+01    0.1323037    0.1126066  10.94 0.0006848504    1.486    0.327
        86  -7.7683    139.8488    205.1304   1.1714421389e+02   1.1319935728e+01    0.1968946    0.1728772   8.82 0.0005686473    1.348    0.258
        87  -7.9681     87.7670    204.4161   1.2894079574e+02   2.0667850403e+01    0.1828638    0.1323251  29.67 0.0009391722    1.637    0.389
        88  -8.7508    250.4246    198.1965   9.2945271392e+01  -7.4988662161e+00    0.3685528    0.1319396 -34.38  0.001471278    2.714    0.632
        89  -8.5985    243.6412    197.3539   9.3998020289e+01  -6.2877970331e+00    0.4119467    0.1583605 -32.07  0.001618579    2.763    0.638
        90  -8.7001    230.5385    197.9666   9.6548727882e+01  -4.2241089414e+00    0.2545773    0.1732008  17.55 0.0008570665    1.609    0.378
        91  -8.0017    210.4841    198.5284   1.0058074264e+02  -7.9726456565e-01    0.1418456    0.1266086   3.27  0.000211922    1.043    0.042
        92  -7.9848    150.9949    198.4496   1.1342136414e+02   1.0609773988e+01    0.2285385     0.138787  40.12  0.000507401    1.555    0.357
        93  -7.7377    224.7224    195.6536   9.7204837607e+01  -2.8217124056e+00    0.1414909    0.1000094  -5.99 0.0007006779    1.633    0.388
        94  -8.1631    203.0526    194.9615   1.0138931991e+02   1.2318553993e+00    0.2263929    0.1656815   2.41 0.0005584084    1.652    0.395
        95  -7.5398    195.5240    194.4443   1.0285212158e+02   2.7537213898e+00    0.1457113    0.1325538   9.06 0.0002162571    1.056    0.053
        96  -8.2022    237.2459    192.4593   9.4205473957e+01  -4.4150376994e+00    0.2841952    0.1446916 -27.63 0.0008307298    2.147    0.534
        97  -7.4379    214.6822    190.6560   9.8174339719e+01  -1.2571264169e-01    0.1484514    0.1057354  -2.02 0.0007048976    1.720    0.418
        98  -7.8477    199.2163    189.6941   1.0113020996e+02   2.9613708191e+00    0.2237968    0.1102473 -33.38 0.0006127875    2.315    0.568
        99  -7.7678    191.4136    189.7569   1.0278599624e+02   4.4591641434e+00    0.2031281    0.1359886 -30.19   0.00093705    1.638    0.389
       100  -8.3145    243.1663    187.9409   9.2226021534e+01  -4.6340778612e+00    0.3227315    0.1569306 -21.38  0.001228006    3.067    0.674
       101  -8.0577    224.9808    189.5120   9.5929189210e+01  -1.7795515642e+00    0.1929124    0.1140035  16.62 0.0007675487    2.391    0.582
       102  -8.1667    173.1422    188.0808   1.0643188655e+02   8.4160237424e+00    0.2307727    0.1970214   1.19 0.0007829069    1.321    0.243
       103  -8.4179    238.1357    185.4072   9.2632381817e+01  -3.3512953358e+00    0.3612515    0.1539157 -27.08  0.001291992    3.240    0.691
       104  -9.0892    230.2028    184.7758   9.3978135022e+01  -1.8605796420e+00    0.2368427     0.203322  12.53 0.0003013952    1.146    0.127
       105  -7.7827    215.2762    185.6810   9.7048424482e+01   6.8375829668e-01    0.1327333    0.1143768 -77.49 0.0003116369    1.573    0.364
       106  -8.9139    249.7607    182.6840   9.0005716735e+01  -4.8304372497e+00    0.3179308    0.2001971 -12.76 0.0007035463    1.950    0.487
       107  -7.7723    211.5302    181.9862   9.7037507586e+01   2.0817438069e+00    0.2103583    0.1201475 -19.58 0.0008096421    2.582    0.613
       108  -8.0564    182.7928    180.1813   1.0269412755e+02   8.1079864702e+00    0.2097664    0.1736189  -7.21 0.0005391785    1.385    0.278
       109  -7.9328    176.6912    176.6439   1.0330668910e+02   1.0094490844e+01    0.2304924    0.1781907  -0.78  0.001064618    1.665    0.399
       110  -8.2709    241.9460    177.1023   9.0260268119e+01  -2.5560139768e+00    0.3623755    0.1593967 -23.28  0.001145484    4.272    0.766
       111  -7.3099    182.6716    174.6696   1.0156883056e+02   9.2773855979e+00    0.1573586      0.11962  -0.16 0.0007051442    1.712    0.416
       112  -8.6001    246.5011    167.0114   8.7391756235e+01  -1.5699330376e+00    0.2456838    0.1814627  18.63 0.0007098479    1.574    0.365
       113  -7.5558    250.3237    156.6971   8.4612309230e+01  -4.1524018377e-01     0.131187    0.1046809 -69.61 0.0002750252    1.637    0.389
       114  -8.7715    218.0763    150.1006   8.8931428675e+01   6.9512030022e+00     0.214137    0.2041657 -20.99  0.000315145    1.035    0.033
       115  -7.5464    104.3082    144.7249   1.1440799512e+02   3.2157234219e+01    0.1523656    0.1173993  76.32 0.0001915962    1.550    0.355
       116  -7.8522    247.6617    142.6901   8.2120375217e+01   2.5724207314e+00    0.1377725    0.1053271  -2.84 0.0005102646    1.686    0.407
       117  -7.5894     64.7400    141.3374   1.2471549207e+02   3.9320393648e+01    0.1412097    0.1038738  84.53 0.0002974959    1.581    0.367
       118  -7.8963    248.5723    134.2103   8.0181285946e+01   3.9302083369e+00    0.2013022    0.1213583 -31.07 0.0005131752    1.697    0.411
       119  -8.7065    241.5492    131.9887   8.0832043311e+01   5.6818736763e+00    0.3277906    0.1186354 -45.07  0.001208276    2.527    0.604
       120  -8.4195    231.7152    128.9254   8.1794909913e+01   8.2152556649e+00     0.354276    0.2306516   4.59  0.001352532    3.218    0.689
       121  -8.0787    192.6629    127.6824   8.8794511285e+01   1.6942705890e+01    0.1571112    0.1244984   6.69 0.0002871356    1.702    0.412
       122  -8.5017    240.0658    123.5775   7.9250908454e+01   7.5137009236e+00    0.3411455    0.1965583 -22.94  0.001398257    2.508    0.601
       123  -7.8962    181.6958    123.9597   9.0191587064e+01   2.0227365387e+01    0.2539554    0.1287351 -23.32  0.000704088    4.240    0.764
       124  -7.9086    176.6674    122.6851   9.0967180664e+01   2.1659525695e+01    0.1596634    0.1272157   7.76 0.0005675909    1.684    0.406
       125  -8.0379    212.3325    121.3359   8.3487321144e+01   1.3790133952e+01    0.1509547    0.1198641   4.37 0.0007052156    1.736    0.424
       126  -8.0360    224.6533    119.6944   8.0933489621e+01   1.1425339110e+01     0.143988    0.1160217   7.05 0.0007042137    1.696    0.410
       127  -8.1827    248.4663    116.5111   7.6436447318e+01   7.1204743016e+00    0.1376865    0.1223758 -44.61 0.0008088941    1.060    0.057
       128  -8.3373    219.7143    113.4154   8.0349134379e+01   1.3676179487e+01    0.4261391    0.2007301  41.64  0.001614366    2.667    0.625
       129  -8.3466    193.7237    111.1229   8.4579346697e+01   2.0022780680e+01    0.2930815    0.1993118  27.16  0.001226856    2.081    0.519
       130  -8.6356    241.5202    106.6176   7.5342293413e+01   1.0274756708e+01    0.3382486    0.2202981 -10.88  0.001393833    2.934    0.659
       131  -9.5385      2.4846    103.4951   1.3652270622e+02   5.4070277871e+01    0.2415017   0.09886611 -71.33  0.001161791    2.138    0.532
       132 -10.6004      6.4192     94.8775   1.3387242313e+02   5.5735361963e+01    0.3350563    0.2447733   4.73  0.002235163    1.663    0.399
       133  -8.8103     22.9325     91.6960   1.2780411326e+02   5.5315850917e+01    0.1605872    0.1440579 -41.28 0.0003594256    1.106    0.096
       134  -9.5936      5.0486    106.4674   1.3620357856e+02   5.3267578365e+01    0.2074357    0.1311756 -23.61 0.0004299929    1.867    0.464
       135  -7.5364    212.6545     84.3354   7.4747543548e+01   2.0551805470e+01    0.1568864    0.1048265 -73.76 1.012131e-05    1.770    0.435
       136  -9.6176      2.7595     80.9403   1.3253367402e+02   5.8895870515e+01    0.2009826    0.1432947 -76.50 0.0006923723    1.499    0.333
       137  -8.4880    233.1528     76.8267   7.0020507386e+01   1.7173236267e+01    0.1703986     0.163378 -24.92 0.0004671654    1.308    0.235
       138  -8.5254    184.2601     77.7631   7.8004558025e+01   2.8480079835e+01    0.2508345    0.1811516 -43.10 0.0005355268    1.405    0.288
       139  -7.5729     36.2823     67.6778   1.1712519564e+02   5.9087834766e+01    0.1093641   0.09796606 -86.68 0.0002252198    1.591    0.372
       140  -7.7745     52.7600     66.3796   1.1061554839e+02   5.7483168407e+01    0.1174012   0.09987482 -69.49 0.0006927434    1.632    0.387
       141  -9.1462      1.3920     58.2763   1.2813258613e+02   6.3484956017e+01    0.2858202   0.09628291 -62.33  0.001309771    2.814    0.645
       142  -8.3685     66.3832     58.1020   1.0304599224e+02   5.7085830118e+01    0.1755054    0.1463438 -24.20 0.0003908987    1.117    0.104
       143  -9.7410     33.2457     57.4921   1.1529514337e+02   6.1294571867e+01    0.2256556    0.1704703 -27.86 0.0003026464    1.085    0.079
       144  -8.5756     94.8621     52.7196   9.1843662052e+01   5.3052913253e+01    0.2125993    0.1823339 -22.74 0.0004956151    1.186    0.157
       145  -7.4628      7.3075     53.2968   1.2449349247e+02   6.4093196999e+01    0.1196506   0.06372096 -31.75 0.0002125866    1.590    0.371
       146  -8.5482     44.3320     51.8993   1.0916776292e+02   6.1090562196e+01    0.1847318    0.1571292  17.56 0.0003784731    1.261    0.207
       147  -8.4142     95.5830     45.7508   8.9254652083e+01   5.3939202632e+01    0.2538831    0.1461693  35.69  0.001067459    1.660    0.397
       148  -7.9881    116.0051     43.9681   8.3018923711e+01   4.9943094431e+01    0.1600239    0.1478838  25.04 0.0003328416    1.052    0.049
       149  -7.9845     54.4763     43.9920   1.0252905275e+02   6.1086983010e+01    0.1752739    0.1109205 -34.88 0.0004312793    1.495    0.331
       150  -8.7092      9.9807     42.7552   1.2034327989e+02   6.5808575192e+01     0.132626   0.08600352   7.98 0.0005492935    1.585    0.369
       151  -7.9203     77.1672     40.1685   9.3066826518e+01   5.8122180628e+01    0.1561784    0.1469622  25.05 0.0003446718    1.247    0.198
       152  -7.5434     41.3624     39.7120   1.0611004409e+02   6.3420873123e+01    0.1034636   0.09606675  51.50 0.0007024023    1.692    0.409
       153  -7.9401     52.0090     38.5278   1.0147965806e+02   6.2248976193e+01    0.1659514    0.1086134  26.97 0.0003255315    1.450    0.310
       154  -8.7306     20.8390     40.0841   1.1481167261e+02   6.5439513114e+01    0.2092536    0.1440641  12.46  0.001057729    1.449    0.310
       155  -7.5172     92.2941     36.6971   8.7067874372e+01   5.5804760036e+01    0.1170105      0.10542 -83.77  0.000266673    1.575    0.365
       156  -7.2846    124.7209     34.3856   7.7808570563e+01   4.9220754944e+01    0.1329611    0.1027032 -69.50 0.0007003085    1.727    0.421
       157  -8.4883     94.9112     33.8251   8.5285283751e+01   5.5653349819e+01    0.1991986    0.1503087  24.38 0.0003317289    1.238    0.192
       158  -9.6873     15.9442     33.5400   1.1470816083e+02   6.6901460252e+01     0.300503    0.1665713  -3.56  0.001796461    1.882    0.469
       159  -8.1379      2.7162     34.3271   1.2090708081e+02   6.7689900854e+01   0.08897624   0.08391371 -63.16 0.0002466137    1.604    0.377
       160  -9.0990     21.6194     31.4914   1.1145801181e+02   6.6738894551e+01    0.2418237    0.1789696 -55.51  0.001051656    1.966    0.491
       161  -7.6358    164.2986     31.3246   6.9194148195e+01   4.0190531637e+01    0.1362724    0.0970418  37.04 0.0007025748    1.629    0.386
       162  -7.9647      9.8101     27.3967   1.1531419865e+02   6.8332208383e+01     0.140727   0.08416013  -3.25 0.0002570864    1.571    0.363
       163  -8.9536      6.4799     27.5313   1.1690603076e+02   6.8546181939e+01    0.1100352   0.08023392 -23.09 0.0001567674    1.009    0.009
       164  -9.1621     91.5907     25.0710   8.3092008529e+01   5.7333153652e+01    0.2138808    0.1817969  45.55 0.0003943659    1.188    0.158
       165  -8.4858    173.7600     25.2100   6.6102888381e+01   3.8599006768e+01    0.2340118    0.1230247 -71.24 0.0009575035    2.777    0.640
       166  -8.2941      1.9950     23.2324   1.1749378974e+02   6.9503804038e+01    0.1304841   0.07687789  10.10 8.080655e-05    1.672    0.402
       167  -7.9215    137.2202     21.8344   7.1278498856e+01   4.7734375898e+01      0.17967    0.1346857  39.56 0.0003671178    1.312    0.238
       168  -9.6155     84.6787     21.5574   8.3805200797e+01   5.9048424089e+01    0.2120853    0.1927596  21.59 0.0004396162    1.151    0.131
       169  -7.8856    233.7645     19.2387   5.7794583589e+01   2.5257789294e+01    0.1939712   0.07531711  61.07 0.0008898813    2.458    0.593
       170  -8.3183    161.4191     18.8189   6.6263420324e+01   4.2280479549e+01     0.159362    0.1290182   2.95 0.0005979817    1.636    0.389
       171  -7.7337     27.9771     17.9708   1.0334123075e+02   6.8024136615e+01    0.1340769    0.1000763  -2.31 0.0003258762    1.031    0.030
       172  -9.0100     96.7892     17.0376   7.8760589160e+01   5.7128420318e+01    0.3708289   0.09486018  39.03  0.001132655    4.857    0.794
       173  -9.3955     74.6533     16.4361   8.4914063379e+01   6.1427933306e+01    0.2711436    0.1933945  57.01  0.001141927    1.706    0.414
       174  -9.5279    192.8261    248.4322   1.1306816733e+02  -6.1828505915e+00    0.3031292    0.1988164  20.05 0.0007501798    1.545    0.353
       175  -9.0503    237.5116    247.4866   1.0432379182e+02  -1.2924804866e+01    0.1238843   0.09645916   7.37 -7.83932e-05    1.042    0.041
       176 -10.0975     16.0098    246.7734   1.4722504764e+02   2.1170707986e+01    0.2168377    0.1653088 -81.37  0.001613808    1.343    0.255
       177 -10.1301      8.7014    246.4426   1.4842667525e+02   2.2020497399e+01    0.3238618    0.1347703  84.21  0.001745085    2.211    0.548
       178  -8.3246     28.3808     12.7534   1.0094994999e+02   6.8634596095e+01    0.1474759    0.0841085 -20.82 0.0002878092    1.544    0.352
       179  -8.9919    224.3203    246.1424   1.0656530095e+02  -1.0807851767e+01    0.1914964     0.134502  -8.15 0.0006115002    1.440    0.305
       180 -10.0205    176.5321    244.3059   1.1568716787e+02  -2.7928491788e+00     0.298481    0.2130551 -27.40  0.001258681    1.675    0.403
       181  -8.9755    171.6692    245.6399   1.1688319397e+02  -2.1835362185e+00     0.196288    0.1436037   8.53 0.0006606498    1.655    0.396
       182  -9.4448    150.7899    244.6764   1.2101321467e+02   1.5846878222e+00    0.2818604    0.1711966 -32.33 0.0009273881    2.339    0.573
       183  -9.4112    206.8180    244.8528   1.0972411032e+02  -7.9025274011e+00    0.2024362    0.1499914  11.20 0.0009662966    1.301    0.231
       184 -10.8513    244.2180    240.2823   1.0184889063e+02  -1.2890376522e+01    0.4540218     0.334228  39.04  0.002879758    1.555    0.357
       185  -9.7170    168.8001    241.5313   1.1683351307e+02  -9.9369700334e-01    0.2449668    0.2096881   3.39 0.0006239892    1.283    0.221
       186  -7.9629    146.5008    242.4580   1.2157705370e+02   2.7269644124e+00    0.1348856    0.1152503  40.73 6.451316e-05    1.039    0.037
       187  -7.6927    113.6868    242.6474   1.2837148199e+02   8.3077485991e+00    0.1228599    0.1043517  -2.67 0.0007045591    1.730    0.422
       188  -8.3717    201.4587    240.3092   1.1002153343e+02  -6.3347383386e+00    0.2103553    0.1232023 -33.89 0.0009463131    1.881    0.468
       189  -9.5532    187.0089    239.4500   1.1277964601e+02  -3.7776101162e+00    0.1992887    0.1904352 -54.89  0.000581302    1.305    0.234
       190 -10.6268    188.8239    233.0118   1.1133657226e+02  -3.0159367895e+00    0.5474616    0.3368985 -47.91  0.002806655    1.909    0.476
       191  -7.8620    136.2657    245.9743   1.2417920683e+02   3.8570285012e+00    0.1893104    0.1478403 -10.41 0.0006939225    1.905    0.475
       192  -7.8229    214.5996    239.2697   1.0726152521e+02  -8.2977969735e+00    0.1629907    0.1133923 -21.71 0.0004653755    1.502    0.334
       193 -10.4890      8.8932    236.5988   1.4782932800e+02   2.3940887382e+01     0.299495    0.1816655  58.52  0.001868592    1.346    0.257
       194  -8.2630    195.0057    236.9165   1.1074163512e+02  -4.7182942023e+00    0.2105671    0.1472802   2.46 0.0008080991    1.708    0.414
