#   1 NUMBER                 Running object number                                     
#   2 MAG_AUTO               Kron-like elliptical aperture magnitude                    [mag]
#   3 X_IMAGE                Object position along x                                    [pixel]
#   4 Y_IMAGE                Object position along y                                    [pixel]
#   5 X_WORLD                Barycenter position along world x axis                     [deg]
#   6 Y_WORLD                Barycenter position along world y axis                     [deg]
#   7 A_WORLD                Profile RMS along major axis (world units)                 [deg]
#   8 B_WORLD                Profile RMS along minor axis (world units)                 [deg]
#   9 THETA_WORLD            Position angle (CCW/world-x)                               [deg]
#  10 FWHM_WORLD             FWHM assuming a gaussian core                              [deg]
#  11 ELONGATION             A_IMAGE/B_IMAGE                                           
#  12 ELLIPTICITY            1 - B_IMAGE/A_IMAGE                                       
         1 -14.7474     68.5054    144.2676   1.0963293676e+02   3.7353964633e+01     5.269961     2.545922  66.66  0.009699889    3.433    0.709
         2 -14.5851    209.5589     23.2970   4.4996080032e+01   2.9914377241e+01     1.667634     1.201936  13.41  0.005780631    2.023    0.506
         3 -14.5336    198.1575     35.6459   4.9786562070e+01   3.1239354333e+01     2.215415     1.525965  28.02  0.007520988    1.966    0.491
         4 -11.7880    233.4328      1.9089   3.7451976531e+01   2.6552071899e+01    0.6844663    0.1924586  73.11  0.002264699    3.273    0.694
         5 -11.3664     59.4313      2.3369   6.8823400360e+01   6.7190002521e+01    0.3639428    0.1208046  43.21  0.001586375    2.723    0.633
         6  -9.9934     22.3361      2.3263   8.5827525976e+01   7.2325314053e+01    0.1213402   0.06976162 -10.19 0.0007051594    1.721    0.419
         7  -9.4775     98.9958    186.4853   1.0857638355e+02   2.3190383629e+01    0.1967074    0.1672551 -82.41 0.0004775753    1.154    0.133
         8 -12.9331     71.7216    175.9901   1.1332851057e+02   2.9560608116e+01     1.003083    0.5293677 -34.47  0.003582188    4.745    0.789
         9 -14.8529     87.1141    228.1082   1.1587695770e+02   1.6724671807e+01     2.726755     1.209011  51.97  0.003290944    1.911    0.477
        10 -13.1094     17.9933    191.7787   1.2622308255e+02   3.2362950922e+01    0.3671451    0.2541577  46.69 0.0005984916    1.449    0.310
        11 -16.1019     69.5141    248.1213   1.2077314910e+02   1.5603264517e+01     9.169656     2.825586  31.67   0.02791377    7.702    0.870
        12 -16.8615      6.5460    210.4350   1.2940599583e+02   2.9684169340e+01     7.902609      1.31243 -74.19   0.03172087    4.453    0.775
        13 -10.3101     99.4390    180.6837   1.0765180373e+02   2.4367035399e+01     0.233253    0.2235261  66.91 0.0006000786    1.149    0.129
        14 -10.0443     41.9618    179.0490   1.2028542688e+02   3.2604994118e+01    0.1859898    0.1497285  87.19 0.0004346875    1.044    0.042
        15 -12.7222     89.5073    156.3304   1.0624476158e+02   3.1433334767e+01     1.808061    0.8840451 -70.40  0.007396673    2.360    0.576
        16 -10.2042    172.9386    244.4834   1.0162147583e+02   6.6827466602e-01    0.2795441    0.1623013 -61.34   0.00145873    2.952    0.661
        17  -9.4204    162.4872    167.5540   9.1056081499e+01   1.5597115685e+01     0.145533    0.1368193  49.44  0.000360706    1.056    0.053
        18 -10.0341    193.0879    165.4770   8.4125306489e+01   9.8656917117e+00    0.2639286    0.2431336 -34.79  0.001030086    1.150    0.131
        19 -10.9158     32.3857    165.3113   1.2108581973e+02   3.6692730022e+01    0.2561004    0.1572947 -75.95 0.0007010973    1.370    0.270
        20 -16.9879      8.7625    244.4849   1.3056410774e+02   2.3219082387e+01     7.486399     2.397807 -79.30   0.04224196    2.773    0.639
        21  -9.2256    160.3040    163.6819   9.0760765446e+01   1.6808129850e+01    0.1462035    0.1167661  82.63 0.0002579038    1.627    0.385
        22 -11.2206    133.7588    143.9262   9.2842568193e+01   2.6353437900e+01     1.141316    0.2840855 -53.95  0.002817847    5.373    0.814
        23 -10.7147    174.3887    148.7417   8.4455632831e+01   1.6898791619e+01    0.3637964    0.2877615 -70.48  0.001384859    1.618    0.382
        24 -10.6233     41.1795    147.1907   1.1702280221e+02   3.9957089503e+01     0.275758    0.2108857 -81.57  0.001088778    1.096    0.088
        25 -11.0081     44.0049    144.4653   1.1596793826e+02   4.0295186757e+01    0.3702161    0.2017354  54.86  0.001475916    1.948    0.487
        26 -12.4440     90.5903    141.1380   1.0330788362e+02   3.4831011727e+01    0.2770859    0.2578974 -58.20 0.0004451568    1.119    0.106
        27  -9.4536     84.5660    143.9082   1.0538747461e+02   3.5119258872e+01    0.2920324    0.1689131  58.87  0.001295325    2.011    0.503
        28 -10.1948    175.0407    138.8831   8.2059835760e+01   1.8730389613e+01    0.2306238    0.2077396 -89.13 0.0005568965    1.298    0.229
        29 -10.8484    103.1608    140.8317   9.9958127528e+01   3.2800948426e+01    0.5722712    0.3277675 -31.99   0.00220177    2.764    0.638
        30 -11.9544     45.6711    136.8637   1.1451119790e+02   4.1916827882e+01    0.4114738    0.2251116 -62.95  0.002109545    1.564    0.361
        31 -10.1442    105.9956    130.7444   9.7122216910e+01   3.4665846187e+01    0.3312908    0.2854697 -74.22  0.001213559    1.164    0.141
        32 -11.3943    136.0000    128.4722   8.8789266120e+01   2.9341159228e+01    0.5962474     0.176321 -49.87  0.001733697    3.549    0.718
        33 -10.3388    112.1117    130.8680   9.5520159248e+01   3.3518047738e+01    0.3296366    0.2550013  14.57 0.0008993956    1.699    0.412
        34 -12.4463     82.8885    163.4085   1.0897745471e+02   3.0810365245e+01    0.6389641    0.3570119  60.76 0.0004335089    2.015    0.504
        35 -13.6882     70.8861    159.1404   1.1126899980e+02   3.3523732539e+01     0.588941    0.4746927 -40.94  0.001438837    1.540    0.351
        36  -9.7998    210.0331    199.9918   8.7547697606e+01   9.5952919651e-01    0.1586598    0.1356143  16.02 0.0003582622    1.004    0.004
        37 -10.9303    117.7194    126.5501   9.3060493269e+01   3.3453767381e+01     0.586623    0.3062385 -62.27  0.002203047    2.355    0.575
        38 -11.0925    120.8571    121.3119   9.0992090698e+01   3.4040710434e+01    0.5050015    0.2308441 -33.07  0.001543961    3.648    0.726
        39 -11.2057     67.3220    127.1734   1.0704911364e+02   4.1613217632e+01    0.5298314    0.2690664 -59.52  0.002407671    1.747    0.428
        40 -10.3431    160.8729    127.7590   8.2595244671e+01   2.4129653407e+01    0.3049077    0.2072732 -69.37  0.001239704    2.088    0.521
        41 -10.1208    125.7088    127.5853   9.1208335807e+01   3.1644043468e+01    0.3410305    0.2251656 -85.97  0.001108145    2.518    0.603
        42 -11.1548     98.9334    127.4014   9.8312962027e+01   3.6698105736e+01    0.3688756    0.2800207  19.87  0.001208236    1.663    0.399
        43 -10.8185     46.0014    170.4819   1.1853381404e+02   3.4055081877e+01    0.5417213    0.2575658 -83.91  0.002563797    2.158    0.537
        44  -9.8817    108.1748    119.8084   9.4064608589e+01   3.6824392527e+01      0.20868    0.1939127  88.75 0.0003008081    1.101    0.092
        45  -9.2250    157.6186    200.8602   9.8131251098e+01   1.0204924688e+01     0.175354    0.1291385 -65.30 0.0004959125    1.725    0.420
        46 -12.7019     43.7760    109.1443   1.1063875713e+02   4.8748494149e+01    0.5654497     0.384592 -71.41  0.002113848    1.313    0.238
        47  -9.6809    167.8987    112.7495   7.7177825643e+01   2.5634767660e+01    0.3094477    0.2051142 -66.77   0.00122297    2.145    0.534
        48 -10.6977    134.5770    105.1195   8.3217575729e+01   3.4790454476e+01    0.7273944    0.1493718 -45.52  0.001767191    4.842    0.793
        49 -11.4474    118.3176    109.5299   8.8734310920e+01   3.7223637893e+01    0.6360144    0.4490957  62.53  0.002852171    1.708    0.414
        50 -11.0642    138.0517    171.4823   9.7299556531e+01   1.9550779244e+01    0.3757308    0.2505856  72.09  0.001629282    2.065    0.516
        51 -10.0476    205.4275    110.2579   6.8792888832e+01   1.7405435106e+01    0.3082763    0.2111241  45.89 0.0008290886    1.514    0.340
        52 -11.5619     33.2515    108.5084   1.1370442578e+02   4.9919274249e+01    0.3891535    0.1538408 -71.90  0.001632728    2.406    0.584
        53  -9.7678     93.9789    104.5373   9.4399171443e+01   4.2921934467e+01    0.2077932    0.1866031 -57.04 0.0003249519    1.056    0.053
        54  -9.7020     82.0108    195.0906   1.1338094603e+02   2.3954755686e+01    0.1974766    0.1697805  69.71 0.0007057257    1.043    0.041
        55 -11.6167     52.5366     92.5624   1.0450931399e+02   5.1707163283e+01    0.5416482    0.3501281 -69.58  0.002787507    1.563    0.360
        56 -10.4724     41.9538     91.7616   1.0782946635e+02   5.3035624780e+01    0.2471464    0.1609052 -53.44 0.0006426451    1.287    0.223
        57  -9.4861    204.8730    166.5832   8.1996268966e+01   7.3446192305e+00    0.3746622    0.1479882 -46.42  0.001265028    2.986    0.665
        58  -9.5998    157.5045     80.5419   7.0518817941e+01   3.4446324956e+01    0.1542715    0.1536571 -64.62 0.0001021551    1.012    0.012
        59  -9.0502    184.5808     77.2191   6.3876869617e+01   2.8335463822e+01    0.2125011    0.1495593 -21.03 0.0007362721    1.622    0.383
        60  -9.5534     58.6866     67.4368   9.5761524068e+01   5.6574167552e+01    0.2344729    0.1267537  38.36 0.0007771201    2.100    0.524
        61 -10.8790     13.4540     59.8586   1.1105520239e+02   6.2482134374e+01    0.2433989    0.1808069 -63.32 0.0004277243    1.183    0.155
        62 -11.1823    149.5896    188.4353   9.7746465234e+01   1.3982855563e+01    0.4770404    0.2719994 -67.27  0.001997545    2.693    0.629
        63 -14.3172     45.3241    205.9161   1.2193992230e+02   2.6530274693e+01     1.036188     0.821819 -42.07  0.006865477    1.957    0.489
        64 -13.0955    188.8530     42.7281   5.3166407539e+01   3.2659427886e+01    0.8054295    0.6330376  37.25  0.001820928    1.438    0.305
        65 -15.0461     54.9231    195.3855   1.1910001161e+02   2.7546208037e+01     2.561007     1.401307 -73.04   0.01430488    1.706    0.414
        66 -10.5392     11.9957     52.5251   1.0987716627e+02   6.4125247172e+01    0.1516111    0.1144477   5.61  0.000574051    1.565    0.361
        67 -10.6079    150.7949     46.5040   6.1262491745e+01   4.1867781201e+01    0.3224941    0.2565465 -84.86 0.0008451929    1.518    0.341
        68 -11.6965     20.7055     33.5712   1.0035389253e+02   6.7312238899e+01    0.3654203    0.1674251  30.52  0.001942238    2.568    0.611
        69  -9.4954     96.4978    189.4612   1.0953509632e+02   2.2953440132e+01    0.1358508    0.1137045  69.14 0.0002178345    1.062    0.059
        70 -11.3848    149.2634     53.0185   6.3740048606e+01   4.1254295217e+01    0.5368999    0.3536335 -82.36  0.001608301    2.446    0.591
        71  -8.7837    143.2865     17.7462   5.2960083679e+01   4.7443243576e+01    0.1326543    0.1053828 -74.00 0.0002144819    1.477    0.323
        72  -9.4735    189.7068     15.0229   4.5073174102e+01   3.5853204762e+01    0.1886711     0.176647 -63.93 0.0006068569    1.087    0.080
        73 -12.1123    193.4196    194.4838   8.9752810040e+01   4.7836827861e+00    0.9286323    0.4994488 -59.50  0.003575727    3.700    0.730
        74 -10.5004    113.9226    199.6607   1.0715617504e+02   1.8045312101e+01    0.4330404    0.2213735 -68.80  0.001948728    2.459    0.593
        75  -9.8207     97.0270    200.8148   1.1088843977e+02   2.0518140394e+01    0.2338969    0.1804142  25.05  0.001347435    1.643    0.391
