#   1 NUMBER                 Running object number                                     
#   2 MAG_AUTO               Kron-like elliptical aperture magnitude                    [mag]
#   3 X_IMAGE                Object position along x                                    [pixel]
#   4 Y_IMAGE                Object position along y                                    [pixel]
#   5 X_WORLD                Barycenter position along world x axis                     [deg]
#   6 Y_WORLD                Barycenter position along world y axis                     [deg]
#   7 A_WORLD                Profile RMS along major axis (world units)                 [deg]
#   8 B_WORLD                Profile RMS along minor axis (world units)                 [deg]
#   9 THETA_WORLD            Position angle (CCW/world-x)                               [deg]
#  10 FWHM_WORLD             FWHM assuming a gaussian core                              [deg]
#  11 ELONGATION             A_IMAGE/B_IMAGE                                           
#  12 ELLIPTICITY            1 - B_IMAGE/A_IMAGE                                       
         1 -10.1786    227.5977     31.3551   6.5254139626e+01   2.5022698331e+01    0.6230274    0.3387123 -27.59  0.002392778    2.231    0.552
         2 -10.3976    213.3139      7.3957   6.1298772443e+01   3.1204553062e+01    0.7278646    0.4238324 -23.98  0.003816756    2.181    0.542
         3 -10.5826    220.3472     15.7169   6.2479297587e+01   2.8634011052e+01    0.7182572    0.4181475  70.94  0.003839664    1.537    0.349
         4 -10.5232    221.7678      4.9608   5.9942100714e+01   2.9493801091e+01    0.7796534    0.4402565  86.27  0.004170484    1.624    0.384
         5 -10.5380    232.1131     12.1416   6.0549282713e+01   2.6329404359e+01    0.6967205    0.4714073  26.32  0.002965054    2.736    0.635
         6 -10.3528    224.7261     22.7694   6.3619141038e+01   2.6774062291e+01     0.579862    0.3410341  70.98   0.00272599    1.554    0.357
         7 -10.1740    240.2993      2.4906   5.7831026766e+01   2.5571638385e+01     0.412826    0.2478166  84.12   0.00137735    1.449    0.310
         8 -10.9823    248.5248     33.0278   6.3438850480e+01   2.0059404376e+01    0.8659133    0.4603979 -55.50   0.00442162    1.717    0.417
         9 -10.7819    250.0590     19.1386   6.0410515427e+01   2.1499930220e+01    0.9329441    0.1682072 -35.05  0.003112362    4.738    0.789
        10 -10.7780    244.7212     21.9321   6.1465970147e+01   2.2326788368e+01    0.6108366    0.4487447 -35.32  0.002861866    1.516    0.340
        11 -10.8379    238.2028      8.1322   5.9163588039e+01   2.5412747350e+01    0.6298857    0.2888473 -56.69  0.002231103    2.065    0.516
        12  -9.9913    231.8056      3.0295   5.8640166128e+01   2.7409005906e+01    0.3861774    0.2086623 -83.09  0.001417325    1.797    0.444
        13 -10.6093    245.5463     13.7163   5.9690045210e+01   2.3141040851e+01    0.5786617    0.2560768  57.81  0.002796017    2.413    0.586
        14 -11.0051    249.2489      5.2661   5.7685768850e+01   2.3309342382e+01    0.6717567    0.3582956 -35.95  0.003735847    1.940    0.485
        15  -7.8336    210.1197     25.6058   6.5917017656e+01   2.9886727069e+01     0.251586    0.1730735  12.18  0.001202058    2.566    0.610
        16  -9.3169    175.5045     21.5340   6.9457772366e+01   3.8801335544e+01    0.4457875    0.2818545 -31.87  0.002315802    1.739    0.425
        17 -11.5428    237.7803     18.1867   6.1317823338e+01   2.4336025007e+01    0.8374247    0.7520704  39.72  0.005157005    1.532    0.347
        18  -8.6565    150.2876     17.9334   7.2456495151e+01   4.5296979165e+01    0.4287613    0.1901342 -51.18  0.001680147    3.219    0.689
        19  -8.6572    207.1757     14.5410   6.3610886112e+01   3.1883286346e+01    0.2718861       0.2167   0.30  0.001107257    1.811    0.448
        20 -10.5679    205.9407      5.1408   6.1525485518e+01   3.3178951792e+01    0.7526497    0.4906264  67.99  0.004320294    1.351    0.260
        21 -10.1359    199.2488     14.6893   6.4551914468e+01   3.3770151665e+01    0.6008881    0.2671424 -48.35  0.001772492    2.325    0.570
        22 -10.5418    191.3746     10.6040   6.4472148260e+01   3.6106442563e+01    0.9172139    0.4984726  76.62  0.003531441    1.694    0.410
        23  -8.9092    140.8176     13.4617   7.2759863735e+01   4.7976012825e+01    0.2614409    0.1999874  40.63 0.0008876981    1.244    0.196
        24  -8.9681    168.2923     11.9816   6.7876331838e+01   4.1564540482e+01    0.3600778    0.1630041 -44.14  0.001609139    2.444    0.591
        25  -8.4770    129.0523     12.5388   7.4690458858e+01   5.0768190568e+01    0.1909803    0.1731649   2.64  0.001106221    1.193    0.162
        26 -10.0060    112.0819      9.9796   7.7388269409e+01   5.4736147932e+01    0.6322687    0.2249931 -36.05  0.002655854    3.189    0.686
        27  -8.8693     84.6168     10.9177   8.4670590728e+01   6.0135878717e+01     0.263756    0.1707385 -13.62  0.001177827    1.572    0.364
        28 -10.3160    156.1604     10.0767   6.9154650567e+01   4.4669793528e+01    0.6498063      0.27269  66.04  0.002839166    2.098    0.523
        29  -9.8870    118.8138     11.2232   7.6351184704e+01   5.3168807950e+01    0.3071943    0.1612277  61.17  0.001034835    1.793    0.442
        30  -8.1166     72.5153     10.8995   8.8264293802e+01   6.2289400850e+01    0.1643733    0.1074911 -18.51 0.0004695922    1.495    0.331
        31  -8.3294     39.9968     10.7124   9.9699172616e+01   6.7137202156e+01    0.1596037     0.121888   7.85  0.001023815    1.098    0.090
        32  -7.7131    175.3040      9.3222   6.6175994079e+01   4.0127787999e+01    0.1325295   0.08988653  41.19 0.0007030422    1.636    0.389
        33  -8.0836    139.9696      9.0354   7.1525968618e+01   4.8586498936e+01    0.1577189    0.1354935  55.86 0.0007662938    1.007    0.007
        34  -7.9401    131.6458      6.8172   7.2325141419e+01   5.0696858069e+01    0.1627723    0.1145444 -35.08 0.0006822523    1.628    0.386
        35  -8.0846    116.3209      7.3156   7.5532292404e+01   5.4061200661e+01    0.1354187   0.08070397  32.92 0.0005112981    1.659    0.397
        36  -9.2772     47.3844      4.1640   9.3961410838e+01   6.6878542984e+01    0.3660224    0.1785426 -10.74  0.001938267    2.323    0.570
        37  -9.4470    172.5693      1.8825   6.4541353005e+01   4.1482445915e+01    0.4897797    0.1534989  55.67   0.00198529    2.601    0.615
        38  -9.9745     55.9486      2.4733   9.0132017515e+01   6.5791886077e+01    0.5494097    0.2465282  32.96  0.002971074    2.019    0.505
        39  -9.3405     60.4895      5.9418   9.0089340446e+01   6.4752947270e+01    0.3159033     0.137717  37.21 0.0009305928    2.034    0.508
        40  -9.6294     64.0159      2.3818   8.7391642948e+01   6.4526029173e+01     0.262541    0.1929469  29.71 0.0009450465    1.154    0.133
        41  -8.7507    165.1830      3.8125   6.6047620591e+01   4.3082797591e+01    0.3686926    0.1516563 -23.88  0.001628733    2.862    0.651
        42  -8.9279     37.9534      5.0002   9.7980522628e+01   6.8044474735e+01    0.1776787    0.1313955   2.17  0.000720089    1.030    0.029
        43  -8.9797    143.6376      3.4773   6.9185116926e+01   4.8217070548e+01    0.3551456    0.1712788 -43.02  0.001677663    2.472    0.595
        44  -9.2738    118.9120      4.1573   7.3907653220e+01   5.3763997381e+01    0.2690137    0.1499704  63.38  0.001290757    1.680    0.405
        45  -8.4416    194.2996      2.2703   6.2073682893e+01   3.6233478153e+01    0.3103172    0.1779405 -80.62  0.001563193    1.873    0.466
        46  -8.5596    189.9911      2.5057   6.2609371938e+01   3.7241827504e+01    0.2678424    0.1935427  78.97 0.0008090411    1.182    0.154
        47  -8.5063    183.5091      2.5187   6.3361570123e+01   3.8796081752e+01    0.2392349    0.1255364 -28.75  0.001207549    2.164    0.538
        48  -9.2147     99.2569      2.8289   7.7749393173e+01   5.8016085860e+01    0.4049368     0.166714  60.62  0.001839123    2.454    0.593
        49  -7.9491     89.6802      3.3594   8.0334219828e+01   5.9863637927e+01    0.1112363   0.09391589 -63.28 0.0007043767    1.765    0.434
        50  -8.7840     79.9942      3.0517   8.2837220836e+01   6.1705327444e+01    0.1923634    0.1507282  25.46 0.0007643346    1.035    0.034
        51  -9.3935     20.8553      1.9687   1.0383018739e+02   7.0341197434e+01    0.3913833    0.1485829  27.41  0.002145981    2.638    0.621
        52  -8.1570    151.4390      1.7426   6.7439776307e+01   4.6532051901e+01    0.1589092    0.1223169   8.81 0.0009438865    1.590    0.371
        53  -8.0799    148.4628      2.4921   6.8118028220e+01   4.7170008704e+01    0.1280985     0.110251  65.26 3.897326e-05    1.029    0.028
        54  -8.2917    138.1973      1.9768   6.9625465707e+01   4.9602436277e+01    0.2028572    0.1317391 -58.96  0.001074891    2.016    0.504
        55 -10.2918    248.8141    130.8882   8.5082999431e+01   4.2787520927e+00    0.4776977    0.3302162 -62.92  0.001629681    1.810    0.448
        56  -8.5943    218.4648    138.9697   9.2174239027e+01   9.0647190873e+00    0.2303303    0.1402711 -40.18 0.0006119561    1.562    0.360
        57  -8.4674    210.0359    138.0326   9.3554988969e+01   1.1066964363e+01    0.2330327    0.2240078 -53.73 0.0007645123    1.051    0.048
        58  -9.0262    169.9746    134.9039   1.0114469276e+02   2.0678080853e+01    0.2330578    0.2295154  88.57 0.0004927368    1.010    0.010
        59  -7.9008    140.4678    135.4206   1.0816430506e+02   2.7049722428e+01    0.1559986    0.1469087  89.10 0.0001466219    1.071    0.067
        60  -9.7462    226.5658    131.7786   8.9044098846e+01   8.6875766229e+00    0.3244638    0.3058067 -11.44  0.001716561    1.093    0.085
        61  -9.4426    221.7250    129.8626   8.9468730150e+01   1.0084923198e+01    0.3626628    0.2442099 -53.46  0.001678725    1.574    0.365
        62  -9.8743    233.0862    129.4678   8.7374669217e+01   7.7365336267e+00    0.3430558     0.214522 -58.73  0.001284623    1.959    0.490
        63 -10.2424    228.9797    125.4914   8.7169202890e+01   9.3368410430e+00    0.3426009     0.264296  79.73  0.001696986    1.646    0.393
        64  -7.9131    156.6489    129.3208   1.0283333580e+02   2.4873121609e+01    0.1648177    0.1249584 -89.34  0.000704802    1.746    0.427
        65  -8.6661    192.8412    126.6538   9.4255397603e+01   1.7173670780e+01    0.4530077   0.09703605 -44.59  0.001121872    4.670    0.786
        66  -7.8863     68.5399    128.4873   1.2539254874e+02   4.1432360031e+01    0.1388472    0.1217163 -61.05 4.155949e-05    1.028    0.027
        67 -10.0618    238.4203     64.7879   7.1590145878e+01   1.7731941030e+01     0.377421    0.3393175 -34.22  0.002096541    1.251    0.201
        68 -10.4782    241.0816    124.6823   8.4946042919e+01   6.9397343821e+00    0.5488042    0.3446631 -53.72  0.002562239    1.701    0.412
        69 -10.1392    243.9371    120.0130   8.3429753928e+01   7.1828749344e+00    0.4520857    0.2575791 -56.21  0.001481002    2.059    0.514
        70 -10.9361    232.3855     95.5251   7.9599387340e+01   1.3996403745e+01     0.945619    0.5767887 -84.58  0.002077409    2.688    0.628
        71 -11.5441    244.8204     79.7930   7.4162147312e+01   1.3907047011e+01     1.255233    0.6599661 -56.05  0.005516516    2.008    0.502
        72 -10.7380    238.7709     90.0486   7.7360531930e+01   1.3523206190e+01    0.7677631     0.334783  56.15  0.002514167    2.427    0.588
        73  -9.9235    235.0594     69.5342   7.3127564976e+01   1.7746099456e+01    0.3948052    0.2444324 -51.87  0.001128993    1.514    0.340
        74  -8.8615    206.3484    126.9370   9.1648041531e+01   1.4045407780e+01    0.2422307    0.2138789  77.89 0.0005773449    1.249    0.200
        75  -7.9536    113.5997    126.8016   1.1292369281e+02   3.4439471163e+01    0.2072525     0.139951 -61.09 0.0005075119    1.544    0.353
        76  -9.6484    244.6959     98.5889   7.8450891672e+01   1.0773810766e+01    0.4595828    0.2708795 -34.84  0.001690899    1.639    0.390
        77  -8.2658    189.6646    121.6820   9.3685915172e+01   1.8906092320e+01    0.2302873    0.1624033 -23.86 0.0007887178    1.699    0.411
        78  -7.9946    161.4800    124.4956   1.0052112318e+02   2.4824607071e+01    0.1585546    0.1510598 -80.59 8.502344e-05    1.062    0.058
        79  -7.8799    213.2847    122.6622   8.9316528961e+01   1.3311363270e+01    0.1542055    0.1154962 -69.55 0.0001953119    1.629    0.386
        80  -8.1739    124.9859    120.2216   1.0836596551e+02   3.3690445769e+01    0.2011595    0.1991322  82.42 0.0002723401    1.035    0.034
        81 -10.5609    230.2072    116.5424   8.4880314814e+01   1.0714529783e+01    0.4862311    0.3278725  48.59  0.002348226    1.596    0.373
        82 -10.2320    235.5018    115.0385   8.3653407823e+01   9.8447514373e+00    0.4347851     0.188733 -38.21  0.001700689    2.136    0.532
        83  -8.8533    219.0592    115.4611   8.6550484340e+01   1.3376819708e+01    0.3925955    0.1492044  53.16  0.001374229    2.791    0.642
        84  -7.6816    182.6922    115.7014   9.3637512519e+01   2.1738406919e+01    0.1547773     0.125404   8.88 0.0007007785    1.594    0.373
        85  -9.2989     15.2197    112.0983   1.3714191246e+02   5.0726027120e+01    0.2552409    0.1500547 -66.39 0.0005832685    1.327    0.247
        86  -9.3384    104.6372    111.8588   1.1169302616e+02   3.9507811612e+01    0.2728313    0.2464335  -4.81 0.0004831066    1.242    0.195
        87  -8.9161    213.7998    115.3785   8.7474148235e+01   1.4579637630e+01    0.3086523    0.2227524  25.18 0.0009687179    1.841    0.457
        88  -8.3741    210.6215    101.2362   8.4591802616e+01   1.7956762715e+01    0.2044555    0.1882628 -88.19 0.0009351545    1.101    0.092
        89  -8.9840    130.3586     98.2176   1.0118451851e+02   3.7320482748e+01    0.2520137    0.2473304  48.02 0.0004591779    1.038    0.037
        90  -9.6603    235.0261     75.5063   7.4520360603e+01   1.6789890616e+01    0.4465429    0.2078559 -45.27  0.001349083    1.963    0.491
        91  -7.7168     65.6270     92.2881   1.1810528029e+02   5.0017149181e+01    0.1306915    0.1045842  77.79 0.0007020407    1.718    0.418
        92  -8.0732    172.2159     91.5609   8.9520630736e+01   2.8979179059e+01    0.2224796     0.142135  41.51 0.0009418196    1.691    0.409
        93 -12.4346    246.9152    108.0152   8.0257640398e+01   8.6737507321e+00     1.762148    0.8648352 -39.92  0.007672931    1.820    0.451
        94  -9.3923    237.3570     83.8539   7.6130702483e+01   1.4883922569e+01    0.4135409    0.2823622 -77.65  0.001992988    1.765    0.433
        95  -8.8760    231.6582     84.1753   7.7036667699e+01   1.6112931980e+01    0.4156172    0.2038927 -56.84  0.001617115    2.430    0.589
        96  -8.2743    135.2382     83.3006   9.5695704221e+01   3.9213801899e+01    0.2036458    0.1766136 -80.09  0.001034259    1.355    0.262
        97  -8.3077     88.0051     82.4988   1.0854991370e+02   4.8685056149e+01    0.1844673    0.1225263  64.72 0.0005424987    2.410    0.585
        98  -8.6454     43.4730     79.9803   1.2204364708e+02   5.5241431144e+01    0.1691091     0.107134 -77.80 0.0008092551    2.480    0.597
        99  -7.9863      6.4762     80.4942   1.3427601797e+02   5.8097253098e+01     0.116387   0.08805453 -54.57 0.0008101686    1.008    0.008
       100 -10.1258    248.2009     88.0494   7.5566211793e+01   1.1810225233e+01    0.5456504      0.40694  82.69  0.002924602    1.514    0.339
       101  -8.0118    148.8938     78.2341   9.0929763545e+01   3.7025275255e+01    0.1973466    0.1255001  54.76 0.0008599182    1.580    0.367
       102  -9.6554    242.1543     93.1242   7.7574778413e+01   1.2257973647e+01    0.3091759    0.2732028  49.55 0.0009271985    1.282    0.220
       103  -7.9800    126.4315     77.2357   9.6140360504e+01   4.2285440769e+01    0.2046631    0.1386524 -49.44 0.0008460852    1.580    0.367
       104  -8.4510    227.4960     74.0443   7.5245817944e+01   1.8755147667e+01    0.3558083    0.1671516 -56.55  0.001353239    2.547    0.607
       105  -9.1149    250.1934     70.5926   7.1404558718e+01   1.4216061820e+01    0.2717384    0.2189077  46.40  0.001268649    1.522    0.343
       106  -9.9729    249.8937     65.9690   7.0419324245e+01   1.5003966486e+01     0.481097    0.2108538 -41.86  0.001616131    2.001    0.500
       107  -9.1064     16.6829     69.7355   1.2857959712e+02   5.9640531407e+01    0.3141031    0.1035068  33.36  0.001445996    3.667    0.727
       108  -8.7196      7.8514     70.1599   1.3170253533e+02   6.0121823422e+01    0.1652003    0.1031471 -39.74  0.001029016    1.341    0.254
       109  -8.9821    227.2838     66.5788   7.3500998206e+01   2.0006976003e+01    0.3543915    0.2268375 -27.16  0.001674159    1.840    0.457
       110  -8.1558      2.4923     68.5020   1.3317245810e+02   6.0751261894e+01    0.1141053   0.08470265 -50.44 -5.294786e-05    1.003    0.003
       111  -9.5067    171.7117     59.8833   8.0827473341e+01   3.4602879723e+01    0.4101725    0.3636608  48.28  0.001585486    1.135    0.119
       112  -8.2599     43.5332     62.8603   1.1732775275e+02   5.8622335308e+01    0.1851594    0.1038509 -46.39 0.0005862649    1.513    0.339
       113  -8.1622    234.7221     60.4013   7.1059284462e+01   1.9250916356e+01    0.1798104     0.125114  57.68 0.0005076436    1.519    0.342
       114  -8.3671    126.9882     58.7179   9.0268619953e+01   4.5364627379e+01    0.2086481    0.1732745  40.77 0.0005852973    1.160    0.138
       115  -7.9985    213.6118     57.7887   7.3312200664e+01   2.4616939292e+01    0.2095619    0.1184221 -48.12 0.0009449234    1.717    0.418
       116  -9.1503    250.3017     55.0247   6.7972527591e+01   1.6574667044e+01    0.3758744    0.1511655 -42.99   0.00161995    2.153    0.535
       117  -8.9002    199.1541     54.9847   7.4770496892e+01   2.8563948128e+01    0.2498365    0.2078915  54.98 0.0008643415    1.232    0.188
       118 -10.4381    243.8714     51.5895   6.7953178243e+01   1.8500476151e+01    0.5373197    0.4343229 -65.45  0.002238399    1.079    0.073
       119  -9.0407    236.7975     53.6945   6.9263719482e+01   1.9786941499e+01    0.3703961    0.2287335 -83.09  0.001479488    1.872    0.466
       120  -9.6870    229.0547     52.7699   7.0014775380e+01   2.1708447672e+01    0.5634109    0.3296023  52.75  0.002718239    1.861    0.463
       121  -8.6611    250.1763     48.5946   6.6593222857e+01   1.7541155859e+01    0.2393077    0.1968611  63.27  0.001455746    1.352    0.261
       122  -9.3432    249.0084     43.4824   6.5617709144e+01   1.8524102727e+01    0.4690194    0.1812157 -48.92  0.001999182    2.331    0.571
       123 -10.3711    244.3337     42.1733   6.5833228400e+01   1.9742625971e+01    0.4647267    0.3345063 -37.76  0.001737893    1.432    0.301
       124  -7.9498    207.5911     54.4277   7.3352232970e+01   2.6582458856e+01    0.1428044    0.1264713 -77.62 0.0001688659    1.045    0.043
       125  -8.2028    163.5274     54.0477   8.0733818931e+01   3.7510027494e+01    0.2161993    0.1444589 -34.15  0.000612608    1.574    0.365
       126  -9.0052     30.2628     53.9949   1.1949513413e+02   6.1579816672e+01    0.1561233   0.08550727 -47.70 0.0005386274    1.521    0.342
       127  -8.7603     14.2260     51.3944   1.2477142941e+02   6.3330675744e+01    0.1367805    0.1019254  26.87 0.0009551456    1.678    0.404
       128  -9.4950    238.5293     45.4140   6.7192495926e+01   2.0593372317e+01    0.2377834    0.2033183 -61.90   0.00131032    1.071    0.067
       129  -8.9765    189.7910     43.3780   7.3184348932e+01   3.2549001269e+01    0.4349233    0.1704309 -36.00   0.00169586    2.551    0.608
       130  -8.2999    134.5275     43.0082   8.3453347219e+01   4.6001281385e+01     0.193105    0.1113382 -54.75 0.0008081317    2.425    0.588
       131  -7.9718    115.7920     42.8108   8.7894375680e+01   5.0173972086e+01    0.1846668    0.1661804 -76.38  0.001072733    1.405    0.288
       132  -8.8985    224.7246     42.0334   6.8048405551e+01   2.4261172975e+01    0.2320989    0.1778612  68.75  0.001309934    1.268    0.211
       133  -7.8286    216.4794     41.4582   6.8941379122e+01   2.6297985456e+01    0.1390837    0.1205124 -80.47 0.0001111289    1.024    0.024
       134  -8.1008    165.7990     40.8006   7.6470375747e+01   3.8830090658e+01    0.1983832    0.1606063 -75.00  0.001060083    1.365    0.267
       135  -8.0188    141.9577     41.7790   8.1434505400e+01   4.4443499153e+01    0.1911543    0.1076365  55.49  0.000470756    1.645    0.392
       136  -9.5831      9.9745     40.0713   1.2313429548e+02   6.5638703885e+01    0.3022864    0.2382431  35.81  0.002231464    1.791    0.442
       137  -8.5649    183.2154    245.4381   1.1976443616e+02  -3.0070776506e+00     0.185731    0.1029372  49.12 0.0006024346    1.710    0.415
       138  -9.4794    236.7566     30.1118   6.3996774099e+01   2.3075818237e+01    0.4314982    0.3083471 -67.97  0.001966992    1.261    0.207
       139  -8.1444    227.4863    243.5163   1.1128002969e+02  -1.0003227252e+01    0.1229749   0.09909496  17.71 0.0008102573    1.016    0.016
       140 -10.3706    238.2349     38.5457   6.5697675785e+01   2.1616391760e+01    0.6345696    0.4307216  40.41  0.003292941    2.106    0.525
       141  -8.0716    153.2191    231.1989   1.2340147925e+02   4.5608902622e+00    0.1887958     0.105519 -64.48  0.000869177    2.498    0.600
       142  -8.9593    164.0887    228.2960   1.2082128595e+02   3.1242503155e+00    0.3325028    0.1360016  46.80   0.00139854    2.198    0.545
       143  -8.2101     99.3406    226.1427   1.3330434081e+02   1.4721812435e+01    0.1788808     0.143303  75.98  0.001114324    1.102    0.092
       144  -9.0001    193.9546    221.0206   1.1375321756e+02  -1.0333740595e+00    0.1616879    0.1443082  27.19 0.0004250844    1.014    0.014
       145  -8.5503    213.1113    219.8709   1.0986412014e+02  -4.2376184765e+00    0.1948564    0.1705675  43.21 0.0008990186    1.234    0.189
       146  -8.5982    159.9470    218.5659   1.2010739691e+02   5.6116595988e+00    0.2142199    0.1205807  42.06 0.0007209221    1.589    0.371
       147  -8.3000    246.9361    215.9905   1.0293909736e+02  -9.2786234770e+00    0.2564509    0.1187713  39.41  0.001242852    2.078    0.519
       148  -8.2489     48.9234    219.4765   1.4218363428e+02   2.3338327247e+01    0.1666369    0.1048608  46.46 0.0005437809    1.549    0.354
       149  -8.0934     56.1106    216.8593   1.4059994071e+02   2.2948965353e+01    0.1462379    0.1270422 -82.94            0    1.268    0.211
       150  -8.0695    132.5915    214.1765   1.2500934842e+02   1.1438907919e+01    0.1731942    0.1285367 -44.42 0.0008324315    1.600    0.375
       151  -8.2199    186.4872    212.4776   1.1373227747e+02   1.7787764360e+00    0.1364938    0.1234484  34.66 0.0008100423    1.020    0.020
       152  -7.6005    235.3187    210.7046   1.0404117563e+02  -6.6201113095e+00     0.114749    0.1053937  79.95 0.0007015764    1.610    0.379
       153  -8.2744    197.4944     40.5451   7.1293724256e+01   3.1035731570e+01    0.2119808    0.1269658  77.05 0.0009723859    1.722    0.419
       154  -9.3070    201.3341     39.3429   7.0442390453e+01   3.0256038505e+01    0.5629823     0.274523 -23.62  0.002286311    2.762    0.638
       155 -10.0376    185.5118     37.0083   7.2144715656e+01   3.4462466896e+01    0.4071965    0.2615221 -36.97  0.001714808    1.629    0.386
       156  -8.2537    162.6502     37.9464   7.6209269054e+01   3.9977529831e+01    0.1853238    0.1829317  49.82 0.0005505598    1.086    0.079
       157  -7.6879     50.2619     36.6207   1.0616188536e+02   6.2339868924e+01     0.108098   0.09255356 -54.05  0.000489807    1.673    0.402
       158  -8.8924     43.2703     38.5456   1.0948449650e+02   6.2887509524e+01    0.3172904      0.17301   7.30  0.001607184    2.427    0.588
       159  -8.9597    221.9521     31.3086   6.5879952422e+01   2.6351849998e+01     0.393509    0.2579668  89.51  0.002078902    1.503    0.335
       160  -8.6289    209.0451     31.4989   6.7473490546e+01   2.9409024186e+01    0.2609142    0.1449505  52.40  0.001069621    1.881    0.468
       161  -8.7740    213.3613     32.2134   6.7111742849e+01   2.8278674226e+01    0.3130327     0.208691 -52.78  0.001666092    1.452    0.311
       162  -9.0940    216.0160     30.5298   6.6390481071e+01   2.7859835966e+01    0.3424641    0.2216446  81.72  0.001706882    1.480    0.324
       163  -8.0472     61.3970     38.2183   1.0273449266e+02   6.0596854327e+01     0.166637    0.1077194 -42.14 0.0009434814    1.648    0.393
       164  -8.7669     93.3481     31.8450   9.0127490588e+01   5.6149179561e+01    0.1954152    0.1623565 -39.27   0.00118957    1.407    0.289
       165  -8.9635    145.4683     31.5007   7.7508927874e+01   4.4927033898e+01    0.2949376    0.1234069  58.32 0.0009691204    2.144    0.534
       166  -7.8188    153.6683     30.3321   7.5591239609e+01   4.3107433271e+01    0.1419321    0.1027388 -72.42 0.0004830211    1.725    0.420
       167  -9.8094     28.3899     29.9838   1.1221045025e+02   6.5800329251e+01    0.3354376     0.176572  29.38  0.002008731    2.075    0.518
       168  -9.4003    197.2987     28.9752   6.8364175551e+01   3.2581573113e+01    0.1834914    0.1684557 -72.86 0.0006463451    1.091    0.083
       169  -9.4788    201.2536     27.2558   6.7415171877e+01   3.1828355874e+01    0.3751125      0.26128 -16.60  0.001302919    1.913    0.477
       170  -8.3301    110.6580     26.8090   8.3672811208e+01   5.3300391194e+01    0.2359218    0.1854093  49.83   0.00138851    1.212    0.175
       171  -7.7104    166.6524    206.3044   1.1667612243e+02   6.6380842879e+00    0.1426219    0.1064808  72.75 0.0007041192    1.695    0.410
       172  -8.9602    119.5203     26.1740   8.1321814462e+01   5.1475113009e+01    0.2546993    0.1737332  74.51 0.0008944127    1.891    0.471
       173  -8.5279    116.9968     22.3322   8.0587218766e+01   5.2450663296e+01    0.2159515    0.1827436 -60.28 0.0006688745    1.510    0.338
       174  -8.1093     68.0551     26.4496   9.5958537900e+01   6.1234480458e+01    0.1836641   0.08828543  23.04 0.0008083162    2.682    0.627
       175  -9.2676     32.9653     24.7295   1.0834547426e+02   6.6116092141e+01    0.2218727    0.1793477 -31.69  0.001613421    1.328    0.247
       176  -8.2731     65.0452    203.2970   1.3744024746e+02   2.4618299956e+01    0.1804449    0.1443744  75.42 0.0008063492    1.049    0.046
       177  -9.1575     97.9400     22.9565   8.5578035179e+01   5.6329135483e+01    0.1826655    0.1584978 -78.81  0.001112549    1.675    0.403
       178  -8.1375     85.0219     23.5193   8.9446955245e+01   5.8711841795e+01    0.1947518    0.1121605  44.18  0.001041309    1.619    0.382
       179  -7.9700     41.4826     22.9930   1.0425603902e+02   6.5392459771e+01    0.1420927   0.09650449 -53.12 0.0008093032    2.461    0.594
       180  -9.0682     16.2835    201.9764   1.4671779094e+02   3.0685262949e+01    0.1649993     0.117392 -88.96  0.000719744    1.071    0.066
       181  -8.7056    199.5204     20.5467   6.5964735174e+01   3.3046480922e+01    0.2293473    0.2050575 -76.63  0.000791632    1.080    0.074
       182  -8.4350     78.0030     21.0063   9.0605298551e+01   6.0250011880e+01    0.1922979    0.1654066  13.82  0.001292317    1.067    0.063
       183  -9.2816     74.8619     18.0001   9.0398211636e+01   6.1132207323e+01     0.292069    0.2060492  35.07   0.00172673    1.283    0.220
       184  -9.1892    166.6906     19.7482   7.0293941933e+01   4.1150086226e+01    0.3160982    0.1935788  34.64  0.001529614    1.996    0.499
       185  -9.1007    238.3688    192.9523   1.0005507812e+02  -4.3757673977e+00    0.2757568    0.1820049  33.42  0.001001082    1.492    0.330
       186  -8.4850     68.2102     18.2064   9.2626053416e+01   6.2213583494e+01    0.1497746    0.1376785 -16.89 0.0007255691    1.340    0.254
       187  -8.5839     58.0123     18.5025   9.6240915747e+01   6.3754110761e+01    0.1708446    0.1050748  35.95  0.001025059    1.568    0.362
       188  -8.0252     39.5349     18.4553   1.0317263330e+02   6.6232134349e+01    0.1141245   0.08930762  -6.99 0.0003230286    1.038    0.037
       189  -8.1979    187.1581     17.1190   6.6663627658e+01   3.6438490220e+01    0.1794089    0.1401641 -69.62 0.0005420071    1.288    0.223
       190  -8.2661    243.6978    182.9800   9.7093375788e+01  -3.6937837867e+00    0.2522042    0.1780245  72.11   0.00117602    2.660    0.624
       191  -8.2761    227.1788    179.8160   9.9458573439e+01  -1.6352945190e-01    0.1918031    0.1543381   8.51 0.0005814153    1.297    0.229
       192  -8.3102    219.0122    179.0000   1.0083620938e+02   1.5304980074e+00    0.2258435   0.07845955  44.53 0.0007941338    2.885    0.653
       193  -9.0125    158.2212    178.3294   1.1328835797e+02   1.3898305939e+01    0.2012567    0.1931748 -19.86  0.001118329    1.134    0.118
       194  -8.3895    173.1443     14.6859   6.7926601030e+01   4.0112953867e+01    0.1905288     0.149312  64.54 0.0007841978    1.123    0.109
       195  -8.2792    105.5080     15.0094   8.0726189355e+01   5.5639798589e+01    0.1812918    0.1220997 -19.80  0.001030326    1.582    0.368
       196  -8.2667    152.7178    178.3768   1.1451478353e+02   1.4998666208e+01     0.272748    0.1347633  47.57 0.0006988693    1.970    0.492
       197  -8.9312     68.1044     13.7181   9.0830319467e+01   6.2730956300e+01    0.2319866     0.130174  39.20  0.001325357    1.620    0.383
       198  -7.9106    171.4298    176.7973   1.1010095080e+02   1.1520641513e+01    0.2064228    0.1408054 -32.20 0.0006704004    1.695    0.410
       199  -7.8053    233.4951    175.4925   9.7392946219e+01  -5.9648095627e-01    0.1383568    0.1264218  -8.65 0.0008106105    1.010    0.010
       200  -8.5765    225.0155    173.4825   9.8544995106e+01   1.3571604845e+00    0.2109047    0.1364158  42.07  0.000803722    1.569    0.363
       201  -7.4933    184.7058    171.7101   1.0621702888e+02   9.8075866744e+00    0.1463055    0.1165711   4.11 0.0002086045    1.551    0.355
       202  -8.2392     58.4696     12.5085   9.3583152575e+01   6.4377719735e+01    0.1191842   0.09283198   7.27  0.000101993    1.027    0.026
       203  -8.4414    163.0029     15.9876   6.9796794890e+01   4.2441170533e+01    0.3084494     0.156636  81.29  0.001302211    2.414    0.586
       204  -8.2273    242.3985    169.7738   9.4594418019e+01  -1.2618661376e+00    0.1913836    0.1216849 -27.44 0.0006038001    1.548    0.354
       205  -8.9392    147.1869    168.3012   1.1376201291e+02   1.8296131495e+01    0.2706928    0.2340866 -83.76 0.0004897691    1.242    0.195
       206  -9.3648     10.6948    168.1176   1.4495727172e+02   3.8514316524e+01    0.3087385   0.04159457 -64.26  0.001094359    4.106    0.756
       207  -8.5680    193.3196    166.6735   1.0334783056e+02   9.0147701523e+00    0.1494713    0.1199545 -87.35 0.0007046713    1.681    0.405
       208  -8.6093    123.6132    165.7968   1.1874185428e+02   2.3505310951e+01    0.2171399    0.1378124 -65.64 0.0003021994    1.720    0.419
       209  -8.1535    234.5007    165.4706   9.5096360090e+01   9.5651373530e-01    0.1403822    0.1283936 -12.99 0.0001015025    1.008    0.008
       210  -7.7882    173.2718    162.6599   1.0674318595e+02   1.4065413031e+01    0.1515642    0.1202632 -83.76 0.0002200107    1.608    0.378
       211  -7.8714     52.4929    159.9875   1.3473143071e+02   3.6071556523e+01    0.1783138    0.0989555  86.61 0.0004251085    2.225    0.551
       212  -9.3839    247.0455    158.6180   9.1421453005e+01  -2.1299460611e-01    0.3937829    0.2366913  39.79  0.001925742    1.791    0.442
       213  -8.6584     80.2400    156.3358   1.2748219854e+02   3.3159071803e+01    0.2403799    0.1699093 -55.36 0.0006445888    1.348    0.258
       214  -8.4988    118.3466    154.3739   1.1774822382e+02   2.7136593180e+01      0.30074    0.1844597 -56.45  0.001013178    1.605    0.377
       215 -10.8264    231.2085    152.9100   9.2969935207e+01   3.8409613298e+00    0.5192416    0.3453828  46.39  0.002550062    1.594    0.373
       216  -9.3881    221.6650    153.2592   9.4803587486e+01   5.7050494454e+00    0.3049264    0.2384291 -71.23  0.001333127    1.698    0.411
       217  -9.6329    249.5028    152.1507   8.9617552564e+01   4.4125751890e-01    0.3298299    0.2947577  -0.06  0.001602823    1.133    0.117
       218  -7.7347    186.6416    153.7363   1.0189925468e+02   1.3039986996e+01    0.1540274    0.1194089  12.98 0.0002736779    1.631    0.387
       219 -10.1243    244.1492    149.3398   8.9914531073e+01   1.9442110993e+00    0.2852943    0.2505674  69.70  0.000823957    1.395    0.283
       220 -10.1525    235.3675    147.9012   9.1122415178e+01   3.9180060799e+00    0.2886322    0.2563138  62.50  0.001510036    1.300    0.231
       221  -7.8964    174.4792    148.5271   1.0333873540e+02   1.6780832813e+01    0.1525032    0.1509649   4.18 1.082324e-05    1.034    0.033
       222  -9.9743    224.1797    145.9401   9.2700753425e+01   6.5503456192e+00    0.3732425    0.2749197 -28.88  0.001397819    1.359    0.264
       223  -9.2716    246.9994    144.6743   8.8414986411e+01   2.2139052291e+00    0.3770263    0.1845471  57.04  0.001541802    2.686    0.628
       224  -9.7178    230.1345    141.8780   9.0707302234e+01   6.0730332795e+00    0.3297029    0.1952927 -35.55  0.001155263    1.612    0.380
       225  -8.3643      9.0211    141.9338   1.4265464885e+02   4.4490892420e+01    0.1903418    0.1162619  73.36  0.001128719    1.735    0.424
       226 -10.7535    234.7194    135.5713   8.8479603950e+01   6.2839551838e+00    0.4756407    0.3409522  87.20  0.002104943    2.169    0.539
       227  -9.0882    250.3243    140.9273   8.7046907989e+01   2.2294044335e+00    0.2868302    0.1815289 -39.49  0.001395806    1.422    0.297
       228 -11.5467    242.2152    134.3148   8.6924671748e+01   4.9867431600e+00    0.6943904    0.5655231 -29.33  0.003820656    1.167    0.143
       229  -9.8049    248.9902    135.7126   8.6120254554e+01   3.3979830067e+00    0.3919589     0.270648 -44.75  0.001159695    1.351    0.260
