#   1 NUMBER                 Running object number                                     
#   2 MAG_AUTO               Kron-like elliptical aperture magnitude                    [mag]
#   3 X_IMAGE                Object position along x                                    [pixel]
#   4 Y_IMAGE                Object position along y                                    [pixel]
#   5 X_WORLD                Barycenter position along world x axis                     [deg]
#   6 Y_WORLD                Barycenter position along world y axis                     [deg]
#   7 A_WORLD                Profile RMS along major axis (world units)                 [deg]
#   8 B_WORLD                Profile RMS along minor axis (world units)                 [deg]
#   9 THETA_WORLD            Position angle (CCW/world-x)                               [deg]
#  10 FWHM_WORLD             FWHM assuming a gaussian core                              [deg]
#  11 ELONGATION             A_IMAGE/B_IMAGE                                           
#  12 ELLIPTICITY            1 - B_IMAGE/A_IMAGE                                       
         1 -13.6777    244.6659    110.8256   3.8969358491e+01   1.1361056087e+01     1.986431    0.8730465 -48.09    0.0088407    1.862    0.463
         2 -13.0595     44.9437     23.4192   5.5396454903e+01   6.2744443533e+01    0.8603733    0.6354849 -37.53  0.006089706    1.692    0.409
         3 -10.9192     39.5384      8.3724   5.1355191182e+01   6.4932728309e+01    0.3870248    0.1737497 -24.32  0.002348166    2.119    0.528
         4 -11.7681    178.4390     23.7329   2.8498409516e+01   3.8066087761e+01    0.4111439     0.339262 -84.58  0.002828721    1.116    0.104
         5 -11.9947     78.1925     13.5780   4.2814689142e+01   5.8580093229e+01    0.3501806     0.200771 -12.71  0.002148933    1.867    0.464
         6 -10.2326     20.6720     14.2920   5.9934968842e+01   6.6711474473e+01    0.3670332    0.1649424 -10.72  0.001879894    2.985    0.665
         7 -12.2512    156.1654     11.7551   2.8469400590e+01   4.3846196421e+01    0.5531486    0.4248495  69.30  0.003559271    1.150    0.130
         8 -12.9578    164.9706     12.0843   2.7433840216e+01   4.2016400863e+01     0.795393    0.3714839  57.05  0.004340603    1.901    0.474
         9 -13.1326    169.0396      2.5548   2.4748939486e+01   4.2039115523e+01     1.446871     0.588645  80.69  0.006713629    2.904    0.656
        10 -12.3026    159.2708      3.1297   2.6003547387e+01   4.3964534171e+01    0.7623869    0.2435858  59.51   0.00367092    2.496    0.599
        11 -11.5304    145.4838      4.3522   2.8035495115e+01   4.6640456821e+01    0.3573411    0.2176882 -83.18  0.001871795    2.067    0.516
        12 -10.9158    121.3962      4.5801   3.1598211415e+01   5.1381052135e+01    0.3802629     0.281368  75.10  0.002621235    1.389    0.280
        13 -10.5646    106.8105      5.2293   3.4247188477e+01   5.4114935339e+01    0.2536856    0.1709178  87.12  0.001556597    2.071    0.517
        14 -11.3562     71.3231      5.7958   4.1769211996e+01   6.0350141022e+01    0.3333035    0.1703705  52.67  0.002028338    1.837    0.456
        15 -10.9088    204.5138      4.5202   2.1645425122e+01   3.4734630765e+01    0.2838699    0.1146825  68.80   0.00151933    2.142    0.533
        16 -11.2203    130.9546      3.9368   2.9958979285e+01   4.9562183769e+01    0.5599476    0.1566446  55.17  0.002566934    2.710    0.631
        17 -11.8093     85.6058      3.6157   3.7846451597e+01   5.8081831530e+01    0.6535515    0.2602853  56.63  0.003493479    2.263    0.558
        18 -10.8043     60.9847      2.1069   4.2993537391e+01   6.2285882785e+01    0.3469734    0.1817664  41.27  0.002248109    1.582    0.368
        19  -9.7581    217.4136      1.7620   2.0022662504e+01   3.2476196392e+01    0.2026888    0.1099169  88.85   0.00119111    1.692    0.409
        20  -9.0368     17.5281      1.5412   5.5847408005e+01   6.8284082675e+01    0.1005301   0.07239729   4.30 0.0002504226    1.011    0.011
        21 -10.5564    101.0297    175.9535   8.1547357587e+01   2.4667067210e+01    0.2125558    0.1860608 -64.38  0.001153816    1.003    0.003
        22  -9.3627    172.2020    163.4165   6.3111776494e+01   1.4576256819e+01    0.2048937    0.1473276  60.01 0.0009471352    1.676    0.403
        23 -11.1446    219.7893    156.2367   5.2501414898e+01   7.0835581657e+00    0.4372748    0.3246808  60.52  0.002269685    1.676    0.403
        24  -9.7046     20.5096    155.9538   9.7118492186e+01   4.0126473083e+01    0.1864789    0.1660987 -75.30  0.001190874    1.172    0.147
        25  -9.9941     53.5204    143.5349   8.6807922960e+01   3.9571974887e+01    0.2605263    0.2085393 -59.12  0.001062727    1.025    0.025
        26 -12.4572     10.6235    140.1219   9.7075433007e+01   4.4747406507e+01    0.5039359    0.2902094 -72.43  0.002759259    1.486    0.327
        27  -9.9981     40.0017    141.0430   8.9796607496e+01   4.1744198554e+01    0.3150307    0.1273342 -59.86  0.001336183    1.975    0.494
        28 -13.6361    240.9632    125.1112   4.2470088756e+01   9.3727462488e+00     1.294829     1.036904  79.94  0.007500397    1.489    0.328
        29 -11.0791    174.8679    234.5165   7.6613421263e+01  -1.0412215756e+00    0.2300798    0.1822698 -21.19  0.001304372    1.378    0.274
        30 -11.4035     11.5408    124.8235   9.4268060003e+01   4.8210583678e+01    0.2561331    0.1598996 -41.60  0.001492999    1.495    0.331
        31 -10.3924      4.5318    124.8026   9.6118357472e+01   4.8744317549e+01    0.2214149    0.1422973  73.27  0.001210462    2.248    0.555
        32  -9.5949     58.6925    124.6738   8.1474308313e+01   4.3378262870e+01    0.1437806   0.09445565 -32.14 0.0004059728    1.653    0.395
        33  -9.3116    208.6057    123.2446   4.7123924004e+01   1.5937275270e+01     0.203949     0.126205 -37.17 0.0007804438    1.562    0.360
        34 -11.0507    189.4706    116.0973   4.8801601072e+01   2.1269752009e+01    0.7588912     0.417628 -21.93   0.00254404    3.661    0.727
        35 -11.0346    212.9897    112.6324   4.4012631025e+01   1.7137259432e+01    0.4476389    0.2605313 -52.55  0.002089468    1.554    0.356
        36  -9.9090    224.5124    112.0530   4.2102500169e+01   1.4963419309e+01    0.2255179    0.1207437 -44.01 0.0009925035    1.589    0.371
        37 -11.4690    222.7850    107.3344   4.1328357664e+01   1.6188759820e+01    0.4788277     0.326096  53.45  0.002417319    1.705    0.414
        38 -10.4948    148.7687    111.0835   5.5584185873e+01   3.0773497426e+01     0.452354    0.1994397 -43.35  0.001729137    2.086    0.521
        39 -10.0512     94.9914    111.9880   6.8641406345e+01   4.0805401556e+01     0.231483    0.1786638 -81.44  0.001143146    1.769    0.435
        40 -10.8642     17.6117    104.4557   8.8558072179e+01   5.2229723957e+01    0.3198794     0.269182  76.50  0.002108721    1.617    0.382
        41  -9.8116    155.8036    108.6170   5.3473922851e+01   2.9816024777e+01    0.2043938    0.1422706  63.45 0.0009535176    1.681    0.405
        42  -9.2606    164.8218    134.5844   5.8003562811e+01   2.2480216084e+01    0.2026149    0.1477965  64.48 0.0009386834    1.643    0.392
        43 -10.0076     30.6740    101.8154   8.4125973116e+01   5.1608656000e+01    0.2640329    0.1532154 -36.14  0.001420088    1.592    0.372
        44  -9.8678    112.5257    101.5072   6.1398825192e+01   3.9868532500e+01     0.144496    0.1323003 -39.16 0.0008100691    1.010    0.010
        45  -9.6537    208.9620     94.4756   4.0540394633e+01   2.1339077982e+01    0.2294327     0.168386 -46.56 0.0007812264    1.212    0.175
        46  -9.5695    178.9702     93.0044   4.5112068807e+01   2.7908440965e+01    0.2342871    0.1671008 -74.54  0.001139322    1.669    0.401
        47 -10.6276     12.9950     89.9510   8.6656694127e+01   5.5619508746e+01    0.1943801    0.1487223 -44.31  0.001310346    1.018    0.018
        48 -10.8939      2.4846     88.3173   8.9524923391e+01   5.6716258454e+01    0.3565016    0.1984094 -61.61  0.002071465    1.612    0.380
        49 -13.1038     14.7606     72.8030   8.1732979204e+01   5.8781037221e+01    0.7068328    0.6284162  27.60  0.005266093    1.493    0.330
        50 -12.6193      4.9397     76.4130   8.5897565307e+01   5.8866155049e+01    0.6116049    0.4641444 -77.46  0.003884905    1.890    0.471
        51 -10.2710    192.1569     86.9445   4.1422951853e+01   2.6188913605e+01    0.4648629    0.2121665  60.25  0.001936447    2.429    0.588
        52 -12.2264     41.6925     82.2659   7.5752796763e+01   5.4375036746e+01    0.7702988    0.6283776   1.41  0.005048335    1.295    0.228
        53 -10.8096     47.4285     76.7104   7.2394269306e+01   5.4729515188e+01    0.3590484    0.2301474 -46.34  0.002058812    1.426    0.299
        54  -9.0179    100.5021     83.4982   5.9379323862e+01   4.5484254089e+01    0.1364876     0.124968 -23.61 -2.549249e-05    1.000    0.000
        55  -9.9007    145.1604     81.0201   4.8450205480e+01   3.7191169026e+01    0.2511279    0.2081908  52.93   0.00140451    1.252    0.201
        56  -9.7149    215.0723     80.0285   3.6424747904e+01   2.2589102562e+01    0.2262344     0.144325 -69.47   0.00113512    1.708    0.414
        57  -9.8304    220.7270     77.7733   3.5170838108e+01   2.1810989141e+01    0.2953656    0.1584725 -69.79   0.00127737    2.476    0.596
        58 -10.1459    169.7168     76.4984   4.2634256114e+01   3.2751899778e+01    0.2767206    0.2485598 -60.34  0.001395069    1.045    0.043
        59  -9.6652    227.1396     71.6983   3.3057664320e+01   2.1505255148e+01    0.2109002    0.1493499 -82.67  0.001198309    1.450    0.310
        60 -10.4647     18.2408    127.4276   9.2958854002e+01   4.7063592114e+01    0.1527125    0.1185061  47.46 0.0009511292    1.655    0.396
        61  -9.9741     75.1328     69.6158   6.2045931262e+01   5.2113878119e+01    0.3022304    0.1942962  34.46  0.001665671    1.640    0.390
        62 -11.7962    214.8798     67.1100   3.3620308139e+01   2.4713916781e+01    0.4134795    0.2138783 -41.65  0.002037171    1.771    0.435
        63  -9.6207     83.4937     68.9980   5.9545350535e+01   5.0878117170e+01     0.201792    0.1177377 -37.32  0.001034777    1.595    0.373
        64 -11.1502     25.3925     65.5252   7.6139235952e+01   5.9116437044e+01    0.4190198    0.1915139 -42.73  0.002098232    1.748    0.428
        65  -9.4906    179.0006     66.4938   3.8606066876e+01   3.2361020022e+01    0.2017218    0.1281966  62.06  0.001035779    1.599    0.375
        66 -11.8403    232.9894     63.9502   3.0757887287e+01   2.1554639090e+01    0.3909338    0.2914627 -46.63  0.002408395    1.254    0.202
        67 -12.2402    228.1057     59.3214   3.0366365560e+01   2.3222935319e+01    0.4613671      0.34327 -50.29   0.00286186    1.204    0.170
        68  -9.9437    250.4714     63.0118   2.8676568360e+01   1.8331095962e+01     0.190964    0.1007189 -45.96  0.001027365    1.584    0.369
        69 -11.0689    218.6401     61.8157   3.2007855781e+01   2.4756752569e+01    0.2733186    0.1765871 -52.86  0.001446665    1.358    0.263
        70  -9.1960    132.4633     63.5304   4.6249509026e+01   4.2612454487e+01    0.1277075    0.1260107  -7.03 0.0002292138    1.003    0.003
        71 -10.5668      2.5758     82.7968   8.8218966669e+01   5.7803278784e+01    0.3165035    0.1467585 -51.51  0.001419419    1.569    0.363
        72 -10.8275    209.5099     59.3227   3.2607653365e+01   2.7004926137e+01    0.2779855    0.1751438 -75.62  0.001452323    1.770    0.435
        73  -9.6745    248.7575     58.2764   2.7940654783e+01   1.9366215982e+01    0.2164205    0.1375504  44.65  0.001174029    2.495    0.599
        74  -9.1797    138.3291     56.3210   4.3071730358e+01   4.2453454657e+01    0.1323043   0.09839787  20.34 0.0007048509    1.691    0.409
        75 -10.5465    198.5205     53.0418   3.2629733655e+01   3.0204872252e+01     0.330837     0.230448 -23.30  0.001815802    1.887    0.470
        76  -9.9484    164.6957     53.8647   3.7755409719e+01   3.7260453984e+01    0.1971569    0.1675408  -8.00  0.001186538    1.453    0.312
        77 -10.1258    220.7694     53.5878   3.0017698331e+01   2.5537253839e+01    0.1730442    0.1089066  84.47 0.0009494275    1.671    0.401
        78  -9.9881     34.8045     52.7082   6.8992521128e+01   6.0208541801e+01    0.1921815      0.13272  16.07  0.001255072    1.476    0.322
        79 -11.1161    215.2561     50.5952   3.0026555290e+01   2.7083776269e+01    0.2919405    0.2167607  51.43  0.001768702    1.628    0.386
        80 -10.3079    247.2710     49.1484   2.6345079667e+01   2.0973244861e+01    0.2490322    0.1295422 -57.40  0.001368206    1.651    0.394
        81 -10.6530     85.1180     48.0501   5.2526425847e+01   5.3685950554e+01    0.3930258      0.28112  49.90  0.002377717    1.536    0.349
        82 -11.3299     80.8799     38.0356   5.0355874184e+01   5.5651904108e+01    0.4274579    0.2226795 -35.14  0.002326675    1.947    0.486
        83 -10.2007    242.3979     43.2448   2.5688691190e+01   2.2724405658e+01     0.170324   0.08956908 -51.08 0.0007999092    1.587    0.370
        84 -11.6176      3.4944     41.0561   7.6102294173e+01   6.4965655276e+01    0.3848777    0.3267672 -23.56  0.002974762    1.297    0.229
        85 -11.4792    182.7773     40.0951   3.1738605016e+01   3.5246333894e+01    0.4145529    0.3145366  62.29  0.002587348    1.287    0.223
        86 -11.3793     49.8996     37.0005   5.8767138760e+01   6.0501534263e+01    0.6564667    0.4752527 -67.83  0.003394149    3.684    0.729
        87 -11.8332     40.1224     29.4587   5.9145844375e+01   6.2704380803e+01    0.4643444    0.2400909 -28.71  0.002243579    1.746    0.427
        88 -10.8491    159.4967    231.9589   7.9182195590e+01   1.9788151095e+00    0.2080193     0.128645 -49.31  0.001033335    1.591    0.371
        89 -11.0718    191.1646     38.0325   3.0184228020e+01   3.3745465229e+01    0.3302063    0.1565624 -52.25  0.001610922    2.156    0.536
        90  -9.5772    161.5415     38.4965   3.4365794047e+01   3.9916912755e+01    0.1207826    0.1126401  81.74 0.0001318869    1.013    0.013
        91 -10.8639      6.1078     35.2525   7.3153488956e+01   6.5588703414e+01    0.2159656    0.1743023  18.89  0.001253831    1.518    0.341
        92 -10.6186      3.9450    230.4966   1.0873996425e+02   2.4321474133e+01    0.2549799    0.1110665  35.94  0.001370304    2.757    0.637
        93 -10.8025     86.1669     31.7934   4.6978091448e+01   5.5457019358e+01    0.2530482    0.1635453  12.46  0.001469801    1.765    0.433
        94  -9.7024     90.1788     28.1351   4.4832111749e+01   5.5141186187e+01    0.1852835    0.1428383  20.24 0.0009633463    1.225    0.184
        95 -10.2553    145.3381     27.6324   3.4066872708e+01   4.4513388811e+01    0.3694773    0.2137162 -84.68  0.001748649    2.785    0.641
        96  -9.8291     67.3777     28.7854   5.0799071318e+01   5.8886755827e+01     0.159514   0.09657245 -14.12  0.000949987    1.682    0.406
        97 -11.5764     77.4923     21.5194   4.5677030564e+01   5.7982149951e+01    0.2758735    0.1955024  -1.85  0.001338938    1.406    0.289
        98 -11.4388    248.6687    224.3319   6.1225213690e+01  -1.0378934752e+01    0.5199034      0.28322 -39.86    0.0027859    1.579    0.367
        99 -11.2360    173.2320     20.7469   2.8448562230e+01   3.9461769999e+01    0.2906317    0.1640984  61.08  0.001406318    1.604    0.376
       100  -9.2577    224.3270     22.6956   2.3424737958e+01   2.8858317713e+01    0.1220835   0.07061746 -70.00 0.0006060947    1.647    0.393
       101  -9.8297    187.1700     19.7139   2.6568004344e+01   3.6693126615e+01    0.1908573    0.1309525 -88.24  0.001193668    1.409    0.290
       102 -10.2981    128.4506     18.3692   3.4295206618e+01   4.8841726787e+01     0.261428    0.1980631  58.84  0.001549826    1.193    0.162
       103  -9.9623    116.4179     17.2390   3.6063012929e+01   5.1303518890e+01    0.1528635    0.1024104 -37.96 0.0009552723    1.669    0.401
       104  -9.8231     94.3250     16.8894   4.0291558635e+01   5.5472322968e+01    0.2031759    0.1494439  81.37  0.001051168    1.962    0.490
       105  -9.9695    248.0152     16.1958   2.0262620532e+01   2.5093388715e+01    0.1925147   0.09473374 -73.71 0.0009851473    2.008    0.502
       106  -9.7118     31.8058    227.3920   1.0355093636e+02   2.1998451463e+01    0.1436462    0.1215036  30.51  0.000950016    1.684    0.406
       107 -10.7040    158.5643    225.2815   7.8217944129e+01   3.4860261267e+00    0.2696745    0.1307318 -53.77  0.001146753    2.115    0.527
       108  -9.8159    227.2276     15.3767   2.1773545499e+01   2.9132906572e+01    0.3204171   0.09642734  72.16  0.001420864    3.206    0.688
       109 -12.6420    209.6400    215.4197   6.6475247762e+01  -3.0224342240e+00    0.6249753    0.4387396   1.05  0.003197578    1.832    0.454
       110 -13.1629    183.6643    217.3145   7.1799932944e+01   8.7285514582e-01    0.7109736    0.5595235  -8.53  0.003850331    1.487    0.328
       111 -10.6845     50.5287    217.8062   9.8950211049e+01   2.1899822955e+01     0.240813    0.1991192 -49.40  0.001493081    1.483    0.326
       112  -9.7109    129.2790     12.8672   3.2639172087e+01   4.9166990533e+01    0.2324892    0.1151244  40.84  0.001235799    2.104    0.525
       113  -9.6844     69.3370     13.3199   4.4882405565e+01   6.0067838215e+01    0.1173335   0.06876043  22.03 0.0005597951    1.707    0.414
       114 -10.1026     66.9993    217.0302   9.5580635694e+01   1.9886799168e+01    0.2283703    0.1441993  77.73  0.001146664    1.758    0.431
       115  -8.8331      9.3330    211.6673   1.0614126406e+02   2.7982604811e+01    0.1296627   0.07300342  76.71 0.0007052228    1.730    0.422
       116  -9.7273     79.5151    224.5107   9.4070989035e+01   1.6385521211e+01    0.1347275     0.115145 -85.85 0.0008103963    1.006    0.006
       117  -9.6873    141.3857    207.1820   7.8508112573e+01   1.0326455490e+01    0.2147066    0.1308246 -62.36 0.0009549443    1.749    0.428
       118  -9.9216    123.9737    205.9700   8.1971822461e+01   1.3605646572e+01    0.2014431    0.1836622 -69.60  0.001142052    1.009    0.009
       119 -11.4386    243.9233    201.8991   5.7741877337e+01  -5.8062246137e+00    0.5554495    0.4069732 -52.76   0.00317028    1.487    0.327
       120 -11.0521    204.2959    192.4733   6.2948879507e+01   2.3872250325e+00    0.4148722    0.2864399  17.13  0.001993131    1.936    0.484
       121 -11.2545    194.7198    185.3491   6.3316233284e+01   5.5559546293e+00    0.5382364    0.4091957  37.73  0.002797754    1.478    0.324
       122 -10.0688     37.2787    185.4260   9.7542137868e+01   3.1230733868e+01    0.2115016    0.1376695  26.79  0.001136756    2.100    0.524
       123  -9.9962     26.5005    180.4946   9.9212530102e+01   3.3600095150e+01    0.1336821    0.1028065 -73.70 -5.563907e-05    1.008    0.008
