#   1 NUMBER                 Running object number                                     
#   2 MAG_AUTO               Kron-like elliptical aperture magnitude                    [mag]
#   3 X_IMAGE                Object position along x                                    [pixel]
#   4 Y_IMAGE                Object position along y                                    [pixel]
#   5 X_WORLD                Barycenter position along world x axis                     [deg]
#   6 Y_WORLD                Barycenter position along world y axis                     [deg]
#   7 A_WORLD                Profile RMS along major axis (world units)                 [deg]
#   8 B_WORLD                Profile RMS along minor axis (world units)                 [deg]
#   9 THETA_WORLD            Position angle (CCW/world-x)                               [deg]
#  10 FWHM_WORLD             FWHM assuming a gaussian core                              [deg]
#  11 ELONGATION             A_IMAGE/B_IMAGE                                           
#  12 ELLIPTICITY            1 - B_IMAGE/A_IMAGE                                       
         1 -14.6015    194.2126     14.6492   6.9904674066e+01   3.4057335533e+01     2.915216     1.919859  26.24  0.009960088    1.874    0.466
         2 -10.3742     33.4953      6.5051   1.0997082715e+02   7.2280279580e+01    0.1263976    0.1062627 -22.72 0.0001066642    1.016    0.016
         3 -13.3881    199.4130      7.2641   6.7126620830e+01   3.3440993347e+01     1.190002    0.6348626  51.04  0.001456483    1.958    0.489
         4 -10.9452    152.2311    248.3826   1.2815544388e+02   8.5310094005e+00    0.2017346    0.1000569  41.88  0.001293332    1.494    0.331
         5 -11.3854    144.1971    249.2072   1.2960036312e+02   9.5040033290e+00     0.368627    0.2365777  -4.94  0.002263975    2.891    0.654
         6 -11.8566    139.1668    248.5170   1.3038975799e+02   1.0252224600e+01     0.336098    0.2404887 -54.77  0.002612557    1.978    0.494
         7 -11.7346    125.0932    250.0184   1.3293313306e+02   1.1911414242e+01    0.4144046    0.1442835  35.52  0.001696756    2.233    0.552
         8 -10.6337    110.7970    249.9454   1.3537496599e+02   1.3750696028e+01      0.18008    0.1255214  65.43  0.001374207    1.572    0.364
         9 -11.2630     98.7928    249.6613   1.3741101219e+02   1.5286338353e+01    0.3054585    0.1661457  49.71  0.001306499    1.412    0.292
        10 -11.6359    102.8773    248.1394   1.3659323060e+02   1.4982096686e+01    0.2904237     0.195968  48.62 0.0004371429    1.123    0.109
        11 -10.9770     88.8961    249.1682   1.3907152273e+02   1.6557228860e+01    0.2511819    0.2114861  64.10  0.001889077    1.252    0.201
        12 -11.6803     81.9307    248.7971   1.4023855319e+02   1.7437344689e+01    0.5531132    0.1850747  49.90  0.003075588    2.313    0.568
        13 -11.2156     83.8774    244.6273   1.3962424951e+02   1.7785690183e+01    0.3924989    0.1613641  60.74  0.001929249    2.881    0.653
        14 -12.1900     66.2954    249.5435   1.4294235040e+02   1.9130842221e+01    0.5094254    0.3875127   6.58  0.003839037    2.262    0.558
        15 -11.4689     68.6396    244.3115   1.4223960831e+02   1.9609171570e+01    0.2656576    0.1237947  47.13  0.001537748    1.501    0.334
        16  -9.9470     56.4869    250.0712   1.4461962186e+02   2.0134834225e+01     0.156623   0.09424396  44.22  0.000470348    1.192    0.161
        17 -13.6217     33.0909    246.4724   1.4835081169e+02   2.3069047450e+01     1.392384    0.4564792  35.58  0.008317418    2.333    0.571
        18 -10.1584    186.2821    239.3773   1.2141493215e+02   4.9129109746e+00    0.1398223    0.1298548  68.30 0.0006265428    1.702    0.413
        19 -15.3045     12.1249    240.2501   1.5159453784e+02   2.5958989038e+01     3.894244     1.177712 -63.99   0.01142008    4.475    0.777
        20 -11.1349     39.4653    231.9434   1.4665735879e+02   2.4622640097e+01    0.2546355    0.1483808  46.74 0.0008460693    1.236    0.191
        21  -9.7914    229.2249    228.9807   1.1309119143e+02   1.4058590335e-01    0.1687114    0.1245174 -47.35    0.0011622    2.634    0.620
        22 -11.6186     95.7685    240.5260   1.3724394579e+02   1.6907234717e+01    0.3020939    0.2287243 -20.14  0.001407249    2.348    0.574
        23 -11.3995    173.8498    222.2013   1.2138667222e+02   8.6090388157e+00    0.3077014    0.2450408  56.89  0.001460808    1.615    0.381
        24 -15.2053      8.5246    210.3136   1.5133854976e+02   3.1068350405e+01     4.847202     1.158203 -62.18   0.01961067    5.767    0.827
        25  -9.2161    152.8277    212.8626   1.2399449843e+02   1.2910358531e+01     0.164942    0.1272335  28.02  0.000336709    1.136    0.120
        26 -11.7347     35.2287    206.5400   1.4618907653e+02   2.9231947766e+01    0.3498733    0.1786998  47.22  0.002080057    1.465    0.317
        27 -10.8872    193.2954    195.2307   1.1405872286e+02   8.9953362239e+00    0.6724724    0.3914891 -62.88  0.002364295    7.196    0.861
        28 -11.6479     73.7802    196.8195   1.3783097518e+02   2.6589535935e+01     0.312048    0.2154737 -46.00  0.001552661    2.033    0.508
        29 -11.7349     78.4103    189.4991   1.3619122453e+02   2.7311346130e+01    0.2354937    0.2153319 -51.61 0.0005772613    1.412    0.292
        30  -8.4521    110.2520    197.3080   1.3040154952e+02   2.1570686853e+01    0.1035638    0.0889761   3.46 0.0001766045    1.512    0.339
        31  -9.0122     65.7956    194.7636   1.3930070665e+02   2.7937993614e+01    0.1592933    0.1158209 -15.47 0.0009250782    2.644    0.622
        32 -11.2349     86.3911    177.2905   1.3318202922e+02   2.8504214240e+01    0.2200931    0.1996043  67.97 0.0004407735    1.102    0.092
        33 -13.3693     74.3475    174.8112   1.3559688014e+02   3.0590172030e+01    0.4117848    0.2716461 -39.99  0.001769963    2.232    0.552
        34 -13.7934     50.1415    129.9770   1.3648438443e+02   4.2979478133e+01     1.276682    0.4056653  41.60  0.004311326    2.797    0.642
        35  -9.6221    106.2322    147.1787   1.2440936432e+02   3.1429065764e+01    0.2977409    0.1965591 -33.65  0.001476813    2.078    0.519
        36 -12.2247     92.7300    151.0507   1.2830691430e+02   3.2756451632e+01    0.2608273    0.2377346  22.29 0.0005253146    1.262    0.207
        37  -9.7587    134.2224    146.9902   1.1775519623e+02   2.6655513205e+01    0.4261783    0.1160228 -52.58   0.00130904    4.741    0.789
        38 -15.7514      2.6275    144.4973   1.5003424200e+02   4.4069246354e+01     15.10611    0.4249233 -79.58   0.03215969   13.629    0.927
        39  -8.5495    192.2405    144.0230   1.0497621029e+02   1.6267422802e+01    0.1588002     0.110311 -29.74 0.0003400958    1.487    0.328
        40 -10.1120    113.0529    136.7433   1.2091259916e+02   3.2400674730e+01    0.3190416    0.2499342  -6.54  0.001040864    1.790    0.441
        41 -13.4462     58.4989    132.8941   1.3457722908e+02   4.1345964928e+01     1.824903    0.6416523 -79.88  0.005636753    5.207    0.808
        42 -10.7008    100.8839    134.0256   1.2349650822e+02   3.5013470772e+01    0.2584961    0.2245695 -25.21 0.0005453984    1.405    0.288
        43 -12.9180     51.5923    230.9627   1.4446568688e+02   2.3499448346e+01    0.3333631    0.2852678 -62.66  0.001002656    1.639    0.390
        44 -13.3443     67.3499    144.1190   1.3370805910e+02   3.7775797103e+01     1.069471    0.6171048  52.00  0.004455225    1.640    0.390
        45  -9.2431    118.4616    129.0267   1.1807692642e+02   3.3016519952e+01    0.1925482    0.1187323 -27.27 0.0008084925    2.475    0.596
        46  -9.5357    109.2215    123.8726   1.1940471971e+02   3.5734017240e+01    0.1954391    0.1774032  71.91 0.0003467974    1.108    0.097
        47 -10.4685    132.2471    173.4400   1.2262657025e+02   2.2230922987e+01    0.2542324    0.1121763  35.77  0.001134004    2.111    0.526
        48 -13.2431     90.5428    166.9734   1.3100446911e+02   2.9897707314e+01     3.616228    0.7217789  47.51  0.005599506    5.577    0.821
        49 -10.9852    168.3571    113.3532   1.0290993810e+02   2.6039528137e+01    0.3882104    0.3243372 -81.96  0.001500068    1.617    0.382
        50 -12.5381     47.0393    147.9783   1.3931127716e+02   3.9371255367e+01    0.4995303    0.2639077  74.57   0.00253298    2.091    0.522
        51  -8.8976    203.6698    111.6625   9.5644207021e+01   1.8846997748e+01    0.1495783    0.1018401  13.02 0.0007052004    1.735    0.424
        52 -10.3820    103.5597    151.3796   1.2572973733e+02   3.1014680322e+01    0.2685132    0.2595186  88.65 0.0009755138    1.108    0.097
        53 -15.4545     59.3590    218.0873   1.4227966148e+02   2.4689520781e+01     6.833304    0.5376177  38.68   0.02545385    4.516    0.779
        54  -9.6796    153.7937     75.5741   9.5911985882e+01   3.5945130127e+01    0.2055885    0.1482222  65.04 0.0004945625    1.578    0.366
        55 -11.2250    248.3254    248.4379   1.1286712365e+02  -3.9014074553e+00     0.293236    0.1588171  22.91  0.002174425    1.304    0.233
        56 -10.6671    163.0505    249.0738   1.2640661652e+02   7.0073216681e+00    0.1698141    0.1208579  34.08  0.001312935    1.011    0.011
