#   1 NUMBER                 Running object number                                     
#   2 MAG_AUTO               Kron-like elliptical aperture magnitude                    [mag]
#   3 X_IMAGE                Object position along x                                    [pixel]
#   4 Y_IMAGE                Object position along y                                    [pixel]
#   5 X_WORLD                Barycenter position along world x axis                     [deg]
#   6 Y_WORLD                Barycenter position along world y axis                     [deg]
#   7 A_WORLD                Profile RMS along major axis (world units)                 [deg]
#   8 B_WORLD                Profile RMS along minor axis (world units)                 [deg]
#   9 THETA_WORLD            Position angle (CCW/world-x)                               [deg]
#  10 FWHM_WORLD             FWHM assuming a gaussian core                              [deg]
#  11 ELONGATION             A_IMAGE/B_IMAGE                                           
#  12 ELLIPTICITY            1 - B_IMAGE/A_IMAGE                                       
         1 -13.7819     65.8625     49.0878   7.4537260905e+01   5.9211488699e+01     1.521448    0.7048948 -29.56  0.006372013    2.567    0.610
         2 -15.1217      6.5160     71.6569   1.0598771233e+02   6.1325784267e+01     1.957781    0.6227082 -56.19  0.007114056    2.255    0.557
         3 -12.4907    194.6709     23.5462   3.7903434181e+01   3.3850744814e+01    0.6331834    0.3034025 -30.19   0.00302365    2.356    0.576
         4 -13.8524    188.8016     25.9823   3.9160138071e+01   3.4925319650e+01     1.457393    0.5496019 -58.87  0.005245928    3.710    0.730
         5 -13.6166    187.5279     11.8112   3.5857379095e+01   3.6796625160e+01    0.9246266    0.5238488 -46.63   0.00506786    1.718    0.418
         6 -13.3328    120.1685     26.4393   5.0307192927e+01   5.1218266610e+01     0.849571    0.5482657  21.53  0.004183189    2.057    0.514
         7 -14.7039    166.4889     28.9513   4.2846959964e+01   3.9865815285e+01     1.064504    0.8178279  70.91  0.003956507    1.163    0.141
         8 -13.6533    132.1454     32.6028   4.9812560639e+01   4.7678501768e+01    0.7747475    0.5343605 -40.89  0.003467636    1.578    0.366
         9 -14.9453    147.2516     29.6429   4.6088152106e+01   4.4418735055e+01     1.376131    0.8311225  59.72  0.005571215    1.466    0.318
        10 -13.6531    138.0701     21.8762   4.5347465792e+01   4.7499454485e+01    0.9315096    0.3284042  66.16  0.002471514    2.664    0.625
        11 -14.0832    122.1310     37.2364   5.3453041814e+01   4.9447360674e+01    0.9663148    0.4743046  38.82  0.002756216    2.335    0.572
        12 -13.4383      3.0313     10.5672   8.8645996121e+01   7.3004259782e+01    0.7299464    0.3708756 -47.60  0.004410779    1.986    0.497
        13 -13.2339      8.0386      2.5550   8.1763545061e+01   7.3702740779e+01    0.4832555    0.3439629  38.02   0.00334003    2.015    0.504
        14 -15.9203     12.7593     21.2322   8.7700430410e+01   7.0548467074e+01     1.823002    0.9452794 -16.52  0.009969867    2.086    0.521
        15 -14.5736    216.8040     14.0868   3.3626506938e+01   2.9971768544e+01     1.199976     1.004896 -19.97  0.008033146    1.643    0.391
        16 -15.3558     99.2169     11.7610   4.9875710905e+01   5.7482314097e+01     1.471078    0.7366941  57.41  0.004605225    1.708    0.415
        17 -12.3969     70.1847     16.4762   6.0014267987e+01   6.2980645829e+01    0.3479968    0.3111683  83.36  0.001574593    1.579    0.367
        18 -12.2212     60.3254     16.3731   6.3447385087e+01   6.4793426118e+01    0.3068061     0.253749 -21.23  0.002041443    1.297    0.229
        19 -11.9293     46.9159     13.3525   6.7383415623e+01   6.7383886848e+01    0.2691449    0.2014379  35.87  0.001153519    1.289    0.224
        20 -14.0056     41.7624      4.6298   6.5402617155e+01   6.9165430068e+01    0.6843379    0.4677167  11.49  0.003515865    1.324    0.245
        21 -12.9777     85.3296     14.1969   5.4416643558e+01   6.0213957854e+01    0.4182542    0.3110074 -14.11  0.001860833    1.473    0.321
        22 -10.1868    145.2820      8.3112   4.0115832785e+01   4.7127621506e+01    0.1263801   0.08717495  42.21 0.0002601636    1.568    0.362
        23 -11.9364    153.0245      8.9380   3.9208767264e+01   4.5224233385e+01    0.2006576     0.171286  70.31 0.0008985332    1.061    0.058
        24 -12.2112    120.1612      3.8366   4.2752446383e+01   5.3432590175e+01    0.3238212    0.1765062  74.33  0.001200674    1.796    0.443
        25 -11.3576    117.4835      1.4875   4.2443593007e+01   5.4240541116e+01    0.2284461    0.1620968  70.13 0.0006872647    1.250    0.200
        26 -10.8492     67.3679      4.2156   5.5616579691e+01   6.4740142836e+01    0.1716406     0.126279  36.72 0.0005836025    1.119    0.106
        27 -11.2421    232.6137      1.7728   2.9922779832e+01   2.7960927306e+01    0.2129104    0.1350009  84.66  0.001125565    1.369    0.270
        28 -12.0234     81.4120      1.5387   5.0352696552e+01   6.2170941669e+01     0.461189   0.09582221  54.80  0.001700477    3.363    0.703
        29 -11.8758     61.1283      1.7301   5.6553994199e+01   6.6134047099e+01    0.3908841    0.1405837  52.99  0.001746044    2.519    0.603
        30 -14.7125     22.8879     13.4258   7.8777823100e+01   7.0670314781e+01     1.072663    0.4626441  38.72  0.005514505    2.642    0.622
        31 -12.8723    109.9144     42.2689   5.8115218827e+01   5.1552864309e+01    0.6457375    0.2015916  49.79  0.002049333    2.815    0.645
        32 -12.9642    107.8470    246.2587   1.0346315369e+02   8.6284463433e+00    0.7292868    0.5065763 -89.54  0.004140507    1.857    0.462
        33 -14.2931     97.0005    239.2926   1.0496276589e+02   1.1554043952e+01     0.970949    0.6953976 -79.10  0.005696864    1.607    0.378
        34 -11.9493     52.5025    250.4952   1.1512441523e+02   1.5433188595e+01    0.1875912   0.08385189  45.96 0.0008108422    1.761    0.432
        35 -12.6882     57.2994    246.6084   1.1387507718e+02   1.5583718588e+01    0.5583526    0.1854485  35.64  0.002474466    2.606    0.616
        36 -10.4126     41.3254    250.3233   1.1727820710e+02   1.6825238209e+01    0.1006754   0.09097455 -33.11 0.0007048168    1.687    0.407
        37 -13.3689     28.4688    246.3014   1.1947460240e+02   1.9086970036e+01    0.4689552    0.2974146  68.00  0.003052719    1.289    0.224
        38 -12.7049      2.8666    248.6360   1.2429706488e+02   2.1295848798e+01     0.469825    0.2587812  79.57  0.003066889    1.496    0.331
        39 -13.7053      9.4103    246.0450   1.2300326634e+02   2.1151922767e+01    0.7320274    0.3426166  62.87  0.003480768    1.731    0.422
        40 -13.5835     85.6447    180.5929   9.9965976323e+01   2.6141765766e+01    0.5472649    0.3091818  48.52  0.002459385    1.749    0.428
        41 -13.0229    124.2236    166.7264   8.7625306367e+01   2.2849528036e+01    0.6760944    0.4424511 -71.92  0.002895021    1.964    0.491
        42 -11.2136      1.7841    159.0968   1.1917556076e+02   4.0981802911e+01     0.307084    0.1441254 -81.17   0.00144797    1.803    0.445
        43 -12.1336    164.2039    195.7477   8.3628467806e+01   9.2360798726e+00    0.3568136    0.2284229 -75.71  0.001418444    3.052    0.672
        44 -13.9581     74.2680    154.3072   9.8776188678e+01   3.4332247151e+01    0.9586596    0.6233483  49.84  0.004544443    1.593    0.372
        45 -11.9593     55.5308    156.2006   1.0435959231e+02   3.6430907221e+01    0.3144329    0.2051042  -1.01  0.001396339    2.467    0.595
        46 -12.1250     85.7922    152.9709   9.5292408905e+01   3.2889818540e+01    0.5083277    0.2630415 -48.52  0.002088465    1.964    0.491
        47 -11.7265    103.1823    150.2567   8.9926869914e+01   3.0616623844e+01    0.4334931    0.2686546 -32.96  0.001771455    2.120    0.528
        48 -13.1784     60.7520    147.8095   1.0154714806e+02   3.7862021250e+01     0.509727    0.3528475 -16.42  0.002359587    2.137    0.532
        49 -12.0955    244.3682    147.0104   5.8598318908e+01   4.2303265386e+00    0.3146048    0.1083141 -39.77  0.001254085    2.490    0.598
        50 -12.2088      7.2359    145.7994   1.1653766266e+02   4.3798400395e+01    0.4253543    0.2937384 -61.78  0.002552678    1.295    0.228
        51 -11.7228    110.9742    155.7933   8.8923698316e+01   2.7875336992e+01     0.417763    0.2185182 -79.93  0.001104998    5.285    0.811
        52 -10.7182     62.8463    138.8369   9.9375315501e+01   3.9837022108e+01    0.1962587    0.1617378  85.03 0.0004256861    1.280    0.219
        53 -12.4636     45.5817    134.6126   1.0388207912e+02   4.3055005813e+01    0.4298511    0.3136153 -55.49  0.002313021    1.262    0.208
        54 -12.6948    246.1863    134.4348   5.5781255508e+01   6.0472410039e+00    0.3994109    0.2731877 -74.31   0.00199774    2.337    0.572
        55 -13.8270    233.4404    129.2578   5.6641233193e+01   9.1736120329e+00    0.9011383    0.5194141 -35.96   0.00445615    1.578    0.366
        56 -11.7538    135.6755    132.4998   7.7314978202e+01   2.8521155315e+01    0.5141532    0.1506871  44.61  0.001501855    3.431    0.709
        57 -10.2159     58.9697    128.9684   9.8732240961e+01   4.2825637870e+01    0.1675164    0.1546191 -64.72 0.0009564279    1.003    0.003
        58 -14.3734    106.5363    122.1997   8.2772668940e+01   3.6747109469e+01     1.536039     1.130957  30.33  0.007200726    1.468    0.319
        59 -13.7392     85.3656    114.0600   8.7172911689e+01   4.2498335880e+01     1.213856    0.9276959   7.19  0.005146308    1.640    0.390
        60 -15.1231    106.9621    105.5949   7.8439663129e+01   4.0472970680e+01      1.73242     1.361555  14.50  0.008295367    1.535    0.349
        61 -12.9476     28.5481    122.5169   1.0725453297e+02   4.7809079741e+01    0.4076411    0.3168938 -57.83  0.002391666    1.136    0.119
        62 -12.3561    120.8064    112.2848   7.6262293482e+01   3.6170736447e+01     0.491671     0.313574  49.58  0.001401753    1.618    0.382
        63 -11.1690    181.3318    120.6973   6.3989678780e+01   2.1230409878e+01    0.1522455    0.1176427 -81.81 0.0004925665    1.654    0.396
        64 -11.9387      4.0363    119.9302   1.1463298700e+02   5.0282514942e+01    0.4475438    0.1886591  16.09   0.00200409    2.920    0.658
        65 -12.1220     42.4558     90.7413   9.6198805778e+01   5.4034593607e+01    0.3348031    0.2448312 -59.37 0.0006617885    1.299    0.230
        66 -11.7268     34.5721     86.8341   9.8236789682e+01   5.5756370180e+01    0.2625491    0.2095013 -23.48  0.000778147    1.256    0.204
        67 -14.2695     18.2205    110.8107   1.0878315670e+02   5.1524756833e+01     0.818795    0.6450396 -38.31  0.003657628    1.280    0.219
        68 -14.7167     26.4491     93.3447   1.0272121341e+02   5.5011934339e+01     1.431126     1.077397  12.82  0.008468158    1.500    0.333
        69 -13.5120      2.2307     97.2387   1.1217756771e+02   5.5770769913e+01    0.8066337     0.257629 -72.29  0.003269165    2.797    0.642
        70 -11.7399     63.4808    111.5329   9.3654014057e+01   4.6495938588e+01    0.4398577     0.206367  47.95    0.0017036    2.630    0.620
        71 -12.2716     31.8562    111.2922   1.0426779209e+02   5.0252334764e+01    0.2658988    0.2337928 -37.47 0.0009539978    1.147    0.128
        72 -11.3537    177.1238    110.3789   6.2349140851e+01   2.4189035049e+01    0.2989824    0.2118203 -16.17  0.001313086    1.955    0.488
        73 -14.2568     11.2725    102.6972   1.0986441132e+02   5.3954641442e+01    0.7629998    0.7308618 -40.39  0.004807413    1.158    0.136
        74 -12.5316    136.0388    103.3927   6.9891326099e+01   3.4819604453e+01    0.7741298    0.3398845  51.93  0.002087202    2.428    0.588
        75 -11.4075     48.6650    100.6782   9.6268096250e+01   5.1008053442e+01    0.3383911    0.2554008  23.95  0.001847171    1.443    0.307
        76 -12.0302     52.7150     97.9753   9.4203536136e+01   5.1144024572e+01    0.3744011    0.2281058 -18.23   0.00151022    2.318    0.569
        77 -12.5889     49.2994     94.0785   9.4491992511e+01   5.2470469364e+01      0.70741    0.4634432 -37.68  0.003595287    1.500    0.333
        78 -12.4521    249.1211     98.7857   4.8077330742e+01   1.1430319675e+01    0.3272099    0.1485488 -50.50  0.001493837    2.062    0.515
        79 -11.8476    163.4941     98.3285   6.2144164396e+01   2.9619451592e+01    0.2986335    0.2832106  17.74 0.0007914921    1.168    0.144
        80 -12.1674     61.0530     97.7622   9.1213078714e+01   5.0086624806e+01    0.4281275    0.3121318 -86.11  0.002071559    1.897    0.473
        81 -12.8400    136.3738     95.4095   6.7643230514e+01   3.6384070226e+01    0.4361137    0.3309417  57.95  0.001139403    1.364    0.267
        82 -13.4150     95.6295    111.0016   8.3238717876e+01   4.1404274121e+01     1.018445    0.5907103 -60.46   0.00419582    1.954    0.488
        83 -12.9190    188.2673     84.4318   5.3814945891e+01   2.6472614246e+01    0.7115735    0.3193128  43.50  0.002666961    2.781    0.640
        84 -13.3648    237.8177     80.4956   4.5663870090e+01   1.6494637116e+01    0.4575581    0.3047381  85.45  0.002473478    1.788    0.441
        85 -13.6437    160.8496     81.0053   5.8106060281e+01   3.3460800471e+01    0.8281896    0.5620849  19.23  0.002535513    2.407    0.585
        86 -14.5130    169.3079     77.0275   5.5361713963e+01   3.2163499916e+01     1.390504    0.5324396  53.60  0.003992941    2.537    0.606
        87 -13.9435    170.8301    242.8237   8.9951791838e+01  -3.4584766214e-01    0.8289182     0.582616  21.61  0.004898285    1.301    0.232
        88 -13.5039     52.3213     69.7404   8.6718831804e+01   5.7392210883e+01     0.785011    0.6754075 -45.95  0.004739089    1.175    0.149
        89 -14.0751     61.0531     75.8774   8.5234984105e+01   5.4905413699e+01     1.106302     0.522384 -50.98  0.001469925    2.077    0.518
        90 -12.1774     47.2752     81.9630   9.2162812472e+01   5.5444373388e+01    0.4330472     0.238083 -55.46   0.00201211    1.728    0.421
        91 -14.3235    164.0738     71.5429   5.4896051882e+01   3.4335500750e+01     1.424769    0.8783192  58.28  0.006588191    1.585    0.369
        92 -13.3400    213.4935     78.6811   4.8473542384e+01   2.1819521419e+01    0.9273467    0.5192419  82.30  0.003955869    2.557    0.609
        93 -12.9900    216.8871     73.3818   4.6792466612e+01   2.1936945522e+01    0.6028699    0.3437117 -78.69  0.002583503    2.566    0.610
        94 -12.9486    135.4113     79.7982   6.3476753854e+01   3.9623135362e+01    0.7105293    0.4082063  54.11  0.002757864    1.736    0.424
        95 -13.5662     91.5131     58.0898   6.8858457590e+01   5.2999421854e+01    0.5373378    0.4757075 -38.57  0.001993308    1.197    0.164
        96 -13.7629     87.2521     65.4301   7.2689226620e+01   5.2531673442e+01     1.023907    0.6182769  12.87  0.004091329    2.724    0.633
        97 -12.8313     70.8040     75.5189   8.1566346355e+01   5.3477670827e+01    0.5908765    0.4376827  -6.16  0.002617739    1.593    0.372
        98 -12.2501     77.1360     73.3954   7.8675751833e+01   5.2846671969e+01    0.5979839    0.3171333 -29.59  0.002446389    2.353    0.575
        99 -11.8515     42.1488     77.5752   9.2965898585e+01   5.7003994976e+01     0.457294    0.2204824 -56.61  0.001718285    1.992    0.498
       100 -12.1076    147.4993    239.0513   9.4211591614e+01   3.8703951591e+00    0.1770506    0.1305393 -50.55 0.0009167856    1.583    0.368
       101 -13.9150      4.2450     63.5538   1.0517774144e+02   6.3191624274e+01    0.5579017    0.4698237   8.53  0.003920736    1.349    0.259
       102 -11.6730     27.4510     76.3620   9.8504107702e+01   5.8764742228e+01    0.4107165     0.234473 -79.68  0.001832624    2.737    0.635
       103 -12.0103    114.2820     80.2694   6.9151475777e+01   4.4246759831e+01    0.3824115    0.3248828 -62.71 0.0008116587    1.319    0.242
       104 -13.8449    199.3210     69.9918   4.8491939606e+01   2.6355870168e+01    0.8132171    0.5201775  49.06  0.002839687    1.743    0.426
       105 -12.5828    199.8898     62.6250   4.6633016393e+01   2.7375120157e+01    0.3693233    0.2927045 -68.90  0.001500067    1.200    0.167
       106 -13.0759    134.1295     66.5487   5.9880358505e+01   4.2264138387e+01    0.7996138    0.5558988  22.49  0.003193384    1.963    0.491
       107 -10.3918     95.9973     69.9659   7.1364951977e+01   4.9992596408e+01    0.1703445    0.1582498  26.91 0.0003070275    1.039    0.038
       108 -12.4458     40.0862     68.3203   9.1191692030e+01   5.9197965789e+01    0.6938385    0.2189197  31.87  0.002700591    3.217    0.689
       109 -11.4986     31.8171     65.0118   9.3671009492e+01   6.0764718012e+01    0.3093251    0.2005984 -47.57  0.001737843    1.357    0.263
       110 -11.5937     30.7690     61.2375   9.3016480764e+01   6.1639480138e+01    0.3268093    0.1892043 -42.35  0.001435281    1.496    0.332
       111 -11.1693    100.0070     65.5172   6.8701971679e+01   4.9989675146e+01    0.2237122    0.1369954  45.59 0.0007740321    1.584    0.369
       112 -13.1128     78.6760     60.4561   7.3916700171e+01   5.5019812034e+01    0.6062844    0.4993026  41.21  0.003436737    1.240    0.194
       113 -13.3015     82.0688     54.7662   7.0796849770e+01   5.5386285135e+01    0.6760213    0.4973029  20.91  0.003465043    1.430    0.301
       114 -13.7270    177.7848     57.2980   4.8656962053e+01   3.3333807449e+01    0.9001834    0.5842316 -51.75  0.003088681    1.546    0.353
       115 -14.6921    119.9567     54.6510   5.9646058687e+01   4.7462681189e+01    0.8808622    0.6414527  38.07  0.003562964    1.386    0.279
       116 -12.0737    110.1085     53.9896   6.2009547504e+01   4.9770038294e+01    0.3538847     0.251624 -28.81  0.001799827    1.521    0.343
       117 -10.8889     38.9129     60.2077   8.9224006663e+01   6.0971824993e+01    0.2417145    0.1695928 -82.35  0.001176581    2.616    0.618
       118 -12.1463     24.6358     59.7375   9.5245927631e+01   6.2523669012e+01    0.3858028    0.2302299 -48.73  0.001385132    1.445    0.308
       119 -12.8557    247.7942     51.8874   3.8660779642e+01   1.8763189694e+01    0.5812317    0.3079648 -36.57  0.003104941    1.815    0.449
       120 -13.0269     54.4500     82.3336   8.9553921681e+01   5.4451105135e+01    0.5624611    0.3805312 -43.21   0.00197286    1.360    0.265
       121 -14.1209    101.6183     50.3867   6.3169793486e+01   5.2168696386e+01    0.7987322    0.6356336  64.25  0.001451567    1.410    0.291
       122 -12.5165     99.9784     44.2819   6.1521669239e+01   5.3432977047e+01    0.3968779     0.228988  56.34  0.001207615    1.780    0.438
       123 -11.7917     36.5188     53.4429   8.8071755582e+01   6.2554004806e+01    0.3404776    0.2017123 -13.17  0.001697664    2.055    0.513
       124 -12.6788    136.0241     49.9643   5.4411792343e+01   4.4428977677e+01    0.5132732    0.2865344  40.90  0.001774256    1.960    0.490
       125 -10.4481     23.4961     50.4179   9.2934544688e+01   6.4465569342e+01    0.1245251    0.1003102 -24.29  0.000128428    1.041    0.039
       126 -12.4923    154.5117     46.5321   4.9714507117e+01   4.0486420161e+01     0.426349    0.2326423  53.91  0.001947798    1.711    0.416
       127 -13.3666    158.7269     43.5015   4.8105259925e+01   3.9886217098e+01    0.6020527    0.4275436  53.89  0.003184754    1.356    0.262
       128 -14.5916    212.8028     41.3770   4.0027483342e+01   2.7510787887e+01     2.037892    0.6545545  74.56  0.006914572    4.185    0.761
       129 -12.7441     24.7173    217.6664   1.1835233778e+02   2.5414728121e+01    0.6367642    0.3713878  54.78  0.003736667    1.462    0.316
       130 -12.4579     14.0986    222.4026   1.2083488383e+02   2.5489070187e+01    0.4549991    0.3503757  51.21  0.001808031    1.227    0.185
       131 -13.8598     26.1263    226.9831   1.1870208195e+02   2.3273367758e+01    0.7692007    0.3692274 -57.63  0.004017567    2.419    0.587
       132 -12.5221     17.6092     40.5432   9.2480484389e+01   6.6833539697e+01     0.234501    0.1780017 -15.81 0.0002214843    1.142    0.125
       133 -12.7603      3.8520     43.3749   1.0016990157e+02   6.7293650825e+01    0.4677245    0.3013779 -20.52  0.002987865    1.421    0.296
       134 -12.2389     11.7234     43.7107   9.6402213832e+01   6.6710842736e+01    0.3970905    0.2306102  -7.34  0.001951788    1.830    0.454
       135 -10.2539     50.6150     44.2205   7.8769036778e+01   6.2393891236e+01    0.1171795   0.09621257  50.69 0.0006520218    1.613    0.380
       136 -13.0740     20.7485    225.0066   1.1965927776e+02   2.4261212066e+01    0.4623497    0.3737593 -44.05  0.002404453    1.778    0.438
       137 -12.9445     63.2294    224.3848   1.1067625014e+02   1.9357059824e+01    0.7200108    0.3852246  51.67  0.003711381    1.657    0.396
       138 -12.8576     68.1496    221.0645   1.0926411471e+02   1.9408103263e+01    0.6453681    0.3786015 -78.82  0.003353787    1.823    0.451
       139 -14.2588     64.0981    214.7123   1.0951047999e+02   2.1340355519e+01     1.032836    0.5157677  34.21   0.00496566    1.943    0.485
       140 -13.2945     94.4772    218.6765   1.0308369406e+02   1.6128460831e+01    0.4186211     0.256449  46.11  0.001625625    1.452    0.311
       141 -12.9761     59.4863    212.9743   1.1037196202e+02   2.2335627846e+01    0.3621985    0.2363176 -54.31   0.00119406    1.744    0.426
       142 -13.1753    113.7931     38.3680   5.5804929906e+01   5.1212047645e+01    0.3916917    0.3621398  51.47  0.001414871    1.035    0.034
       143 -13.0741    242.5373     35.8715   3.5924808958e+01   2.1951353048e+01      0.61778    0.3520591  75.26  0.002665888    1.747    0.428
       144 -12.7838     75.4742     37.1855   6.6594052389e+01   5.9364875145e+01    0.3878774    0.2605776  47.77  0.001033943    1.495    0.331
       145 -11.7469     70.4852     36.4962   6.8077909177e+01   6.0377597675e+01    0.2509766     0.214814  45.54 0.0008459903    1.281    0.219
       146 -11.8459    104.2363     36.5445   5.7620996011e+01   5.3584393125e+01    0.2383947    0.1868213 -28.98    0.0006637    1.381    0.276
       147 -11.8181    185.6003    213.7863   8.2283069865e+01   2.2502805897e+00    0.1782441     0.127347 -52.59 0.0009544156    1.705    0.414
       148 -12.0562      4.6664    211.6588   1.2211367641e+02   2.8687882275e+01    0.4216252    0.2094659 -85.53  0.002361206    1.734    0.423
       149 -13.9447     16.2438     30.8818   8.9689715483e+01   6.8654839164e+01    0.7325713    0.4086704  29.32  0.002009293    1.936    0.483
       150 -10.9336    136.4540    211.2580   9.2479235036e+01   1.0916665998e+01    0.1798107    0.1374129 -70.59 0.0008762301    1.597    0.374
       151 -12.9778     44.6829     32.6711   7.6788889908e+01   6.5093906584e+01     0.610519     0.478917  24.61  0.003929954    1.225    0.183
       152 -12.6032    223.3958     20.9427   3.4515897947e+01   2.7767309837e+01    0.3431698    0.2611964  67.88  0.001574163    1.390    0.281
       153 -13.7065    216.0395     28.0699   3.6723976168e+01   2.8502733643e+01    0.5486151    0.2690695 -57.22  0.002731264    1.948    0.487
       154 -11.9987     72.6824    207.4025   1.0673380306e+02   2.1793694249e+01     0.362024    0.2969992  78.79  0.002150654    1.147    0.128
       155 -13.2876     55.2640     27.2659   7.0103733347e+01   6.4277153720e+01    0.6309524    0.3485581  41.61   0.00285234    1.753    0.430
       156 -11.9511     64.2216     24.6212   6.5549899545e+01   6.3107924389e+01    0.4077481    0.2271438  21.04  0.001972625    2.164    0.538
       157 -11.3326     98.5137     27.1672   5.5768037862e+01   5.6003730865e+01    0.2636209    0.1778325  59.67 0.0009119993    1.462    0.316
       158 -11.1961     88.7139     26.1719   5.8130616488e+01   5.8197338860e+01    0.2180567     0.157574 -29.77  0.000770356    1.506    0.336
       159 -11.8040     36.5717     23.5222   7.6593875101e+01   6.7558595147e+01    0.2698368    0.1796385 -20.55 0.0006369221    1.398    0.285
       160 -12.5787     46.8546     20.6153   7.0709427398e+01   6.6490056664e+01    0.3722281    0.2442032  23.41  0.002233259    1.392    0.281
       161 -11.1988     63.4973     20.5427   6.4088601424e+01   6.3741511849e+01    0.2107285    0.1755103 -81.64  0.001020914    2.072    0.517
       162 -12.5907     41.3708    206.4121   1.1383012373e+02   2.6056668328e+01    0.2583804    0.1919018  71.35  0.001181819    1.179    0.152
       163 -12.6700     57.5898    203.2127   1.0978859656e+02   2.4787068393e+01     0.580227    0.2832606 -85.04  0.002505808    2.468    0.595
       164 -13.4894     15.4756    197.4794   1.1889791429e+02   3.0837123939e+01    0.8032586    0.3622247 -67.35  0.004093543    1.994    0.499
       165 -13.3551     40.2689    195.1913   1.1303073470e+02   2.8766254602e+01    0.5359056    0.2590025  87.04  0.002159441    2.424    0.587
       166 -12.6284     36.6649    195.1283   1.1387021123e+02   2.9189821786e+01    0.3648284    0.1932834 -84.65  0.001799037    1.856    0.461
       167 -14.2260     29.9201    169.3854   1.1294976235e+02   3.6067576194e+01    0.9542447    0.8463899 -31.53  0.005542596    1.416    0.294
       168 -13.8887     22.2678    181.2918   1.1602058310e+02   3.3954614261e+01    0.9696715    0.4330617 -52.25  0.004454544    2.487    0.598
       169 -15.2103      8.3897    183.5314   1.1947919630e+02   3.4689720825e+01     1.271238    0.9910352 -84.40   0.00841517    1.099    0.090
       170 -15.2641     15.7467    175.6501   1.1710446801e+02   3.5904033223e+01     2.097828     1.007928  64.11   0.01000891    2.192    0.544
       171 -11.6224    248.4953    195.4988   6.7268274791e+01  -4.2498256972e+00    0.1241526    0.1009307 -14.72 1.809698e-05    1.002    0.002
       172 -11.6398    200.8843    191.9973   7.5251539617e+01   3.6089417275e+00    0.3130045    0.2136845 -27.67  0.001473158    1.467    0.318
       173 -11.2245     79.4175    192.7754   1.0328036629e+02   2.4189217850e+01    0.4392523    0.1078263  42.76  0.001401679    3.580    0.721
       174 -12.6538     97.7467    188.2671   9.8081295490e+01   2.2409348168e+01    0.2696476    0.1745474  41.26  0.001295428    1.462    0.316
       175 -12.0677     49.0602    181.6761   1.0944997165e+02   3.0941441668e+01    0.4004548    0.2470397 -53.94  0.002039132    1.698    0.411
       176 -11.8968    198.4828    181.6453   7.3733744177e+01   5.9070315388e+00    0.2764874    0.2464393  66.94  0.001590112    1.444    0.307
