#   1 NUMBER                 Running object number                                     
#   2 MAG_AUTO               Kron-like elliptical aperture magnitude                    [mag]
#   3 X_IMAGE                Object position along x                                    [pixel]
#   4 Y_IMAGE                Object position along y                                    [pixel]
#   5 X_WORLD                Barycenter position along world x axis                     [deg]
#   6 Y_WORLD                Barycenter position along world y axis                     [deg]
#   7 A_WORLD                Profile RMS along major axis (world units)                 [deg]
#   8 B_WORLD                Profile RMS along minor axis (world units)                 [deg]
#   9 THETA_WORLD            Position angle (CCW/world-x)                               [deg]
#  10 FWHM_WORLD             FWHM assuming a gaussian core                              [deg]
#  11 ELONGATION             A_IMAGE/B_IMAGE                                           
#  12 ELLIPTICITY            1 - B_IMAGE/A_IMAGE                                       
         1 -14.5045     68.4864    144.2940   1.0148118932e+02   3.7476609915e+01      4.96634     2.641985  73.48  0.002714662    3.568    0.720
         2 -14.3182    218.6988     26.1835   3.7195940777e+01   2.7932760122e+01     1.266983    0.9524673  38.73  0.007368545    1.885    0.469
         3 -14.4544    205.1004     39.2133   4.1731348856e+01   2.9380765548e+01      2.08253     1.500638  34.37  0.007938102    1.972    0.493
         4 -12.9641    244.2931      3.5892   3.0408126987e+01   2.5046062180e+01    0.7278641    0.3648894  79.82  0.004180266    1.846    0.458
         5 -10.5120     47.3850      2.1087   6.3379612218e+01   6.8923094763e+01    0.2401233    0.1597796  48.95 0.0006563126    1.669    0.401
         6 -10.9501    108.3216    203.3172   1.0065802686e+02   1.7060409787e+01    0.3772466    0.2486538 -37.63  0.001089768    1.948    0.487
         7 -10.7616    139.6719    249.7551   1.0020348764e+02   3.0885535463e+00    0.2527302    0.1844175  40.52  0.001508741    1.150    0.131
         8 -10.3040    117.5852    250.4602   1.0476062185e+02   6.3117887082e+00    0.2319825    0.1233356  41.47 0.0001679306    1.535    0.349
         9 -15.8515      4.9677    184.8059   1.2263762702e+02   3.4382371454e+01     9.623667    0.7999634 -74.61  0.001510531    7.110    0.859
        10 -15.6397      9.6418    207.7974   1.2311653411e+02   2.8820729298e+01      3.22605      1.88217 -62.13   0.01640752    1.817    0.450
        11 -15.4889     46.7426    191.6109   1.1370118013e+02   2.8579171012e+01     4.188038     2.124763  76.59   0.01856075    2.365    0.577
        12 -16.1166     35.4707    249.1686   1.2067443487e+02   1.7616662922e+01      11.1713      3.62464  24.77   0.02597587   13.710    0.927
        13  -8.5335     76.2806    184.6689   1.0572054619e+02   2.6325119214e+01    0.1455794   0.09880434  72.39  0.000399455    1.606    0.377
        14 -13.6923     37.0642    201.4594   1.1684157658e+02   2.7423500231e+01    0.7127443    0.5655147 -54.19   0.00184379    1.513    0.339
        15  -9.4797     79.9705    182.7323   1.0452838545e+02   2.6247277206e+01    0.3056828     0.168403  86.14  0.001182153    2.748    0.636
        16  -9.6912     99.4601    180.7734   9.9331669899e+01   2.3660408286e+01     0.247772    0.1940838  40.24 0.0006084552    1.255    0.203
        17 -12.2071     63.5747    175.4352   1.0765960489e+02   3.0338950832e+01    0.4570481    0.3263024 -44.65  0.001346862    1.630    0.387
        18 -12.0568     68.4165    170.4093   1.0570540093e+02   3.0916044330e+01     0.352771    0.2859155 -33.48  0.001327614    1.534    0.348
        19 -11.5485     77.4661    137.8791   9.7647008593e+01   3.7790891062e+01     0.693053    0.3074065  54.21  0.000383844    3.293    0.696
        20 -12.6369     85.1208    154.6142   9.8626825716e+01   3.2383298287e+01     1.461614    0.6433632 -58.77  0.002731625    2.168    0.539
        21 -12.4334     77.9869    160.9816   1.0168881873e+02   3.1884112854e+01    0.5944418    0.4979853  61.45 0.0004852667    1.194    0.163
        22 -13.6980     65.9422    156.6981   1.0428794997e+02   3.4686039613e+01    0.7687156    0.5987095   6.04  0.003970833    1.709    0.415
        23 -11.5491    194.9869    198.1606   8.0473553036e+01   3.0957387639e+00    0.4638672    0.3304041 -66.50  0.002221955    2.336    0.572
        24  -9.6852    133.5965    172.1752   8.9250049463e+01   1.9622757648e+01    0.2156124    0.1393659 -40.24 0.0007444149    1.674    0.403
        25 -14.3339     57.3936    239.8890   1.1582845251e+02   1.6764051270e+01     1.071006    0.7885182 -86.66  0.004583694    1.326    0.246
        26 -11.0241    230.6291    166.8359   6.7386992970e+01   2.5581577317e+00     0.307907    0.1563814 -40.12   0.00141941    1.794    0.443
        27  -8.8824    120.0055    193.9772   9.6454178747e+01   1.7158821813e+01    0.1694746    0.1580383 -68.64 0.0004770925    1.122    0.109
        28 -11.3232     32.3507    156.0281   1.1334927220e+02   3.8822697743e+01    0.3508887    0.2884912   6.16  0.002095367    1.599    0.375
        29  -8.6111    112.3245    150.2689   9.0312797889e+01   2.8784053360e+01    0.1509111    0.1226066  -9.07  0.000447938    1.571    0.363
        30 -10.0789    174.7613    148.8647   7.4546222067e+01   1.6577820710e+01    0.2856941    0.2108903 -60.66 0.0007377179    1.594    0.373
        31 -10.5132    134.0000    145.9901   8.3655344330e+01   2.5610192625e+01    0.7527776    0.1952397 -50.57  0.002027464    3.992    0.749
        32 -10.3705    133.0000    140.5173   8.2663362695e+01   2.7091826490e+01    0.7004412    0.1866555 -51.32  0.001862533    4.054    0.753
        33 -10.0586     48.0394    145.4039   1.0756605370e+02   3.9811955627e+01    0.2945742    0.1965801 -43.46  0.001481605    1.633    0.388
        34 -10.6004     31.9858    143.8058   1.1191396992e+02   4.1919727682e+01    0.3442458    0.2546874  75.97  0.001489606    1.371    0.270
        35 -10.7689    100.2726    139.7548   9.1417463714e+01   3.3553889221e+01    0.6238487    0.3887439 -19.32  0.002267064    2.884    0.653
        36 -10.0414    198.4689    140.0949   6.7567789900e+01   1.3494852545e+01     0.307879    0.2257188 -62.83  0.001053599    1.696    0.410
        37 -12.4440     87.1575    139.6306   9.5160494649e+01   3.5821152418e+01    0.3134065    0.2646921 -43.95 0.0004043233    1.203    0.169
        38  -8.5804     76.3013    194.2534   1.0699270592e+02   2.4059232558e+01     0.122595    0.1079634 -20.18 0.0006891855    1.502    0.334
        39 -10.4498    106.2380    131.0386   8.7763089014e+01   3.4609740913e+01    0.4278606    0.2813834 -56.52  0.001876522    1.517    0.341
        40 -10.3529    109.5225    130.5052   8.6702442279e+01   3.4120543955e+01    0.3665709    0.2766117  12.69  0.001109245    1.704    0.413
        41 -10.3700    135.5304    128.5092   7.9129768002e+01   2.9353566215e+01    0.4355312    0.1547803 -50.39  0.001340966    2.940    0.660
        42 -11.1972     44.3592    129.4161   1.0609735574e+02   4.4282632310e+01    0.2716876     0.233876  85.26 0.0009842236    1.179    0.152
        43  -9.5007    160.3387    127.6605   7.2788742594e+01   2.4185199136e+01    0.1636509    0.1263248 -85.14 0.0007050514    1.763    0.433
        44 -10.9564     97.1453    126.3139   8.9307439948e+01   3.7426000919e+01    0.3157223    0.2634514 -21.15 0.0007291162    1.376    0.273
        45  -9.6186    116.2481    124.5701   8.3371078266e+01   3.4235666407e+01    0.2136159    0.1528767  26.16 0.0006149552    1.618    0.382
        46 -11.2897     44.2689    123.1422   1.0503376148e+02   4.5876365472e+01    0.3426661     0.211937 -56.73 0.0007879485    1.403    0.287
        47  -9.4321    135.0000    119.9413   7.7106819462e+01   3.1420706689e+01    0.2663584   0.08943322 -45.92 0.0008002972    2.928    0.658
        48  -9.7276    106.9246    119.0200   8.4657654858e+01   3.7378529952e+01    0.2180798    0.2120769 -31.03 0.0002904059    1.031    0.030
        49 -14.3395     18.9945    218.9952   1.2193437068e+02   2.5501045376e+01    0.8830823    0.7422774  74.29  0.003258384    1.140    0.123
        50  -9.0986     82.4650    116.5508   9.1481461924e+01   4.2330691670e+01    0.1497209    0.1419094 -57.38 0.0001660689    1.023    0.023
        51 -10.0861    205.4454    110.1123   5.9171323233e+01   1.7785605653e+01    0.3009212    0.2222243  46.39 0.0008417735    1.474    0.321
        52 -10.2775    146.4398    171.8607   8.6068872480e+01   1.7254127705e+01    0.2778674     0.232671  75.99  0.001174998    1.444    0.307
        53  -8.8529    119.6349    103.7203   7.6940197792e+01   3.8341677714e+01    0.1604169    0.1243026   4.28 0.0007012798    1.679    0.405
        54  -9.8423    134.5159    105.5365   7.3399059767e+01   3.4720657696e+01    0.3389071    0.1542311 -43.85  0.001211191    2.167    0.539
        55  -9.5861     39.6260    102.2900   1.0253723243e+02   5.1536444951e+01    0.1366249    0.1010477  67.15   0.00070217    1.725    0.420
        56  -9.1253    120.5349     98.4516   7.5203517649e+01   3.9304754880e+01    0.1544491    0.1513599 -17.77 0.0001195334    1.009    0.009
        57 -12.4999    247.3831    105.3879   5.1565744338e+01   1.0139410619e+01    0.4749928      0.35188 -29.41  0.002696062    1.317    0.240
        58 -11.7235    247.0962     91.3694   4.8561395244e+01   1.2488658330e+01    0.2862374    0.1703857 -45.34  0.001485509    1.419    0.295
        59  -8.9563     18.3186     90.2755   1.0776162746e+02   5.6258607181e+01    0.1328041   0.08033191 -38.30 0.0002025402    1.571    0.363
        60 -10.5032     53.2220     91.2504   9.5104772755e+01   5.2628160301e+01    0.2568682    0.1911928 -53.79  0.001027204    1.226    0.184
        61  -9.7700     72.7885     83.4990   8.5912542358e+01   5.1606379806e+01    0.3195408    0.2236288  61.67 0.0008791974    2.074    0.518
        62 -11.7063    243.4064     77.6543   4.6026009277e+01   1.5392140609e+01    0.2457574    0.2200997 -40.99  0.000796687    1.158    0.137
        63  -9.2894     92.2220     66.4417   7.3804477638e+01   5.1637260864e+01    0.2009358    0.1381586  54.12 0.0009409607    1.691    0.409
        64  -9.3431     48.8973     62.7413   8.8506109052e+01   5.9406788863e+01    0.1740359    0.1582193  -5.08 0.0002688997    1.107    0.097
        65 -10.6967     13.4489     59.8538   1.0284703467e+02   6.3424497417e+01    0.2474223    0.1917844 -55.31 0.0004633904    1.184    0.155
        66 -10.8604    191.9889    192.7062   8.0047777750e+01   4.5971219312e+00    0.5357174    0.3375661 -68.53   0.00208198    3.460    0.711
        67 -11.9650    196.4429     45.0421   4.4280319234e+01   3.0626220039e+01    0.4606004     0.401734  51.55 0.0008937287    1.295    0.228
        68 -15.9567      7.4509    246.2109   1.2553204683e+02   2.1178414749e+01     3.274455     2.101885  17.56   0.02049955    2.596    0.615
        69  -9.5672    136.9317     43.0919   5.3799320740e+01   4.5435736824e+01    0.2132545    0.1822698 -82.05 0.0003013401    1.304    0.233
        70  -9.8557    189.3331     14.9630   3.7498230555e+01   3.6008850537e+01    0.1759536    0.1563174 -65.06 0.0005846266    1.121    0.108
        71 -10.6111    138.5209     36.6089   5.1369783772e+01   4.5912837904e+01    0.3855945    0.2525936 -83.32  0.001044846    2.143    0.533
        72  -9.9807     90.2154    213.3617   1.0617281440e+02   1.7713567829e+01    0.3987613    0.2142256  70.34  0.000994581    2.660    0.624
