#   1 NUMBER                 Running object number                                     
#   2 MAG_AUTO               Kron-like elliptical aperture magnitude                    [mag]
#   3 X_IMAGE                Object position along x                                    [pixel]
#   4 Y_IMAGE                Object position along y                                    [pixel]
#   5 X_WORLD                Barycenter position along world x axis                     [deg]
#   6 Y_WORLD                Barycenter position along world y axis                     [deg]
#   7 A_WORLD                Profile RMS along major axis (world units)                 [deg]
#   8 B_WORLD                Profile RMS along minor axis (world units)                 [deg]
#   9 THETA_WORLD            Position angle (CCW/world-x)                               [deg]
#  10 FWHM_WORLD             FWHM assuming a gaussian core                              [deg]
#  11 ELONGATION             A_IMAGE/B_IMAGE                                           
#  12 ELLIPTICITY            1 - B_IMAGE/A_IMAGE                                       
         1 -10.7935     39.3215     29.4906   1.0149352653e+02   6.5703313453e+01     0.703236    0.3602586 -54.49  0.003492766    2.223    0.550
         2 -11.8591     44.3729     21.2232   9.5867528064e+01   6.6507587882e+01     1.118236    0.9115522 -73.57  0.006736087    2.161    0.537
         3 -11.9436    128.8608     14.9483   6.6653298576e+01   5.1108236371e+01     1.446817    0.8930346  58.33  0.007007129    1.540    0.350
         4 -11.9642    131.7882      3.4441   6.1626126349e+01   5.1519057528e+01     2.359578    0.7449069  69.09   0.00772875    3.632    0.725
         5 -10.6293    121.0673      3.9201   6.3907458956e+01   5.4079488006e+01    0.6201442    0.4551617  61.18  0.002435903    1.324    0.245
         6 -11.8563    109.1788      4.2525   6.6643409506e+01   5.6825947152e+01     1.972078    0.7057496  57.92  0.007834327    2.532    0.605
         7 -13.6818    169.3913     12.9800   5.8838448216e+01   4.1013830198e+01     3.034422     2.007354  66.00   0.01265414    1.419    0.295
         8 -10.3312    117.0291     16.2705   6.9807984827e+01   5.3775673253e+01    0.9034814    0.3159405 -30.62  0.003421465    2.752    0.637
         9  -9.8386    110.8614     16.0414   7.1205341955e+01   5.5215497723e+01    0.4168327    0.2135211  47.55   0.00121323    1.800    0.445
        10 -10.5033     71.3487      5.5857   7.7942371623e+01   6.4495410868e+01    0.6306697     0.407694  39.25  0.003170291    1.479    0.324
        11 -11.3876     77.8177     14.9259   8.0232314969e+01   6.2178361029e+01      1.00316    0.5096581 -22.53  0.004766972    1.956    0.489
        12 -11.3515     84.5042      3.9733   7.2987548747e+01   6.2155267074e+01    0.8510941    0.5212308  44.63  0.003335043    1.518    0.341
        13  -9.8831     94.0710     18.0242   7.6571049227e+01   5.8608948052e+01    0.4529802    0.4045296  11.12  0.002677319    1.023    0.022
        14  -9.3462     64.4484     16.7061   8.5761759002e+01   6.4271735023e+01    0.3073636    0.2646276 -66.66  0.001836229    1.827    0.453
        15  -8.8809     20.1564     14.0339   1.0382739428e+02   7.0321438622e+01    0.5509025    0.1903367 -33.92  0.002427176    2.907    0.656
        16  -9.1847     69.2687     14.0977   8.2782366849e+01   6.3816148327e+01    0.3119359    0.2468305  73.13  0.001760731    2.118    0.528
        17 -12.2555    155.6736     20.8126   6.3666022263e+01   4.3733845645e+01     1.588483    0.6382784  66.94  0.005825843    2.571    0.611
        18 -10.0648     60.7517      2.8381   8.0319026125e+01   6.6662263778e+01    0.6820252    0.4561555  -6.33  0.004030731    1.394    0.283
        19  -9.1150     55.1180      7.7679   8.5008963774e+01   6.6966090722e+01    0.4842617    0.3681075  80.75  0.002505185    3.137    0.681
        20  -8.3722     49.8155      6.4131   8.6470514795e+01   6.7945772933e+01    0.2170232    0.1716492  45.88  0.001399321    1.656    0.396
        21  -8.7794     52.2892      2.0554   8.3184872916e+01   6.8121388400e+01    0.3762904    0.2227214  17.35  0.001490627    1.807    0.447
        22  -9.2252    230.1100      7.1358   5.0304395883e+01   2.6147163278e+01    0.4171692    0.1740629 -30.63  0.001827342    2.206    0.547
        23 -10.3544    244.2538      4.3528   4.8473799278e+01   2.3094852625e+01    0.5556787    0.2136352 -31.37  0.002455297    2.294    0.564
        24 -10.2577    199.9917      7.9342   5.3435491119e+01   3.3572932275e+01    0.3614314    0.1732907  66.86  0.001299754    1.922    0.480
        25  -9.5470    250.0341      4.5583   4.8092392305e+01   2.1753255552e+01    0.4624878    0.1755887 -26.40  0.001992081    2.550    0.608
        26  -9.1643    222.5826      5.2096   5.0468574246e+01   2.8169768608e+01    0.3110706    0.1346185 -20.48  0.001293945    2.583    0.613
        27  -9.0491    212.7567      4.6002   5.1210479555e+01   3.0664612615e+01    0.2333929    0.1714762  -4.04 0.0009553432    1.669    0.401
        28  -9.3914     39.7611      7.4038   9.1326469375e+01   6.9204520760e+01    0.3348439    0.2517285  27.44  0.002223752    1.429    0.300
        29  -8.7345     26.0829      2.5202   9.5297237300e+01   7.1542278795e+01    0.2233782    0.1828612 -10.23  0.001078531    1.131    0.116
        30  -8.7514     17.3624      1.9616   9.9513654213e+01   7.2515102959e+01    0.1980993    0.1565365 -14.90 0.0008982397    1.102    0.093
        31  -8.4451     40.7547      1.4481   8.7756233166e+01   6.9880579727e+01    0.2488035    0.1069389  36.86  0.001262602    2.421    0.587
        32  -9.8392     73.7598     68.1559   1.0201037529e+02   5.3683858959e+01    0.3574693    0.2854465 -51.80  0.001349205    1.186    0.157
        33  -8.8938     19.2805     88.7812   1.2462904055e+02   5.5144665877e+01     0.231954     0.160921  85.99  0.001438593    1.514    0.340
        34  -9.8104     24.4326     65.2204   1.1836151669e+02   5.9946504321e+01    0.5891802    0.2132454 -55.86  0.002787077    2.039    0.510
        35 -10.3517      4.0916     76.0204   1.2739974114e+02   5.8933668332e+01    0.4656935    0.3394066 -69.12  0.002115122    1.054    0.051
        36  -8.3609    101.0000     82.9552   9.7997550100e+01   4.6016224855e+01    0.2463916   0.07867365 -46.36 0.0008040061    2.953    0.661
        37  -9.3464     49.5486     62.1869   1.0854757086e+02   5.8161403525e+01    0.3244659    0.2104853 -39.56  0.001659582    1.396    0.284
        38  -7.5650     87.6754     61.6584   9.5451176381e+01   5.2725679631e+01    0.1467211     0.106044  -9.64 0.0007051009    1.731    0.422
        39  -9.1537    198.9155     55.1528   6.7294658126e+01   2.8075556533e+01    0.2989124    0.2327111  42.38 0.0004882268    1.352    0.260
        40  -8.2805      9.6912     55.7522   1.2166888666e+02   6.2984757540e+01    0.2255262    0.1224926 -85.81  0.001152992    2.473    0.596
        41  -9.1466     65.8853     53.0018   9.9831977213e+01   5.7896725549e+01    0.3402915    0.2036059 -61.09  0.001586588    2.191    0.544
        42  -8.3169     32.9062     69.0224   1.1624104588e+02   5.8408516279e+01    0.2804559    0.1814161  18.97  0.001640714    1.927    0.481
        43  -7.9517     22.8436     51.8295   1.1565478806e+02   6.2908511678e+01    0.1571748    0.1311212 -75.39  0.001050202    1.331    0.249
        44  -9.9523     83.5669     47.8430   9.1955925342e+01   5.6034447483e+01    0.6375242    0.4921301  61.88  0.003407877    1.749    0.428
        45  -9.7924     81.5540     38.8720   8.9214990262e+01   5.7946179869e+01    0.5683879    0.3083818 -38.97  0.002698433    1.728    0.421
        46  -9.0706    111.4764     45.2744   8.2546371877e+01   5.1015317827e+01    0.4755831    0.2530921 -30.13  0.002038072    1.888    0.470
        47 -10.1836      3.3515     40.2043   1.2054257212e+02   6.6556376313e+01    0.3556673    0.3404039  57.23  0.002593368    1.391    0.281
        48 -10.2987     51.0627     36.4708   9.9401913632e+01   6.3031205884e+01    0.6616431    0.5008699 -71.37  0.003703858    2.075    0.518
        49 -10.3559    184.5547    246.1567   1.1074184026e+02   1.0937687076e+00    0.3745039    0.1257036  40.80  0.001802223    2.278    0.561
        50  -9.5224     91.9602     44.9380   8.8179367174e+01   5.5016823822e+01    0.3304682    0.1905101  52.84  0.001505403    2.063    0.515
        51  -9.4635     68.1890     35.9198   9.2694620986e+01   6.0677350065e+01    0.6111221    0.4585322  83.63  0.002986433    2.754    0.637
        52  -9.5021     66.4999     29.4879   9.0673558844e+01   6.2011387853e+01    0.4031183    0.2945243   3.99  0.001977702    1.461    0.315
        53  -8.2475     27.4539     35.4832   1.0880156273e+02   6.5795970195e+01    0.2029338    0.1614291 -24.95  0.001386564    1.157    0.136
        54  -9.2754     12.2108     33.8216   1.1491864764e+02   6.7307440058e+01    0.3855571    0.2096635 -56.61  0.001775528    1.483    0.326
        55  -9.2856    163.4212    244.2372   1.1407948842e+02   4.6112260078e+00    0.1316402    0.1090053 -75.36 0.0009498924    1.686    0.407
        56  -8.8836     86.0617     31.5633   8.4791739169e+01   5.8298544220e+01    0.2743281     0.188749 -20.21  0.001439831    1.423    0.297
        57 -10.4014    225.1171     29.0214   5.6490945095e+01   2.4945946926e+01    0.5063153    0.4036497  34.82  0.001662439    1.474    0.322
        58 -10.0639    171.9847    242.4935   1.1240317716e+02   3.4975481715e+00    0.2460104    0.1207627  52.80  0.001311594    2.101    0.524
        59 -10.6347    204.1337    225.8220   1.0456440895e+02   4.4428176417e-01    0.5257945    0.1731924  31.02   0.00183289    4.429    0.774
        60  -8.0162    124.0981    205.9229   1.1641269234e+02   1.6674182080e+01    0.1459163    0.1309238  38.35            0    1.215    0.177
        61  -8.6301    239.3025    202.6565   9.4774293697e+01  -2.4686051478e+00    0.1026407   0.09880483  85.47 0.0007039271    1.681    0.405
        62  -8.3208     19.9874    156.4942   1.3236727937e+02   4.0155595019e+01    0.1666784    0.0626617  54.85 0.0008106294    2.623    0.619
        63  -8.2191     90.9427     28.3679   8.1925173261e+01   5.7839298745e+01    0.3413959    0.2039253  18.73  0.001530399    2.177    0.541
        64  -9.2004     75.3516     27.4707   8.6654000794e+01   6.0857827987e+01    0.3472684    0.2365167 -30.47  0.001467112    1.349    0.259
        65  -8.7521     71.4345     24.8558   8.6899168475e+01   6.1925187607e+01    0.2577339    0.1815498  27.44  0.001197503    1.441    0.306
        66  -8.8217     97.4693     27.9605   7.9789042267e+01   5.6588058737e+01    0.4878932    0.2321267 -15.79  0.001825089    2.974    0.664
        67  -9.5798    132.9092     25.0249   6.9627392328e+01   4.8961241641e+01    0.4645158    0.2452448 -19.67  0.001968183    2.066    0.516
        68  -8.8783    104.3003     25.8489   7.6974946972e+01   5.5444081911e+01    0.3827251    0.2524852  65.43  0.001840958    1.925    0.481
        69  -7.8194      9.7400     26.4360   1.1366911443e+02   6.8892122876e+01    0.1425576   0.09560153 -13.58 0.0009440409    1.593    0.372
        70  -7.9455     22.4307     23.7234   1.0674552790e+02   6.8428777994e+01    0.1806081   0.08172104 -41.08 0.0009584073    1.740    0.425
        71 -11.2516     10.3120    142.2312   1.3329328147e+02   4.3998626204e+01    0.5367546    0.4722799 -26.11  0.004110519    1.664    0.399
        72 -12.6179    241.1798    133.0477   8.0415150668e+01   6.5035811461e+00     1.493048     1.084268  47.18  0.005491648    1.468    0.319
        73  -9.0910     41.3103    142.0484   1.2609084919e+02   4.1204568409e+01    0.2401398    0.1639612  52.72  0.001485232    1.466    0.318
        74  -9.7635     12.8756    131.6912   1.3175415525e+02   4.6079315158e+01    0.3285845    0.1611537  81.66  0.001753508    2.069    0.517
        75  -8.1926     55.3862    128.2173   1.2072009996e+02   4.2722959716e+01    0.1888991    0.1084505 -77.49 0.0009528443    1.724    0.420
        76  -9.6381     12.0612    126.2604   1.3141944310e+02   4.7329804107e+01    0.2144596    0.1365354 -79.70  0.001258577    1.229    0.186
        77  -7.9483     22.7745    125.5845   1.2868842607e+02   4.6625436767e+01    0.1514321   0.09869633  50.61 0.0004536045    1.619    0.382
        78 -10.1494     12.2058    119.3740   1.3067032828e+02   4.8835734792e+01    0.3906365    0.1968868  82.74  0.002084197    2.068    0.517
        79  -9.7084    248.8097     15.4398   5.0772668750e+01   2.0883181786e+01    0.3093249    0.2253731  41.17  0.001737812    1.710    0.415
        80  -7.5010    192.7017    116.6945   8.5202636217e+01   1.9474051489e+01    0.1519392    0.1151371  11.16 0.0002030024    1.589    0.371
        81  -7.2156     12.3223     14.8388   1.0809212605e+02   7.0829007498e+01    0.2515321    0.1170168  34.56  0.001392936    2.811    0.644
        82  -8.5047     21.0502    110.4974   1.2728848182e+02   5.0139499986e+01    0.1549073    0.1190692  30.38  0.001039722    1.610    0.379
        83  -9.5167     17.8801    103.8982   1.2728553776e+02   5.1863820095e+01    0.2981238    0.1906016 -62.75  0.001870143    1.275    0.216
        84  -8.3512     14.3292    103.6893   1.2825219558e+02   5.2169474984e+01    0.2391603    0.1459138  88.99  0.001423595    1.570    0.363
        85  -9.1135     30.2125    101.4021   1.2339669970e+02   5.1424112437e+01    0.2485577    0.1598984 -48.92  0.001469607    1.506    0.336
        86  -8.4021     57.9700     97.7402   1.1452481803e+02   4.9350091829e+01     0.153529     0.116274  32.63 0.0007612742    1.527    0.345
        87  -8.7169      2.1522     89.3890   1.2990415326e+02   5.6108435257e+01    0.2965902    0.1535017 -85.23  0.001679458    1.773    0.436
        88  -8.2462     92.3236     89.3318   1.0229036830e+02   4.6198891288e+01    0.1457773    0.1097087 -17.15 0.0007050352    1.704    0.413
        89 -11.7929     43.5987     82.3173   1.1567346098e+02   5.4445353399e+01      1.00729    0.8761637 -13.24  0.006610304    1.356    0.263
        90  -9.3336    227.7211     79.1167   6.9409799995e+01   1.7512741835e+01    0.4484545    0.3118213   6.12  0.002063705    1.906    0.475
        91 -11.2427     13.8435     73.7940   1.2379590371e+02   5.8839052320e+01    0.8956462    0.5797313 -63.10  0.005718084    1.190    0.160
        92  -8.5735    125.3422     28.5281   7.2664840347e+01   5.0334175282e+01    0.3193988    0.2369618  11.32  0.001600354    1.493    0.330
        93  -8.0577    139.4301     78.0010   8.6225780329e+01   3.9001313886e+01    0.2419738    0.1473727 -37.77  0.001032108    1.619    0.382
        94  -7.4961    205.2882     76.3306   7.2226775793e+01   2.3285015453e+01    0.1528137    0.1155644  14.86  0.000500979    1.621    0.383
        95  -7.5168     91.2981     74.6739   9.8435567839e+01   4.9478782425e+01    0.1395319    0.1121971 -81.88 0.0004533727    1.632    0.387
        96  -9.0426     82.3930     69.9017   9.9754654862e+01   5.1966076813e+01    0.2676041    0.2090851 -20.57   0.00107489    1.398    0.285
