#   1 NUMBER                 Running object number                                     
#   2 MAG_AUTO               Kron-like elliptical aperture magnitude                    [mag]
#   3 X_IMAGE                Object position along x                                    [pixel]
#   4 Y_IMAGE                Object position along y                                    [pixel]
#   5 X_WORLD                Barycenter position along world x axis                     [deg]
#   6 Y_WORLD                Barycenter position along world y axis                     [deg]
#   7 A_WORLD                Profile RMS along major axis (world units)                 [deg]
#   8 B_WORLD                Profile RMS along minor axis (world units)                 [deg]
#   9 THETA_WORLD            Position angle (CCW/world-x)                               [deg]
#  10 FWHM_WORLD             FWHM assuming a gaussian core                              [deg]
#  11 ELONGATION             A_IMAGE/B_IMAGE                                           
#  12 ELLIPTICITY            1 - B_IMAGE/A_IMAGE                                       
         1 -12.9303    180.4791     38.5905   6.2122289284e+01   3.5329556092e+01     1.430844     1.064974   8.65  0.004547616    1.625    0.385
         2 -12.4581    201.2904      6.4337   4.9097530514e+01   3.3535798595e+01     0.942659    0.8905056  89.93  0.004384768    1.034    0.033
         3  -9.5440    168.0154    232.8112   1.0752025466e+02   6.9190823940e+00    0.2170789    0.1359309  45.81 0.0007777272    1.240    0.194
         4 -19.4664     38.0701    147.2878   1.2293012729e+02   4.0593634577e+01     17.77948     3.229168 -72.80   0.05632982    5.471    0.817
         5  -8.6767    152.2378    210.9835   1.0749389175e+02   1.2340290949e+01    0.1265668    0.1009323 -53.43  0.000305834    1.550    0.355
         6  99.0000     12.2622    205.9488   1.3183332695e+02   3.1770521140e+01    0.3957266    0.1145596  43.44  0.002285557    2.499    0.600
         7  -8.8523     88.1196    202.7497   1.1820456001e+02   2.3492701964e+01    0.2545353    0.1135169  51.81  0.001376743    1.849    0.459
         8  -9.0974    153.5070    200.9870   1.0592729576e+02   1.3607392633e+01    0.1628665    0.1217618 -51.82  0.001040828    1.615    0.381
         9  -9.3574    159.9739    197.0811   1.0419279817e+02   1.3100747776e+01    0.1838823    0.1553248  47.20 0.0003762396    1.027    0.026
        10  -9.4512    192.7015    194.1701   9.7872259670e+01   7.8539102603e+00    0.3970762    0.2278383 -66.92  0.001414957    5.989    0.833
        11  -9.6731     81.7934    194.8381   1.1861336404e+02   2.5768795141e+01    0.3504308    0.2268655  62.10  0.001737808    1.295    0.228
        12  -9.1915    134.6698    192.3119   1.0823980333e+02   1.8130681927e+01    0.1262912   0.08500306  68.88 0.0007043143    1.672    0.402
        13 -10.4482    150.0447    189.5377   1.0493480739e+02   1.5978223796e+01    0.3242954    0.1965574  65.34  0.001654949    2.093    0.522
        14 -11.2777     69.4730    218.7417   1.2288882931e+02   2.3263783537e+01    0.2407936    0.1386232  63.77   0.00071953    1.411    0.291
        15  -8.9494    150.3963    182.1365   1.0375119771e+02   1.7122154597e+01    0.1638125    0.1196648 -68.31 0.0009382147    1.710    0.415
        16 -11.3872     99.5439    180.2136   1.1353203175e+02   2.5892387281e+01     0.375158    0.2244795 -56.57  0.001467165    1.851    0.460
        17  -9.9322     98.2374    214.4250   1.1750182990e+02   2.0105923149e+01    0.2437367    0.1438007 -73.53  0.001292423    1.931    0.482
        18 -10.9660    104.5153    172.3018   1.1149693886e+02   2.6619503788e+01    0.3327008    0.2426548 -47.83  0.001979649    1.689    0.408
        19  -8.6871    204.4919    177.0124   9.2861776304e+01   8.0912416988e+00    0.1816508    0.1244203 -32.41   0.00103847    1.607    0.378
        20  -8.7816    164.9959    171.5456   9.9194639792e+01   1.6223689898e+01    0.1751488     0.173978 -74.48 0.0003504217    1.134    0.118
        21 -10.2702    124.6275    172.3524   1.0737228510e+02   2.3311212036e+01    0.2638334    0.1970887 -37.37  0.001516916    1.766    0.434
        22  -9.6959    192.9263    165.0528   9.2730232324e+01   1.1971105462e+01    0.3349118    0.2295226 -48.85  0.001622445    1.766    0.434
        23 -10.1796     96.8494    158.9054   1.1125879907e+02   3.0457444671e+01    0.2394417    0.2071717 -68.14 0.0004234735    1.223    0.182
        24 -11.2036    101.5484    152.1965   1.0922049785e+02   3.1078280038e+01    0.5297633    0.3828792 -41.01  0.002032339    1.792    0.442
        25  -9.7450     66.5573    209.9559   1.2272588992e+02   2.5110397284e+01    0.5059918    0.2107475  48.63  0.002100111    1.860    0.462
        26  -9.3713    188.8270    155.3430   9.1608574404e+01   1.4268326575e+01      0.34947    0.3040799  63.38  0.002067047    1.297    0.229
        27  -9.7106    134.3949    147.7509   1.0120651189e+02   2.6232646362e+01     0.657557     0.133514 -52.69  0.001716525    6.223    0.839
        28  -8.5410    174.0652    149.2745   9.3246636751e+01   1.8207009490e+01    0.2049469    0.1706061  42.92  0.001159164    1.116    0.104
        29  -9.4721     60.2925    207.3595   1.2363645814e+02   2.6337460692e+01    0.2915587    0.2275953 -54.16  0.001652323    1.867    0.464
        30 -10.5699    111.0070    138.3413   1.0473171264e+02   3.2363381113e+01    0.4948485    0.2762439 -38.34  0.002157748    2.501    0.600
        31  -8.3364    129.3002    140.3498   1.0093333409e+02   2.8645633248e+01    0.1344997    0.1115766  -7.47 0.0007037662    1.691    0.409
        32 -10.6701    100.1664    137.8988   1.0718948934e+02   3.4290082260e+01    0.2677444    0.2654813   6.58 0.0004879188    1.255    0.203
        33 -10.0287    105.9362    130.9288   1.0455468320e+02   3.4806230702e+01    0.3324614    0.2827685  88.99  0.001040643    1.141    0.124
        34  -9.2547    117.3412    129.1580   1.0148902890e+02   3.3157573952e+01    0.2667633    0.2185565   6.59 0.0009440266    1.742    0.426
        35  -9.2847    160.4464    127.6819   9.1441496745e+01   2.4884992689e+01    0.2680308    0.1394056 -47.50  0.001121312    2.032    0.508
        36  -9.5204    135.2715    127.1249   9.6885256124e+01   3.0158335155e+01    0.3996768    0.1243353 -49.59  0.001314302    3.350    0.702
        37  -9.4073    105.4039    125.0977   1.0355690500e+02   3.6149734449e+01    0.2326252    0.2109313 -12.08   0.00126753    1.432    0.302
        38  -8.6937    111.9854    118.6311   1.0060387272e+02   3.6371404661e+01    0.1964028    0.1737608  53.96 0.0004409766    1.140    0.123
        39  -9.2567    168.0888    113.1834   8.6395131054e+01   2.5925368267e+01    0.3395792    0.2340578  88.73  0.001402035    2.389    0.581
        40  -8.8306    205.9370    110.0042   7.8238227803e+01   1.7946957893e+01    0.2248485    0.2145636   5.49 0.0006692921    1.016    0.015
        41 -11.4917     74.3901    213.8095   1.2165324813e+02   2.3454363205e+01    0.2043901    0.1592332  69.28 0.0003761878    1.070    0.065
        42  -8.2464    127.4729     94.4682   9.0895359852e+01   3.8457663365e+01    0.1478394    0.1418876 -70.18 0.0001009825    1.016    0.016
        43 -10.1662     76.8458    208.5381   1.2078024276e+02   2.4026327693e+01    0.2904864    0.2341936  52.07   0.00191997    1.244    0.196
        44 -10.9441    173.0561     72.0388   7.4046531033e+01   3.2117570053e+01    0.6321335    0.3996784 -81.64  0.001339927    2.810    0.644
        45 -12.1646    166.3813     53.5797   6.9561440363e+01   3.6819504631e+01    0.7113241    0.6614413 -71.43  0.001693495    1.137    0.121
        46  -8.7584    164.0000    213.0235   1.0569307300e+02   1.0133615017e+01    0.1627546   0.06844628 -46.32 0.0008065926    2.971    0.663
        47 -11.2617    248.3111    246.6506   9.6802184870e+01  -6.3066944478e+00    0.4042449    0.2350692 -21.09  0.002958073    1.961    0.490
        48 -11.5712    185.0830     32.0159   5.9259500865e+01   3.4972960660e+01    0.6058658    0.4783408  21.16  0.001502438    1.450    0.311
