#   1 NUMBER                 Running object number                                     
#   2 MAG_AUTO               Kron-like elliptical aperture magnitude                    [mag]
#   3 X_IMAGE                Object position along x                                    [pixel]
#   4 Y_IMAGE                Object position along y                                    [pixel]
#   5 X_WORLD                Barycenter position along world x axis                     [deg]
#   6 Y_WORLD                Barycenter position along world y axis                     [deg]
#   7 A_WORLD                Profile RMS along major axis (world units)                 [deg]
#   8 B_WORLD                Profile RMS along minor axis (world units)                 [deg]
#   9 THETA_WORLD            Position angle (CCW/world-x)                               [deg]
#  10 FWHM_WORLD             FWHM assuming a gaussian core                              [deg]
#  11 ELONGATION             A_IMAGE/B_IMAGE                                           
#  12 ELLIPTICITY            1 - B_IMAGE/A_IMAGE                                       
         1 -14.1571    236.4237     23.7473   4.9514413340e+00   2.4577900187e+01    0.8369046    0.6674905 -74.48  0.003990603    1.049    0.047
         2 -12.7442      2.5564      5.7288   5.7589330402e+01   7.3672918735e+01    0.7412223    0.1987089 -41.95  0.003558798    3.092    0.677
         3 -11.6406    250.0914     10.8547   1.4656266364e+00   2.3329364696e+01    0.2309402    0.1231788 -46.62 0.0006456345    1.593    0.372
         4 -11.8656     16.3379     10.8421   5.2105963072e+01   7.1709477586e+01    0.1795683    0.1312513  22.57 0.0006330528    1.385    0.278
         5 -12.3718      7.9014     10.4588   5.6640302393e+01   7.2562264804e+01    0.2114108    0.1285407 -28.74 0.0006002364    1.362    0.266
         6 -11.4546     72.1772      7.4223   2.6781999780e+01   6.3618750772e+01    0.2973549    0.1082206  55.78  0.001293094    2.624    0.619
         7 -11.0887     41.7962      1.5996   3.5175486873e+01   6.9477317201e+01    0.1523678   0.09791969  46.83 0.0006130782    1.656    0.396
         8 -10.4523     69.3868    247.5164   8.2665359520e+01   1.3821506002e+01     0.182296    0.1143738  72.67 0.0006055298    1.580    0.367
         9 -12.6160    139.4788    248.8519   6.8317263960e+01   2.9780514395e+00    0.3481654    0.2758601  70.35  0.002106158    1.521    0.343
        10 -10.5305    100.9866    250.4166   7.6486679018e+01   8.6727542487e+00    0.1776343      0.13431  45.79  0.001088042    1.095    0.087
        11 -12.7529     32.2094    249.4136   9.0088831664e+01   1.8212018076e+01    0.2344583    0.1827235 -71.46  0.001638397    1.487    0.328
        12 -12.1379     26.4674    250.6286   9.1236571180e+01   1.8638342943e+01    0.1946104    0.1575202  42.78  0.000808612    1.392    0.282
        13 -12.4609     28.2048    246.6583   9.0672490465e+01   1.9223605611e+01    0.3068973    0.1614571 -86.66   0.00152819    1.786    0.440
        14 -15.0680     24.9480    171.8165   8.5485250728e+01   3.6329979710e+01     3.984925     1.617183 -86.84   0.01585483    2.811    0.644
        15 -18.1650     11.9083    224.7891   9.2495018846e+01   2.5498974209e+01     5.131908     4.082985 -79.02   0.03639849    1.313    0.238
        16 -10.8918     45.7972    241.1754   8.6881886347e+01   1.8214676991e+01    0.1660323   0.09245592 -75.69 0.0009280023    1.786    0.440
        17 -10.1845     69.6828    233.2458   8.1273527230e+01   1.6678893950e+01    0.1521051    0.1337226  36.50 0.0007582736    1.309    0.236
        18 -10.6166     59.4309    231.7603   8.3302373904e+01   1.8399444385e+01    0.2127082    0.1156328 -79.09 0.0009516696    1.911    0.477
        19 -10.3205    177.0482    230.6902   5.7866332336e+01   1.0813730321e-01    0.2264957    0.1619493 -23.36  0.001114686    1.589    0.371
        20 -11.0191     47.2547    229.0628   8.5620991292e+01   2.0559600323e+01    0.1850012    0.1346848  72.99 0.0008797908    1.162    0.140
        21 -11.5656     61.1054    223.0748   8.2125805983e+01   2.0036897234e+01     0.517117    0.1973601 -58.88  0.002240407    2.733    0.634
        22 -10.9004     90.0344    225.0726   7.5967900659e+01   1.5414746584e+01    0.3029366    0.1896287 -73.68  0.001170559    1.760    0.432
        23 -10.1981     87.1553    219.0988   7.5901164807e+01   1.7140229479e+01    0.4260636    0.2295108  86.54  0.001399207    2.794    0.642
        24 -10.5089     90.0930    217.3466   7.5020741546e+01   1.7070429890e+01     0.231168    0.2226699 -51.15 0.0003204881    1.265    0.209
        25 -10.0285     72.0459    224.9824   7.9928367985e+01   1.8098699086e+01    0.1575508    0.1228536  51.81 0.0004800714    1.120    0.107
        26 -10.5584    100.4325    243.9827   7.5894322748e+01   9.9829694391e+00    0.3335876    0.1995807  71.56  0.001658597    2.095    0.523
        27 -10.3833     80.9517    220.4631   7.7458367103e+01   1.7779214804e+01      0.18589    0.1606317  72.09  0.000335732    1.051    0.049
        28 -10.8111    174.9836    223.0054   5.7046869001e+01   1.7884708940e+00    0.1624372    0.1480543  13.77 0.0006044934    1.040    0.039
        29 -12.9285    110.9684    214.4523   6.9856249756e+01   1.4342640179e+01    0.4738183     0.304403 -68.95  0.002260842    1.775    0.437
        30 -10.7460    133.0773    213.6978   6.4692443804e+01   1.0744949595e+01    0.1953227    0.1674789  39.63 0.0003292702    1.067    0.063
        31 -12.4492    146.9052    243.5833   6.6061596793e+01   2.7217315733e+00    0.2419022    0.2118559  61.76 0.0007903184    1.263    0.208
        32 -12.3153    125.0135    209.8751   6.5946706096e+01   1.2941181578e+01    0.3860092    0.2115492 -55.49  0.001508506    1.983    0.496
        33 -10.9940    132.2360    208.8230   6.4120905339e+01   1.1907868914e+01    0.2291415    0.1932829 -77.85 0.0005505063    1.342    0.255
        34 -12.1671    131.0453    203.5198   6.3545023992e+01   1.3245689574e+01     0.349007    0.2123275 -55.37 0.0006660405    1.778    0.438
        35 -11.8790    136.6328    201.2237   6.1867815349e+01   1.2741575370e+01    0.2728751    0.2563911 -86.24  0.001309692    1.136    0.120
        36 -11.9908    118.7126    201.7877   6.6163609998e+01   1.5790404722e+01    0.3119977    0.1809064  47.91  0.001215786    1.633    0.388
        37 -11.7499     43.5927    237.5274   8.7045670479e+01   1.9239168269e+01    0.1871884    0.1430297 -89.48  0.000320137    1.224    0.183
        38 -10.8302     37.2198    199.6010   8.5226564075e+01   2.8371997672e+01    0.2670071    0.1606276  72.61 0.0007226778    1.590    0.371
        39 -15.5525      2.4724    175.1453   9.1239988771e+01   3.7532161311e+01     5.344419          nan -68.63   0.01093911   11.504    0.913
        40 -11.5240     54.2991    235.1886   8.4674608569e+01   1.8360155417e+01    0.2970531    0.1848102 -64.84  0.001428826    1.727    0.421
        41 -10.7832    210.8530    198.5694   4.5480685156e+01   1.6628354384e-01    0.2223168    0.1781257 -30.46 0.0004780317    1.197    0.165
        42 -11.1457    193.9857    195.9451   4.8331765928e+01   3.4907566932e+00    0.4320014    0.2556705 -63.37  0.001767771    2.920    0.658
        43 -12.0876     36.6581    243.3764   8.8839884334e+01   1.8889260196e+01    0.2288505    0.1702201 -63.60 0.0007387596    1.617    0.381
        44 -11.4459     69.2570    194.5823   7.7083924258e+01   2.5401106611e+01    0.3242171    0.2279509 -86.71  0.001022368    1.424    0.298
        45 -11.9683     37.1034    174.8465   8.2737034094e+01   3.4309896236e+01    0.5631063     0.368159  53.41  0.002523968    1.484    0.326
        46 -11.9691     37.4543    182.0682   8.3433537757e+01   3.2512120745e+01    0.6510241    0.3816079 -26.38   0.00187492    3.469    0.712
        47 -12.0491     49.4740    183.9419   8.0665942021e+01   3.0623589019e+01    0.4977562    0.2572413 -85.34  0.001929871    2.121    0.528
        48 -13.8189     54.4241    171.8136   7.7892455164e+01   3.2973991188e+01     1.110742    0.9036256   8.88  0.006156937    1.629    0.386
        49 -11.9939     50.9741    163.9017   7.7744111068e+01   3.5383897368e+01    0.5119218    0.2586307  66.58  0.001726473    2.658    0.624
        50 -12.7432     42.3763    183.4425   8.2368247313e+01   3.1609004734e+01     0.438582    0.2968349 -43.05  0.001488978    1.893    0.472
        51 -11.7640     46.4486    178.5271   8.0790653301e+01   3.2317681429e+01    0.2612012    0.2085921  81.99 0.0007059035    1.124    0.110
        52 -10.0186    206.9741    190.0493   4.4622119643e+01   2.3295299057e+00    0.1636942    0.1485206 -10.80 0.0003822556    1.017    0.016
        53 -11.7045     72.9392    187.2574   7.5217071179e+01   2.6621399449e+01    0.2751898    0.2011909  84.92 0.0007409601    1.393    0.282
        54 -10.1575     65.8297    186.8404   7.6941402814e+01   2.7744890162e+01    0.1908506    0.1415715  78.63 0.0003667137    1.322    0.244
        55 -11.6570     45.0218    188.1514   8.2233971263e+01   3.0155667986e+01    0.5338486    0.2489723  74.40  0.002087101    2.927    0.658
        56 -12.5403     54.8263    229.5098   8.4070800802e+01   1.9488554691e+01    0.2623333    0.1843922 -70.89 0.0005067561    1.467    0.318
        57 -11.9528    115.7992    181.9880   6.3596672533e+01   2.0823303154e+01    0.2758683    0.2126923  40.92  0.001221081    1.253    0.202
        58 -11.1689     63.0320    181.2729   7.6919055171e+01   2.9490215816e+01    0.2418672    0.1818063 -83.15 0.0006188684    1.263    0.208
        59 -11.6436    173.6263    178.4341   4.9251747662e+01   1.0646708701e+01    0.4448968    0.3267024 -62.60  0.002150617    1.640    0.390
        60 -11.2869     96.5900    175.2399   6.7337081963e+01   2.5801304144e+01    0.2578717     0.238756  76.69  0.000424058    1.010    0.010
        61 -12.8612     53.6093    147.3006   7.4549815303e+01   3.9228463911e+01     1.019253    0.7186729  68.06  0.005173959    1.561    0.359
        62 -14.8636     68.6213    143.7992   6.9570044506e+01   3.8075062818e+01     1.726496     1.000419  64.73  0.005820596    2.330    0.571
        63 -13.6568     63.9129    127.4754   6.7890777714e+01   4.2833803837e+01     1.098732    0.6636065  38.49  0.003376074    1.728    0.421
        64 -13.2815     64.7397    154.4678   7.2522154008e+01   3.5936553137e+01    0.4227596    0.3635323  51.00  0.000967749    1.180    0.153
        65 -12.1670     60.2152    153.2062   7.3598781425e+01   3.6875912727e+01    0.2915432    0.2179114 -81.41 0.0007213603    1.311    0.237
        66 -10.7887     98.4033    181.3595   6.7883402554e+01   2.4015385115e+01    0.2946785    0.1718976  40.19  0.001243614    1.646    0.392
        67 -12.0435    104.7294    172.0918   6.4676607804e+01   2.5158547629e+01    0.4158803    0.2746731 -70.35  0.001074453    1.666    0.400
        68 -12.0146    179.6445    168.7967   4.5992470452e+01   1.1468276914e+01    0.5706851    0.4388467 -55.47  0.002865641    1.402    0.287
        69 -10.4838    139.2428    171.3692   5.5814279413e+01   1.8874629464e+01    0.2190894    0.1368448  49.03 0.0005952688    1.609    0.379
        70 -10.1002     67.2915    169.0927   7.4098604208e+01   3.1904441594e+01    0.1969655    0.1645177 -82.08 0.0004204476    1.117    0.105
        71 -11.3734    110.7630    167.2861   6.2228188780e+01   2.5238312821e+01     0.315993    0.2271654  87.78 0.0009115416    1.755    0.430
        72 -10.9265     86.4934    168.1340   6.8805205098e+01   2.9219172115e+01    0.3741056    0.2998176 -53.22  0.001090613    1.288    0.224
        73 -11.7907     80.3489    164.3120   6.9822320084e+01   3.1147506347e+01    0.6693277    0.4232924   7.56  0.001819817    2.790    0.642
        74 -12.7466     88.9464    163.6381   6.7374253720e+01   2.9933819345e+01     0.751074    0.4528651  74.23  0.001763506    2.394    0.582
        75 -10.6157     85.8312    160.1727   6.7614330672e+01   3.1306936358e+01    0.2120813    0.1880948 -75.91 0.0002327518    1.082    0.076
        76 -11.5726    100.8300    167.2093   6.4826022296e+01   2.7032103206e+01    0.4454111    0.2302539  27.26  0.001523736    2.468    0.595
        77  -9.8071     41.4713    167.5113   8.0749215708e+01   3.5622906310e+01     0.137784    0.1168901  85.55 0.0004335123    1.040    0.039
        78 -10.3283    163.3289    164.1225   4.8637662808e+01   1.5699504063e+01    0.2095896     0.191753 -53.39 0.0004662149    1.114    0.103
        79 -10.2769     32.6186    163.4741   8.2601759415e+01   3.7595499089e+01    0.2318159    0.1612957  61.24 0.0006615372    1.426    0.299
        80 -10.6076    236.3365    163.2973   3.4005281960e+01   2.1164185328e+00    0.1338824   0.09800836  -4.19 0.0007031609    1.653    0.395
        81  -9.9067    113.9905    161.9807   6.0369420960e+01   2.5924524042e+01    0.2377296     0.177978  74.92 0.0004879332    1.590    0.371
        82  -9.9855     95.9724    161.0491   6.5005512453e+01   2.9391057036e+01    0.2417824    0.1745128  77.11 0.0005180103    1.651    0.394
        83 -10.3002     45.0220    156.4612   7.8347943619e+01   3.7968290613e+01    0.3650662     0.232633  82.03  0.001538976    1.728    0.421
        84 -10.5897     51.9135    155.7542   7.6328148432e+01   3.7311360308e+01    0.3120978    0.2030175  24.95  0.001541507    1.804    0.446
        85 -11.7978     89.8288    137.6073   6.2131023965e+01   3.6268621566e+01    0.4999781    0.2692261 -45.11  0.002026718    1.951    0.487
        86 -11.6268     89.0251    151.4239   6.5122457926e+01   3.2965005569e+01    0.3650822    0.2574053  84.44 0.0007381722    1.762    0.433
        87 -13.2903     86.6857    146.6736   6.4871721657e+01   3.4541700757e+01    0.7431901    0.5569109 -14.18  0.001924055    1.914    0.478
        88 -11.3484     81.3640    150.8374   6.7177372865e+01   3.4363735930e+01    0.2568426    0.2396233  63.41 0.0003440577    1.068    0.064
        89 -11.9555    133.5545    146.5035   5.2046834059e+01   2.5775943430e+01    0.7321404    0.2946853 -56.92  0.002338394    2.991    0.666
        90 -10.9419    132.7930    139.7930   5.0735424714e+01   2.7499627803e+01     0.405548    0.2141201 -61.92  0.001011418    2.405    0.584
        91 -11.6763    108.8793    145.3054   5.8351468019e+01   3.0937444376e+01    0.3100119     0.288801  71.02  0.000677316    1.064    0.060
        92 -12.1176     35.4217    143.0836   7.9198764105e+01   4.2381612572e+01    0.5337881    0.3959793  -4.07  0.001728882    1.839    0.456
        93 -11.0909    146.9151    143.3298   4.7989048761e+01   2.3722443344e+01    0.2652383    0.2149159 -62.94 0.0006014282    1.304    0.233
        94 -10.0165    152.5465    142.9695   4.6544885950e+01   2.2609101504e+01    0.2281778    0.1524601 -49.60  0.000335648    1.501    0.334
        95 -10.3230    127.6627    137.5755   5.1566807629e+01   2.9079041850e+01    0.2628427    0.1913271 -74.78 0.0009143822    1.690    0.408
        96 -10.1968    241.9747    135.9622   2.7561626595e+01   5.9334351632e+00    0.2088092    0.1478576 -61.70 0.0009466117    1.625    0.385
        97 -10.6606     38.5038    123.5051   7.5190859163e+01   4.6929500278e+01    0.2469755    0.1201708 -63.92  0.001102787    1.806    0.446
        98 -11.3925     45.3943    135.3383   7.5045305025e+01   4.3229334885e+01    0.3221218    0.2239351 -66.27 0.0007630003    1.291    0.226
        99 -12.6069     43.7995    130.2414   7.4680405591e+01   4.4683721146e+01    0.4377445    0.4027957  46.84  0.001882033    1.183    0.155
       100  -9.8105    184.7654    235.9967   5.7142088965e+01  -2.0031461729e+00    0.1524176    0.1063136 -39.68 0.0004170388    1.574    0.365
       101 -13.9304     20.1077    194.9092   8.8713972115e+01   3.1318366059e+01    0.6684579    0.3437454  73.03  0.002032046    1.906    0.475
       102 -12.6119    104.8912    131.8007   5.6500522197e+01   3.4971836526e+01    0.6374782    0.4792672 -14.40  0.001696011    1.865    0.464
       103 -10.3932    101.2391    128.2382   5.6736176667e+01   3.6518095330e+01    0.2797755    0.2006808  60.87 0.0005563081    1.599    0.374
       104 -12.3537     89.7465    132.2869   6.1019706251e+01   3.7596163349e+01    0.3163686    0.2627878 -42.82 0.0003924008    1.241    0.194
       105 -10.9436    149.4187    130.0322   4.4279546362e+01   2.6171127144e+01    0.4442124    0.3161338 -33.80  0.001977427    1.570    0.363
       106 -11.8093    135.1247    123.8217   4.6345191228e+01   3.0675677131e+01    0.5947263    0.1557519 -49.62  0.001585763    4.049    0.753
       107 -10.9986    111.4075    126.2792   5.3360770256e+01   3.5031850508e+01    0.2879975      0.24325  -0.22 0.0006851286    1.469    0.319
       108 -12.6061     73.7186    168.4478   7.2279339910e+01   3.1128159354e+01    0.9460734    0.3189313 -70.04  0.002827978    4.042    0.753
       109 -11.7571     44.0701    123.1100   7.3342042011e+01   4.6421490014e+01    0.3144746    0.2143916 -50.82  0.001041571    1.358    0.264
       110 -12.3927     46.3456    117.8601   7.1622351873e+01   4.7451831378e+01    0.3547133    0.3074757 -18.83  0.001267027    1.291    0.226
       111 -10.1557    146.0371    123.2934   4.3468858771e+01   2.8406485259e+01    0.2197709    0.1984286  57.08 0.0003705762    1.105    0.095
       112 -11.1943     98.6440    121.4974   5.5915056190e+01   3.8617705305e+01    0.3272616    0.2594245   9.25 0.0009675271    1.595    0.373
       113 -13.6454     71.1276    159.2205   7.1511765046e+01   3.3822824219e+01    0.9272615    0.6375681 -21.57  0.004134008    2.267    0.559
       114 -12.1368     56.0110    118.7122   6.8636833087e+01   4.6059062996e+01    0.4010834    0.3050413  50.91 0.0006543447    1.450    0.310
       115 -10.1798    107.6758    116.0940   5.1938916303e+01   3.8156681034e+01     0.213001    0.1917537 -46.49 0.0003539445    1.109    0.098
       116 -11.6671     54.0528    110.0647   6.7461258684e+01   4.8406319626e+01     0.349935    0.3047099  -1.80   0.00200764    1.283    0.221
       117 -11.6142      1.7567    104.1328   8.4172498581e+01   5.4497794763e+01      0.52131   0.08861794 -67.42   0.00177262    3.837    0.739
       118 -11.5825     39.0854    127.8838   7.5751153481e+01   4.5785492258e+01    0.2836593    0.2248881  49.89 0.0005891236    1.369    0.270
       119 -11.9355    111.5875    104.4105   4.7776145998e+01   4.0014228797e+01    0.3002157    0.2764618  -1.62 0.0007538646    1.195    0.163
       120  -9.8487     92.5879    105.0919   5.3655941049e+01   4.3565917596e+01    0.2015447    0.1323229 -77.26 0.0005630638    2.325    0.570
       121 -11.6905     34.9506     96.0542   7.1093607028e+01   5.3873764083e+01    0.4140228    0.3116037 -57.47  0.001527856    1.183    0.155
       122 -13.9317     32.7150     88.1612   7.0162993222e+01   5.5894782939e+01     1.194763     1.082095  36.21  0.007710055    1.269    0.212
       123 -12.0027     22.6408     81.7727   7.2567903037e+01   5.8214219302e+01    0.3808922    0.2761237   7.57  0.001849881    1.539    0.350
       124 -11.5888     57.4904     93.4396   6.2355064822e+01   5.1835945939e+01    0.3839119     0.251104  54.95 0.0009744868    2.004    0.501
       125 -10.8448    102.4783     91.0510   4.6766141009e+01   4.4744583656e+01    0.4852915    0.2848535 -60.99  0.001956497    2.220    0.550
       126 -10.9454      6.1148     87.9099   8.0086921471e+01   5.7978510741e+01    0.2390678    0.1650472  20.08 0.0008830657    1.698    0.411
       127  -9.6603     47.5064     87.5179   6.4475302243e+01   5.4438105859e+01    0.1340974    0.1226876 -40.07 0.0002023444    1.031    0.030
       128 -11.2648     55.6584     84.0479   6.0545108263e+01   5.4162866258e+01    0.3960015    0.2390039  50.94 0.0006889845    2.179    0.541
       129 -10.2648     51.4962     83.5847   6.1962868183e+01   5.4808749786e+01    0.2207771     0.124208 -52.32 2.997792e-05    1.650    0.394
       130 -10.9895     29.0151     77.2250   6.8985776491e+01   5.8656565276e+01    0.2750365     0.168107 -56.43 0.0007706467    1.469    0.319
       131 -10.9662      1.9996     76.1289   7.9499948639e+01   6.0807529551e+01    0.2223806    0.1447134  79.95  0.001246183    2.127    0.530
       132 -10.6179      6.9489     75.6600   7.7443635190e+01   6.0641206367e+01    0.1575014    0.1405037 -33.28 0.0004622068    1.127    0.112
       133  -9.7960     66.4686     65.4243   5.0967923151e+01   5.6377359488e+01    0.1340195    0.1238333  -3.82   9.8025e-05    1.026    0.025
       134 -12.4541    188.1769     62.4210   1.9273256061e+01   3.0089803460e+01    0.3648214     0.334106  84.25 0.0007419824    1.076    0.070
       135 -10.2369     13.4986     60.0452   7.1079977379e+01   6.3504776957e+01    0.1750351    0.1027457 -56.06 0.0004350296    1.496    0.332
       136 -14.3673    204.9625     50.4070   1.3989188827e+01   2.7960356992e+01      1.28568    0.8773289  41.33  0.004775775    2.013    0.503
       137 -13.6325    210.8015     45.8857   1.2227781828e+01   2.7267560067e+01    0.6981853    0.6354563  83.00  0.001465507    1.187    0.157
       138 -10.3749    134.7105     59.0162   2.8497247620e+01   4.3530125614e+01    0.1937705    0.1875929 -41.57 0.0003815199    1.110    0.099
       139 -10.2341     10.6155     41.7190   6.7135382502e+01   6.7242872300e+01    0.2810721   0.07628258  27.08  0.001206856    3.668    0.727
       140 -10.5146     34.4385     38.1260   5.4547630915e+01   6.5629192753e+01     0.229774    0.1454454  41.40 0.0009351689    1.965    0.491
       141 -10.2242     52.2184     31.0393   4.4017419189e+01   6.4322558312e+01    0.2726167    0.1327977  54.15  0.001073783    3.960    0.747
       142 -13.2939    125.0747    242.0360   7.0450999057e+01   6.4974277751e+00    0.8560848    0.3116781 -60.55  0.002845386    3.642    0.725
       143 -11.4566      2.1309     22.6306   6.4960238286e+01   7.1136045303e+01    0.1831986    0.1329226 -46.10 0.0007906426    1.373    0.272
       144 -10.9644     60.7161     21.1659   3.6568694002e+01   6.4248473008e+01    0.2014449    0.1551919  44.23 0.0007095212    1.339    0.253
       145 -10.5181     42.8339     19.5979   4.3144409141e+01   6.7271885607e+01    0.1570011     0.103506  42.47   0.00086494    1.673    0.402
       146 -10.6406     33.3203     15.3180   4.5554771243e+01   6.9132359236e+01    0.1211225   0.07537968   1.25 0.0004217303    1.663    0.399
       147 -12.9976     98.1983    222.7693   7.3865256367e+01   1.4634156864e+01    0.7455738    0.4888292 -66.19  0.002029182    1.656    0.396
       148 -11.5480    102.8934    239.0461   7.4808342892e+01   1.0568209452e+01    0.2804192    0.2200561 -58.48 0.0006201864    1.473    0.321
       149 -13.9308    110.8044    230.2971   7.2023187359e+01   1.1065882906e+01     1.566505    0.8226711  34.98  0.005324974    1.775    0.437
       150 -15.1417    130.6292    229.5730   6.7580451737e+01   7.9720485750e+00     1.457964    0.9886383  37.06  0.007833125    1.310    0.237
       151 -10.0316    220.0109    242.6997   5.1412952351e+01  -8.2012077074e+00    0.1640931    0.1302901  11.84 0.0003859517    1.044    0.042
