#   1 NUMBER                 Running object number                                     
#   2 MAG_AUTO               Kron-like elliptical aperture magnitude                    [mag]
#   3 X_IMAGE                Object position along x                                    [pixel]
#   4 Y_IMAGE                Object position along y                                    [pixel]
#   5 X_WORLD                Barycenter position along world x axis                     [deg]
#   6 Y_WORLD                Barycenter position along world y axis                     [deg]
#   7 A_WORLD                Profile RMS along major axis (world units)                 [deg]
#   8 B_WORLD                Profile RMS along minor axis (world units)                 [deg]
#   9 THETA_WORLD            Position angle (CCW/world-x)                               [deg]
#  10 FWHM_WORLD             FWHM assuming a gaussian core                              [deg]
#  11 ELONGATION             A_IMAGE/B_IMAGE                                           
#  12 ELLIPTICITY            1 - B_IMAGE/A_IMAGE                                       
         1 -14.8892    163.0639     43.8524   7.8780142736e+01   3.9210267086e+01     1.313156     1.105695  -9.04  0.003990649    1.387    0.279
         2 -13.7980    195.0058      5.5645   6.3529891286e+01   3.5808884193e+01     0.966392    0.5027819 -77.78  0.004356277    2.345    0.574
         3 -14.8119    177.0454     11.2068   6.7225441092e+01   3.9630187411e+01     1.397436     1.073083  74.04  0.005310002    1.140    0.123
         4 -12.7203    189.8514     14.3194   6.6369077848e+01   3.6163335015e+01    0.4561404    0.3310862  36.85  0.001767947    1.681    0.405
         5 -11.9111     12.6926    242.1843   1.5057467175e+02   2.3365061345e+01    0.1522357    0.1178688 -79.33  0.001110462    1.461    0.315
         6 -20.0703     74.7427    174.8396   1.3255366443e+02   2.9779855133e+01     17.83281     6.634668 -64.99   0.07103826    2.574    0.612
         7 -11.3305    139.6240    199.8777   1.2219300193e+02   1.3210663632e+01    0.4400381    0.2784433  43.76  0.001483917    1.471    0.320
         8 -10.2867    121.6859    199.0345   1.2587313223e+02   1.6687151573e+01     0.188443    0.1594662 -70.11 0.0004826629    1.208    0.172
         9 -11.5553    198.8772    178.0832   1.0564320895e+02   5.7372141807e+00    0.3340042    0.2694084 -75.94  0.001157671    1.659    0.397
        10 -13.6319    194.1166    167.5592   1.0440552350e+02   8.7377157157e+00    0.8387136    0.4975764 -55.46  0.002047483    2.043    0.510
        11 -13.9866    204.7010    176.6381   1.0417467621e+02   4.8283107512e+00     1.251183    0.6592819 -59.54  0.004517951    3.245    0.692
        12 -13.0336    203.6470    167.1378   1.0237874262e+02   6.8293717857e+00    0.6670789    0.5446272 -27.33   0.00257967    1.261    0.207
        13 -12.8238    153.6591    186.3075   1.1679694777e+02   1.3284242971e+01     0.402039    0.3193379  88.88  0.001188289    1.500    0.333
        14 -12.5926    151.1726    181.2070   1.1638428200e+02   1.4844073133e+01    0.3308113    0.2648371 -83.31  0.001007574    1.451    0.311
        15 -11.7555    138.2055    242.3849   1.2871657453e+02   5.4795285176e+00    0.3733452    0.2619548 -65.24  0.001920771    1.683    0.406
        16 -10.0454     25.0899    185.1904   1.4432084081e+02   3.3560995060e+01    0.1565507    0.1231759 -73.46  0.000295117    1.243    0.196
        17 -10.8053    126.8764    250.7870   1.3185460614e+02   5.9605728694e+00    0.1553897   0.08164381  47.00 0.0008207214    1.542    0.351
        18 -10.2978     30.7116    182.8024   1.4296953264e+02   3.3496543309e+01    0.2566337    0.1795807   8.38  0.001465535    2.682    0.627
        19 -14.8303    137.9017    171.3117   1.1746529876e+02   1.9623852027e+01     1.324202    0.8888455  66.64  0.005979547    1.759    0.432
        20 -14.3204    142.9747    167.2350   1.1550587824e+02   1.9507602452e+01      1.11894    0.6733617  79.22  0.002988736    3.172    0.685
        21 -10.1483    160.3607    242.2908   1.2452207751e+02   1.6584030177e+00     0.152278    0.1208189 -67.36 0.0006169666    1.558    0.358
        22 -11.7819    187.8182    174.3544   1.0714178301e+02   8.7225594134e+00    0.3588058    0.1987812 -58.22  0.001409718    2.441    0.590
        23 -11.0959    167.4015    175.2496   1.1166977266e+02   1.2780420671e+01    0.2036936    0.1420327 -58.90 0.0004549607    1.612    0.380
        24 -11.1566     26.0274    173.7771   1.4303536083e+02   3.5974917717e+01    0.1984864    0.1528283 -79.74            0    1.091    0.084
        25 -11.7543    163.8314    170.0660   1.1139582131e+02   1.4600962205e+01    0.2360132    0.2042394  80.20  0.001017601    1.272    0.214
        26 -10.7504     33.9512    169.7596   1.4093206284e+02   3.6057929310e+01    0.2144827    0.1433306 -75.76 0.0005650783    1.215    0.177
        27 -12.1029    230.3892    167.2761   9.7262274853e+01   1.4153672631e+00    0.4531365    0.2252796 -53.53  0.001723755    2.882    0.653
        28 -10.4790     25.2463    165.0260   1.4229475095e+02   3.8005651819e+01    0.1795335    0.1592611  78.00 0.0007916589    1.216    0.177
        29 -10.1075    151.1371    241.3927   1.2614218345e+02   3.4131975931e+00    0.1739043    0.1342355  47.06 0.0005526078    1.080    0.074
        30 -11.0930     28.6459    239.3763   1.4788888134e+02   2.2126367399e+01    0.1467966    0.0943572  72.87 0.0008490321    1.143    0.125
        31 -11.6872    188.7593    158.6145   1.0357650445e+02   1.1652490156e+01    0.5086768    0.3483292  13.31  0.001676765    2.194    0.544
        32 -11.1247    189.2240    154.5858   1.0258411464e+02   1.2364256827e+01    0.2280992    0.2006172  37.99 0.0008790244    1.141    0.124
        33 -11.4470     21.6478    237.9809   1.4892384838e+02   2.3178810814e+01     0.147555     0.100133 -85.64 0.0009688644    1.252    0.201
        34 -10.8960     22.9381    156.0912   1.4182489936e+02   4.0235237289e+01    0.1814345    0.1699576  85.86 0.0004216665    1.269    0.212
        35 -10.4173     19.1697    157.8977   1.4285729165e+02   4.0171177120e+01    0.1729662    0.1392487 -67.50 0.0004418886    1.216    0.177
        36 -10.0093    145.1657    234.8924   1.2638450193e+02   5.5667944036e+00    0.1402651   0.09615924 -58.27 0.0002936893    1.700    0.412
        37 -14.7123    143.8234    143.6068   1.1027828633e+02   2.4598538894e+01     1.225767    0.7125176 -64.45  0.004725913    2.221    0.550
        38 -14.0728    135.7069    127.6000   1.0850715842e+02   2.9908460883e+01     2.581709    0.4296538 -50.16  0.005110908    7.599    0.868
        39 -14.6669    133.8188    145.8860   1.1319034402e+02   2.6163535592e+01     1.924219    0.6113884 -56.56  0.005222212    4.333    0.769
        40 -12.0906    143.3712    156.0574   1.1311272692e+02   2.1906466176e+01    0.3560963    0.2074216  53.51  0.001481363    1.797    0.444
        41 -10.4299    176.9698    154.9634   1.0528330964e+02   1.4959048729e+01    0.2292992    0.2175378  87.52  0.000545595    1.099    0.090
        42  -9.8137      6.4948    155.5477   1.4537261776e+02   4.1754190662e+01    0.1163671   0.08721847 -77.40 7.019408e-05    1.073    0.068
        43 -13.1435    161.4885    153.0838   1.0829768577e+02   1.8723271260e+01    0.4354097    0.3673941  48.58  0.001222365    1.170    0.145
        44 -13.0189    128.4103    143.0468   1.1388526679e+02   2.7905468139e+01    0.5569893    0.3248527  45.95   0.00190637    1.731    0.422
        45 -10.3104    163.0646    250.5272   1.2516094923e+02  -1.1088944664e-01    0.1870712    0.1026679  42.96 0.0003850869    1.489    0.328
        46 -12.2164    174.1690    148.4027   1.0441739986e+02   1.6948812743e+01    0.4216166    0.3399945 -62.14  0.001303664    1.346    0.257
        47 -12.6352     22.7188    220.2900   1.4757672067e+02   2.6486404464e+01    0.2759455    0.1536135 -67.40  0.001753526    1.735    0.424
        48 -11.8904     27.5706    145.2696   1.3946438980e+02   4.2263277217e+01    0.2640139    0.1770072 -63.42  0.001131922    1.254    0.203
        49 -12.1692    134.5944    109.1218   1.0411044994e+02   3.4208574064e+01     1.220859    0.1618254 -45.06  0.002435643    7.408    0.865
        50 -11.5849      8.4482    138.0730   1.4311399958e+02   4.5481735156e+01    0.2929665    0.2077967 -47.16  0.001430054    1.552    0.356
        51  -9.4915     23.5558    215.4102   1.4708196944e+02   2.7374013947e+01    0.1415245   0.08741549 -72.33 0.0002086341    1.472    0.321
        52 -10.9418    139.2111    250.1371   1.2951601754e+02   4.0081731357e+00     0.243207    0.2168608 -73.07  0.001683332    1.312    0.238
        53 -10.6601    171.2520    137.4501   1.0251261898e+02   1.9918577613e+01    0.2166209    0.1501281  60.21 0.0006840275    1.588    0.370
        54 -12.8384    160.4703    127.8277   1.0262743341e+02   2.4417027571e+01    0.5161763    0.3851528 -56.89  0.001768978    1.406    0.289
        55 -13.0196     11.4254    206.0768   1.4853858764e+02   3.0519243266e+01    0.3434182    0.2413068  38.50  0.002071051    1.773    0.436
        56  -9.5695     22.3990    205.4168   1.4653484149e+02   2.9542311255e+01    0.1111439   0.08602307 -87.03 0.0004093507    1.153    0.132
        57 -10.8069    133.5803    248.4753   1.3034744593e+02   5.2318160737e+00     0.124788    0.1012301  56.53 0.0001068148    1.017    0.017
        58 -10.9956    167.3939    112.5311   9.7181295179e+01   2.6043435581e+01     0.351251    0.2520176 -88.87  0.001417758    1.988    0.497
        59 -11.6695      3.6474    112.3779   1.4113427400e+02   5.1486080098e+01     0.270978    0.1956606 -11.17  0.001840062    1.917    0.478
        60 -10.8062    205.4316    110.1768   8.8753685580e+01   1.7490959115e+01    0.3299875    0.2194896  44.27 0.0009871239    1.605    0.377
        61 -11.5463    169.1180    201.9188   1.1636060217e+02   7.1532098252e+00    0.2196766    0.1877425  75.65  0.001222576    1.318    0.241
        62 -11.4258    134.3398    244.3462   1.2969217519e+02   5.8030646119e+00    0.3400868    0.1962977 -40.53  0.001744851    2.524    0.604
        63 -11.7241     12.7922    100.7906   1.3688170922e+02   5.3428721654e+01     0.340978    0.1861188  17.22  0.001979505    2.428    0.588
        64 -10.7562     32.2890     99.0876   1.3085172744e+02   5.2284850230e+01    0.1854648    0.1563247 -29.01 0.0004599867    1.282    0.220
        65 -10.4960    144.3269     80.9843   9.3842894444e+01   3.7695093198e+01    0.2142282    0.1975075 -37.69 0.0005024812    1.094    0.086
        66 -14.4443    151.8505     58.3098   8.5368453403e+01   3.9814218962e+01     1.264439     1.093392  38.81 0.0009843034    1.159    0.137
        67 -10.3340    160.4442    247.6187   1.2524892481e+02   7.9203695740e-01    0.2433118    0.1581488  20.74 0.0008156227    2.125    0.529
        68 -12.9919    167.4063     35.5243   7.5558755235e+01   3.9243326117e+01    0.4320216    0.3609118  43.00 0.0009081301    1.224    0.183
        69 -11.2596     13.4700     59.8623   1.2831928807e+02   6.1830892760e+01    0.1786065    0.1630693 -77.67 0.0005447703    1.402    0.287
        70 -10.5785    142.6922     33.1449   7.9506820910e+01   4.5542895131e+01    0.2281315    0.1786114  70.56 0.0006367351    1.319    0.242
        71 -10.6849     15.5269    246.7309   1.5039363972e+02   2.2229501241e+01    0.1409158   0.07189959  83.00 0.0009168722    1.550    0.355
        72 -13.4436    125.1381    241.3648   1.3104173539e+02   7.8749711541e+00    0.5296922    0.1806485 -54.77  0.002242642    3.363    0.703
