#   1 NUMBER                 Running object number                                     
#   2 MAG_AUTO               Kron-like elliptical aperture magnitude                    [mag]
#   3 X_IMAGE                Object position along x                                    [pixel]
#   4 Y_IMAGE                Object position along y                                    [pixel]
#   5 X_WORLD                Barycenter position along world x axis                     [deg]
#   6 Y_WORLD                Barycenter position along world y axis                     [deg]
#   7 A_WORLD                Profile RMS along major axis (world units)                 [deg]
#   8 B_WORLD                Profile RMS along minor axis (world units)                 [deg]
#   9 THETA_WORLD            Position angle (CCW/world-x)                               [deg]
#  10 FWHM_WORLD             FWHM assuming a gaussian core                              [deg]
#  11 ELONGATION             A_IMAGE/B_IMAGE                                           
#  12 ELLIPTICITY            1 - B_IMAGE/A_IMAGE                                       
         1 -12.0921     12.2978     48.3341   8.8753054556e+01   6.5413547555e+01    0.8831626    0.5236065 -69.50  0.004455075    2.714    0.632
         2 -12.4355     26.8775     50.3959   8.2416322142e+01   6.3776652879e+01     1.473606    0.5158927 -56.25  0.005461478    4.006    0.750
         3 -13.2132     37.9416     49.5003   7.7027199782e+01   6.2723159493e+01    0.9184437    0.6479671 -26.10  0.005448776    1.259    0.206
         4 -12.0892    128.2711     22.0779   3.8611338676e+01   4.9302073081e+01    0.4332011    0.2829152 -22.56  0.001670208    1.851    0.460
         5 -11.2452     19.6665     16.0699   7.2701135486e+01   7.0019078235e+01    0.6372538    0.3271302   6.92  0.003400852    2.106    0.525
         6 -10.1961     15.0368     13.6739   7.4131752919e+01   7.0839330503e+01     0.189984    0.1383134   5.80 0.0009881904    1.106    0.096
         7 -12.0915      3.5713     15.9893   8.1702717156e+01   7.1549272423e+01    0.4219673    0.2842924  38.45  0.002303625    2.331    0.571
         8 -12.7195    159.5616     23.1073   3.3755357067e+01   4.2026645369e+01    0.3006785    0.2660148  28.81 0.0003908543    1.396    0.284
         9 -11.0833     59.4022     20.5489   5.6681143965e+01   6.3741781742e+01     0.338141    0.2182309  -0.13  0.001048205    1.689    0.408
        10 -10.6416     82.8013     11.2123   4.5349440263e+01   6.0237246302e+01    0.5943792    0.2003145 -40.26  0.002334631    4.282    0.766
        11 -11.6309     66.8911     19.9451   5.3732896231e+01   6.2468091347e+01    0.7120843    0.3238617  31.17  0.001451113    2.264    0.558
        12 -10.3026     73.8940      1.9919   4.4268272305e+01   6.2796334036e+01     0.274969    0.1926223  71.89  0.001218277    1.816    0.449
        13 -10.5578     70.6626     13.4611   4.9858039067e+01   6.2427121525e+01    0.3270449    0.2491759 -36.06  0.001913829    1.659    0.397
        14 -11.3421     75.6826     10.9335   4.7293189879e+01   6.1689377027e+01    0.4500738     0.347864  46.35  0.002935801    1.144    0.126
        15 -10.7120     73.8686      6.7982   4.6195412299e+01   6.2410493830e+01    0.2319077    0.1872659  19.27 0.0006172376    1.173    0.148
        16  -9.9351     50.0153     11.4793   5.6430426325e+01   6.6323626665e+01    0.2210137    0.1260548  16.54  0.000434528    1.828    0.453
        17 -11.2979     50.7388     16.6153   5.8386619236e+01   6.5649891529e+01     0.488634    0.3450556  42.86  0.001858423    1.450    0.310
        18 -11.3094     32.3912     16.8064   6.6580025902e+01   6.8366559999e+01     1.218223    0.5157264  13.45  0.004148066    5.190    0.807
        19 -11.5181     39.9678     10.8807   6.0384878876e+01   6.7982937969e+01    0.4897328     0.471368  40.41   0.00249305    1.659    0.397
        20 -10.8646     39.7560     15.0481   6.2368970164e+01   6.7542569918e+01    0.2427309    0.1884841   2.46 0.0007344611    1.097    0.088
        21 -12.6266    237.9848     17.5572   2.4468490246e+01   2.6033341793e+01    0.2657586    0.1845227 -73.23 0.0004407881    1.143    0.125
        22 -10.9775    156.2187     11.5806   3.1256962699e+01   4.3943569140e+01    0.2120566    0.1758757  26.69  0.001385394    1.546    0.353
        23 -10.2886    116.5429     15.2346   3.8783616601e+01   5.2617362988e+01    0.4297715    0.2097808  14.66  0.001545603    4.824    0.793
        24 -10.9630    118.1761      7.6830   3.6099190904e+01   5.2913919324e+01    0.2234895    0.1878417  -6.91 0.0007521276    1.447    0.309
        25 -10.8501    118.2643      3.2507   3.4708922088e+01   5.3249980547e+01    0.3423324    0.1922605  86.74  0.001087773    2.263    0.558
        26 -12.2107    128.5442     10.8657   3.5225404393e+01   5.0304780945e+01    0.4111197    0.2876674 -68.77  0.002391669    1.746    0.427
        27 -10.0853    126.2401      2.9643   3.3274877352e+01   5.1483105146e+01    0.2277788    0.1657552 -32.94  0.001287835    1.640    0.390
        28 -11.0876     59.9997     13.4268   5.3481322507e+01   6.4402792741e+01    0.3670799    0.2452035  52.80  0.001727303    1.640    0.390
        29  -9.8406     55.1289     13.6735   5.5394178157e+01   6.5230995784e+01    0.2012292    0.1536148 -28.22  0.001313796    1.544    0.352
        30 -11.5005    164.6386      8.3358   2.9387941682e+01   4.2345898621e+01    0.5567065    0.1962931 -25.09  0.002398264    3.694    0.729
        31  -9.8646     30.9208     12.5150   6.5336228833e+01   6.9090479923e+01    0.1651999    0.1267989   0.52 0.0004297482    1.084    0.077
        32 -11.5468    234.0002     11.9441   2.3741521154e+01   2.7412891256e+01    0.1888286    0.1245478 -48.66   0.00072499    1.389    0.280
        33 -10.2262    175.7564     11.2376   2.8800641615e+01   3.9589507953e+01    0.2232876    0.1305422  76.22  0.001056169    1.470    0.320
        34 -11.9412    146.0215      7.7890   3.1652609021e+01   4.6602980584e+01    0.3505048    0.3136793  -6.18  0.001391243    1.426    0.299
        35 -10.8869      9.7824      8.9799   7.4935443935e+01   7.1996707970e+01    0.3502409    0.1858025  30.93  0.002077736    1.972    0.493
        36 -11.1165    148.7743      1.9016   2.9725744229e+01   4.6479602648e+01    0.2141038    0.1634846  70.10  0.000478559    1.072    0.068
        37 -12.6974    213.4452      5.6627   2.4097037266e+01   3.2122630788e+01    0.6746789    0.4122558 -77.21   0.00421728    1.419    0.295
        38 -11.0090    190.4877      6.7859   2.6294025522e+01   3.6806965897e+01    0.3449283    0.2546498 -73.26  0.002335235    1.194    0.162
        39 -10.7918      5.0020     10.5390   7.8464699504e+01   7.2221912588e+01    0.2211352    0.1741094 -26.67  0.001651512    1.371    0.271
        40 -10.1864    100.4221      6.9231   3.9430662437e+01   5.6891547688e+01    0.2101949    0.1520202  32.13  0.000789444    1.360    0.265
        41  -9.1090     91.6744      6.7428   4.1391142567e+01   5.8777231989e+01    0.1277773   0.07358374  38.57 0.0003957362    1.553    0.356
        42 -10.5318     68.3987      4.5909   4.6963308964e+01   6.3659037610e+01    0.2371202    0.1787665 -35.53  0.001545207    1.717    0.418
        43 -11.4283     19.8707      3.6475   6.6710392703e+01   7.1544256773e+01    0.5935541    0.2491425  23.68    0.0030214    2.247    0.555
        44 -10.6276     11.1967      2.7624   7.1096859024e+01   7.2640932308e+01     0.343837    0.1572378  15.41   0.00123144    2.151    0.535
        45  -9.6264    109.4644      5.4781   3.7058575171e+01   5.5030190667e+01    0.1239866    0.1011234  56.18 0.0001393959    1.009    0.009
        46  -9.0276     58.3016      5.3221   5.0616768953e+01   6.5477576063e+01    0.1257334   0.07289223  24.19 0.0005416546    1.630    0.387
        47 -10.3879     24.2156      7.8568   6.6490546918e+01   7.0517585552e+01    0.3757896    0.1579153  43.31  0.001776137    3.203    0.688
        48 -10.5582    201.3832      3.7933   2.4699029691e+01   3.4789856560e+01    0.1866253    0.1154981  58.91  0.000578444    1.700    0.412
        49 -10.8235    178.6364      3.5629   2.6735514328e+01   3.9680859891e+01    0.2435014    0.1675654 -78.52 0.0005930034    1.326    0.246
        50 -12.0736    234.1887      5.7090   2.2606169955e+01   2.8041300102e+01    0.2383783    0.2003825  56.42  0.001164648    1.658    0.397
        51  -9.5078     78.5104      4.0868   4.3798878483e+01   6.1709385795e+01    0.1518978     0.116048  -9.41 0.0005393676    1.479    0.324
        52 -11.6018     28.7625      2.4256   6.1561633821e+01   7.0511319258e+01    0.4816212    0.1909122  32.95  0.002241762    2.119    0.528
        53 -10.6078    243.1694      2.5022   2.1471063488e+01   2.6693918753e+01    0.1824694     0.121424 -53.07 0.0005801985    1.302    0.232
        54 -10.8766    195.1042      1.7979   2.4820819803e+01   3.6299801534e+01    0.2987193    0.1283835  86.23  0.001477156    2.306    0.566
        55  -9.4091     77.3012    167.9156   9.1816525343e+01   3.0155647235e+01    0.2481726    0.1237656 -84.65 0.0004816827    4.443    0.775
        56 -10.6876    247.6779    250.1036   6.6995212728e+01  -1.1823694151e+01    0.1877364    0.1395053  16.40  0.001318268    1.357    0.263
        57 -12.5175    232.2436    245.4763   6.9022488513e+01  -9.4670376282e+00    0.5625964    0.2359815 -33.14    0.0028288    2.150    0.535
        58 -11.7109     88.8813    249.3881   1.0003931199e+02   9.5004771157e+00    0.3899536    0.2590108  32.04 0.0009876991    1.364    0.267
        59 -10.2711     72.4027    250.1376   1.0372200391e+02   1.1544509518e+01    0.2202887    0.1700685  13.15  0.001026508    1.568    0.362
        60 -12.5479     19.2474    237.0370   1.1390507739e+02   2.0452392747e+01    0.5295368    0.3890638  47.50  0.003495356    1.233    0.189
        61 -11.4430      5.0335    235.1549   1.1665462591e+02   2.2206761722e+01    0.3826789    0.2689129  56.90  0.002282538    1.203    0.169
        62 -12.1184     29.1855    247.4275   1.1257076556e+02   1.7239265788e+01    0.5927987    0.3183599  79.38  0.003227963    1.910    0.476
        63 -12.7617      6.1379    245.1259   1.1697231757e+02   2.0022482008e+01    0.7286174    0.4465619  79.89  0.003628872    1.408    0.290
        64 -11.7186     22.4524    248.7335   1.1400051082e+02   1.7678310834e+01    0.3795189    0.2326215  53.57  0.001257271    1.357    0.263
        65 -12.6225     15.7115    245.8930   1.1515727783e+02   1.8944226140e+01    0.7563192    0.3360961  59.29  0.003261147    2.031    0.508
        66 -10.4323      5.0145    168.5032   1.1201389992e+02   3.7712569351e+01     0.172659    0.1281223  23.17  0.001031537    1.585    0.369
        67 -10.5737     55.4917    161.4442   9.7085719067e+01   3.4731265894e+01     0.275121    0.2179999  62.49 0.0007619606    1.375    0.273
        68  -9.7685     67.2254    165.4036   9.4299657594e+01   3.2205617419e+01    0.2128751      0.13042  41.90 0.0009517011    1.683    0.406
        69  -9.4440    111.7686    164.0446   8.1332072554e+01   2.5611759146e+01    0.2054204    0.1288826 -54.18 0.0005233589    1.598    0.374
        70 -12.2922     21.6460    157.2540   1.0632826617e+02   3.9273825586e+01    0.6075653     0.468746  13.12  0.000925886    1.537    0.349
        71  -9.4359    216.1999    155.1038   5.5151968410e+01   8.3865106557e+00    0.1784616    0.1558025 -57.89   0.00037322    1.287    0.223
        72 -11.0444      9.4591    152.0839   1.0920800355e+02   4.1512093761e+01    0.4478251    0.2197353  49.06  0.002087523    2.322    0.569
        73  -9.3976    222.6359    152.2050   5.3410512258e+01   7.8477100572e+00    0.1957133    0.1129652 -33.89 0.0003712521    1.611    0.379
        74 -10.0717    176.9903    150.2723   6.1961479538e+01   1.6492502725e+01    0.2663813    0.2139087 -69.43  0.001094854    1.553    0.356
        75 -10.5600    207.0297    146.5245   5.5046716331e+01   1.1639241332e+01    0.2222057    0.1794491 -37.68 0.0006953992    1.110    0.099
        76  -9.2543      8.4810    157.5842   1.1005397198e+02   4.0195709420e+01    0.1295847    0.1108308 -83.73 0.0001622055    1.047    0.045
        77 -10.6614     10.3422    144.4767   1.0810565984e+02   4.3371342471e+01    0.4212342   0.08224819 -48.65  0.001276913    4.574    0.781
        78  -9.1145    204.5083    141.5353   5.4451414972e+01   1.3069571594e+01    0.1428407    0.1292517 -39.51 0.0002324415    1.033    0.032
        79  -9.5445    240.3102    140.2995   4.8112673034e+01   7.1088783245e+00    0.1273641   0.09494606 -13.57 0.0003893443    1.601    0.375
        80 -10.2472    220.1725    143.8451   5.2117199475e+01   9.8277328614e+00    0.1891262    0.1525844 -18.43 0.0006062263    1.298    0.230
        81 -10.8759     17.6195    137.0856   1.0498164497e+02   4.4729228064e+01    0.2460513    0.2065054  41.82  0.001103662    1.352    0.260
        82  -9.7187     21.0000    134.9453   1.0362742973e+02   4.5016972697e+01    0.2104215     0.150238  74.35 0.0006855009    1.628    0.386
        83 -12.2144      9.1936    136.3203   1.0747919486e+02   4.5502421611e+01    0.2747108    0.1984894 -65.12 0.0002690228    1.152    0.132
        84 -10.7522      2.6619    136.0555   1.0942812277e+02   4.5962361364e+01     0.420576    0.1205976 -68.65  0.001628361    2.634    0.620
        85  -9.3661    143.7749    137.0605   6.6783933779e+01   2.5983788804e+01    0.2060897    0.1273049 -47.33 0.0004887866    1.597    0.374
        86  -9.6774     43.8592    136.8510   9.6626412569e+01   4.2426682934e+01    0.1889717    0.1620555  82.79 0.0003881577    1.287    0.223
        87  -9.9607    249.1586    133.8264   4.5531788770e+01   6.8289021392e+00    0.1879948    0.1529381 -51.98 0.0004211611    1.170    0.145
        88 -10.1476    240.8275    133.8764   4.6758874375e+01   8.1553725236e+00    0.1774808     0.139639 -57.42 0.0006056701    1.304    0.233
        89 -11.2071     54.3100    132.2781   9.2394843047e+01   4.2407984356e+01    0.3963134    0.2497814  24.50  0.001091984    1.713    0.416
        90 -10.0827     47.8243    133.2482   9.4700302096e+01   4.2916216394e+01    0.2039646    0.1928069  68.49 0.0006369862    1.166    0.142
        91  -9.7692     79.7740    132.3931   8.4167761594e+01   3.8865382435e+01    0.2054696    0.1473373  15.43 0.0004720912    1.580    0.367
        92 -11.4443     36.8802    130.3403   9.7775117657e+01   4.4804967340e+01    0.4139141    0.2898236 -28.01  0.002114733    1.550    0.355
        93 -11.1792     74.0428    128.9056   8.5243435423e+01   4.0605578588e+01    0.3502875    0.3167549 -49.76 0.0008645061    1.066    0.062
        94 -11.2493     23.7964    126.0812   1.0139356218e+02   4.7041371545e+01    0.3603673    0.2087338  32.09  0.001368652    1.917    0.478
        95 -11.3678     10.8720    122.8506   1.0517386102e+02   4.8768339887e+01    0.3105968    0.2802748  67.83  0.001445942    1.265    0.210
        96 -10.5613     17.4921    125.5030   1.0338409006e+02   4.7662357160e+01    0.2737567     0.186574 -45.39  0.001062661    1.330    0.248
        97  -9.8342    220.1105    123.8827   4.7943796147e+01   1.3532491480e+01    0.2060006    0.1707669 -59.65 0.0004365805    1.217    0.178
        98 -10.1529    243.9596    122.5048   4.4049463278e+01   9.6122853978e+00    0.1620082    0.1296928  52.89 0.0004645074    1.501    0.334
        99  -9.4894    110.0324    121.4851   7.2237209547e+01   3.6259367043e+01    0.2276849    0.1386787  12.32 0.0008102476    2.620    0.618
       100 -10.1014     14.4848    125.4912   1.0436734372e+02   4.7874206140e+01    0.2249929     0.161723 -10.90 0.0009351799    1.614    0.381
       101  -9.8599      1.3221    118.7313   1.0774789917e+02   5.0324286371e+01    0.1817908   0.09232306 -62.17 0.0004561146    1.539    0.350
       102 -10.2254     72.9053    117.2882   8.2966837166e+01   4.3640452130e+01    0.3296391    0.2142175 -72.10  0.001016648    2.037    0.509
       103  -9.8285     32.7957    117.7178   9.6902474725e+01   4.8370733238e+01    0.1896829    0.1594476  78.95 0.0008130311    1.412    0.292
       104 -10.4961     23.6665    117.8010   1.0007818932e+02   4.9125007217e+01    0.2143783    0.1740756 -15.62 0.0004541708    1.315    0.240
       105 -11.6142     15.6118    115.5525   1.0248157860e+02   5.0269677216e+01    0.3234504    0.2070566 -56.43 0.0004793386    1.288    0.223
       106 -10.1165     85.9029    115.8809   7.8323279447e+01   4.1918162697e+01    0.2297266    0.2179103 -26.45 0.0006279922    1.021    0.021
       107 -10.2492    214.0202    115.0989   4.7061266636e+01   1.6269880346e+01    0.2067811    0.1877046 -42.34 0.0004897217    1.052    0.050
       108 -11.1902    249.4371    112.1275   4.1272923932e+01   1.0454595117e+01    0.2498129    0.1894267 -49.75  0.000554917    1.099    0.090
       109 -10.4312     94.5451    112.2698   7.4629489686e+01   4.1267603998e+01    0.2972407    0.2785132  13.46 0.0009204103    1.056    0.053
       110 -12.2602     54.7845    109.8096   8.7484880159e+01   4.7943024175e+01    0.3940699    0.2625985 -42.32 0.0003343743    1.382    0.277
       111 -10.8757     51.9129    103.7795   8.7104468708e+01   4.9738991004e+01    0.2550147    0.2199963  41.11 0.0008674971    1.330    0.248
       112 -12.0714     14.1113    109.0655   1.0194546677e+02   5.1958891367e+01     0.611541    0.3247817 -11.81   0.00286891    2.346    0.574
       113 -11.1526     36.2491    109.2649   9.4026912654e+01   5.0129442524e+01    0.3892209    0.2403289  50.94  0.001734318    2.159    0.537
       114 -11.0555      2.0260    106.4618   1.0580379239e+02   5.3271535580e+01    0.4859459    0.1496113 -61.06  0.002034541    2.295    0.564
       115 -11.1238     23.7921    106.7322   9.8047869936e+01   5.1834935773e+01    0.2469753    0.1669542  20.63 0.0008928873    1.642    0.391
       116 -10.3692    119.1063    103.3862   6.4873457577e+01   3.8488340268e+01    0.4092312    0.2170861 -40.64  0.001632335    1.919    0.479
       117 -10.2410     37.6338    103.0182   9.2192735266e+01   5.1500981735e+01    0.3071866    0.2431439  46.71  0.001692992    1.536    0.349
       118 -10.5441     26.3550    102.7672   9.6332984186e+01   5.2585578423e+01    0.3374203    0.2177188  83.21  0.001274674    2.378    0.579
       119 -11.0899     19.6023    100.7952   9.8461349081e+01   5.3578368022e+01    0.3073667    0.1919433 -10.88  0.001586933    1.804    0.446
       120 -11.1553    143.8074     98.1808   5.6995316375e+01   3.4270946290e+01    0.4687688    0.3846501 -60.82    0.0020423    1.339    0.253
       121 -11.0628     65.6409     93.2468   7.9384207452e+01   5.0316062830e+01    0.5680611    0.2185187  30.31  0.001899617    2.699    0.630
       122 -11.3126     62.0247     98.4998   8.2101147152e+01   4.9649255723e+01    0.3419712    0.2834761 -18.00 0.0008212959    1.168    0.144
       123 -10.7518     66.2044     97.8330   8.0415983191e+01   4.9205380939e+01    0.2677759    0.2234271 -10.63 0.0008574158    1.185    0.156
       124 -10.6954     51.1243     98.7844   8.6181711794e+01   5.1006763720e+01    0.2863808    0.1892887 -31.36 0.0007658785    1.496    0.332
       125 -10.5690      9.7678     98.4899   1.0170751761e+02   5.4765640718e+01    0.2430762    0.1467282 -76.51  0.001248991    1.751    0.429
       126  -9.8030      5.2596     97.8028   1.0326611678e+02   5.5174919917e+01    0.2739855    0.1791683  13.15  0.001028139    1.749    0.428
       127 -10.2211      1.5241     95.7466   1.0431237080e+02   5.5841858051e+01    0.3068145   0.09984726 -65.47 0.0009645104    2.425    0.588
       128  -9.7264    205.9549     97.2477   4.4449665858e+01   2.1042407115e+01    0.1873601    0.1725031 -65.07 0.0005900768    1.029    0.029
       129 -11.4205     14.7223     96.5255   9.9482153743e+01   5.4925638391e+01    0.4234652     0.214909 -52.03  0.002108136    1.568    0.362
       130 -12.7344     10.4565     90.5616   9.9979417085e+01   5.6582793112e+01    0.3014358    0.2590859 -48.24 0.0001836269    1.072    0.067
       131 -12.3564    166.0249     83.6332   4.8308570381e+01   3.2015421945e+01    0.7993475    0.7478322  11.75  0.004586674    1.220    0.181
       132 -12.3201    157.9761     87.3402   5.0918078096e+01   3.3163830050e+01     1.102814    0.4246032 -53.45  0.003385225    3.903    0.744
       133 -11.5473     21.8551     88.0483   9.4956645798e+01   5.6390659952e+01    0.5378853    0.3276825 -43.80  0.002065022    1.369    0.269
       134 -10.3492     25.5698     90.7317   9.4082878056e+01   5.5480196945e+01    0.2393437    0.1952078 -43.60 0.0007034861    1.052    0.049
       135 -10.7567    153.6506     90.5646   5.2701537549e+01   3.3542725531e+01    0.2822236    0.1380772  46.12  0.001122089    2.051    0.512
       136 -10.4068     96.6883     89.0038   6.7542780104e+01   4.5947400224e+01    0.3788457    0.1799395  40.12  0.001491866    2.069    0.517
       137 -10.0767     83.0708     88.4809   7.1875689279e+01   4.8543372549e+01    0.2374317    0.1923082 -25.26 0.0005301116    1.217    0.179
       138 -10.6035     78.8736     87.4556   7.3023216121e+01   4.9477065151e+01     0.323795    0.2934504   5.91  0.001434767    1.041    0.039
       139 -10.9813     66.2673     85.9408   7.7103027202e+01   5.1810099552e+01    0.5789909    0.2953526 -27.43  0.002230055    2.584    0.613
       140 -10.1484     47.7004     87.9933   8.4718040401e+01   5.3872294557e+01    0.1947364    0.1609662 -41.82 0.0003183528    1.130    0.115
       141  -9.9939    120.9754     86.4577   5.9627709546e+01   4.1512658095e+01    0.2178823    0.2020897 -29.42 0.0003903811    1.100    0.091
       142 -11.1412    115.0094     85.9509   6.1142227464e+01   4.2873413910e+01    0.4518591    0.3462104   0.55  0.001733974    1.617    0.382
       143 -11.7581      5.6056     83.9283   1.0060873612e+02   5.8370321306e+01    0.5871761    0.2258096 -40.78  0.002673783    2.154    0.536
       144 -11.5168      6.5057     51.4194   9.2499771112e+01   6.5207708878e+01    0.4479459    0.3228855 -12.70  0.002334334    1.227    0.185
       145 -13.1018      4.6009     62.6552   9.6369453276e+01   6.3051317074e+01    0.7061763    0.5878168 -46.16  0.003024093    1.162    0.139
       146 -11.2562     12.6176     57.6575   9.1354765085e+01   6.3580100397e+01    0.3119334    0.2307667  53.30  0.001352885    2.161    0.537
       147 -12.0551     37.0859    243.0513   1.1063734216e+02   1.7290171797e+01     0.630275     0.315495  85.98  0.002292598    2.266    0.559
       148 -11.5636      7.0809     40.8069   8.8984438373e+01   6.7172144292e+01    0.2801299    0.1620878 -38.59  0.001070375    1.379    0.275
       149 -12.5606      7.1954     73.1903   9.7696194940e+01   6.0670306386e+01     1.317039    0.4824261  26.79  0.005542084    2.991    0.666
       150 -12.1613     13.5765     77.5547   9.5978325369e+01   5.9331205086e+01    0.7305744    0.3450784 -60.39  0.003544136    1.900    0.474
       151 -14.1812     16.5367     67.4073   9.2215264351e+01   6.1308819501e+01    0.5073197    0.4234963 -31.61  0.001243087    1.059    0.055
       152 -11.6196     30.7444     80.7940   8.9618817493e+01   5.7263943135e+01     0.430218    0.2682075 -37.86  0.002275876    1.395    0.283
       153  -9.9281     74.2564     82.0103   7.3042859749e+01   5.1371434993e+01    0.2119289    0.1793803 -26.67  0.001159806    1.124    0.110
       154  -9.9237     62.8078     82.4984   7.7391281052e+01   5.3050416972e+01    0.2060916    0.1350722  29.15  0.001010103    1.525    0.344
       155  -9.5969     42.1453     82.1267   8.5336948678e+01   5.5803992481e+01    0.1685861    0.1640708 -86.75 0.0003483887    1.319    0.242
       156  -9.7921     31.3669     92.7633   9.2273056266e+01   5.4508876194e+01    0.1944638    0.1049875 -48.34 0.0003182447    1.565    0.361
       157  -9.3744    183.5945     80.7134   4.4333489510e+01   2.8609920134e+01    0.1407751    0.1076151  25.12 0.0001277589    1.800    0.444
       158 -10.3571    122.5339     79.5494   5.7211905382e+01   4.2465085875e+01    0.2352626    0.2292823  11.02 0.0002147718    1.033    0.031
       159 -10.0732    114.1905     79.6600   5.9530058939e+01   4.4232990654e+01    0.3998514    0.1699619  47.47   0.00149736    2.298    0.565
       160 -10.5992     60.4598     78.2059   7.7010831298e+01   5.4281793190e+01    0.3533815    0.2487727   0.31 0.0009968692    1.550    0.355
       161  -9.2587    184.3062     76.6766   4.3240968619e+01   2.9121038563e+01    0.1434724    0.1013361 -72.97 0.0007033901    1.643    0.391
       162  -9.3229     70.4212     76.4415   7.2738261673e+01   5.3115061338e+01    0.1425321    0.1264436  -5.78 4.862859e-05    1.013    0.013
       163 -10.6309     75.9934     74.2831   7.0050793947e+01   5.2613301393e+01    0.4141565    0.2252216  22.67  0.001412805    2.176    0.540
       164 -11.2456     77.7937     70.0180   6.8057295107e+01   5.3108350589e+01    0.4829154    0.2468279  35.27  0.001452118    1.896    0.473
       165 -10.8814     37.6082     90.4319   8.9280721487e+01   5.4440959531e+01    0.4421955    0.1798613 -40.50  0.001785507    2.311    0.567
       166  -9.9661     92.4110     74.0118   6.4386331298e+01   4.9684009658e+01    0.3664091    0.1403604  32.53  0.001193079    3.307    0.698
       167 -10.2669     51.9822     62.2210   7.5341468085e+01   5.8609020437e+01    0.2970524    0.2380393   0.18  0.001555609    1.125    0.111
       168 -10.2927     47.2158     60.6860   7.6810351269e+01   5.9535347881e+01     0.360257    0.2101734  14.89  0.001097532    1.814    0.449
       169 -10.6850     53.9239     74.0869   7.8313869292e+01   5.6035549213e+01    0.2679967    0.2214754  53.27  0.001488878    1.637    0.389
       170 -11.8426     50.5532     68.0224   7.7793864026e+01   5.7693884905e+01      0.45414    0.3240875 -15.80  0.001182222    1.376    0.273
       171 -10.6049    207.5958     73.1133   3.8846724034e+01   2.4698748915e+01    0.2116107    0.1785799  65.38 0.0003406141    1.239    0.193
       172  -9.9324    101.1926     71.9616   6.0995238005e+01   4.8323006820e+01    0.3863714    0.2293427  66.01  0.001462971    2.986    0.665
       173 -12.8847     45.0306     75.0456   8.2176799524e+01   5.6974190260e+01    0.3777782    0.3053825  53.90 0.0008769746    1.729    0.422
       174 -10.7730    129.3129     70.8180   5.2928389057e+01   4.2498212578e+01      0.37572    0.2648167 -15.01  0.001458133    1.840    0.457
       175 -10.5503     42.7656     68.1410   8.1049792868e+01   5.8649669148e+01    0.3200736     0.202262   1.44  0.001418316    1.729    0.422
       176 -10.7874     36.0140     68.2156   8.3932680410e+01   5.9396667562e+01    0.4039201    0.1733556  34.92  0.001314884    2.562    0.610
       177  -9.5566    195.1189     69.8124   3.9906811488e+01   2.7856946460e+01    0.1655391    0.1564593  38.24 0.0003017276    1.275    0.216
       178  -9.9141    167.8553     69.5816   4.4369054425e+01   3.3944976544e+01    0.1900701    0.1611989  66.87 0.0004023949    1.136    0.120
       179  -9.0835    144.3054     69.3014   4.9011386991e+01   3.9361517496e+01    0.1419424    0.1101656  21.54 0.0002951492    1.595    0.373
       180  -9.0629    230.3033     68.6701   3.5013292720e+01   2.0822566698e+01    0.1314941   0.08160743 -66.75 0.0003255658    1.651    0.394
       181 -10.7998     94.3373     65.9976   6.1228982455e+01   5.0739915380e+01    0.3883975    0.2574616  13.42  0.001003346    1.934    0.483
       182 -11.9389     44.7838     38.3097   6.9846725528e+01   6.3673926449e+01    0.4088543    0.2712049  39.89  0.002323938    1.705    0.413
       183 -12.5508    226.5433    245.1310   7.0028924176e+01  -8.7515509104e+00    0.6682571    0.3509016  -4.34  0.003275811    2.349    0.574
       184 -13.2527     74.3718    238.1882   1.0207351084e+02   1.3773386777e+01    0.8971027    0.7293625 -72.48  0.005491058    1.308    0.236
       185 -10.9097     32.4108     63.8238   8.4177425486e+01   6.0654650802e+01    0.2307252    0.2017932  -2.96 0.0004410172    1.138    0.121
       186 -10.3859    184.5223     65.5176   4.0526607716e+01   3.0836534577e+01    0.2506232    0.1937947 -11.43 0.0006838928    1.819    0.450
       187 -10.5464    119.0098     65.2735   5.3896956490e+01   4.5696406836e+01    0.2214689    0.2032028 -14.03 0.0004098451    1.149    0.129
       188 -12.3212    122.9643     63.7877   5.2431736864e+01   4.5064247205e+01    0.3955831    0.3173292 -75.00 0.0002946359    1.616    0.381
       189 -10.0710     77.2898     62.9072   6.5908487722e+01   5.4477490210e+01    0.3417928    0.2271067  60.17  0.001326066    2.331    0.571
       190 -10.6643     69.4902     64.7509   6.9345617139e+01   5.5485711514e+01     0.249534    0.1263216 -35.38 0.0006032158    2.021    0.505
       191  -9.0663    143.7094     64.3034   4.7746476514e+01   4.0295251684e+01     0.139479    0.1084629 -79.08 0.0002725071    1.569    0.363
       192 -10.3785    202.3253     61.8777   3.7079364516e+01   2.7512867546e+01    0.2495759    0.1865219 -27.67   0.00141404    1.616    0.381
       193 -10.1163    153.2346     63.5503   4.5571668002e+01   3.8228666707e+01    0.3992661    0.1247491  54.19  0.001385521    2.937    0.660
       194  -9.0035    161.7052     61.3456   4.3367249912e+01   3.6621917193e+01    0.1430194    0.1021714 -72.79 0.0003853918    1.668    0.401
       195 -10.3858    113.4096     60.9674   5.4059293714e+01   4.7608512623e+01    0.2382227    0.1922291  66.29 0.0005058798    1.399    0.285
       196 -11.3962     87.5527     54.7373   5.9675496193e+01   5.3924601764e+01    0.7983801    0.3477499 -38.66   0.00334456    2.441    0.590
       197 -10.7690     92.5492     60.5773   6.0029322210e+01   5.2005782475e+01    0.2685322    0.1994947  19.70 0.0005900983    1.397    0.284
       198 -11.7166     95.5466     58.5000   5.8411259277e+01   5.1744705634e+01    0.5069929    0.2954774  62.63  0.002106241    2.575    0.612
       199  -9.9113    169.0022     60.2567   4.1788042733e+01   3.5118562761e+01    0.1866162    0.1650635  70.07 0.0001929973    1.068    0.063
       200 -10.2242     69.3491     58.1164   6.7163802120e+01   5.6678313456e+01     0.354407     0.180568 -49.52  0.001530597    2.483    0.597
       201 -11.0449     59.2419     58.9058   7.1307885077e+01   5.8159883418e+01    0.3207852    0.2871827 -49.00   0.00143701    1.414    0.293
       202 -10.2196     61.9865     55.0234   6.8891447072e+01   5.8408637199e+01    0.3471459    0.2071515 -28.23  0.001729517    1.721    0.419
       203 -11.1438    147.2607     56.7837   4.4912892408e+01   4.0619020383e+01    0.2839148    0.2233056 -59.85  0.001020557    1.399    0.285
       204 -11.3994    131.9890     56.2927   4.8036671940e+01   4.4188406701e+01    0.3076232    0.2750631  52.03  0.001089704    1.032    0.031
       205 -13.0034    105.3591     52.3849   5.3532064361e+01   5.0650160488e+01    0.3968297    0.3195986  36.89 0.0005162466    1.132    0.117
       206 -10.4927     75.3391     55.6570   6.4139986204e+01   5.6052984658e+01    0.2740216    0.2095091 -31.55 0.0004110418    1.343    0.255
       207 -10.1694    230.8977     54.2291   3.2057372812e+01   2.2786140437e+01    0.2039523    0.1522242 -50.98  0.000466918    1.194    0.162
       208 -10.3534    104.3245     47.0417   5.2067920848e+01   5.1638261270e+01    0.3243021    0.2035819  23.95  0.001530167    1.940    0.485
       209  -9.4611     48.4806     55.4994   7.4531709424e+01   6.0313865213e+01    0.1342377    0.1123575  -5.41 0.0008103767    1.002    0.002
       210  -9.5184     82.3630     53.8478   6.1085012748e+01   5.5057367451e+01    0.1827523    0.1235425 -21.66 0.0006821792    1.606    0.377
       211 -10.7509    119.7360     52.6717   4.9847982359e+01   4.7475188519e+01    0.2485818    0.2055969  43.35 0.0002995075    1.108    0.098
       212 -12.2664     59.1529     48.2404   6.7586965019e+01   5.9978024490e+01    0.4738034    0.3329117 -15.49  0.002642097    1.426    0.299
       213 -12.0073    129.6480     49.2014   4.6462368781e+01   4.5734841883e+01    0.4146422    0.3391723  16.51 0.0007195919    1.427    0.299
       214 -11.6761     34.8652     42.4051   7.5872322478e+01   6.4304068444e+01     0.448125    0.2652117   2.15  0.002178731    1.811    0.448
       215  -9.8904    237.3643     50.2278   3.0622526030e+01   2.2093382356e+01    0.1697054   0.08813652 -49.95 0.0005540655    1.627    0.385
       216  -9.3151    173.3348     52.3062   3.9069840823e+01   3.5279813032e+01    0.1318099    0.1007887  33.49 0.0006302663    1.669    0.401
       217  -9.5369    181.5400     49.5269   3.7141563325e+01   3.3814737471e+01    0.1324263    0.1149182 -83.81 -1.194203e-05    1.051    0.048
       218 -10.4391    151.4830     46.1309   4.1174749303e+01   4.1133132065e+01    0.1987233    0.1930222 -22.03 0.0007011262    1.176    0.150
       219  -9.5195     78.5789     47.1725   6.0031030209e+01   5.6790970825e+01    0.1760396    0.1220379 -15.63 0.0004491952    1.577    0.366
       220 -10.2204    143.0708     45.2756   4.2520977704e+01   4.3187785138e+01    0.2073073    0.1929617 -55.73 0.0005537203    1.158    0.136
       221  -9.6688    120.9580     46.5382   4.7653206444e+01   4.8062216844e+01    0.2233238    0.1226128  53.09  0.000243231    1.631    0.387
       222 -10.1522    112.7398     45.1223   4.9221884173e+01   5.0078486220e+01    0.3369315    0.1526089  39.18  0.001373887    2.341    0.573
       223 -10.9267     91.6366     43.1373   5.4404156700e+01   5.4821997283e+01     0.445271    0.2220702 -41.31  0.002023526    2.327    0.570
       224 -10.8969    100.1101     35.1630   4.9228027905e+01   5.4093778344e+01    0.3193126    0.2152668 -71.47 0.0006249457    2.745    0.636
       225 -10.3925     95.5335     42.9379   5.3177683595e+01   5.4050803194e+01    0.2795902    0.1936698  17.90 0.0003192041    1.641    0.391
       226 -10.8156     97.4041     38.3026   5.1049493299e+01   5.4272408669e+01    0.3670406    0.2211145  22.50  0.001201267    2.073    0.518
       227 -11.4779     51.5574     42.4636   6.8537476236e+01   6.2055367308e+01    0.4912801    0.2071299 -31.46  0.002134049    2.560    0.609
       228 -10.3934     55.4934     39.4960   6.5790669598e+01   6.1904869722e+01    0.2289459    0.1547993 -33.15 0.0008067937    1.526    0.344
       229 -12.8294     57.6826     34.1427   6.2837353567e+01   6.2320403966e+01    0.3017116    0.2443817   5.87 0.0007080451    1.065    0.061
       230  -9.6215    139.4081     43.7506   4.2807309577e+01   4.4231660476e+01    0.1748273    0.1330374 -13.38 0.0009470537    1.650    0.394
       231 -11.1410     81.9751     42.3938   5.7184516765e+01   5.6836891384e+01    0.3545581    0.2726575 -64.56  0.001886243    2.085    0.520
       232 -12.0240    158.1333     42.6586   3.9078652751e+01   4.0054048575e+01    0.3010729     0.207252  70.09 0.0003195399    1.364    0.267
       233 -10.7146    131.3052     41.7045   4.3868741679e+01   4.6354825348e+01    0.2775901    0.2286898 -63.86 0.0007079415    1.400    0.286
       234  -9.6130     72.4424     42.0718   6.0322236988e+01   5.8662728908e+01    0.3363481    0.2144141 -59.07 0.0009973263    3.044    0.671
       235 -10.9199     29.4016     65.5227   8.6005157902e+01   6.0612820089e+01    0.2757922    0.1985929 -34.16 0.0004406296    1.179    0.152
       236  -9.7383    110.4941     41.5563   4.8640520087e+01   5.1043796094e+01    0.2109811    0.1105276  46.12  0.000977825    1.692    0.409
       237 -10.2466     18.2144     42.1709   8.3803625804e+01   6.6066953624e+01    0.5146763    0.1274352 -41.51  0.001494241    3.283    0.695
       238 -10.4656     33.7771     32.5852   7.2607187248e+01   6.5997944650e+01    0.5712803    0.1690496  32.15  0.002328117    3.161    0.684
       239 -11.3185     23.9556     41.2142   8.0633141037e+01   6.5697455398e+01    0.4550393    0.3684798  64.64  0.002675248    2.433    0.589
       240 -13.0215     28.6300     37.6559   7.7045528177e+01   6.5803417895e+01    0.4912736     0.270047  22.27  0.002715267    1.704    0.413
       241 -10.3327    148.3338     40.7097   4.0260371150e+01   4.2562983196e+01    0.2711796    0.1820858 -21.65  0.001416805    1.864    0.463
       242  -9.6044     61.9693     40.2207   6.3507331664e+01   6.0750174616e+01    0.2216481    0.1304525  14.83  0.001066115    1.988    0.497
       243 -11.3200    225.0120     37.7339   2.9383832650e+01   2.6136160759e+01    0.3013452    0.1904269 -84.12 0.0004554588    1.536    0.349
       244 -11.4792    221.7445     31.9579   2.8551024272e+01   2.7508545408e+01    0.2425047    0.1709154 -49.37 0.0003075443    1.314    0.239
       245  -9.7978    152.3302     38.8750   3.9055094264e+01   4.1870366074e+01    0.1722193    0.1663401  81.56  0.000407303    1.104    0.094
       246  -9.2551     86.2402     38.6227   5.4468368835e+01   5.6513949066e+01     0.120256     0.103707 -64.84 0.0004142961    1.628    0.386
       247 -10.7592     79.5799     28.2200   5.2747540241e+01   5.9123859825e+01    0.3990946    0.2024972 -19.38  0.001254681    2.437    0.590
       248 -10.9311     69.8734     37.0976   5.9384128256e+01   5.9821294868e+01    0.3020997    0.2033283   4.75  0.000389189    1.662    0.398
       249 -11.6051     74.7681     35.6653   5.7131031347e+01   5.9116567306e+01    0.3660648    0.2515202  23.62 0.0005523498    1.381    0.276
       250  -9.0451    201.6277     37.2583   3.1736198761e+01   3.1021725395e+01     0.129579    0.0811296 -76.64 0.0005230081    1.651    0.394
       251 -10.4193     82.3250     36.6959   5.5009820357e+01   5.7538018895e+01    0.2950072    0.2568927 -37.14  0.001836205    1.377    0.274
       252  -9.3604     84.6783     34.7025   5.3541201164e+01   5.7330130113e+01    0.2359994    0.1336635  37.46 0.0002635166    1.586    0.370
       253  -9.6091      1.4438     37.5245   9.0862908311e+01   6.8119873148e+01    0.1207373    0.0874582 -26.13 4.368032e-05    1.033    0.032
       254 -11.7700     24.5255     34.5004   7.7855580853e+01   6.6758345815e+01    0.2717242    0.1794919   0.14  0.001258292    1.351    0.260
       255  -9.7864    134.4811     34.8252   4.1192801024e+01   4.6475378896e+01    0.1814712    0.1319248 -33.28  0.001016185    1.547    0.354
       256 -10.3586    107.9528     34.6386   4.7014341239e+01   5.2465596845e+01    0.2010751    0.1542655  48.71  0.000511818    1.134    0.119
       257 -12.0756      8.4438     32.0440   8.5261670372e+01   6.8614873543e+01    0.3625715    0.2254177 -51.21    0.0014551    1.762    0.432
       258 -11.4850     16.1607     31.1897   8.0853402054e+01   6.8115034505e+01    0.5414497    0.2137964  20.50  0.001642665    2.452    0.592
       259  -9.8157    184.8245     33.8618   3.2989819116e+01   3.5100090610e+01    0.1809826    0.1318449 -76.78   0.00107167    1.330    0.248
       260  -9.5673    177.2975     34.3271   3.4082916307e+01   3.6724433304e+01    0.1217536   0.09455507  37.60 0.0002513407    1.632    0.387
       261 -10.0348    226.0536     32.9698   2.8349667436e+01   2.6525082501e+01    0.1758376    0.1386094 -72.30 0.0002955268    1.022    0.022
       262  -9.6838    205.7905     32.1837   3.0189412449e+01   3.0765192751e+01    0.1495904    0.1352013  65.36 0.0003264924    1.305    0.233
       263 -10.1349    166.5038     32.0866   3.5040596765e+01   3.9435638654e+01     0.180464    0.1269988 -34.20  0.001032391    1.592    0.372
       264 -11.1745    102.9790     29.3833   4.6508317984e+01   5.4159527066e+01    0.4052749    0.2116567  53.83  0.000941537    1.661    0.398
       265 -10.4263     49.4154     30.7627   6.4864734481e+01   6.4093463415e+01    0.2552254    0.1724715 -32.19  0.001191879    1.555    0.357
       266  -9.9069     50.7541     27.2217   6.2859675184e+01   6.4360491847e+01    0.2416155    0.1418352  -4.14  0.001232663    2.057    0.514
       267  -9.4640     44.0126     31.4786   6.7482570508e+01   6.4792446784e+01     0.172596    0.1076114  30.37 -7.278495e-05    1.450    0.310
       268 -10.3343    237.6088     29.2222   2.6632878401e+01   2.4740750194e+01    0.1413393    0.1022899 -34.04 0.0006632862    1.656    0.396
       269 -11.1303     65.4986     27.9506   5.7427058913e+01   6.1791168520e+01    0.3221086    0.1957998  28.59 0.0005447938    1.496    0.331
       270 -10.0337     70.3725     25.1988   5.4623093874e+01   6.1232609653e+01    0.2316573    0.1692495  33.45 0.0005227499    1.144    0.126
       271 -10.8793    198.0492     27.9839   3.0117860254e+01   3.2912666559e+01    0.1845675    0.1403385  43.32  0.001138294    1.728    0.421
       272 -11.8570    111.6304     27.1432   4.3670129426e+01   5.2514628978e+01    0.3376003    0.2982272  29.46  0.002164082    1.139    0.122
       273 -10.2466    174.4671     26.2935   3.2523188365e+01   3.8297436851e+01    0.2700541    0.1761226  82.73  0.001261503    1.447    0.309
       274 -10.4193    128.4480     26.4671   3.9893684715e+01   4.8801682932e+01    0.2391505    0.1515664  60.90 0.0005493735    1.366    0.268
       275  -9.5251    109.5334    242.4827   9.4585987047e+01   7.9822966829e+00    0.1348249    0.1170098  42.40 0.0001197714    1.068    0.064
       276 -11.8643     12.2040     23.5435   7.9949384621e+01   6.9681454966e+01     0.694663    0.2408117  12.78  0.002748736    3.952    0.747
       277 -11.1028     88.7294    241.0110   9.9135745432e+01   1.1232991201e+01    0.2645184    0.1661012 -48.14  0.001378017    1.834    0.455
       278 -10.0383    195.6330    238.2766   7.4972089329e+01  -3.7380322899e+00    0.2318109    0.1499116 -25.57  0.001281081    1.487    0.327
       279 -10.3164      9.6839     15.6382   7.8015681150e+01   7.1085140526e+01    0.2599979    0.1360655  -8.10  0.000982971    1.926    0.481
       280 -10.9970     22.5219     24.4864   7.4853475298e+01   6.8517041836e+01     0.342368    0.1972233 -23.14  0.002013386    1.576    0.365
       281 -10.2895     24.3889     21.1828   7.2488343898e+01   6.8781882699e+01    0.2307267    0.1687154 -32.75  0.001105634    1.465    0.318
       282 -10.7865      6.4616     20.4755   8.1900199239e+01   7.0639732757e+01    0.2245175    0.1482712   7.79 0.0007565272    1.319    0.242
       283  -9.5855    135.0000    237.9836   8.8159457045e+01   5.1168562368e+00      0.20739   0.07831886 -52.81 0.0008044831    2.957    0.662
       284  -9.8021    117.3334     26.4112   4.2161094299e+01   5.1322576853e+01     0.176304    0.1141567  66.29 0.0008373681    1.495    0.331
       285 -10.1386      1.4768     25.5286   8.6700581773e+01   7.0195716535e+01    0.2037018   0.09304331 -46.88 5.626473e-05    1.922    0.480
       286  -9.4586    219.0616     25.4515   2.7508947179e+01   2.8827591521e+01    0.1631201    0.1000916  74.89 0.0005259156    1.497    0.332
       287  -9.5590    214.2873     25.3059   2.7919458605e+01   2.9816350294e+01    0.1030596   0.08875935  47.68 0.0003188166    1.568    0.362
       288 -10.6585    244.2928    236.8684   6.5393935866e+01  -9.5732419221e+00    0.1772255    0.1364163 -33.22   0.00119253    1.423    0.297
       289 -12.5920    165.5716     22.5170   3.2771779229e+01   4.0721673489e+01    0.4102918    0.2283141  56.75    0.0021962    1.640    0.390
       290  -9.6716    107.2027     22.8738   4.3289369644e+01   5.3943542973e+01    0.3098493    0.1505661 -35.53  0.001501002    2.348    0.574
       291  -9.9020    108.3825     17.2423   4.1150961904e+01   5.4242510931e+01    0.2461385    0.1831414  12.32 0.0009860243    1.587    0.370
       292 -11.1178     96.6921     22.7084   4.5818545747e+01   5.6232337515e+01    0.6148276    0.2886631  55.24  0.002329597    1.850    0.459
       293  -9.4420    186.2039     22.4343   3.0199436377e+01   3.6117160406e+01    0.1704577    0.1016314  85.90 0.0009319722    1.615    0.381
       294 -10.1897     84.6185     21.7438   4.8789517269e+01   5.8841867591e+01    0.2752332    0.1633459  57.74  0.001449512    1.694    0.410
       295 -10.3318    160.0005    235.7007   8.2178742430e+01   1.8116812906e+00    0.1945873     0.157218  16.91 0.0003810786    1.091    0.084
       296  -9.7019    120.4549     20.9773   3.9800247987e+01   5.1184958526e+01    0.1606703    0.1285034 -23.79 4.209734e-05    1.467    0.318
       297 -11.1599     30.5644    234.2657   1.1135407212e+02   1.9881881932e+01    0.4349609      0.17311  86.60  0.001719288    3.446    0.710
       298  -9.5507    177.2368    235.0084   7.8298546566e+01  -5.9181805402e-01     0.169536    0.1076318 -40.81 0.0008843585    1.632    0.387
       299  -9.5702    221.3172    234.3470   6.9205530602e+01  -6.4618264434e+00    0.1348494    0.0808556  -9.32 0.0007048361    1.726    0.421
       300 -10.5145     86.9707    232.9802   9.8601129936e+01   1.3178540438e+01    0.2297594    0.1450052  59.38  0.001139058    1.745    0.427
       301 -10.1275     38.4030    232.4641   1.0952926028e+02   1.9420541224e+01    0.1996411    0.1664463 -84.61 0.0004160032    1.167    0.143
       302  -9.9308     24.0829    232.1609   1.1257296249e+02   2.1016725880e+01    0.1693898    0.1558425 -73.96 0.0005922476    1.257    0.204
       303  -9.0957     58.4925    229.4959   1.0478427388e+02   1.7708413135e+01    0.1304051    0.1148318  62.47 -1.267537e-05    1.003    0.003
       304 -11.1606      4.2897    226.4205   1.1631420742e+02   2.4154248523e+01    0.3563039    0.1903542 -80.50  0.002033787    1.657    0.397
       305  -9.2604     33.7818     19.6856   6.7193064272e+01   6.7812501155e+01    0.1667589    0.1184321   8.60 -0.000275831    1.148    0.129
       306  -9.1230    190.3345    226.3227   7.4043522693e+01  -9.3641401323e-01    0.1427484   0.09260912  -6.45 0.0007050475    1.708    0.414
       307 -10.7179    120.9258    225.7055   8.9628469033e+01   9.7486107253e+00    0.2051029    0.1744499  30.82 0.0009615869    1.075    0.070
       308 -11.3984     41.8174     18.6165   6.3032960689e+01   6.6811135152e+01    0.4079462    0.2131532  38.17  0.001884907    1.753    0.430
       309  -9.2794     66.3391    226.3105   1.0264649392e+02   1.7425140517e+01    0.1293354    0.1021847 -23.50 0.0007044939    1.690    0.408
       310 -10.0284    124.7899    221.0195   8.8002228839e+01   1.0147205475e+01    0.3791679    0.2096538  15.46  0.001530393    2.431    0.589
       311 -10.5914    154.8565     15.1422   3.2360191255e+01   4.3912668793e+01    0.2161705    0.1499315  25.58 0.0007904457    2.038    0.509
       312  -9.7889    191.7779    217.7760   7.2237369236e+01   3.9264938127e-01     0.204893    0.1078829 -52.83 0.0008856474    2.473    0.596
       313  -9.5472    139.7549     19.4219   3.5808699872e+01   4.6944681494e+01    0.1870585   0.09763387  55.25 0.0008719608    1.629    0.386
       314 -10.4209    177.9892     17.9743   3.0117386207e+01   3.8412084687e+01    0.1794376    0.1498974  85.92            0    1.013    0.013
       315 -10.5363    194.9064     16.7827   2.8019573964e+01   3.4839812445e+01    0.1863385    0.1530615 -89.19 0.0003120773    1.031    0.030
       316  -9.2656     82.5157     17.4034   4.7773856449e+01   5.9711089045e+01    0.1286171    0.1009009  36.25 0.0001271472    1.049    0.047
       317  -9.5336    185.3400     16.6480   2.8987477758e+01   3.6928875402e+01    0.1318746   0.07649205 -69.89 0.0007043225    1.802    0.445
       318 -10.0253    143.7169     16.2520   3.4290981946e+01   4.6348885079e+01    0.1729049    0.1273241  46.53  0.001042081    1.367    0.269
       319 -10.9104    173.3143     20.0670   3.1173226596e+01   3.9235522572e+01     0.256185    0.1438643 -89.73  0.001306848    1.929    0.482
       320  -9.4670    176.6227    218.7355   7.5663183397e+01   2.4946179225e+00    0.1449779   0.09788158  -0.37 0.0004525203    1.674    0.403
       321 -11.5186     10.7031    216.7454   1.1436948764e+02   2.5734810491e+01    0.3412444    0.2460459  25.14  0.002136005    1.615    0.381
       322  -9.9221     38.1944    217.2012   1.0827057603e+02   2.2883043882e+01    0.1876194    0.1305403  61.36 0.0007626625    1.343    0.255
       323 -11.4402     29.3632    215.4613   1.1013935562e+02   2.4226943292e+01    0.3011778    0.2505906  12.16   0.00188749    1.514    0.340
       324 -11.4679     21.2326    220.5314   1.1234853330e+02   2.3886441042e+01     0.243764    0.1586363 -83.30  0.001425907    1.399    0.285
       325 -10.1193     20.6673    212.0876   1.1183676948e+02   2.5875197368e+01    0.2096409    0.1326648  77.88  0.001166688    1.491    0.329
       326 -12.2423      5.4443    208.4328   1.1496246941e+02   2.8090788671e+01     0.445683    0.2433916 -73.16  0.001831192    1.608    0.378
       327 -11.5789    237.5654    209.2209   6.1755592110e+01  -4.4669298067e+00    0.2698342    0.1066974 -38.96  0.001225178    2.181    0.541
       328 -10.3640    246.2999    202.4216   5.8993104112e+01  -4.4629821843e+00     0.290013    0.1730068 -53.23  0.001467593    2.392    0.582
       329  -9.2707    188.2327    204.9722   7.0653657296e+01   3.3290863354e+00    0.1782441    0.1101793 -41.62 0.0005893512    1.576    0.365
       330  -9.7406     96.2608     12.4293   4.2309093176e+01   5.7317782745e+01    0.1627791    0.1080077  65.89 0.0005164167    1.507    0.337
       331 -10.5458     20.4488    199.4598   1.1086594033e+02   2.8873124192e+01    0.3378243    0.1548446 -56.37  0.001165275    2.155    0.536
       332 -10.6225    175.3340    202.3221   7.2974186608e+01   5.9042305288e+00    0.2459121    0.2284021  14.72 0.0004494859    1.125    0.111
       333  -9.6699    117.2804    201.4351   8.6717255929e+01   1.5694563377e+01    0.2080201    0.1314507  42.97  0.000940492    1.565    0.361
       334 -10.6531     11.0523    207.8046   1.1367726931e+02   2.7754139313e+01    0.2419384    0.1538439 -67.73 0.0007376256    1.467    0.318
       335  -9.7668    107.3019     10.6110   3.9188296019e+01   5.5081612760e+01    0.1693567   0.09439178  52.18  0.000264014    1.444    0.307
       336 -11.3564     16.3678    192.9521   1.1129096999e+02   3.0809819380e+01    0.4218483    0.2564245  24.58  0.002111278    1.865    0.464
       337  -9.4395    222.3207    192.3593   6.1414948175e+01   5.0857985422e-01    0.1435263   0.09157412 -12.53 4.837266e-05    1.768    0.434
       338 -10.1896    244.9457    188.1913   5.6604317546e+01  -1.9255052404e+00    0.2270922    0.1532872 -32.94 0.0005063144    1.212    0.175
       339  -9.3264    211.6750    187.6850   6.2548339781e+01   2.9585739932e+00    0.1434365   0.09709139  -9.88 0.0004369179    1.667    0.400
       340  -9.3765      2.3309    187.3238   1.1420048749e+02   3.3309319668e+01    0.1263053   0.08257183 -48.41 0.0004280761    1.702    0.412
       341 -11.4240     15.7703    182.0190   1.1047921096e+02   3.3534522143e+01    0.4720247     0.258375  76.03  0.002280503    1.970    0.492
       342 -10.4656    168.1429    183.4659   7.0961856057e+01   1.1023466092e+01    0.3055611    0.2439165  85.50  0.001451038    1.948    0.487
       343  -9.7425    142.6784    183.6640   7.7103868069e+01   1.5472587282e+01    0.1603325    0.1158479 -12.42 0.0004476446    1.709    0.415
       344  -9.7436     58.7353    181.9605   9.9168436573e+01   2.9061940040e+01     0.203775    0.1817221 -70.76 0.0006935846    1.069    0.065
       345  -9.0748      1.6844    180.2781   1.1382452283e+02   3.5058595712e+01    0.1279431   0.08015379  64.13 0.0003221042    1.570    0.363
       346  -9.7759    244.4821    178.4704   5.4856055593e+01  -2.0654505473e-01    0.2467464   0.09874804 -32.80  0.001033462    2.417    0.586
       347 -10.4792     46.5410    177.3482   1.0187375051e+02   3.1685867576e+01    0.2733336    0.2505307 -83.40  0.001136159    1.003    0.003
       348 -10.5489     18.5341    173.0485   1.0890766270e+02   3.5534442986e+01    0.2523079    0.1643293  47.97  0.001256952    1.591    0.371
       349 -11.8104     51.7751    162.4728   9.8328131501e+01   3.4908834241e+01    0.7523091    0.5274673  75.63  0.003646456    1.684    0.406
       350 -12.3527     36.8587    165.5523   1.0303955624e+02   3.5743787401e+01    0.7918935    0.5831911 -10.58   0.00240648    1.742    0.426
       351 -10.8822     35.4654    161.4861   1.0290579694e+02   3.6929079870e+01    0.2726325    0.2267654 -12.64  0.001054943    1.429    0.300
       352  -9.2957    177.2658    168.6524   6.5861408110e+01   1.2545901460e+01    0.1427467    0.1192297 -77.08 0.0002628512    1.612    0.380
