#   1 NUMBER                 Running object number                                     
#   2 MAG_AUTO               Kron-like elliptical aperture magnitude                    [mag]
#   3 X_IMAGE                Object position along x                                    [pixel]
#   4 Y_IMAGE                Object position along y                                    [pixel]
#   5 X_WORLD                Barycenter position along world x axis                     [deg]
#   6 Y_WORLD                Barycenter position along world y axis                     [deg]
#   7 A_WORLD                Profile RMS along major axis (world units)                 [deg]
#   8 B_WORLD                Profile RMS along minor axis (world units)                 [deg]
#   9 THETA_WORLD            Position angle (CCW/world-x)                               [deg]
#  10 FWHM_WORLD             FWHM assuming a gaussian core                              [deg]
#  11 ELONGATION             A_IMAGE/B_IMAGE                                           
#  12 ELLIPTICITY            1 - B_IMAGE/A_IMAGE                                       
         1 -14.0633    225.8264     12.9367   3.9441391502e+01   2.7208716638e+01     1.979824     1.262418  24.02  0.004886473    2.767    0.639
         2 -13.8211    199.8288     37.3534   4.8610466460e+01   3.0567835810e+01     1.386831      1.12653  10.82   0.00454386    1.602    0.376
         3 -13.5066    207.3672     31.7047   4.6116739693e+01   2.9425255213e+01     1.066648    0.7956543 -55.89   0.00375833    1.287    0.223
         4 -12.6209    215.1061     24.5219   4.3359137214e+01   2.8420785841e+01    0.5843543    0.4359877  27.83  0.001231708    1.857    0.462
         5 -11.1060      2.3837      3.9973   9.6432530953e+01   7.3766541739e+01    0.5396099   0.06014702 -46.75  0.001954254    4.730    0.789
         6 -10.2400     49.2041      3.3741   7.1891755953e+01   6.8623168101e+01    0.1540824    0.1074213  44.75   0.00054856    1.679    0.404
         7 -15.9044      8.0639    239.4013   1.2960949126e+02   2.3786428785e+01     7.367003     1.610401 -78.70   0.03320095    4.065    0.754
         8 -14.5771    245.1976    243.9500   8.7198102378e+01  -1.0506079805e+01     1.205291    0.9106838   4.39  0.008783965    1.093    0.085
         9 -15.5302    216.5325    244.2198   9.2224942876e+01  -6.4677810978e+00     2.707476     1.248228  27.51   0.01233091    2.020    0.505
        10 -15.4762     89.7621    246.0660   1.1594769314e+02   1.2751091852e+01     8.070654     2.216135  36.26   0.01757098    3.779    0.735
        11 -14.5692      9.5685    207.2767   1.2781061637e+02   2.9735003401e+01      1.09844    0.9653284  11.86  0.004119903    1.854    0.461
        12 -13.5214     34.7565    209.8978   1.2327809143e+02   2.6637640907e+01    0.7187793     0.509991 -37.26  0.003521848    2.536    0.606
        13 -16.0345     44.1055    199.3396   1.2061317484e+02   2.7756980894e+01     8.494458     3.107443  73.71   0.02766248    5.376    0.814
        14 -10.7836     52.9177    250.5564   1.2278713749e+02   1.6852404697e+01    0.2349372    0.1143181  51.76   0.00062702    1.541    0.351
        15 -11.8823    249.0067    186.4924   7.6309816972e+01  -3.8071019884e+00     0.655578     0.316494 -22.11  0.003031214    2.242    0.554
        16 -11.9436     62.0763    181.4605   1.1500026271e+02   2.9432350721e+01    0.3929618    0.2836963 -33.57  0.001662603    2.152    0.535
        17 -11.8815     67.2572    175.7791   1.1314135151e+02   3.0027718649e+01    0.2993224    0.2465625 -51.34 0.0004147617    1.425    0.298
        18  -9.0830     99.4291    180.8029   1.0637625949e+02   2.4116064721e+01    0.1767972    0.1255311 -50.81 0.0005190638    1.548    0.354
        19 -13.4329     46.9869    222.4285   1.2188701870e+02   2.2736367939e+01    0.8409066    0.4500548  82.02  0.001611527    1.809    0.447
        20 -11.4102     40.0279    177.5167   1.1949853849e+02   3.2972009381e+01    0.2294259    0.2286403  36.39 0.0008154347    1.389    0.280
        21 -11.4486     76.9038    165.6900   1.0949973670e+02   3.1004713665e+01    0.2797575     0.237808 -66.09 0.0003500755    1.175    0.149
        22 -13.2802     81.6321    158.5337   1.0725500904e+02   3.1986615182e+01     2.290383    0.9580111  57.46  0.001998194    3.452    0.710
        23 -13.8563     68.0951    144.2644   1.0846521816e+02   3.7325059516e+01     2.664111     1.267861  87.27  0.002917855    5.299    0.811
        24 -13.4214     64.2989    161.8289   1.1203225584e+02   3.3647723382e+01    0.5196161    0.3189531 -46.79   0.00175223    1.913    0.477
        25 -11.5604     33.0301    156.3447   1.1895684098e+02   3.8556130675e+01    0.3047445    0.2162459  76.58  0.001635127    1.287    0.223
        26  -9.1796    174.6910    149.3217   8.2916245534e+01   1.6560506700e+01    0.1500953    0.1224726 -88.27 0.0003268545    1.646    0.392
        27 -10.3508    133.6396    144.6645   9.1506930322e+01   2.6073638046e+01    0.8031586    0.1784383 -52.42  0.001939366    5.422    0.816
        28 -10.4128     48.0647    145.7908   1.1393420710e+02   3.9449995094e+01    0.2218428    0.1884057 -16.47  0.001274709    1.615    0.381
        29 -10.2559     98.1659    144.1931   1.0050224565e+02   3.2758046338e+01    0.2736317    0.2593161 -56.45 0.0007396211    1.105    0.095
        30  -9.7700    100.8621    140.7714   9.9121007507e+01   3.3110760170e+01    0.3086316    0.2146782 -20.61  0.001334795    2.246    0.555
        31 -11.8372     31.1074    144.1552   1.1806905262e+02   4.1606953763e+01    0.3695203    0.2246975  26.75  0.002056268    2.015    0.504
        32  -9.9347     81.8129    141.6494   1.0436697332e+02   3.5987524028e+01    0.2595094     0.180768  63.40 0.0003859673    1.589    0.371
        33 -12.2271     86.3985    142.8894   1.0336865484e+02   3.4983699587e+01    0.2854294    0.2539051 -48.97 0.0004660637    1.190    0.160
        34 -11.7450     67.3362    129.7836   1.0619571731e+02   4.0936887379e+01    0.9725443    0.3306708 -68.55  0.003052895    3.814    0.738
        35 -10.5078    107.6921    131.7073   9.5398374056e+01   3.4047564918e+01    0.5585837      0.30709  48.96  0.002321731    1.931    0.482
        36  -9.1637    226.6830    206.2963   8.4021130702e+01  -3.0337285309e+00    0.1107036    0.1030172  63.56 0.0003043964    1.608    0.378
        37  -9.1405     32.6239    130.2861   1.1593198107e+02   4.4767706134e+01    0.1330131   0.08475892  68.02  0.000701675    1.721    0.419
        38 -10.7911     96.7563    128.4682   9.7686947678e+01   3.6750164855e+01    0.3123275    0.2641071 -17.01  0.001117313    1.458    0.314
        39  -9.1441     79.6408    129.2545   1.0263257271e+02   3.9311255726e+01    0.1447942    0.1046932  69.21 0.0002924018    1.616    0.381
        40  -9.4795    115.7647    125.9643   9.1922227676e+01   3.3881670633e+01    0.2064942    0.1249506 -50.20 0.0007228396    1.610    0.379
        41 -10.3578    135.3734    122.7520   8.5985918076e+01   3.0649458960e+01    0.4751144    0.1431503 -52.61  0.001260603    4.183    0.761
        42 -10.0618    193.6235    166.7115   8.2670020809e+01   9.3413103894e+00    0.2599021    0.2551878  43.58  0.000817369    1.153    0.133
        43  -9.7814    106.6215    120.3732   9.3114852178e+01   3.6915404479e+01     0.230405    0.2115393 -31.24 0.0003485451    1.151    0.131
        44 -11.6999     22.7430    118.9877   1.1715695504e+02   4.8323584235e+01    0.3870392    0.1601427 -64.91  0.001844297    1.871    0.466
        45  -9.8495    168.1870    113.2768   7.5617154874e+01   2.5369955068e+01    0.3636684    0.2412143 -65.36  0.001427564    2.077    0.519
        46 -11.5109     53.0527    110.7213   1.0680880522e+02   4.7355250618e+01    0.4524474    0.1733809 -63.70  0.001781255    2.385    0.581
        47  -9.9892    205.4830    110.4420   6.7201326525e+01   1.7307764692e+01    0.2587676    0.2553721 -10.47 0.0006158268    1.043    0.041
        48  -9.6670    134.4831    102.9727   8.1042326468e+01   3.5200478722e+01    0.2422412    0.1531769 -43.92 0.0005772257    1.555    0.357
        49 -12.2912    236.2580     95.6729   5.8368888873e+01   1.3056216171e+01    0.5384302    0.4053408  50.08  0.002855586    1.462    0.316
        50  -9.8846     72.4009     83.5406   9.4124642048e+01   5.1171126521e+01    0.3005906    0.2164297  70.89  0.001106047    2.103    0.525
        51  -9.1812     24.8020     82.7921   1.1050646836e+02   5.6663576537e+01    0.1550849    0.1334221 -88.24 0.0002680657    1.280    0.219
        52 -12.1062    183.0025     77.8518   6.2766967222e+01   2.8561232560e+01    0.7644402    0.5611016  69.85  0.003556388    1.505    0.336
        53  -8.8805     48.0136     62.5341   9.6774458405e+01   5.8937215011e+01    0.1687656    0.1284812  25.18 0.0004009021    1.468    0.319
        54 -10.6311     13.4724     60.1960   1.0981155416e+02   6.2461228164e+01    0.2207726    0.1729126 -52.39 0.0004331148    1.033    0.032
        55 -14.1112      4.7995    185.0010   1.2744620190e+02   3.4749905265e+01     1.798561    0.5385033 -82.22    0.0080904    2.885    0.653
        56 -10.3666     76.1833    233.4801   1.1733165329e+02   1.6879014394e+01    0.1914143    0.1471321 -89.60 0.0004502461    1.272    0.214
        57 -10.3400    237.6429    207.8198   8.2330088507e+01  -4.9795036495e+00    0.1634595    0.1089099 -37.01 0.0006284801    1.678    0.404
        58 -11.4671    193.3658    194.4253   8.8198909293e+01   4.5212711504e+00    0.8279168    0.4732236 -60.21  0.003375335    3.235    0.691
        59  -9.6651      3.9930     38.5051   1.0828936866e+02   6.7473537818e+01    0.1381716   0.08640867  46.04 0.0008095778    2.467    0.595
        60 -10.8145    137.8819     44.2541   6.1786017946e+01   4.5298048779e+01    0.3125824    0.2557273  84.02 0.0004163985    1.443    0.307
        61 -10.1856    189.4921     15.0822   4.3786839548e+01   3.5851607636e+01    0.1951325    0.1347542 -29.14 0.0008441183    1.556    0.357
        62 -11.1216    184.1355    216.1378   9.3824400054e+01   2.6157134175e+00    0.2475382    0.1615486  41.79  0.001040797    1.372    0.271
