#   1 NUMBER                 Running object number                                     
#   2 MAG_AUTO               Kron-like elliptical aperture magnitude                    [mag]
#   3 X_IMAGE                Object position along x                                    [pixel]
#   4 Y_IMAGE                Object position along y                                    [pixel]
#   5 X_WORLD                Barycenter position along world x axis                     [deg]
#   6 Y_WORLD                Barycenter position along world y axis                     [deg]
#   7 A_WORLD                Profile RMS along major axis (world units)                 [deg]
#   8 B_WORLD                Profile RMS along minor axis (world units)                 [deg]
#   9 THETA_WORLD            Position angle (CCW/world-x)                               [deg]
#  10 FWHM_WORLD             FWHM assuming a gaussian core                              [deg]
#  11 ELONGATION             A_IMAGE/B_IMAGE                                           
#  12 ELLIPTICITY            1 - B_IMAGE/A_IMAGE                                       
         1 -14.8795      6.8026     71.3840   6.9266889051e+01   6.3192503296e+01      1.21338    0.8264982 -60.91  0.005094374    1.273    0.215
         2 -14.1349     41.4917      5.1891   2.0022751484e+01   7.3046389452e+01     1.319128    0.7672828   9.65   0.00595464    2.585    0.613
         3 -13.7352      6.1619     43.1451   6.3627940021e+01   7.0378240472e+01     1.505646    0.7767186 -26.51  0.007063849    2.102    0.524
         4 -13.1074      7.9476      2.2335   4.2732442567e+01   7.8887612995e+01    0.6176387    0.5241964  35.94  0.002313344    1.407    0.289
         5 -14.0746     26.6206     13.3913   3.4908213188e+01   7.4502540624e+01    0.7814799    0.5135365  12.75  0.003448873    1.763    0.433
         6 -15.8685     11.9400     21.7684   5.1224517099e+01   7.4764115925e+01     2.049905     1.173728 -29.69  0.009882335    1.792    0.442
         7 -12.2461    194.7650     23.2979   3.5607725283e+02   3.4321977234e+01     0.730771    0.2757429 -37.83  0.003044365    2.106    0.525
         8 -14.1853    122.3986     36.7299   9.9665983548e+00   5.0039036610e+01     1.044367    0.5601951  41.15  0.002616137    2.335    0.572
         9 -14.0955    189.2765     25.6784   3.5718416401e+02   3.5263295247e+01     2.375636        0.514 -40.51  0.008637605    3.149    0.682
        10 -14.4148    166.8736     29.7280   6.4903236490e-01   3.9966347261e+01    0.9941804    0.7764433  83.23  0.003792907    1.250    0.200
        11 -14.6152    147.7739     29.5926   3.0941530863e+00   4.4640347611e+01     1.343216    0.6757793  71.57  0.004569161    1.977    0.494
        12 -14.1925    216.9883     12.9220   3.5194161995e+02   3.0767347233e+01     1.092709      0.80721 -25.77  0.007070354    1.473    0.321
        13 -15.2667     99.7235     12.1423   4.6937102109e+00   5.8803760809e+01     1.502051    0.8440796  62.57  0.003326218    1.609    0.379
        14 -12.2445     85.4407     13.8046   8.8145416667e+00   6.2174077022e+01    0.4119771    0.3673497  84.60  0.002201295    1.138    0.121
        15 -11.9740     60.7409     15.5908   1.7823978181e+01   6.7712754149e+01    0.4577642    0.3479195  23.58  0.002517616    1.412    0.292
        16 -11.6796     71.0960     16.3429   1.4416586537e+01   6.5289277655e+01    0.3211821    0.2142436 -18.00  0.001623078    1.698    0.411
        17 -11.6562     74.3295     10.0018   9.9791570640e+00   6.5267100684e+01    0.3935114    0.2191357  -7.63  0.001739733    2.429    0.588
        18 -11.0440    123.3463     11.1338   1.2856350767e-01   5.2902766957e+01    0.1888068    0.1649506 -50.38  0.001114708    1.147    0.128
        19 -11.7947    153.0470      8.4170   3.5556590785e+02   4.5703590635e+01    0.2327737    0.1938406   6.31   0.00106047    1.566    0.362
        20 -11.6865    175.9521     13.8551   3.5509358003e+02   3.9644450069e+01    0.2162065    0.1588702 -54.08 0.0002679483    1.168    0.144
        21 -11.5763    232.3085      2.1119   3.4872443713e+02   2.8860224899e+01    0.2502077    0.1943536  46.92  0.001620146    1.909    0.476
        22 -12.0664     46.7138     12.9948   2.2551240084e+01   7.0994123288e+01    0.3654443    0.2663851  63.36  0.001552701    1.642    0.391
        23 -12.0497    120.0199      3.2056   3.5752961492e+02   5.4490357059e+01     0.474291    0.2347663 -76.83  0.001995625    2.414    0.586
        24 -10.9380     67.5269      3.0043   8.1205100153e+00   6.7578534699e+01    0.2758763    0.1560507  47.08  0.001367302    1.623    0.384
        25 -11.6308     81.0417      1.7124   3.7825298110e+00   6.4443157002e+01    0.6219631   0.09513629  61.09  0.001912873    4.030    0.752
        26 -11.3660     61.4875      1.4667   9.1274729974e+00   6.9126540948e+01    0.4174145    0.1192268  62.67  0.001482929    3.233    0.691
        27 -14.0309     27.9203    246.2487   7.6423793688e+01   1.8480045361e+01     1.588758     0.673592  76.83  0.008180712    2.692    0.628
        28 -12.9888    107.8197    245.9899   5.9452403649e+01   9.8741197994e+00    0.6406189    0.4971669 -83.59  0.004321374    1.785    0.440
        29 -14.5680     95.2359    234.6677   6.1035074498e+01   1.3308213926e+01     1.246315    0.8001666  62.41  0.007124942    1.926    0.481
        30 -11.9932      2.7480    249.3560   8.1676882073e+01   2.0147812808e+01    0.3577943    0.1949977  48.56  0.001877225    1.306    0.235
        31 -14.0227      9.6528    245.6385   8.0185954377e+01   2.0245174906e+01    0.8943819    0.3544573  45.82  0.003330975    1.742    0.426
        32 -13.4175     26.7586    225.5349   7.5754995204e+01   2.2596716163e+01    0.6291034    0.3660648 -61.25  0.003653401    2.049    0.512
        33 -14.2892     20.5938    224.3072   7.7090037621e+01   2.3422529629e+01     1.080126    0.6075755 -67.10  0.005937317    2.017    0.504
        34 -11.8977     98.6260    186.8505   5.4650218146e+01   2.2386877933e+01    0.3714291    0.2320275 -14.23  0.001577702    2.659    0.624
        35 -12.2113     48.4727    181.6854   6.7339152007e+01   3.0098156241e+01     0.484764    0.3111096 -43.62  0.002415708    1.939    0.484
        36 -12.1170    198.8043    181.3777   3.1885829953e+01   8.6916371905e+00    0.2487451    0.2126071 -36.40  0.001483334    1.301    0.232
        37 -10.6555    122.8249    181.9634   4.7929995608e+01   1.9856673567e+01    0.2218421    0.1617977  81.11  0.001077755    2.062    0.515
        38 -12.4838    124.2252    166.5130   4.4971886289e+01   2.2924328803e+01    0.6032141    0.4143141 -67.98  0.002898006    1.807    0.447
        39 -13.4672     22.3131    180.9122   7.4421023741e+01   3.2961619383e+01    0.6056584    0.4150676 -74.76  0.002595092    1.452    0.311
        40 -11.7407    237.9760    159.0000   2.1489905049e+01   6.8143881688e+00    0.1661033   0.06608852  40.60 0.0008090904    2.989    0.665
        41 -12.0446     85.4246    153.0435   5.3067954667e+01   3.2269889784e+01    0.6144202    0.3855602 -29.28  0.002564924    2.269    0.559
        42 -12.3433     77.2927    156.9761   5.6079226558e+01   3.2499279961e+01    0.4870171    0.3721883  18.42  0.001257112    1.461    0.315
        43 -13.2200     74.0086    153.3088   5.6484074165e+01   3.3896213972e+01    0.7393101      0.50329  25.78  0.001816486    1.550    0.355
        44 -11.8157    111.7933    155.8219   4.6213697410e+01   2.7367363066e+01    0.5130447    0.3262028  71.75  0.002063002    2.543    0.607
        45 -11.8260     55.3060    155.7633   6.2497836804e+01   3.5773696263e+01    0.4857591    0.3014171 -23.94  0.002035507    2.506    0.601
        46 -12.1450    211.5315    154.1704   2.4614978302e+01   1.1216057361e+01    0.2827871    0.1805118  -3.27  0.001472352    2.017    0.504
        47 -11.6484    103.6142    149.6059   4.7272150066e+01   3.0192784907e+01    0.3803602    0.2873165 -20.16   0.00137177    1.686    0.407
        48 -11.9544    245.3069    147.6549   1.8353221098e+01   7.4724414770e+00    0.2361728    0.1794157 -53.07  0.001559402    1.713    0.416
        49 -11.4417     59.9223    148.5075   6.0079663015e+01   3.7070267289e+01    0.2243154    0.1423986  29.97  0.001032471    1.589    0.371
        50 -11.3448     38.1006    145.7046   6.6683377440e+01   4.0410759078e+01     0.195013    0.1851721  47.07 0.0006566322    1.118    0.106
        51 -12.8853     41.9487    137.9361   6.4457239720e+01   4.2073714911e+01    0.5800868    0.3405209  36.29  0.002671332    1.655    0.396
        52 -12.7714    246.3447    134.5762   1.5717552704e+01   9.1940134357e+00    0.3522646    0.2651258 -71.83  0.002161564    2.275    0.560
        53 -10.4681     10.8540    133.9129   7.4615766556e+01   4.6007070648e+01    0.1920721     0.139714  60.19 0.0003874455    1.286    0.222
        54 -11.3574    138.7194    131.5839   3.4312088776e+01   2.7991648219e+01    0.3311968     0.244104 -11.36  0.001522045    1.812    0.448
        55 -11.2808      5.4960    128.5295   7.6060716579e+01   4.7814065635e+01    0.3239194    0.1555037 -44.76  0.001386274    2.410    0.585
        56 -11.9228    222.8633    127.7518   1.7537498038e+01   1.3671502815e+01    0.2486609    0.1449697 -53.45  0.001256794    2.089    0.521
        57 -14.2148    106.0998    121.4135   4.0618191822e+01   3.6552649774e+01     1.623109     1.145673  33.58  0.007453629    1.503    0.335
        58 -14.6807    105.9399    104.4926   3.6430006980e+01   4.0620151161e+01      1.45545     1.257129  32.58  0.007344327    1.240    0.194
        59 -11.1814     58.8280    124.6032   5.6578320641e+01   4.3569728340e+01    0.3107995    0.2286563  85.79 0.0007303969    1.483    0.326
        60 -11.9246    181.0710    120.2149   2.2689496101e+01   2.2167649380e+01    0.2582575    0.1972809 -50.12 0.0009533133    1.291    0.226
        61 -12.6442      4.6432    119.2890   7.5676245298e+01   5.0364987393e+01    0.5635086    0.3613994   1.77  0.002852168    1.920    0.479
        62 -13.1600     20.5183     86.3321   6.5056367793e+01   5.8273213744e+01     0.779945    0.4722323   3.50   0.00079543    2.016    0.504
        63 -14.5268     18.2254    110.7110   6.9631190531e+01   5.1792714329e+01     1.067085    0.8494056 -11.51  0.004168712    1.504    0.335
        64 -14.0525     11.0163    103.1688   7.1655140743e+01   5.4374477164e+01    0.8636665    0.6959624  35.44   0.00402772    1.329    0.248
        65 -13.7245      2.4080     97.0212   7.4622268779e+01   5.6538875429e+01     1.032455      0.43338 -78.78  0.003231714    2.071    0.517
        66 -14.6479     25.2143     93.7306   6.4227819404e+01   5.5866182334e+01     1.707988     1.003074  -0.05  0.007499705    2.229    0.551
        67 -11.9820     78.9961    110.9708   4.6723394768e+01   4.4057501209e+01    0.3036573    0.2616069 -85.61 0.0008275106    1.213    0.176
        68 -13.0678     84.9021    115.0386   4.5694514481e+01   4.1997368419e+01    0.8393254    0.4410632  29.37  0.002322298    2.190    0.543
        69 -11.7338     88.5130    110.0030   4.3303122794e+01   4.2624917274e+01    0.4807439    0.2411319 -60.81  0.001564051    2.143    0.533
        70 -10.9669    194.8103    113.3951   1.8725526395e+01   2.0821767373e+01     0.175726     0.127864  34.38 0.0007339292    1.629    0.386
        71 -11.4650     45.9305    110.2167   5.8667164229e+01   4.9151451986e+01    0.6466264     0.280681 -36.93  0.002059759    3.606    0.723
        72 -10.7369     42.9421    107.2596   5.9281193771e+01   5.0318527123e+01    0.2013344    0.1924996  53.10 0.0004561685    1.091    0.084
        73 -12.0192    121.3675    111.7110   3.3946174840e+01   3.5828757957e+01    0.3883158    0.2616028  63.08  0.001259716    1.842    0.457
        74 -11.8307     62.5836    108.8678   5.2088737376e+01   4.7240895217e+01     1.464037    0.4463721 -66.39  0.003979576    4.208    0.762
        75 -10.5317     64.6651    101.7059   4.9668316845e+01   4.8810635234e+01      0.19967    0.1450511  43.93 0.0002768144    1.411    0.291
        76 -10.9477     62.3171     98.6633   4.9827845459e+01   4.9971236278e+01    0.2735607    0.1810707  47.78 0.0006930123    1.594    0.373
        77 -11.6732     58.9928     97.0000   5.0718469528e+01   5.0912684049e+01    0.4364967    0.2325473  27.50   0.00136925    2.082    0.520
        78 -10.8968    222.9607    109.0000   1.3550340335e+01   1.6576976241e+01    0.1781186   0.07466961  52.37 0.0008001045    2.926    0.658
        79 -12.3323     36.7607     92.6972   5.8970301169e+01   5.4981683887e+01    0.4526001    0.3228739  14.65  0.001515649    1.603    0.376
        80 -12.7337    135.8548    102.8720   2.7921599590e+01   3.4743731954e+01     0.624511    0.3534673  49.54  0.001678481    1.857    0.462
        81 -13.2271    120.2510    102.2604   3.1759173937e+01   3.8184386999e+01    0.6552817     0.359386  45.35  0.002660315    1.880    0.468
        82 -12.0208     49.1225     93.4245   5.3864016198e+01   5.3261608888e+01    0.8616483    0.4380233 -46.77  0.003029777    1.991    0.498
        83 -11.4217     48.6674    100.6891   5.5680383777e+01   5.1382658266e+01    0.3356104     0.278415 -20.25  0.001574143    1.406    0.289
        84 -12.2740     52.2759     98.0189   5.3635951393e+01   5.1611362177e+01    0.8235841    0.4109552  11.73  0.002781065    3.365    0.703
        85 -10.1677     75.4594    100.5357   4.5399685754e+01   4.7335443452e+01    0.1547793    0.1474961 -82.73 0.0002630992    1.029    0.028
        86 -12.2979    163.5257     97.6500   2.0491332716e+01   2.9880566472e+01    0.3666923    0.3267015  44.36 0.0008599897    1.230    0.187
        87 -11.6083     90.4990     97.0200   3.9255896498e+01   4.5453435308e+01    0.3595276    0.2827037  17.36  0.001675114    1.566    0.361
        88 -12.8138    137.1841     95.1121   2.5489192910e+01   3.6073641778e+01    0.4755934    0.3903627  76.68  0.001330186    1.390    0.281
        89 -10.6789     74.2512     95.4594   4.4508385981e+01   4.8831392038e+01    0.2933109    0.1573888  29.70  0.001012972    2.136    0.532
        90 -11.7144     42.9382     90.3427   5.5774213808e+01   5.4881554637e+01    0.4118525    0.2373624 -65.86  0.001139473    1.655    0.396
        91 -13.5462     32.2300    112.1238   6.4317993338e+01   5.0159538335e+01    0.7832069    0.3925221 -61.65  0.003340018    1.787    0.440
        92 -10.1068     78.6683     87.2629   4.0587510304e+01   5.0064825354e+01    0.1547101    0.1194213  73.10 0.0002527284    1.574    0.365
        93 -13.4326    188.3966     84.1422   1.2694917132e+01   2.7051216651e+01    0.6548875    0.3461203  44.69  0.002096222    2.322    0.569
        94 -12.1412    152.3141     83.0737   1.8775666823e+01   3.5063583426e+01    0.5631859    0.2532508  41.63  0.001919562    2.854    0.650
        95 -12.1294    159.1234     65.3167   1.2371632096e+01   3.6630825430e+01    0.7375586    0.2240086 -46.10  0.002366708    3.245    0.692
        96 -13.3731    164.8513     70.9275   1.2987557835e+01   3.4375863321e+01    0.9918392    0.4494658  51.06  0.003103469    2.396    0.583
        97 -13.6613    160.6184     80.8054   1.6517632437e+01   3.3613685225e+01     1.178627    0.7092311  21.17  0.002686033    3.679    0.728
        98 -14.2938    169.3636     77.0531   1.3912906360e+01   3.2322717725e+01     1.458639    0.5004521  55.61  0.005226154    3.087    0.676
        99 -12.7760    237.4801     79.9976   5.5219053541e+00   1.8406626355e+01    0.3718841    0.2538736 -74.66  0.002207772    1.867    0.464
       100 -13.1092     28.4655    122.0065   6.7135291377e+01   4.7807930768e+01    0.5270602    0.3769801 -59.91  0.002305407    1.338    0.253
       101 -14.4055    101.1873     50.3810   2.0346172887e+01   5.3068464190e+01     1.280781     0.895349  40.42  0.004351803    1.552    0.356
       102 -13.3446     79.5673     59.2456   3.0856221621e+01   5.6216895656e+01     1.603801     1.160939  10.69  0.007110106    2.004    0.501
       103 -13.9476     62.1484     58.6934   3.7661265796e+01   5.9745353208e+01     2.482585     1.439638 -13.26  0.007659523    4.448    0.775
       104 -13.1713     66.1004     49.6283   3.2354346918e+01   6.0902600764e+01    0.7529557    0.6483662 -66.24  0.003844568    1.302    0.232
       105 -13.8651     73.9434     73.8366   3.8174583679e+01   5.4137481331e+01     1.537769    0.8140596  20.13  0.004905674    3.714    0.731
       106 -13.5191     87.4750     65.2844   3.0257524570e+01   5.3293064725e+01    0.9084355    0.6139802  -9.62  0.002987684    2.547    0.607
       107 -13.2892     55.6008     80.3271   4.7702220327e+01   5.5719589438e+01    0.7168906    0.4863511 -38.54  0.001984221    1.580    0.367
       108 -13.9565     61.2236     75.6865   4.3914410976e+01   5.5966678326e+01      0.92524    0.6021761 -51.98  0.001586858    1.473    0.321
       109 -12.6295    216.4345     80.7137   8.0430073078e+00   2.2067616479e+01     0.466364    0.3990088 -32.97  0.002006512    1.131    0.116
       110 -12.3242    210.4256     77.7286   8.0800907019e+00   2.3660078351e+01     0.448704    0.2449754 -57.77  0.002136148    2.046    0.511
       111 -11.9642    114.2394     80.0730   2.6941138104e+01   4.4300151806e+01    0.4714093    0.3301521 -50.58  0.001417646    1.408    0.290
       112 -12.8155    135.6530     79.2803   2.1274943034e+01   3.9579213365e+01    0.7137391    0.3838791  53.59  0.002362129    1.930    0.482
       113 -13.9350    170.4561    242.1181   4.6506198034e+01   3.1287060131e+00    0.8040966    0.4962777  15.27  0.005157263    1.397    0.284
       114 -14.2102      5.5712     63.4663   6.8562027132e+01   6.5322879893e+01     0.760371    0.6829845 -13.54  0.003757025    1.200    0.167
       115 -11.8436     42.2253     77.6880   5.2946452204e+01   5.8284048586e+01    0.4836586    0.2855772 -73.70  0.001712265    1.912    0.477
       116 -11.4276     27.3363     76.3150   5.9750496594e+01   6.0332258216e+01      0.32499    0.2337416  88.46    0.0011256    1.557    0.358
       117 -13.6501    198.6756     70.1437   7.7213650508e+00   2.7155866496e+01    0.8158078    0.4766845  42.16  0.003255221    2.318    0.569
       118 -11.3357    214.4804     71.5110   6.1207644403e+00   2.3803052703e+01    0.1317265    0.1080224 -45.74 7.798516e-05    1.003    0.003
       119 -10.1696     26.2962     70.3389   5.8848145678e+01   6.1989633062e+01    0.1526023   0.09573222 -37.70 0.0004921127    1.656    0.396
       120 -12.7649    135.1331     65.8437   1.7238179430e+01   4.2203341399e+01    0.5940344    0.4937876  25.81  0.001746331    1.495    0.331
       121 -11.9888     43.4393     64.7641   4.8547745320e+01   6.1355293717e+01    0.3446751    0.2186491 -50.33  0.001135049    1.478    0.323
       122 -12.3039     39.1383     67.7769   5.1618798326e+01   6.1189558473e+01    0.8063025    0.2486092  32.06  0.002749962    3.176    0.685
       123 -12.0373    100.3657     64.5514   2.5814870406e+01   5.0601837721e+01    0.4097504    0.3281583 -27.72  0.001384385    1.388    0.279
       124 -12.2135     36.5101     54.3446   4.8601469233e+01   6.4779601200e+01    0.3362522    0.2609683   2.16  0.001427856    1.448    0.309
       125 -12.4151     34.6091     60.3034   5.1636489869e+01   6.3597370261e+01    0.4559793    0.2648644 -46.45  0.001481389    1.623    0.384
       126 -12.0174     39.1230     60.1474   4.9213908164e+01   6.3057936296e+01    0.3508617    0.2371259  66.78  0.001584823    2.112    0.527
       127 -13.6023    177.9250     57.0833   7.0793710075e+00   3.3616316142e+01    0.8370454    0.5179675 -50.50   0.00243694    1.478    0.323
       128 -12.0199     24.6066     59.4776   5.6855515064e+01   6.4909407151e+01    0.5308711    0.3262967 -39.38  0.002234107    1.618    0.382
       129 -14.6253    119.9605     54.6094   1.6965922405e+01   4.7827008978e+01     1.020082    0.6204905  48.85  0.001689553    1.697    0.411
       130 -12.9955    136.2896     50.6307   1.2039322538e+01   4.4492155927e+01    0.5971916     0.518618 -31.89 0.0009585099    1.216    0.178
       131 -11.6234    247.7013     54.5404   3.5912611233e+02   2.0063783787e+01    0.3897864   0.09467733 -44.92  0.001596267    2.949    0.661
       132 -10.7040     47.8011     56.5877   4.3551357817e+01   6.2639978460e+01    0.2074579    0.1305101  46.03 0.0008604424    1.745    0.427
       133 -11.1773     17.5286     54.8811   5.9643691511e+01   6.6696713141e+01    0.3256304    0.2083287 -72.36   0.00162972    1.578    0.366
       134 -10.9462    231.5232     55.4976   6.8797035234e-01   2.2814644582e+01    0.1252905    0.0974473 -46.91 0.0002028633    1.001    0.001
       135 -10.4607     23.5304     49.9951   5.4545072387e+01   6.7327371079e+01     0.202115    0.1255354 -58.39 0.0004565018    1.490    0.329
       136 -11.0799    248.3243     49.3120   3.5797127263e+02   2.0613867960e+01    0.1041984   0.08730321  -2.26 0.0003358265    1.658    0.397
       137 -12.5825    154.5385     46.5176   7.4731567866e+00   4.0665961794e+01    0.5121646     0.253609  61.21   0.00221187    2.026    0.506
       138 -13.1454    158.6086     43.1067   5.7963134838e+00   4.0175180931e+01     0.532944    0.4604464  65.51  0.002048234    1.220    0.180
       139 -12.7948    147.8551    238.9783   5.0473201773e+01   6.2197829446e+00     0.375064    0.2518826  52.42  0.001648526    2.099    0.524
       140 -12.2582    144.6769    233.4705   5.0423559682e+01   7.4539765861e+00    0.4078512    0.2237016 -37.84  0.002302639    2.033    0.508
       141 -13.5028     57.6236    203.2668   6.6910069467e+01   2.4074053924e+01     1.015589    0.5806465 -77.07  0.005220166    1.918    0.479
       142 -13.5845     64.6949    224.2974   6.6983224800e+01   1.8863009366e+01     1.074206     0.532859  41.21  0.005621721    1.634    0.388
       143 -12.8981      3.1204     34.4348   6.3270837954e+01   7.2618066458e+01    0.3386426    0.3077894 -73.69  0.001208872    1.181    0.153
       144 -14.1706     63.9943    214.5367   6.6333160123e+01   2.0925309502e+01    0.7300909    0.4414361  53.99  0.003981407    1.562    0.360
       145 -13.2712     59.6535    212.8239   6.7229877440e+01   2.1784596734e+01    0.5429676    0.3503874 -23.82  0.001898463    2.442    0.591
       146 -13.8378    217.9191     41.7279   3.5870126047e+02   2.7211513390e+01    0.9550802    0.3998488  66.24   0.00444878    2.642    0.622
       147 -13.0427    205.2903     39.7971   3.5936453211e+02   3.0040432628e+01    0.6819277    0.3307608 -89.04  0.003053249    2.719    0.632
       148 -12.0983    135.0020     39.7960   8.6129522425e+00   4.6447782632e+01    0.5509068    0.3245638  88.03  0.001828918    2.143    0.533
       149 -12.6310    110.1182     41.9275   1.4703045900e+01   5.2315053921e+01    0.5154722    0.2402228  57.81 0.0009486378    2.076    0.518
       150 -13.0571    113.4991     37.8222   1.2315232312e+01   5.2103008821e+01    0.4211721    0.3518836  67.89   0.00132101    1.161    0.139
       151 -11.1498    248.9950    225.2419   3.0942662598e+01  -2.9820886194e+00    0.1267226   0.07277298  21.68 0.0008958841    1.649    0.393
       152 -12.9706    131.5572     33.2865   6.9604354049e+00   4.8215701944e+01    0.5347271    0.4351831  31.85   0.00159298    1.497    0.332
       153 -12.8085     46.1484     33.5045   3.4443839988e+01   6.7741359629e+01    0.7446185    0.4741547  31.31    0.0036768    1.629    0.386
       154 -12.1903     40.5081     40.2187   4.0714219816e+01   6.7338646936e+01    0.5625833    0.3044384  36.67  0.002581345    1.874    0.466
       155 -13.2188     32.8657     40.1723   4.5130300627e+01   6.8455047811e+01    0.7022786    0.3844328 -35.56  0.002330407    1.964    0.491
       156 -13.1984     74.8518     37.0415   2.3342363082e+01   6.1401335603e+01    0.6934593    0.3338506  53.84  0.001771912    2.105    0.525
       157 -12.7693    242.9138     36.0863   3.5552896839e+02   2.3175407965e+01    0.4895719    0.2855609 -87.80  0.002663381    1.974    0.493
       158 -11.3451    104.4953     36.9935   1.4170237139e+01   5.4452121582e+01    0.2236023    0.1428757 -34.49  0.001037779    1.604    0.377
       159 -13.0494     57.3058    246.8587   7.0241904372e+01   1.5416555238e+01    0.5139239    0.3422317  18.74  0.002902949    1.535    0.348
       160 -12.8083     94.3776    218.2392   5.9539569314e+01   1.6472952850e+01    0.3570438     0.210112  33.25  0.001417007    1.437    0.304
       161 -10.3768      5.4918    219.5026   8.0312467871e+01   2.5730040633e+01    0.1200707   0.09196953  54.95 5.472642e-06    1.002    0.002
       162 -12.7262    140.4431     21.3387   1.3628031021e+00   4.7469658409e+01    0.6207576    0.3362488  72.37  0.001397208    1.773    0.436
       163 -13.1482    217.0491     28.8340   3.5570596575e+02   2.8968439920e+01    0.4890912    0.2683565 -59.89  0.002687008    1.639    0.390
       164 -11.6849     41.0000    245.9625   7.3655624972e+01   1.7259788358e+01    0.2778513    0.1637557 -79.32  0.001729505    1.950    0.487
       165 -12.1719    223.4912     20.8868   3.5340297510e+02   2.8596168343e+01     0.299326    0.2372265  57.83  0.001396463    1.638    0.389
       166 -13.3966     57.5533     26.9699   2.5458815717e+01   6.6724979641e+01     1.040773    0.3419265  45.49  0.003737944    2.931    0.659
       167 -12.5087    120.5023     26.5010   6.4969600454e+00   5.1891527925e+01    0.5521669    0.3583851  68.93  0.002159802    1.477    0.323
       168 -12.1985     30.5774     25.3683   3.9383996233e+01   7.1777894065e+01    0.3727607    0.2499384  19.88  0.001532004    1.589    0.371
       169 -11.7692     35.8430     23.1411   3.4799098027e+01   7.1370570686e+01    0.3523108    0.2441136 -23.57  0.001594862    1.547    0.354
       170 -12.5904     72.0290    206.5406   6.3646171047e+01   2.1647733595e+01    0.3189553    0.2329545  41.52  0.001855807    1.183    0.154
       171 -10.5564    136.5087    210.9892   4.9150345427e+01   1.2276236322e+01     0.176124    0.1255973 -49.62 0.0009202462    1.577    0.366
       172 -12.0553     47.8303     19.8931   2.6183438769e+01   6.9767743360e+01    0.6951738    0.2444418  49.04  0.002633487    2.856    0.650
       173 -11.5414     37.6852    210.3153   7.2355888624e+01   2.4708512655e+01    0.1868422    0.1410306  59.15   0.00115801    1.146    0.127
       174 -12.5889     46.6767    208.8774   7.0069772786e+01   2.4073579133e+01    0.5241082    0.2261613  67.04  0.002188728    2.891    0.654
       175 -11.0524     80.4932    208.3210   6.1763958664e+01   2.0221489206e+01    0.2442446    0.1257951  46.39  0.001170134    1.796    0.443
       176 -13.9034     16.9259    195.9161   7.6666156020e+01   2.9906405234e+01     1.383893    0.3406174 -58.15   0.00475653    4.726    0.788
       177 -10.2235    151.3460    206.3252   4.5303870439e+01   1.1083090353e+01    0.1334436   0.08951153  -5.83 0.0007050163    1.744    0.427
       178 -13.2493      9.2566    149.0746   7.6203134625e+01   4.2093474573e+01    0.9722578    0.6415368  62.25  0.005202552    1.370    0.270
       179 -14.0471     30.1094    168.7937   7.1370130562e+01   3.5223815608e+01     0.846527    0.5392215 -38.54  0.002957871    2.064    0.515
       180 -15.7490      8.9443    179.4955   7.7950766424e+01   3.4443117549e+01     2.226946     1.338133 -80.03   0.01168645    1.581    0.368
       181 -13.8439     40.5050    195.8873   7.0651211578e+01   2.7629761756e+01    0.8590459    0.4029116  49.29   0.00406205    1.872    0.466
       182 -11.4215    164.7489    195.8836   4.0893019478e+01   1.1034518434e+01    0.3429474    0.2375205  83.51  0.001391538    4.359    0.771
       183 -11.4817    201.0464    191.2273   3.3205362255e+01   6.8609251137e+00    0.2752728    0.2043274   1.95  0.001405769    1.238    0.192
