#   1 NUMBER                 Running object number                                     
#   2 MAG_AUTO               Kron-like elliptical aperture magnitude                    [mag]
#   3 X_IMAGE                Object position along x                                    [pixel]
#   4 Y_IMAGE                Object position along y                                    [pixel]
#   5 X_WORLD                Barycenter position along world x axis                     [deg]
#   6 Y_WORLD                Barycenter position along world y axis                     [deg]
#   7 A_WORLD                Profile RMS along major axis (world units)                 [deg]
#   8 B_WORLD                Profile RMS along minor axis (world units)                 [deg]
#   9 THETA_WORLD            Position angle (CCW/world-x)                               [deg]
#  10 FWHM_WORLD             FWHM assuming a gaussian core                              [deg]
#  11 ELONGATION             A_IMAGE/B_IMAGE                                           
#  12 ELLIPTICITY            1 - B_IMAGE/A_IMAGE                                       
         1 -14.1017     67.4944    143.9980   1.2659665997e+02   3.8131780778e+01     3.603302     1.639516 -81.79   0.00311942    5.660    0.823
         2 -13.7870    210.6986      4.3252   5.8537748083e+01   3.1806718135e+01     1.331457    0.7556442  65.82  0.003977736    1.542    0.351
         3 -14.0883    188.0695     28.8812   6.6991642734e+01   3.4526528593e+01     1.550982     1.300198 -11.75  0.005280776    1.558    0.358
         4 -14.0037    196.4102     22.4726   6.4300329891e+01   3.3240887062e+01     1.445595     1.008042 -43.80  0.005926601    1.508    0.337
         5 -12.5619    202.6072     14.3986   6.1652031257e+01   3.2654039992e+01    0.5340376    0.4230925  45.95  0.001223441    1.518    0.341
         6 -11.7742    183.7620    249.5541   1.1750727912e+02  -4.4696169054e+00     0.469741    0.1521606  38.50  0.001861973    2.629    0.620
         7 -12.0630    202.2045    249.5551   1.1392503109e+02  -7.5448616473e+00    0.6963283    0.1246895  40.70  0.002123257    4.706    0.788
         8 -11.9608    170.6165    247.8286   1.1983420649e+02  -1.9493954010e+00    0.4549024    0.2842672  33.34  0.002471343    1.425    0.298
         9 -13.0773    141.5595    248.1356   1.2563854945e+02   3.0327611835e+00    0.9709329     0.499211  52.37  0.004727226    1.823    0.451
        10 -13.8027     56.7585    224.9618   1.3973552807e+02   2.0987548773e+01     1.256838    0.6348028 -59.26  0.006617201    2.124    0.529
        11 -14.7597     33.2216    247.5542   1.4582597415e+02   1.9481311344e+01     2.465354     1.021957  42.87    0.0127084    2.134    0.531
        12 -16.4141     51.3612    203.9558   1.3872760912e+02   2.6211875266e+01     13.29076     6.131973  74.77   0.05544863    2.931    0.659
        13 -11.8442     76.5755    182.7222   1.3052843182e+02   2.7552071705e+01    0.3176371    0.2540371 -46.65  0.001039788    1.472    0.321
        14  -9.3160    170.5980    215.1814   1.1458164364e+02   3.7039195382e+00    0.1810076    0.1333746 -30.92 0.0004901366    1.590    0.371
        15 -11.4733     84.8208    171.5959   1.2684688112e+02   2.8911489263e+01    0.2850249     0.252851 -63.84 0.0003676405    1.143    0.125
        16 -13.3911     90.0909    164.2640   1.2429635727e+02   2.9815810853e+01     3.517176    0.9341463  49.38 0.0007625427    5.201    0.808
        17 -11.8899    161.6275    249.5379   1.2186143460e+02  -6.7176131105e-01     0.582333     0.202442  38.79  0.002356503    2.478    0.596
        18 -13.4791     72.9007    168.3836   1.2926950629e+02   3.1491916168e+01    0.5063329    0.3840467 -35.78  0.001803623    1.699    0.412
        19 -10.5102    142.3115    169.3355   1.1233077285e+02   1.8848625217e+01    0.2949691    0.2602799  80.86 0.0006309068    1.202    0.168
        20 -10.9130    230.3626    166.2437   9.2692987686e+01   1.2394822223e+00    0.2579194    0.1777839 -45.07 0.0008952507    1.465    0.318
        21 -15.9944      6.7320    239.7051   1.4973586931e+02   2.3935168340e+01     15.02866     1.057405 -74.86    0.0396108   10.244    0.902
        22 -12.5416     46.0604    147.2751   1.3281993112e+02   4.0037596369e+01    0.5808962    0.3484278 -70.88   0.00301312    1.489    0.329
        23 -10.3006    133.8691    144.7660   1.0913098254e+02   2.6240129057e+01     1.024706    0.2108058 -53.96  0.001855157    9.082    0.890
        24  -9.8548    105.3716    143.9136   1.1637503547e+02   3.2053589485e+01    0.3599845    0.2043762 -36.93  0.001422777    2.206    0.547
        25 -12.3130     91.7766    146.8846   1.2061693575e+02   3.3722472959e+01    0.2898349     0.261679 -37.07 0.0004921808    1.216    0.178
        26 -12.5649     55.4557    145.5671   1.3008435084e+02   3.9331783594e+01    0.5754747    0.4614401 -30.07  0.003284174    1.534    0.348
        27 -14.6209     11.7789    206.7192   1.4677899737e+02   3.0081949256e+01     1.181465    0.9010321  52.29  0.003342566    1.377    0.274
        28 -13.2268     40.8089    125.5835   1.3072946232e+02   4.5740438632e+01    0.8461106    0.2637517 -61.83  0.003276348    2.651    0.623
        29 -10.9237    100.2914    130.9947   1.1492367662e+02   3.6045795077e+01    0.3241544     0.239586 -33.83 0.0007241449    1.523    0.343
        30 -12.2318     35.1587    131.8844   1.3334664772e+02   4.4830788566e+01    0.4077986    0.2145576  39.40  0.001590071    2.130    0.531
        31  -9.5186    160.9859    128.2439   9.8509504918e+01   2.3970028088e+01    0.3112505    0.2053157 -57.56  0.001292998    1.704    0.413
        32 -10.4255    102.9874    147.4954   1.1775822860e+02   3.1629270917e+01    0.4288788    0.3186197 -35.34 0.0009628563    1.565    0.361
        33 -13.9423     45.5100    228.1432   1.4216258365e+02   2.1802058615e+01     1.294393    0.5052448  49.28  0.006441297    2.162    0.537
        34  -9.6097    118.1666    127.2605   1.0914710851e+02   3.3520348341e+01    0.2519297    0.1685027 -10.19 0.0009340296    2.681    0.627
        35 -11.0727    193.2072    195.0341   1.0606121478e+02   3.1323198303e+00    0.8909527    0.4456203 -63.30  0.002552488    5.537    0.819
        36 -10.9374    168.0990    112.8311   9.2960239053e+01   2.5566214818e+01      0.37374    0.3064477 -86.73 0.0007233265    1.444    0.307
        37  -9.7244    108.9128    121.9863   1.1040546997e+02   3.6549997501e+01    0.2160404    0.2115282 -36.11 0.0003607992    1.033    0.032
        38 -10.7031     20.0478    111.0283   1.3425828245e+02   5.0942354877e+01    0.1883158    0.1586362 -68.02 0.0005993887    1.078    0.073
        39  -9.6380    205.3392    110.2687   8.4618188139e+01   1.7224859871e+01    0.3402057    0.2106943  47.74  0.001304123    1.675    0.403
        40  -9.9816    112.6048    134.2485   1.1229600230e+02   3.2985834677e+01    0.3373663    0.2574131 -15.07  0.000937295    1.787    0.440
        41 -10.0670     15.7251     91.8659   1.3218009315e+02   5.5476648838e+01    0.1888085    0.1700035  24.26 0.0004253298    1.371    0.271
        42  -9.3884    155.4951     77.0447   8.6100163451e+01   3.5515770884e+01    0.2251991    0.1522171 -37.38  0.000749658    1.548    0.354
        43 -10.1470    137.7318    172.1810   1.1400154175e+02   1.9136456859e+01    0.3322303    0.2338993  81.38  0.001423096    1.958    0.489
        44 -10.8211    249.5599    245.7878   1.0446509277e+02  -1.4285557170e+01    0.2637769    0.1071469 -36.77  0.001299348    2.608    0.617
        45 -13.8245     48.3526    219.1927   1.4082803425e+02   2.3302753607e+01    0.9771577    0.5317637  75.53  0.001843637    1.827    0.453
        46 -11.8539     72.1736    189.0262   1.3242050487e+02   2.6737095175e+01    0.4204288    0.2693682 -41.86  0.002056504    2.121    0.529
