#   1 NUMBER                 Running object number                                     
#   2 MAG_AUTO               Kron-like elliptical aperture magnitude                    [mag]
#   3 X_IMAGE                Object position along x                                    [pixel]
#   4 Y_IMAGE                Object position along y                                    [pixel]
#   5 X_WORLD                Barycenter position along world x axis                     [deg]
#   6 Y_WORLD                Barycenter position along world y axis                     [deg]
#   7 A_WORLD                Profile RMS along major axis (world units)                 [deg]
#   8 B_WORLD                Profile RMS along minor axis (world units)                 [deg]
#   9 THETA_WORLD            Position angle (CCW/world-x)                               [deg]
#  10 FWHM_WORLD             FWHM assuming a gaussian core                              [deg]
#  11 ELONGATION             A_IMAGE/B_IMAGE                                           
#  12 ELLIPTICITY            1 - B_IMAGE/A_IMAGE                                       
         1  -8.7463    236.1729      2.7157   5.9469726689e+01   2.5400858177e+01    0.2929899    0.2176376 -29.26 0.0009634338    1.447    0.309
         2  -6.7587    202.2918    249.6756   1.1905114021e+02  -3.4288813305e+00    0.1038693   0.08199858  57.40 0.0005181442    1.615    0.381
         3  -8.4038    248.5784    250.1277   1.1144833615e+02  -1.0340399233e+01     0.367594    0.1138258  34.83  0.001769471    2.606    0.616
         4  -8.0810    225.8076    248.4655   1.1491620182e+02  -6.8862157922e+00    0.2297551    0.1520312 -11.64  0.001537512    1.714    0.417
         5  -8.9917     59.5218    249.3778   1.4364660349e+02   1.8164288922e+01    0.2194228    0.1537636  48.87 0.0007383196    1.315    0.239
         6  -8.0882     20.5524    249.1648   1.4981660762e+02   2.2744889062e+01    0.2355159    0.0499146  50.14  0.001216328    2.769    0.639
         7  -8.9639     11.3290    248.7198   1.5119592519e+02   2.3775779843e+01    0.3385428   0.09319896  56.06  0.001920662    2.395    0.583
         8  -8.4482    212.6857    247.3193   1.1695279825e+02  -4.7712049803e+00    0.2309496    0.1524075  42.24  0.001176049    1.329    0.247
         9  -8.8313    242.7806    245.6176   1.1170151675e+02  -9.0789120075e+00    0.2580325    0.1724216   1.63  0.001570446    1.457    0.314
        10  -8.7536    233.7428    245.1257   1.1310724620e+02  -7.7129524844e+00    0.3286815    0.1902841 -10.41  0.001988453    2.090    0.521
        11  -7.4656     36.0104    248.0000   1.4735533006e+02   2.1231738346e+01    0.1604165   0.04609752  39.92 0.0006954256    2.950    0.661
        12  -7.5788    158.3249    246.3199   1.2627280513e+02   4.0182702230e+00    0.1142947   0.08186501  21.10 0.0007046107    1.678    0.404
        13  -7.7361    249.4854    244.6306   1.1046711611e+02  -9.9348251545e+00    0.2519684    0.1186703  17.92  0.001302177    2.493    0.599
        14  -7.6136    219.3477    243.8477   1.1532174293e+02  -5.4077073961e+00     0.145885   0.09744038 -12.45 0.0008191326    1.741    0.426
        15  -8.4041      2.4605    242.6301   1.5230080631e+02   2.5663633809e+01    0.2372422   0.08694383  65.55  0.001481037    1.993    0.498
        16  -8.2117    247.4666    239.1253   1.0993770893e+02  -9.0964770094e+00    0.2266665    0.1350882  17.60  0.001176481    1.500    0.333
        17  -7.8224    226.0069    240.4750   1.1369509535e+02  -6.0532604218e+00    0.1760424   0.09045187  38.16  0.001017176    1.547    0.354
        18  -7.3129    214.5399    239.9278   1.1555997373e+02  -4.2167319628e+00    0.1552653   0.09029894  -3.08 0.0008083667    2.575    0.612
        19  -6.7949    170.3276    240.3221   1.2337740523e+02   2.8850889867e+00    0.1185195   0.08269715  19.56 0.0007048461    1.689    0.408
        20  -7.8117     16.6515    239.6818   1.5000350520e+02   2.4746635801e+01   0.08298717   0.07413857 -74.61 0.0007048328    1.732    0.423
        21  -8.1963    243.5244    235.9074   1.1007399949e+02  -8.1890610926e+00    0.1496428    0.1030598 -20.62 0.0009810538    1.546    0.353
        22  -8.6874    231.2578    234.6243   1.1191055849e+02  -6.2076492407e+00    0.2907398    0.2001493  -7.34  0.001917134    1.534    0.348
        23  -7.4390    206.8151    233.9972   1.1601089683e+02  -2.2767745164e+00    0.1945816    0.1221712   5.71  0.001074657    2.116    0.527
        24  -7.7760    250.0797    233.0864   1.0855237009e+02  -8.8524548970e+00     0.186027    0.1227881  13.49  0.001235223    1.304    0.233
        25  -8.4205    237.1617    227.7329   1.0981848807e+02  -6.3415680679e+00    0.2589642    0.1326132 -23.51  0.001434864    2.208    0.547
        26  -7.2410    174.0000    229.0019   1.2116628395e+02   3.8531748537e+00    0.1697577    0.0720083 -44.91 0.0008011888    2.934    0.659
        27  -7.9995      5.0000    228.9491   1.5138623207e+02   2.7770341116e+01    0.1514421   0.04493116 -80.84 0.0007416232    2.899    0.655
        28  -8.0921     37.3490    227.8685   1.4599880914e+02   2.4560460570e+01    0.1483394    0.1047508  84.52 0.0008288276    1.193    0.162
        29  -7.6303    229.0589    226.3996   1.1097358318e+02  -4.9263775786e+00       0.2474    0.1518181 -32.20  0.001506201    1.859    0.462
        30  -8.9009    249.0407    224.5710   1.0732613072e+02  -7.7912781973e+00    0.2254053    0.1522077  -9.02  0.001433596    1.445    0.308
        31  -7.5221     10.9843    225.2469   1.5026387261e+02   2.7846453269e+01    0.1252917   0.06972046  46.56 0.0008831264    1.582    0.368
        32  -8.1509    227.3092    219.0802   1.1007182695e+02  -3.7701945059e+00    0.2634979     0.162859  -7.27  0.001148202    1.953    0.488
        33  -8.6151    239.3448    218.6207   1.0793961731e+02  -5.6347257135e+00    0.2660539    0.1643465  12.36  0.001544383    1.669    0.401
        34  -9.0575     56.0161    216.7214   1.4191758760e+02   2.4356737307e+01    0.2028142    0.1345636 -85.16            0    1.388    0.279
        35  -8.4261    249.0821    214.6357   1.0563142520e+02  -6.6855107056e+00    0.2315591    0.1678071 -19.61  0.001535613    1.388    0.280
        36  -7.2445     34.7083    214.6795   1.4563277906e+02   2.7290797773e+01   0.09339828   0.08009089 -66.66 0.0002453568    1.606    0.377
        37  -7.8252    240.6399    206.3627   1.0559317450e+02  -4.3694086899e+00    0.2621452    0.1516363  10.28  0.001347789    2.085    0.520
        38  -8.6607    124.0110    205.9937   1.2759022796e+02   1.6218942353e+01    0.1844905    0.1523207  57.96  0.001155395    1.017    0.017
        39  -7.1281    250.3088    200.3010   1.0287720860e+02  -5.1815359680e+00    0.1260203   0.07990423  11.03 0.0007012621    1.601    0.375
        40  -7.9304    243.6730    198.0186   1.0356967976e+02  -3.8228181639e+00    0.2116556    0.1903972  18.43 0.0009228443    1.223    0.182
        41  -7.0886    138.9716    198.9782   1.2356944635e+02   1.4886528152e+01    0.1496221    0.1332653  58.26            0    1.047    0.044
        42  -7.8461    132.9839    199.0717   1.2480565950e+02   1.5934744156e+01    0.1881831    0.1588345  51.45 -0.001320134    1.041    0.039
        43  -9.3070    181.2020    198.2431   1.1501193985e+02   7.2431825234e+00    0.2286506    0.1986901  33.28 0.0002303506    1.028    0.027
        44  -7.5881      3.4763    196.5150   1.5018123794e+02   3.3925656651e+01    0.1079194   0.07543909  77.48 0.0008100172    1.005    0.005
        45  -7.6240    246.4273    190.8106   1.0176139607e+02  -3.3582612742e+00    0.1723608    0.1069883 -13.79 0.0009255225    1.684    0.406
        46  -7.7235    223.0396    187.9756   1.0529094458e+02   1.0869957477e+00    0.1890464    0.1350878  11.43            0    1.460    0.315
        47 -10.7287    100.9994    175.9999   1.2826342732e+02   2.6021022715e+01    0.1915392    0.1659885  71.70  0.001161085    1.001    0.001
        48  -7.0503     56.6496    163.6696   1.3666702523e+02   3.5189233153e+01    0.1200853   0.09433531 -40.57 0.0007048006    1.770    0.435
        49  -7.0291    196.2970    146.7144   1.0186614733e+02   1.3037472063e+01    0.1391968    0.1175242 -87.41            0    1.548    0.354
        50  -8.1004    126.6248    144.1458   1.1672471159e+02   2.8288312828e+01    0.2271445    0.1881212  59.23 0.0003154886    1.174    0.148
        51  -7.8242    191.8946    134.5333   9.9961408199e+01   1.6211527550e+01    0.2140038    0.1972377 -29.72 0.0003538254    1.098    0.089
        52  -9.7762    237.3640    126.5837   8.9765447888e+01   7.6863981145e+00    0.2801262     0.246214  36.38 0.0003327751    1.174    0.148
        53  -7.0184     48.0327    114.9929   1.3197803939e+02   4.7385765601e+01     0.149887    0.1316695 -78.25 0.0003519328    1.041    0.040
        54  -6.7258    188.2837    107.2891   9.3940780838e+01   2.2099069634e+01    0.1517218    0.1211298  12.83 0.0006947782    1.530    0.346
        55  -7.4456    129.8807    107.1159   1.0730143630e+02   3.5711468493e+01    0.1951209    0.1790599  -1.75            0    1.242    0.195
        56  -7.3951    128.0000     90.9988   1.0336190303e+02   3.9522353746e+01    0.1830699    0.1657823 -44.72            0    1.091    0.083
        57  -7.6887    191.8676     63.8926   8.1275108548e+01   2.8729256450e+01    0.2206474    0.2021094  23.75 0.0002638175    1.208    0.172
        58  -7.2345    152.3668     59.8256   8.7753313282e+01   3.9567945953e+01    0.2042084    0.1478195 -21.55 0.0004718848    1.539    0.350
        59  -7.2310    132.4857     53.0470   9.0132769673e+01   4.5583091979e+01    0.2155143    0.1472815 -33.73 0.0003681165    1.480    0.324
        60  -8.6751    246.9486     50.6836   7.0055541812e+01   1.7066334891e+01    0.2609789    0.1814655 -41.66 0.0005807064    1.286    0.223
        61  -7.7677    172.0843     49.8592   8.0597072436e+01   3.6042707606e+01    0.2182894    0.1942992 -75.59  0.001135919    1.170    0.145
        62  -7.6694    250.7535     47.3917   6.8847720027e+01   1.6643358444e+01    0.2426001    0.1076094 -30.83   0.00069661    2.125    0.529
        63  -7.2356    174.1701     33.8183   7.5209277921e+01   3.7717027815e+01    0.1934685    0.1650168  29.71            0    1.301    0.231
        64  -9.9398    141.9705     29.5993   7.9718190767e+01   4.6634505275e+01    0.2522897    0.2350022   5.28 0.0002070431    1.117    0.105
        65  -7.5119    161.4823     29.4971   7.5970406063e+01   4.1607199419e+01    0.1465906    0.1381099  64.54 1.331253e-05    1.005    0.005
        66  -7.1443    238.5173     18.4746   6.3062571666e+01   2.3119077060e+01    0.1314827    0.1187251 -72.69 9.854434e-05    1.065    0.061
        67  -7.1239     14.9950     18.0479   1.1915721386e+02   7.0796968200e+01    0.1313317   0.09983049 -30.62 0.0009406699    1.010    0.010
