#   1 NUMBER                 Running object number                                     
#   2 MAG_AUTO               Kron-like elliptical aperture magnitude                    [mag]
#   3 X_IMAGE                Object position along x                                    [pixel]
#   4 Y_IMAGE                Object position along y                                    [pixel]
#   5 X_WORLD                Barycenter position along world x axis                     [deg]
#   6 Y_WORLD                Barycenter position along world y axis                     [deg]
#   7 A_WORLD                Profile RMS along major axis (world units)                 [deg]
#   8 B_WORLD                Profile RMS along minor axis (world units)                 [deg]
#   9 THETA_WORLD            Position angle (CCW/world-x)                               [deg]
#  10 FWHM_WORLD             FWHM assuming a gaussian core                              [deg]
#  11 ELONGATION             A_IMAGE/B_IMAGE                                           
#  12 ELLIPTICITY            1 - B_IMAGE/A_IMAGE                                       
         1 -16.3046    149.0690     86.9268   9.4430575359e+01   3.5470016496e+01     8.506933     2.966929 -32.38   0.02428861    3.970    0.748
         2 -16.3234    184.6648     79.5942   8.4771242098e+01   2.8180654054e+01     2.786954     1.901285  65.22  0.009209819    1.521    0.342
         3 -16.3061    233.1194     77.9555   7.6265979770e+01   1.6750250092e+01     2.944029      2.10588 -12.75   0.01089547    2.006    0.502
         4 -18.5758    213.1121     97.3156   8.4164833996e+01   1.8072916424e+01     9.225978     5.607869 -30.97    0.0399406    1.780    0.438
         5 -15.3920    183.5416     54.9760   7.8245155690e+01   3.2499418379e+01       2.2218     1.947156  77.60  0.004012265    1.092    0.084
         6 -10.6876    132.7955     31.8879   8.1197413192e+01   4.8004449980e+01     0.315985    0.1766123 -34.99  0.001500209    1.907    0.476
         7 -11.7605    225.7543     23.3797   6.4399596530e+01   2.6430100650e+01     0.401694    0.3088036 -61.15  0.001140596    1.192    0.161
         8 -10.2554    247.6497     15.5314   6.0582783775e+01   2.2368384236e+01    0.3206088    0.1251113 -37.79   0.00148168    2.377    0.579
         9 -10.9244    202.8913     14.6393   6.4868899876e+01   3.2940574951e+01    0.3457584    0.2870999 -67.77  0.001289699    1.152    0.132
        10 -11.1422    238.0843     10.3401   6.0328660343e+01   2.5124421287e+01    0.3275413    0.2288494  68.89  0.001120978    1.383    0.277
        11 -11.3013    223.1185      8.0234   6.1192756618e+01   2.8834737665e+01    0.2720477    0.1796075 -65.55 0.0003427269    1.409    0.290
        12  -9.2407     12.4883      9.5067   1.1213310282e+02   7.0274917207e+01    0.1079375   0.07610982 -17.35 8.372309e-05    1.024    0.023
        13 -10.0506    184.4895      8.2921   6.5478072230e+01   3.8098981990e+01    0.2381053    0.1483116  69.59 0.0007541958    1.382    0.277
        14  -9.4668    143.1474      7.8492   7.1435585920e+01   4.8129633427e+01    0.1873218    0.1348248  40.66 0.0004696757    1.335    0.251
        15  -9.7697    209.7891      6.1581   6.2081309652e+01   3.2187742735e+01    0.1841083     0.147199 -78.99 0.0004254529    1.105    0.095
        16 -13.4224    166.2689      2.7518   6.6368190658e+01   4.3054317874e+01    0.3144652    0.2542826  72.76 0.0007410119    1.066    0.062
        17 -12.4448    148.1585    176.5218   1.1615695791e+02   1.6443753096e+01    0.5420065     0.374241  57.31  0.002568592    1.485    0.327
        18 -10.4923    228.9482    250.4832   1.1313484260e+02  -1.0979455405e+01    0.1863314   0.09804551  37.38  0.001034047    1.595    0.373
        19  -9.3002    222.6519    250.2962   1.1422554916e+02  -9.9760073680e+00    0.1105507   0.08990339  57.27 0.0007033673    1.677    0.404
        20  -8.8837    192.0351    250.7767   1.1985180602e+02  -5.0605146120e+00    0.1565813   0.08476385  41.43 0.0008329757    1.520    0.342
        21  -9.0444     90.2700    211.3157   1.3409699452e+02   1.9396807995e+01    0.1130068    0.1022297 -39.89 0.0002397797    1.555    0.357
        22  -9.9780    210.0833    204.0239   1.0853918326e+02  -1.0377129529e+00    0.1976586    0.1789996  17.22 0.0003108077    1.011    0.011
        23  -9.2038    114.6125    204.2128   1.2814677016e+02   1.6852053730e+01    0.1668175     0.126009 -54.07 0.0003121443    1.464    0.317
        24 -11.4604    190.7372    201.0087   1.1178679595e+02   3.1370943673e+00     0.450829    0.2900729  63.32  0.001476309    2.127    0.530
        25  -9.5555    250.5293    202.0713   1.0069488721e+02  -7.8164830463e+00    0.1732591    0.1164139 -30.92 0.0003284704    1.432    0.302
        26 -12.7212    182.2147    200.8661   1.1348374584e+02   4.8093059917e+00    0.5060728    0.4500777 -53.98  0.002723449    1.252    0.202
        27 -10.9282    128.1339    200.1272   1.2467273145e+02   1.5290560736e+01    0.2272842     0.192735  60.14 0.0002574685    1.063    0.059
        28  -9.6309     68.0628    201.3126   1.3737792592e+02   2.4824729756e+01    0.1775886    0.1406493  70.07 0.0003903069    1.090    0.082
        29  -9.5968     37.0075    199.3188   1.4329590796e+02   2.9217268455e+01    0.1620438    0.1244055  75.12 0.0004303827    1.089    0.082
        30 -10.9512    214.2692    196.9312   1.0637504431e+02  -6.2816389809e-01    0.4000843    0.3235541  75.56  0.001650653    1.790    0.441
        31  -9.5504    132.2177    246.4722   1.3035244586e+02   5.7992383007e+00     0.182544   0.09609864  53.41 0.0005659023    1.664    0.399
        32 -15.8693    180.1280     94.3313   8.9638898060e+01   2.6596956078e+01     2.909684     2.078413  11.56   0.01209014    2.182    0.542
        33 -10.7184    214.9245    243.8931   1.1459264566e+02  -7.8969785857e+00    0.2379396    0.1915656  25.72 0.0005135688    1.019    0.019
        34  -9.9992     65.9227    242.1794   1.4185548695e+02   1.6870718156e+01    0.1796365    0.1202295  69.59 0.0002976554    1.188    0.158
        35 -10.2823    234.7879    240.7922   1.1050276753e+02  -1.0655049172e+01    0.1509144    0.1371765  31.96  0.000788564    1.322    0.244
        36 -12.6400    146.2224    171.4342   1.1560059013e+02   1.7932027811e+01    0.5853963    0.3734103  28.15  0.002022645    2.014    0.504
        37 -11.4028    128.6649    180.8692   1.2132616309e+02   1.9308379246e+01     0.310036    0.2243309 -33.21  0.001487419    1.827    0.453
        38 -11.2456    166.4289    195.2950   1.1572653098e+02   8.9508161587e+00    0.2865086    0.2300935  62.19  0.001220686    1.300    0.231
        39 -13.5314    156.6325    179.8517   1.1492696248e+02   1.4029769057e+01     1.295566    0.7418446 -79.17  0.004103393    4.233    0.764
        40 -11.0523     33.3395    177.1201   1.4185445194e+02   3.4473573924e+01    0.3064733    0.1614925 -72.07  0.001082647    1.561    0.359
        41 -15.1241    232.4627    102.8018   8.2257545020e+01   1.2627582288e+01     1.475479    0.5783716 -50.67  0.004198915    2.932    0.659
        42 -11.2035    123.3973    176.3121   1.2170377331e+02   2.1307768073e+01    0.3786454    0.2362677 -87.38  0.001552102    2.391    0.582
        43  -9.5437    236.2591    177.1983   9.8273324808e+01  -1.4044876777e+00    0.1717464     0.162127  72.33 0.0006519828    1.333    0.250
        44  -9.5553    247.5963    173.8278   9.5553729493e+01  -2.9154228105e+00    0.1795866    0.1522395 -25.81 0.0004367062    1.097    0.089
        45 -11.5758    213.3553    171.7635   1.0144618327e+02   3.9824963812e+00    0.3382612    0.2354076 -53.60 0.0008988592    1.676    0.403
        46 -11.7698    140.8269    172.4517   1.1702009660e+02   1.8792553860e+01     0.314961    0.2725411  47.11 0.0009737869    1.136    0.120
        47  -9.8469    233.7238    172.0831   9.7668045469e+01  -5.9919155575e-02    0.2222033     0.192189  53.17 0.0008592298    1.327    0.247
        48  -9.5659    114.0000    168.8952   1.2253510526e+02   2.4717533283e+01     0.240672   0.08034142 -54.97 0.0008057702    2.966    0.663
        49 -11.5867    142.5940    193.4809   1.2047612065e+02   1.3960405241e+01    0.5445479    0.3059367  71.05  0.002011484    3.074    0.675
        50 -11.3191    128.6512    163.9117   1.1816552760e+02   2.3094301694e+01    0.3508319     0.243264  71.87 0.0004030055    1.752    0.429
        51  -9.7863     55.4607    164.4812   1.3549045400e+02   3.4782176121e+01     0.247271    0.1245726  37.79  0.001208858    2.168    0.539
        52 -13.0677    128.2825    155.7854   1.1662431508e+02   2.5014335954e+01    0.8183407    0.4448399  60.31  0.003020151    2.346    0.574
        53 -11.8094    138.4376    159.3571   1.1495670554e+02   2.2177779816e+01    0.3355952    0.2716171  49.94 0.0005673239    1.214    0.177
        54 -10.6009    120.8458    161.8554   1.1960562131e+02   2.5059621161e+01    0.2167144    0.2103926  -8.35  0.001127774    1.217    0.178
        55 -10.4933     47.7168    193.0752   1.4057787252e+02   2.9293515604e+01    0.3577682    0.1669971 -48.48   0.00161475    3.066    0.674
        56 -13.3705    140.9848    155.5207   1.1355804294e+02   2.2518365651e+01     1.162525    0.4879041  54.95   0.00382393    3.014    0.668
        57 -10.6554     16.3780    155.6555   1.4323325299e+02   4.0918640567e+01    0.2368032    0.1384872 -45.88  0.001355157    2.077    0.519
        58 -10.2459    246.1187    154.9177   9.1803701213e+01   5.3442517947e-01     0.195363    0.1784621 -23.50 0.0002773991    1.024    0.024
        59 -10.0651     77.8264    155.0186   1.2875183266e+02   3.3945889179e+01    0.2196039    0.1676039  86.56  0.001043008    1.329    0.248
        60  -9.8948    250.2433    153.5215   9.0801243544e+01  -6.8985889884e-03    0.1801566    0.1365022  43.76 0.0006435823    1.430    0.301
        61 -12.0822    121.0057    149.9649   1.1718242822e+02   2.7766781108e+01     0.512604     0.287349 -64.93  0.002062905    2.088    0.521
        62 -10.5879      8.0168    152.9375   1.4478811546e+02   4.2211710258e+01    0.1722757    0.1293089 -83.25    0.0012043    1.017    0.017
        63 -10.9619    241.3081    149.0664   9.1358512846e+01   2.4819683592e+00    0.6413987    0.5331909  20.86  0.003566638    1.303    0.233
        64 -11.0675    246.7334    142.5790   8.9006475271e+01   2.5524260587e+00    0.6130347    0.2950498 -28.96  0.002473206    2.299    0.565
        65 -11.1178    248.4839    137.1615   8.7519654157e+01   3.1527805890e+00    0.5363866    0.3556235  -0.59  0.001671985    2.356    0.576
        66 -10.1449     34.2858    150.5292   1.3855340362e+02   4.0404664158e+01    0.1377811    0.1252419  -2.50 0.0009321372    1.537    0.350
        67 -11.7803     13.0908    147.9399   1.4313912925e+02   4.2919922930e+01    0.4106949     0.255814  69.04  0.002515679    1.665    0.399
        68 -10.8222    118.8615    158.2992   1.1938572336e+02   2.6250952449e+01    0.2457612    0.1813633  64.15  0.001177518    1.444    0.307
        69 -12.6434    155.7570    194.1663   1.1777827818e+02   1.1269284071e+01    0.6433343     0.377368  57.61  0.002662833    1.874    0.466
        70 -10.0316    112.9550    139.7594   1.1702530181e+02   3.1661226350e+01    0.1926029     0.126726  41.87 0.0005313986    1.583    0.368
        71  -9.8715     98.9934    139.0639   1.2044349935e+02   3.4329554342e+01    0.1760804    0.1592318 -69.37  0.000347472    1.026    0.025
        72 -10.2888    109.2460    133.0130   1.1649722055e+02   3.3917781734e+01    0.2139255    0.1912373 -61.41 0.0005226443    1.061    0.057
        73  -9.4070     41.7485    130.9589   1.3388299242e+02   4.4156440569e+01    0.1686801   0.09219974 -63.85 0.0003716758    1.505    0.335
        74  -9.3036     24.2996    130.6969   1.3832111130e+02   4.5879612677e+01    0.1206155   0.08167736  79.42 0.0001819492    1.587    0.370
        75  -9.3922     20.6571    128.3159   1.3891213589e+02   4.6725472484e+01    0.1229301   0.08032444  75.91 0.0004073503    1.712    0.416
        76  -9.7689     43.0079    127.4962   1.3298592141e+02   4.4824533191e+01    0.1626968    0.1298778  32.08  0.001005661    1.511    0.338
        77 -12.7933    113.3341    119.6532   1.1231499037e+02   3.6218258367e+01    0.6780301    0.4728396  -0.60   0.00277998    2.475    0.596
        78  -9.0831     47.6875    124.7325   1.3126172756e+02   4.4957922712e+01    0.1250366   0.09044264 -37.83 0.0002175251    1.545    0.353
        79  -9.7319     12.4585    124.4528   1.4046901643e+02   4.8227774772e+01    0.1195213   0.09175623 -71.61 9.535979e-05    1.003    0.003
        80 -12.5066     99.0508    116.6443   1.1543488582e+02   3.9520563608e+01    0.5421521     0.441282  19.27  0.001545529    1.473    0.321
        81 -10.9481     90.5759    116.6127   1.1776128268e+02   4.0965774087e+01    0.2968836    0.2084291  32.34 0.0006389322    1.611    0.379
        82 -10.8485     56.9586    116.5489   1.2716970551e+02   4.5772880515e+01    0.2478554    0.1703471 -59.33 0.0002175693    1.250    0.200
        83 -10.4795     11.7780    113.8901   1.3918550357e+02   5.0624022568e+01    0.1795139    0.1231992 -55.30 0.0003701313    1.233    0.189
        84 -13.9775    232.1430    162.6959   9.5958920462e+01   1.8794502752e+00     2.286184     1.373003  54.77   0.01050987    1.978    0.494
        85 -12.5874    126.3907    109.6922   1.0636441324e+02   3.5823874707e+01    0.5274853    0.3354405  53.49  0.002143394    1.703    0.413
        86 -11.4178    226.6517    239.2821   1.1170719663e+02  -9.1731822600e+00     0.357035    0.1984286 -23.36  0.001239944    2.122    0.529
        87 -11.2303    113.2194    108.6761   1.0958912663e+02   3.8692683243e+01    0.3912778    0.2585596   2.62  0.001483179    2.870    0.652
        88 -11.7250    100.4931    105.9320   1.1237903545e+02   4.1668034063e+01    0.4023311    0.3603727 -10.81  0.001985898    1.235    0.190
        89 -10.1114     29.1014    106.3206   1.3314986999e+02   5.0964848423e+01     0.239419    0.1762309 -83.63  0.001472664    1.421    0.296
        90 -11.4252    127.1489    101.8182   1.0406530794e+02   3.7353211839e+01    0.2357316    0.2109999 -80.77  0.001006627    1.236    0.191
        91 -11.9856    117.8737     97.0843   1.0522574323e+02   4.0263172954e+01    0.5742366    0.3563884   5.49  0.001930631    3.656    0.727
        92 -12.5545    140.7270     81.5341   9.4873516934e+01   3.8420694320e+01    0.6593661    0.5393091  89.32  0.002259315    1.516    0.340
        93 -12.4079    125.2533     90.0250   1.0126818438e+02   4.0184406045e+01    0.5872816    0.3753619 -36.54  0.002031193    1.590    0.371
        94 -13.5987    131.2619     89.1421   9.9453278661e+01   3.9068475723e+01     1.028743    0.5082268 -36.49  0.003243796    2.130    0.531
        95 -11.8803    136.8761     85.3822   9.6945974938e+01   3.8561062260e+01    0.5390439    0.4004731 -81.12 0.0009599656    1.913    0.477
        96  -9.3363    110.2996     94.3261   1.0653131874e+02   4.2337238567e+01    0.1496605    0.1154533  -8.95 0.0003512617    1.635    0.388
        97 -10.4207     87.3691     88.5902   1.1153960438e+02   4.7641808628e+01    0.2989595    0.1521833 -31.16  0.001171648    2.524    0.604
        98 -11.6593    117.3785     84.6658   1.0181963691e+02   4.2888809122e+01    0.4576541    0.2618067  50.88 0.0008346654    1.877    0.467
        99  -9.6035     49.7615     84.6344   1.2219417523e+02   5.3655052957e+01     0.161458    0.1174619  40.96 0.0004256074    1.649    0.394
       100  -9.4676    101.3238     83.2865   1.0591573321e+02   4.6287381531e+01    0.1441907    0.1105505  -2.62 0.0003579483    1.603    0.376
       101 -10.0346    108.5620     80.5047   1.0302664165e+02   4.5462087245e+01    0.1438895     0.136581 -21.74 5.480013e-05    1.010    0.010
       102 -10.9820    101.9929     78.7244   1.0436815878e+02   4.7059885967e+01    0.1966817    0.1850296  17.33 0.0003808713    1.075    0.070
       103 -11.6035    125.5103     77.3819   9.7482230803e+01   4.2578177765e+01    0.3239594    0.2880582  59.31 0.0009304619    1.199    0.166
       104 -10.8535     95.4188     77.6754   1.0597807083e+02   4.8461818760e+01    0.3364736    0.1995271  26.36  0.001331053    2.074    0.518
       105  -9.5805    113.3393     77.3099   1.0073198109e+02   4.5128688099e+01    0.1504876    0.1129484   4.59  0.000704449    1.688    0.408
       106 -11.7935    127.4376     95.2923   1.0218835345e+02   3.8651420247e+01     0.420908    0.2386775 -40.96  0.001763048    1.747    0.428
       107  -9.0153     80.2956     75.6475   1.0997654994e+02   5.1391528470e+01    0.1317593    0.1085739 -79.85 0.0005985493    1.686    0.407
       108  -9.8327    116.3126     74.3309   9.9007725103e+01   4.5080679748e+01    0.1502387    0.1129833   3.27 0.0003630316    1.675    0.403
       109 -11.7390    131.3092     72.7828   9.4598165708e+01   4.2150643565e+01    0.3095758    0.2834264  38.60 0.0007853766    1.077    0.072
       110 -14.6895    196.1726     63.9033   7.8495405326e+01   2.7955455673e+01     1.180925    0.8703641  28.20   0.00560263    1.811    0.448
       111 -12.7783    141.9906     69.4562   9.0974482045e+01   4.0308180501e+01     0.497894    0.3948916  60.72  0.001868538    1.305    0.234
       112 -10.9765    100.9518     69.3348   1.0178157583e+02   4.9021275293e+01    0.2365014    0.1902323 -46.08 0.0005421625    1.289    0.224
       113 -10.5180    227.1485    190.3023   1.0262246163e+02  -1.9091966794e+00    0.3610665    0.2652981 -43.63  0.001745175    1.475    0.322
       114 -11.3413    231.4568    187.8388   1.0132738366e+02  -2.2919682807e+00    0.3374983    0.3128909 -18.01 0.0008629866    1.110    0.099
       115 -11.5395    130.5261     65.7063   9.2616538506e+01   4.3562312862e+01    0.2760753    0.2320403  87.14 0.0009907059    1.482    0.325
       116 -11.2603    125.9591     66.4985   9.4022530391e+01   4.4433899821e+01    0.3266609    0.2113512  69.93  0.001392689    2.208    0.547
       117 -10.9961    119.7565     69.4025   9.6554385019e+01   4.5256568054e+01     0.293113    0.2377182 -79.85 0.0007563003    1.672    0.402
       118 -10.4660     18.3765     62.0943   1.2712363455e+02   6.1064525197e+01    0.1724062    0.1583948  -8.46 0.0003357664    1.269    0.212
       119 -10.2126     55.8864     60.8307   1.1347670673e+02   5.7646266760e+01    0.1913649    0.1513281 -20.87 0.0003676784    1.149    0.129
       120 -10.2385    129.9657    192.0558   1.2296601722e+02   1.6648309766e+01    0.2097664    0.1862646  74.83 0.0003262318    1.055    0.053
       121  -9.6811     46.8002     58.2503   1.1585789522e+02   5.9197493969e+01    0.2571693    0.1050937  27.78  0.001178161    2.807    0.644
       122 -10.0861     89.6719     57.6979   1.0138326210e+02   5.3118133865e+01     0.139535   0.09987035   2.13 0.0002486201    1.645    0.392
       123 -11.4093    126.7960     56.2513   9.0559858142e+01   4.5943773202e+01    0.3661339    0.1771082  43.38 0.0008505619    2.040    0.510
       124  -9.7442    128.4727    188.4727   1.2268873497e+02   1.7692675339e+01    0.2004902     0.136827 -70.06 5.357694e-05    1.623    0.384
       125 -10.7978    118.0363    190.5555   1.2532024225e+02   1.9154610783e+01    0.3966452    0.2042647 -62.20  0.001193501    2.083    0.520
       126 -11.1817    143.8731    189.3058   1.1946727456e+02   1.4582064519e+01    0.2556526    0.2012057 -72.55  0.001331453    1.398    0.285
       127  -9.9403    107.0630    190.2792   1.2767398896e+02   2.1144795469e+01    0.2018516    0.1647672  56.44  0.001139158    1.147    0.128
       128 -10.2395     10.4892    192.4670   1.4772098336e+02   3.3430451698e+01     0.202434      0.14584  86.61 0.0005785009    1.011    0.010
       129 -10.7743    131.2977     49.0576   8.7141128303e+01   4.6033704738e+01    0.1995588    0.1800745 -23.69 0.0005401275    1.148    0.129
       130 -11.0723    118.8212     46.8372   8.9492911817e+01   4.9113880836e+01    0.2419546    0.2152505  81.69 0.0002495601    1.375    0.273
       131 -10.4592    243.0916     37.5179   6.5726747152e+01   2.0573329084e+01    0.3614111    0.2514606 -15.17  0.001713367    2.165    0.538
       132 -10.8377     96.3371     37.3652   9.2315146610e+01   5.5018362472e+01     0.232229    0.2077373  10.40 0.0004113509    1.022    0.021
       133 -11.2811    149.3336    195.6718   1.1941276858e+02   1.2214313648e+01    0.2742392    0.2561162  82.44 0.0009019268    1.078    0.072
       134 -11.1075    147.4353     36.8424   7.9703107936e+01   4.3947620907e+01    0.3691863    0.2356063  69.82  0.001759163    1.686    0.407
       135 -11.6700    142.0139     34.9925   8.0232980288e+01   4.5472217542e+01    0.4695999    0.2606721  53.62  0.002193104    1.622    0.384
       136  -9.8852    127.2690    238.0953   1.3023193519e+02   8.0957384649e+00    0.2145902    0.1541865  40.90 0.0005226646    1.330    0.248
       137  -8.7962    105.7015     37.2665   8.9661053958e+01   5.3191246701e+01    0.1200048    0.1069507 -82.71 0.0001712947    1.517    0.341
       138 -11.2266    215.8941    185.0801   1.0371091442e+02   1.0993227128e+00       0.3458    0.2690807  66.32  0.001792153    1.701    0.412
       139 -11.6129    240.5405     23.8963   6.3009452169e+01   2.2938006640e+01    0.5108122    0.2200979 -55.82  0.002264935    2.316    0.568
       140 -10.1469    236.4562    234.8823   1.0919933891e+02  -1.0144796706e+01    0.2621654    0.1386853  24.36  0.001335339    1.955    0.489
       141 -10.0415    250.5998     24.0145   6.2086612864e+01   2.0667337690e+01    0.1741001    0.1101189 -42.99 0.0003704098    1.488    0.328
       142 -10.0327    245.6658     29.1701   6.3646956351e+01   2.1104274789e+01    0.3253605    0.1797846 -22.41  0.001504314    2.642    0.621
       143  -9.8543    201.5581     21.6038   6.6754558718e+01   3.2473612976e+01    0.2039038    0.1831253  33.25 0.0005567296    1.376    0.273
       144  -9.0890     43.4741     22.5324   1.0441932475e+02   6.5338035428e+01    0.1155055   0.09239639  -9.10 0.0004830634    1.052    0.050
       145 -10.9554    159.0846     20.2351   7.2498253674e+01   4.3088899057e+01    0.3610063    0.2037848  42.21   0.00111963    1.848    0.459
       146 -10.2291    197.4942     18.0358   6.6361123718e+01   3.3879527082e+01    0.2396837     0.159447  56.57 0.0003990916    1.452    0.311
       147  -9.6945     69.2705    230.0684   1.4015771130e+02   1.8724919325e+01    0.1672433    0.1282883  80.88 0.0003601551    1.074    0.069
       148  -9.4167    243.3939    184.7572   9.8536581896e+01  -3.9385139960e+00    0.1868454    0.1177877 -24.40 0.0009390757    1.606    0.377
       149 -11.0441    205.2211    225.7528   1.1337904967e+02  -3.6362366379e+00    0.2990959    0.2140546  41.98 0.0006566283    1.275    0.216
       150 -10.2016    169.1399     13.9381   6.9099453574e+01   4.1291220512e+01    0.1977734    0.1737714  70.52 0.0004265829    1.008    0.008
       151  -9.8135    149.9634    226.8304   1.2429373849e+02   6.1388918145e+00     0.199933    0.1697939  24.46  0.001062487    1.342    0.255
       152 -11.0525    180.1742    222.9178   1.1773324472e+02   1.3174336945e+00    0.4873343    0.1748649  40.43  0.001343687    2.510    0.602
       153 -10.1297     63.9433    220.1301   1.4017575519e+02   2.1452323023e+01    0.2813833    0.1306901  79.15  0.001221524    2.895    0.655
       154 -10.6399    202.5529    212.6115   1.1158076489e+02  -1.0712924031e+00    0.4443663    0.2230996 -50.37  0.001958094    2.543    0.607
       155 -10.0449    124.0574    215.5245   1.2783130098e+02   1.2898875925e+01    0.2097647    0.1189548  45.11   0.00102864    1.581    0.367
       156 -10.6959     59.6205    214.7047   1.4045402338e+02   2.3152553351e+01    0.3902177    0.1387208  40.91  0.001775131    2.677    0.626
       157 -10.5167      3.1150    214.3820   1.5049494431e+02   2.9646231694e+01    0.2134558    0.1900663  14.88   0.00104805    1.994    0.498
       158 -10.6979    172.9169    182.7012   1.1196776704e+02   1.0137119400e+01    0.2064328    0.1841629  50.83 0.0005570367    1.079    0.073
