#   1 NUMBER                 Running object number                                     
#   2 MAG_AUTO               Kron-like elliptical aperture magnitude                    [mag]
#   3 X_IMAGE                Object position along x                                    [pixel]
#   4 Y_IMAGE                Object position along y                                    [pixel]
#   5 X_WORLD                Barycenter position along world x axis                     [deg]
#   6 Y_WORLD                Barycenter position along world y axis                     [deg]
#   7 A_WORLD                Profile RMS along major axis (world units)                 [deg]
#   8 B_WORLD                Profile RMS along minor axis (world units)                 [deg]
#   9 THETA_WORLD            Position angle (CCW/world-x)                               [deg]
#  10 FWHM_WORLD             FWHM assuming a gaussian core                              [deg]
#  11 ELONGATION             A_IMAGE/B_IMAGE                                           
#  12 ELLIPTICITY            1 - B_IMAGE/A_IMAGE                                       
         1 -12.5896     68.4953     25.5852   3.7576146990e+01   6.3713778358e+01    0.6488212    0.3348746 -37.08  0.002970157    1.961    0.490
         2 -11.5612     66.7178     15.0262   3.3030911190e+01   6.5564270866e+01    0.3146234    0.1565214 -22.95   0.00110665    2.227    0.551
         3 -11.5615     99.1902     10.7838   2.0717035312e+01   5.8763923852e+01    0.3209408    0.1952249 -48.57  0.001219324    2.012    0.503
         4 -11.2833     55.0192     11.2092   3.5882755982e+01   6.8335297359e+01     0.204376    0.1557893  18.95 0.0007635438    1.238    0.193
         5 -12.4134     82.4187      8.6617   2.4344630139e+01   6.2937789571e+01    0.3109282    0.1992586  37.05  0.001592833    1.484    0.326
         6 -13.9074     89.5903      3.7024   1.9889720941e+01   6.1766036116e+01     0.432795    0.3389491 -48.02  0.001355249    1.513    0.339
         7 -11.9650    152.7951      5.7022   9.1047786853e+00   4.5517162705e+01    0.2079406    0.1851996  51.12 0.0004057225    1.171    0.146
         8 -12.3418    100.5778      2.2925   1.6573634408e+01   5.9235008829e+01    0.4319384       0.1956  55.76   0.00190865    1.858    0.462
         9 -10.6154     80.2863    246.2780   8.0070598385e+01   1.4748977896e+01   0.09877957   0.08268013  14.46 0.0001800857    1.515    0.340
        10 -13.1224    245.4824    249.6366   5.0112116136e+01  -7.3547970111e+00    0.2569694    0.1436333  20.49 0.0005753565    1.366    0.268
        11 -11.8558    237.1331    248.8682   5.1332760399e+01  -6.3258584475e+00    0.2687136    0.1778779 -12.19  0.002011675    1.371    0.270
        12 -10.0357    179.5206    250.5309   6.1475370348e+01   7.3296970741e-01     0.114814   0.08540764  23.70    0.0001368    1.010    0.010
        13 -10.7971    125.3605    249.7612   7.1593114421e+01   8.2328901527e+00    0.1328525    0.1060632 -33.94 0.0005425001    1.646    0.392
        14 -12.0902    114.9637    249.8455   7.3615591455e+01   9.6327180615e+00    0.1703706     0.154517  53.35 0.0004549147    1.224    0.183
        15 -11.4683    111.5116    249.5002   7.4252708199e+01   1.0150196131e+01    0.2052894   0.08885257  36.13 -5.027793e-05    1.753    0.430
        16 -12.1762     99.2716    248.3692   7.6533496100e+01   1.1956841754e+01    0.2909242    0.1788851 -38.31  0.001511415    2.529    0.605
        17 -11.6335     85.1261    250.4229   7.9455067208e+01   1.3463694120e+01    0.2949984    0.1008209  36.88  0.001392557    2.151    0.535
        18 -13.0299     70.4910    247.9663   8.2100586646e+01   1.5688267703e+01    0.2511221    0.1868494  63.12 0.0008312797    1.223    0.182
        19 -12.8920     68.2925    245.3228   8.2340427568e+01   1.6396627258e+01    0.5240168    0.2410206  24.24  0.002269356    2.765    0.638
        20 -10.5083     66.2562    250.3513   8.3078389300e+01   1.5808213542e+01   0.09203737   0.08405791  -8.20 0.0004146063    1.602    0.376
        21 -11.0173     56.0299    250.5766   8.5036647105e+01   1.6975936915e+01    0.1555559   0.08250635  38.71 0.0003341878    1.444    0.308
        22 -12.3977     35.6948    214.1503   8.6894183982e+01   2.5854124360e+01    0.3721982    0.1542036  59.16  0.001880085    2.181    0.541
        23 -13.7630     35.3366    226.8161   8.7698095331e+01   2.3472916294e+01    0.5719596     0.522716 -75.87  0.004485029    1.409    0.290
        24 -12.9955     19.5242    198.6296   8.9482385512e+01   3.0620454179e+01    0.4838916    0.3256426  50.90  0.003198491    1.214    0.176
        25 -12.8542     26.8318    223.3798   8.9225384024e+01   2.5004656873e+01    0.3503921    0.2213309  46.58  0.001593611    1.240    0.193
        26 -15.1436     19.3975    211.4202   9.0156956737e+01   2.8049752324e+01     1.768798    0.8016618  52.13   0.01013972    1.704    0.413
        27 -14.3886     25.8453    248.1722   9.0537573530e+01   2.0662225318e+01     1.094321    0.3055082  42.59  0.005813992    2.227    0.551
        28 -15.0145      3.9542    210.1749   9.3269538661e+01   2.9702218866e+01     0.833549    0.4925402 -88.71  0.005544374    1.536    0.349
        29 -16.6966     13.7312    237.4840   9.2359013303e+01   2.3710682249e+01     1.323725     1.058757 -16.79  0.009641572    2.233    0.552
        30 -15.9885      4.8594    229.6954   9.3753529461e+01   2.5930254129e+01    0.9688616     0.438129  84.41  0.005902374    2.027    0.507
        31 -15.2730     12.7379    225.0574   9.2084143180e+01   2.6065501598e+01    0.7461053     0.315937  54.38  0.004395713    1.752    0.429
        32 -10.3098     55.6306    245.7022   8.4815748923e+01   1.7839265474e+01   0.09862076    0.0833843   4.80 0.0007030278    1.733    0.423
        33 -11.4619    167.5750    243.0802   6.2731273158e+01   3.3167585250e+00    0.1891669    0.1299186  36.79 0.0004258745    1.241    0.194
        34 -11.0451     60.8162    242.5633   8.3609284845e+01   1.7764746343e+01    0.1724094     0.122845  72.61 6.041717e-05    1.359    0.264
        35 -11.2465     61.6259    238.5058   8.3174569533e+01   1.8369341283e+01    0.1373646   0.09501754  82.69 0.0009202871    1.519    0.342
        36 -12.9977     62.9148    234.2086   8.2613643358e+01   1.8970352285e+01    0.5084748    0.2648242  57.66  0.001059743    1.719    0.418
        37 -11.5296    199.1626    241.4244   5.6716506249e+01  -7.7813611558e-01    0.1608963    0.1274357  25.62 0.0003346241    1.207    0.172
        38 -10.8583    143.1645    242.3420   6.7316394672e+01   6.8436875262e+00     0.165364   0.08487353  40.35 0.0002028071    1.562    0.360
        39 -10.9990     47.2626    241.3552   8.6169032892e+01   1.9543322781e+01    0.1926118    0.1140351  75.45 0.0009458792    1.673    0.402
        40 -10.7727    134.7862    241.3909   6.8844967896e+01   8.1645463000e+00    0.1622723   0.09234615  28.58  0.000260297    1.529    0.346
        41 -12.7925    116.6246    240.5526   7.2351440096e+01   1.0836878138e+01    0.3028427    0.1393564  31.78  0.001562146    1.860    0.463
        42 -10.6314     89.4954    241.0605   7.7820900153e+01   1.4425603699e+01    0.1377335    0.1136772 -79.55 0.0004274228    1.455    0.313
        43 -12.1703    107.1445    240.1207   7.4202331607e+01   1.2212672791e+01    0.2052791    0.1689558  43.48 0.0005317679    1.062    0.059
        44 -12.8598    103.1824    237.8461   7.4775475905e+01   1.3124499968e+01    0.3458052    0.2269076  15.64  0.001996988    1.958    0.489
        45 -12.0343     71.0095    240.1142   8.1427776441e+01   1.6946022317e+01    0.3427085    0.1598364  46.34  0.001682552    1.633    0.388
        46 -12.8296     71.4681    234.0835   8.0874098418e+01   1.7937007283e+01    0.2427932    0.2286841  72.50 0.0003962886    1.262    0.208
        47 -12.5163     73.1607    229.9049   8.0193535887e+01   1.8466047264e+01    0.2209969    0.2107297 -72.30 0.0008881516    1.340    0.254
        48 -11.4220    148.4022    239.0621   6.5901980951e+01   6.5769417350e+00     0.239896    0.1359428  25.14 0.0008937744    1.635    0.388
        49 -13.4655     52.8084    236.7642   8.4805637031e+01   1.9715587556e+01    0.2563467    0.2179168  46.73  0.001032068    1.195    0.163
        50 -11.8136     53.3766    231.7603   8.4367202794e+01   2.0545198810e+01    0.2425837    0.1460235 -64.14  0.001473444    1.965    0.491
        51 -11.7322     79.1149    236.9427   7.9556252465e+01   1.6468840027e+01    0.1842158    0.1396671  39.09 0.0002975325    1.141    0.124
        52 -11.6154     43.8658    234.0752   8.6410260955e+01   2.1212299986e+01    0.2220437    0.1455451 -85.90 0.0008558286    1.600    0.375
        53 -11.2911    246.9853    234.0265   4.7564684924e+01  -5.9560764943e+00    0.1775445   0.09957516   0.68  0.000792752    1.688    0.408
        54 -12.3867    112.2787    234.4384   7.2584955974e+01   1.2424818319e+01    0.3800999   0.09960065  34.38  0.001452374    3.188    0.686
        55 -11.2376     91.6074    234.2503   7.6784637269e+01   1.5293611730e+01    0.1320678    0.1119922 -53.96 0.0001689296    1.506    0.336
        56 -11.2649     39.4345    233.9602   8.7277332619e+01   2.1721457624e+01    0.1621532   0.06783988  69.71 0.0008064333    2.597    0.615
        57 -12.7444    219.4323    230.2547   5.1536616278e+01  -2.1243484571e+00    0.2152363     0.174051  -0.17 0.0005863244    1.174    0.148
        58 -10.9124    181.0323    232.1888   5.8733446738e+01   2.8821419757e+00    0.2019672     0.115831  13.11   0.00108418    1.998    0.499
        59 -12.0580    130.1139    230.8508   6.8552112648e+01   1.0457934113e+01    0.1839159    0.1413189  48.41 0.0004481026    1.237    0.191
        60 -11.1745    104.2995    231.3210   7.3894169416e+01   1.4058808234e+01    0.1115819   0.08946978   3.54 0.0003355934    1.624    0.384
        61 -10.8781     67.8683    231.1952   8.1382872334e+01   1.8899960867e+01    0.1449345    0.1185636  33.11 0.0003696865    1.275    0.216
        62 -11.1973    194.1490    229.8377   5.5962369075e+01   1.3454942549e+00    0.1670552    0.1155776   9.89 0.0005589274    1.321    0.243
        63 -11.8134    178.1405    228.4667   5.8752152159e+01   3.8011556180e+00    0.1809881    0.1535691  -4.58 0.0002718745    1.213    0.176
        64 -11.5809    150.0239    229.5094   6.4375267893e+01   7.7552579191e+00    0.1906176   0.09835093  36.17 0.0005593688    1.552    0.356
        65 -12.6391    231.6335    227.3618   4.9030590311e+01  -3.3603668171e+00    0.2634579     0.182799  -3.20  0.001099856    1.218    0.179
        66 -12.3428    112.6644    227.9015   7.1799513617e+01   1.3457337032e+01    0.2319973    0.1793027  28.35 0.0008905765    1.214    0.176
        67 -13.0004    105.4272    226.6204   7.3168355367e+01   1.4704148373e+01    0.3435401    0.2144155  27.39  0.001964148    1.561    0.360
        68 -11.9499    100.3204    227.0113   7.4277206511e+01   1.5352776255e+01    0.2248546    0.1592152  63.26 0.0008154411    1.478    0.324
        69 -11.0466    138.4041    227.2196   6.6421424916e+01   9.8209497842e+00    0.1398954    0.1210525 -75.62 0.0004118167    1.545    0.353
        70 -11.2719    120.4709    227.4883   7.0135033979e+01   1.2403287923e+01    0.1240669    0.1000834  37.88 0.0005282339    1.008    0.007
        71 -11.6925     91.3890    226.9050   7.6135746727e+01   1.6601376809e+01    0.2052292    0.1407304 -46.85  0.001174146    1.912    0.477
        72 -10.7866     51.8260    226.3682   8.4321515268e+01   2.1714077268e+01     0.148932   0.09792766  28.24  0.000428902    1.593    0.372
        73 -13.2663    113.7787    222.4430   7.0950844440e+01   1.4229097154e+01    0.3807569    0.1738565  42.65  0.001890609    1.790    0.441
        74 -12.5739     96.0965    223.6469   7.4820593821e+01   1.6533278818e+01    0.2541189    0.1723781 -79.44 0.0008709512    1.836    0.455
        75 -11.9449     68.0249    224.8206   8.0846831003e+01   2.0039872190e+01    0.1930127     0.148089  71.36 0.0003583581    1.246    0.197
        76 -11.7194    213.0832    222.1895   5.1400298727e+01  -3.0300961061e-01     0.259174    0.1446355   5.04  0.001386067    2.142    0.533
        77 -12.2598    159.9667    222.2779   6.1414718533e+01   7.3713942067e+00    0.3552619    0.1927435  38.88 0.0009358815    1.549    0.355
        78 -13.0135    125.3113    221.7461   6.8442953224e+01   1.2653785132e+01    0.4349503    0.1953674  46.54  0.001599534    2.055    0.513
        79 -12.7844     63.7537    218.0067   8.1197908029e+01   2.1852509742e+01     0.783874    0.4903914   1.15  0.003663215    3.457    0.711
        80 -12.5770     53.3896    222.1939   8.3708546241e+01   2.2312059325e+01    0.3560629    0.1687381  34.44 0.0005320836    1.815    0.449
        81 -12.9240     47.4779    218.7588   8.4708814476e+01   2.3652836337e+01    0.4487107    0.2467254 -79.70  0.002149954    1.928    0.481
        82 -13.6252     87.9158    212.9331   7.5480198245e+01   1.9640334584e+01    0.6738703    0.5438208  66.13  0.004388246    1.202    0.168
        83 -12.7472     79.0934    212.5952   7.7385338918e+01   2.0907912748e+01    0.3807248     0.219981  45.95 0.0006884442    1.422    0.297
        84 -11.8576     75.6570    212.2836   7.8110971421e+01   2.1425544430e+01    0.2464842    0.1442883  48.65 0.0005052869    1.425    0.298
        85 -12.4166     77.6367    220.1189   7.8408836911e+01   1.9676751439e+01    0.3302778    0.2684152 -83.60  0.001640087    1.361    0.265
        86 -11.8791    237.9907    221.0086   4.6982755778e+01  -3.4436398303e+00    0.1889581    0.1090984   5.01  0.001141289    1.700    0.412
        87 -11.3703    222.7987    220.4518   4.9438791297e+01  -1.4027889571e+00    0.1871265    0.1333545  23.58  0.001274099    1.191    0.160
        88 -11.8045     87.5110    220.5144   7.6333572702e+01   1.8281416288e+01    0.2170788    0.1485795  32.78 0.0001218297    1.335    0.251
        89 -12.3788    173.1363    218.9883   5.8339570019e+01   5.8838768888e+00    0.2642669    0.2235883   2.96 0.0009944094    1.152    0.132
        90 -10.9794     41.4645    219.6890   8.6027200826e+01   2.4151776371e+01    0.1324054    0.1037555 -76.94 0.0004530074    1.416    0.294
        91 -12.9687    145.4198    215.7579   6.3462554900e+01   1.0606785115e+01    0.4047005    0.3218411  43.59  0.001553624    1.193    0.162
        92 -12.5134    141.0030    210.9793   6.3719993566e+01   1.2084067613e+01    0.3382761    0.2347146  31.81  0.001377767    1.233    0.189
        93 -11.9261    139.4649    207.4643   6.3549224912e+01   1.2925043223e+01    0.1864002    0.1775576  81.81 0.0006859982    1.267    0.211
        94 -11.8866    129.5981    217.2173   6.6971190233e+01   1.2777863555e+01    0.2033622    0.1268887 -59.36 0.0009097044    2.037    0.509
        95 -13.2963    108.8872    215.0751   7.1139357785e+01   1.6245499440e+01    0.3313567    0.2554109 -36.84  0.002034004    1.666    0.400
        96 -10.5576    223.6073    216.2654   4.8630772556e+01  -1.0021080219e+00    0.1032445   0.08648497  43.25 0.0006979401    1.712    0.416
        97 -11.2401    155.2077    214.8238   6.1314940420e+01   9.2500911874e+00    0.1713651    0.1318491  11.30 0.0004261701    1.323    0.244
        98 -11.0324     59.3252    214.6567   8.1880004737e+01   2.3043441979e+01    0.2027688    0.1399998   8.00  0.001129801    2.239    0.553
        99 -13.0224    125.1248    212.8595   6.7360167385e+01   1.4209364757e+01    0.2517828    0.2211594  38.85 0.0004831945    1.054    0.052
       100 -12.5207    120.4489    214.2168   6.8538974254e+01   1.4678910403e+01    0.2331712    0.1483136  42.75 0.0005434772    1.325    0.245
       101 -11.6652    247.3867    212.8793   4.4150465364e+01  -3.7028007061e+00    0.1710583    0.1285972  20.06 0.0003901297    1.248    0.199
       102 -10.6837     40.7846    213.0239   8.5743967634e+01   2.5521465018e+01    0.1355951   0.08685399 -84.46 0.0003703087    1.572    0.364
       103 -10.7141    180.7017    211.7260   5.5759211414e+01   5.8057737175e+00    0.1234367   0.08435725   8.91 0.0006943603    1.530    0.346
       104 -11.4386     63.8681    211.2001   8.0604539848e+01   2.3156268082e+01    0.1645591    0.1328149  51.83 0.0003414368    1.033    0.032
       105 -12.7733     68.7799    207.2985   7.9169217517e+01   2.3302237607e+01    0.6225073    0.2527805  25.26   0.00254403    3.141    0.682
       106 -11.7453     47.1943    210.4818   8.4190387024e+01   2.5302264487e+01     0.220653     0.198239 -45.37  0.001425652    1.516    0.340
       107 -12.9678    229.3096    207.2250   4.6172614374e+01  -6.6063964879e-01    0.3444349      0.21787 -39.43  0.001510041    1.924    0.480
       108 -11.8484    225.1217    204.2086   4.6377284779e+01   2.9981420576e-01    0.2000695    0.1856334 -23.73   0.00039284    1.509    0.337
       109 -11.5275    180.9987    207.7164   5.5068192104e+01   6.3545837778e+00    0.2331332    0.1465848  30.55  0.001317855    1.361    0.265
       110 -13.2201    104.9312    206.8509   7.1026386905e+01   1.8348936744e+01    0.5084818    0.2702557  40.56  0.002536773    1.566    0.361
       111 -11.8844    160.3341    206.6262   5.9044333822e+01   9.7628385452e+00     0.241896    0.1930838  63.28 0.0008565177    1.682    0.405
       112 -11.5923     39.8152    197.9557   8.4921323832e+01   2.8684152787e+01    0.3765835     0.146119  61.29  0.001646162    2.729    0.634
       113 -11.7619     35.0797    198.4925   8.6026113052e+01   2.9084088136e+01    0.1991718     0.172976  63.62 0.0003985919    1.117    0.105
       114 -12.2589     33.8437    205.8326   8.6777626055e+01   2.7708370097e+01    0.2269421    0.1646021  55.36 0.0005645663    1.099    0.090
       115 -12.2607     36.4805    203.0020   8.6016993014e+01   2.8003475783e+01    0.2652019    0.1902226 -60.68  0.001111781    1.652    0.395
       116 -11.1945    205.0681    206.1864   5.0263483004e+01   2.9281645349e+00    0.1792782    0.1334558  11.22 0.0002545231    1.156    0.135
       117 -12.6852    145.3807    203.1244   6.1650354409e+01   1.2733250434e+01     0.458038    0.2476287 -43.02   0.00229397    2.140    0.533
       118 -11.9348    141.8524    198.8388   6.1765274856e+01   1.4052097662e+01    0.2093843    0.1822505  33.70  0.001039315    1.025    0.025
       119 -11.9746    123.7260    205.7661   6.6724885793e+01   1.5690554611e+01    0.1989912    0.1601324 -48.27 0.0006345722    1.457    0.314
       120 -12.0323     55.1369    205.5965   8.2067541627e+01   2.5347158397e+01    0.2022575     0.163896  70.35  0.000379436    1.105    0.095
       121 -13.3929     99.3236    185.0725   6.9518282898e+01   2.3521343463e+01    0.4721401    0.3132678 -29.45  0.002285084    2.260    0.558
       122 -13.8773     94.3965    183.4472   7.0489325441e+01   2.4615343714e+01    0.5019515    0.4599565 -57.46   0.00312838    1.232    0.188
       123 -13.8273     89.5037    182.9253   7.1612526904e+01   2.5460864952e+01    0.6704708    0.4032156 -79.45  0.002177331    2.072    0.517
       124 -12.8543     89.8473    201.6882   7.3823172903e+01   2.1549885535e+01    0.4912578    0.3004455 -46.91  0.002502927    2.047    0.512
       125 -13.9658     95.4147    194.2937   7.1652493071e+01   2.2220277961e+01    0.9958404    0.4467824  46.81  0.004473777    2.018    0.504
       126 -12.2015     48.7898    204.6384   8.3405512344e+01   2.6292421021e+01    0.2418998    0.1820474 -77.07 0.0006229256    1.396    0.284
       127 -11.7909     51.2271    199.3770   8.2439305895e+01   2.7087001700e+01    0.2701221    0.1991303  70.44 0.0007152047    1.215    0.177
       128 -11.0560     50.2606    195.2441   8.2318312131e+01   2.8064666599e+01    0.2321863    0.1034183  54.01  0.001106398    2.051    0.512
       129 -11.3726     41.7455    205.0740   8.4997518574e+01   2.7004947816e+01    0.2537711    0.1733297  40.48  0.001603098    1.297    0.229
       130 -11.1019     60.0570    204.0407   8.0833798691e+01   2.5060852651e+01    0.2096406     0.116235  60.23 0.0006620685    1.715    0.417
       131 -11.4469    166.5341    203.4598   5.7280243654e+01   9.2869781895e+00    0.1306487    0.1085541  20.14 2.854077e-05    1.044    0.043
       132 -12.1402     77.7927    201.3821   7.6548211357e+01   2.3293293934e+01    0.3790637    0.1874178 -60.78  0.001894558    2.217    0.549
       133 -11.6557    212.2415    200.0661   4.7931079826e+01   2.7046902939e+00    0.2081754    0.1752388 -68.01  0.001268988    2.202    0.546
       134 -15.2885     82.7784    195.6755   7.4773779063e+01   2.3765513429e+01     2.554574     1.151115  84.18  0.006784302    7.953    0.874
       135 -13.4121     56.7306    175.8681   7.8931838663e+01   3.1503250631e+01    0.6452112    0.3323402  44.59  0.002631058    1.710    0.415
       136 -14.3126     76.4201    170.9212   7.3324617234e+01   2.9997853007e+01     1.284939    0.3953653 -70.45  0.003963902    4.726    0.788
       137 -13.8207     65.2978    181.4016   7.7386897712e+01   2.9180588513e+01    0.5709823    0.3981142 -69.66  0.002161718    1.482    0.325
       138 -10.5561     38.0714    209.4548   8.6093597332e+01   2.6526615369e+01     0.164023    0.1008056  35.77  0.000910283    1.483    0.325
       139 -13.3879    122.9537    196.6175   6.5626398560e+01   1.7506756397e+01    0.4875942    0.2172156  47.98  0.002091056    2.233    0.552
       140 -12.6165    138.8674    196.3732   6.2042957909e+01   1.4979728737e+01    0.3322039     0.198132   9.19  0.001116537    2.842    0.648
       141 -12.2885     24.8813    185.7462   8.7516077230e+01   3.2832265667e+01    0.2402507    0.1717169  53.51  0.001430615    1.179    0.152
       142 -12.9541     26.8810    193.0409   8.7520242026e+01   3.1073485677e+01    0.5225725    0.1702297 -72.25  0.002358318    2.876    0.652
       143 -11.5147      1.3358    196.4000   9.3305188873e+01   3.2683465714e+01     0.199424   0.08497559 -77.35  0.001085436    2.168    0.539
       144 -12.1484    193.3423    193.3307   5.0273479649e+01   6.5786293533e+00     0.422332    0.2490195 -12.44  0.002058908    2.227    0.551
       145 -12.0731    189.9999    193.0000   5.0860499526e+01   7.1631772413e+00    0.3241216    0.2143647  17.18  0.001365479    1.515    0.340
       146 -12.4857    151.9539    195.6869   5.9093647342e+01   1.2952640596e+01     0.330625    0.1805713  37.38  0.001628915    1.596    0.373
       147 -13.1733     11.3032    194.4556   9.1071743856e+01   3.2239572435e+01     0.283547    0.2256756  41.04  0.001111312    1.285    0.222
       148 -11.5076    239.3390    193.3464   4.2118103652e+01  -3.0093024826e-01    0.2036477    0.1436286   2.24 0.0006971868    1.224    0.183
       149 -12.3047    158.3724    193.2257   5.7326246619e+01   1.2315568506e+01    0.2551888    0.1905034  21.08 0.0006993763    1.285    0.222
       150 -11.8062    163.0083    192.5385   5.6234286936e+01   1.1661986832e+01    0.2448022    0.2130097  72.91  0.001467562    1.554    0.356
       151 -11.2405     69.3701    193.8707   7.7725669678e+01   2.5967693029e+01    0.1647466    0.1465843 -88.37 0.0005999235    1.175    0.149
       152 -10.5637     33.7923    192.3770   8.5898348975e+01   3.0506829715e+01    0.1537927    0.1108022  23.07 0.0009391422    1.628    0.386
       153 -13.3864    134.6590    188.6744   6.1787779935e+01   1.7095997454e+01    0.4657953    0.2709671 -31.80   0.00214017    2.351    0.575
       154 -11.1185    217.9581    193.9678   4.5854228806e+01   2.6894988824e+00     0.158556     0.153751  57.21  0.000477768    1.595    0.373
       155 -12.6277     50.6049    190.0081   8.1788559346e+01   2.9137425887e+01    0.2904769    0.2266492  26.37 0.0008174261    1.436    0.304
       156 -13.7666     50.9667    183.9429   8.1155273627e+01   3.0410267423e+01    0.5146765    0.2420139  43.56   0.00181998    1.811    0.448
       157 -11.7413      8.5572    184.4577   9.1204605895e+01   3.4590163897e+01    0.2878618    0.2065332  20.25 7.807183e-05    1.710    0.415
       158 -11.7209     10.5850    180.8983   9.0559607134e+01   3.5187212949e+01    0.2628901    0.2242403 -73.21  0.001319805    1.319    0.242
       159 -12.9824     11.7525    188.7839   9.0696055325e+01   3.3392774776e+01    0.4942556    0.2952071  28.30  0.002569836    1.769    0.435
       160 -12.1078      7.5175    188.9951   9.1652645176e+01   3.3711852969e+01    0.2607999    0.1590217 -65.48  0.001591865    1.771    0.435
       161 -11.0414    174.2091    188.8607   5.3286047818e+01   1.0409069279e+01     0.184634     0.142529   8.96 0.0006034744    1.301    0.231
       162 -10.2968     47.3067    196.2918   8.3085588493e+01   2.8188686245e+01    0.1081769   0.09535402 -30.20 0.0004418578    1.578    0.366
       163 -12.6726    194.4848    187.2958   4.8988122358e+01   7.3130924615e+00    0.3244025    0.1853096  45.16  0.001561315    1.870    0.465
       164 -12.0018    152.1385    187.8514   5.7774756594e+01   1.4304207900e+01    0.1852618    0.1520559   2.66 0.0006134481    1.310    0.237
       165 -12.4516    110.7088    187.8664   6.7198540561e+01   2.1166156237e+01    0.3818898    0.1516437  39.45  0.001575684    2.168    0.539
       166 -13.3727    120.8045    186.5920   6.4645697762e+01   1.9790332607e+01    0.4436537    0.2276672  38.48 0.0003393764    1.713    0.416
       167 -13.5187    118.6699    180.2855   6.4178452031e+01   2.1404036629e+01    0.5980216    0.3212895  60.35  0.002421511    2.679    0.627
       168 -11.5140     43.4029    186.9350   8.3235705502e+01   3.0631726784e+01     0.197946    0.1447625  55.50 0.0005575024    1.158    0.137
       169 -10.7415    241.2049    186.1375   4.0529110251e+01   3.5597214695e-01    0.1447367    0.1269182 -10.61 0.0003626045    1.274    0.215
       170 -11.5166    247.7082    185.5870   3.9395118443e+01  -4.7892306413e-01    0.2126326   0.09880108  32.10  0.001122318    2.119    0.528
       171 -11.9538    164.5505    185.0920   5.4638906826e+01   1.2677470113e+01     0.235296    0.1742434  48.39 0.0005034567    1.433    0.302
       172 -11.5616     40.9040    183.0660   8.3514587191e+01   3.1755347094e+01    0.1959794    0.1365361  63.76   0.00117117    1.255    0.203
       173 -10.1826     37.3210    181.3009   8.4237034758e+01   3.2534057152e+01    0.2903113    0.1160574  23.97  0.001237299    2.975    0.664
       174 -12.1378      4.6097    181.4359   9.1961200509e+01   3.5564440068e+01    0.2233424    0.1755133 -74.41 0.0005763677    1.346    0.257
       175 -10.6458    210.3145    182.6797   4.5189894140e+01   5.4618917247e+00    0.1113454    0.1047733  86.53 0.0003612993    1.655    0.396
       176 -12.4549    166.9440    178.4874   5.2956889219e+01   1.3414947943e+01    0.3826256    0.2257621 -50.43            0    2.025    0.506
       177 -11.5598     30.9711    188.6669   8.6292929414e+01   3.1593240779e+01    0.1870786    0.1540876  61.28  0.000278506    1.050    0.048
       178 -11.5960    142.1694    181.5862   5.8933371484e+01   1.7160771858e+01    0.1946222    0.1213948  27.78 0.0005109407    1.618    0.382
       179 -11.3617     24.0465    181.4942   8.7435075086e+01   3.3839840433e+01     0.177145    0.1064608  35.66  0.001026202    1.576    0.366
       180 -12.0018     22.5528    175.6755   8.7404977202e+01   3.5269020636e+01    0.4352759    0.1637537 -64.45  0.002023348    2.549    0.608
       181 -11.5156    191.7806    177.8089   4.7775250704e+01   9.2477763526e+00    0.1678703    0.1576199  48.30 0.0007306904    1.337    0.252
       182 -13.3885    148.3468    176.2365   5.6615298230e+01   1.7093612932e+01    0.4379493    0.3056872  65.36  0.002113507    2.013    0.503
       183 -12.0697    137.3048    177.0221   5.9268847091e+01   1.8878481100e+01    0.1889508    0.1833801  32.83 0.0008054585    1.081    0.075
       184 -11.6281    223.6408    175.8393   4.1554687201e+01   4.3509755966e+00    0.1805451    0.1389175  17.58 0.0004904738    1.177    0.150
       185 -11.5548    171.9496    175.6710   5.1385454463e+01   1.3029514905e+01     0.195491    0.1627468  30.56 0.0005880457    1.101    0.092
       186 -13.2391    130.4321    169.2403   5.9532810758e+01   2.1632715545e+01    0.4818923    0.2866445  31.59  0.002229379    1.673    0.402
       187 -14.3080    126.1211    172.1551   6.1069800201e+01   2.1793607657e+01    0.8950583    0.4873434 -75.75   0.00310673    4.036    0.752
       188 -12.7895    106.2684    175.7822   6.6485092029e+01   2.4374302500e+01     0.245568    0.2236965  26.73 0.0003496241    1.142    0.124
       189 -10.6739     43.7920    200.3970   8.4203138806e+01   2.7734344593e+01    0.1424649    0.1086844  28.61 0.0002273666    1.436    0.304
       190 -12.5652     48.2109    174.8483   8.0976176766e+01   3.2758323397e+01    0.4874715    0.2051769  59.30  0.001572916    2.648    0.622
       191 -11.8243      4.1194    175.1585   9.1780619470e+01   3.6967994804e+01    0.2315244    0.1573651  64.46 0.0006791974    1.195    0.163
       192 -11.1440      2.5128    171.5784   9.1989072342e+01   3.7879951442e+01    0.1818657    0.1487495  68.25 0.0005082475    1.064    0.060
       193 -11.0320     39.7580    175.2747   8.3134532238e+01   3.3615255641e+01    0.1551608    0.1357099 -61.19 0.0003949596    1.326    0.246
       194 -13.5991    100.0981    172.4292   6.7509803597e+01   2.6084728365e+01    0.4342968    0.3107072 -23.88  0.002128917    2.030    0.507
       195 -13.0289     91.3903    169.7923   6.9323733279e+01   2.8030170504e+01     0.297717     0.249174 -30.88  0.001669703    1.481    0.325
       196 -11.4287     15.9575    167.2419   8.8469305503e+01   3.7762075723e+01    0.2093845    0.1550892  46.12   0.00100853    1.268    0.211
       197 -13.0281     29.5195    172.5821   8.5466166920e+01   3.5290639646e+01    0.2842298    0.2478545  50.63 0.0006632305    1.165    0.141
       198 -12.5858     24.4481    168.5915   8.6433982713e+01   3.6688229803e+01    0.4490941    0.2325776  31.09  0.001618091    1.913    0.477
       199 -14.1752     23.7972    161.0942   8.6028232110e+01   3.8474285915e+01     0.970219    0.4208434 -60.17  0.004624601    2.289    0.563
       200 -13.4139     14.8418    149.6585   8.7531358342e+01   4.1931819785e+01    0.4681501    0.3218758 -50.24  0.002763346    1.678    0.404
       201 -13.7381     26.6981    149.7829   8.4289887220e+01   4.0870519639e+01    0.5924838    0.3183599  81.72  0.002771998    1.888    0.470
       202 -12.9697     21.0799    153.1557   8.6115778012e+01   4.0578648653e+01    0.4861396     0.262788 -39.50  0.002316853    2.691    0.628
       203 -13.0898     21.0812    148.6812   8.5745476166e+01   4.1639625722e+01    0.4121142    0.3030381 -67.59  0.001640275    1.319    0.242
       204 -10.4276     12.6867    174.7059   8.9725355670e+01   3.6367706279e+01    0.1086506   0.08648596 -49.85 0.0002960728    1.596    0.374
       205 -11.6974    234.6222    171.5278   3.8891466226e+01   3.2620056245e+00    0.2280095    0.1759254 -22.07 0.0007764233    1.180    0.153
       206 -12.4218    197.1631    170.2788   4.5302168752e+01   9.5347356380e+00     0.235846    0.1696134 -17.65  0.001170889    1.414    0.293
       207 -12.6148     57.6104    163.9925   7.7384754742e+01   3.4109236515e+01    0.3915558    0.2363334  86.57 0.0007457638    1.843    0.457
       208 -13.3856    152.3802    166.8350   5.3985659061e+01   1.8153966627e+01    0.5596649    0.2146549 -48.89  0.002094007    2.913    0.657
       209 -12.0567     41.4869    168.5875   8.2090510049e+01   3.4947589844e+01    0.3275971    0.1964712  72.70  0.001718271    1.666    0.400
       210 -11.5366     48.6846    169.6501   8.0339824138e+01   3.3885778329e+01    0.1889793    0.1833259  66.07 0.0006962125    1.191    0.160
       211 -12.2978    172.1976    166.7389   4.9637706809e+01   1.4555582258e+01    0.2400093    0.2060377 -29.99  0.001385413    1.204    0.169
       212 -13.0711      4.9966    162.0386   9.0896127654e+01   3.9829705587e+01    0.7931832    0.2369532  50.48  0.002467563    2.834    0.647
       213 -11.7942     11.0135    161.3448   8.9338493046e+01   3.9519881565e+01    0.1884271    0.1529344  43.44 0.0002358019    1.260    0.206
       214 -11.8038     15.7926    160.3082   8.8046361013e+01   3.9364284950e+01    0.2483676    0.1827303  16.41  0.001024072    1.689    0.408
       215 -13.0721     88.0894    164.8849   6.9452567266e+01   2.9635987518e+01    0.3295541    0.2505895  38.10  0.001113975    1.250    0.200
       216 -12.4858     83.6710    164.8498   7.0604173136e+01   3.0313795655e+01    0.3798291    0.1867975 -60.96  0.001675313    2.098    0.523
       217 -12.8986     62.1133    169.6111   7.6861277281e+01   3.2238870012e+01    0.4619857    0.2573535  61.05  0.002200868    1.897    0.473
       218 -11.4930    206.2154    163.7994   4.2328651117e+01   9.0050963333e+00    0.1915554    0.1426985   6.42 0.0009968976    1.365    0.267
       219 -11.9031     68.2309    164.3864   7.4615332187e+01   3.2627547701e+01    0.1922153    0.1114893  44.67 0.0004231727    1.578    0.366
       220 -12.3565     37.2232    162.8096   8.2656886437e+01   3.6745584521e+01     0.237301    0.1878952  64.76 0.0004540488    1.111    0.100
       221 -12.7292     47.4769    161.4336   7.9796683818e+01   3.5931775224e+01    0.3981339    0.2124531  60.92  0.001890236    1.943    0.485
       222 -13.0726    170.1001    159.7951   4.8711777147e+01   1.6192333122e+01    0.3682519    0.3058206 -57.68  0.002021064    1.465    0.317
       223 -11.3204    146.9835    161.4898   5.4199682011e+01   2.0184719804e+01     0.215204    0.1214736  19.03  0.000809564    2.728    0.633
       224 -14.0187     69.7731    186.6440   7.6864488673e+01   2.7448986726e+01    0.7013067    0.3542838  48.78  0.002414334    1.772    0.436
       225 -10.5122    178.5610    160.5144   4.7076785477e+01   1.4493469471e+01    0.1389835    0.1266979   9.32   8.5792e-05    1.008    0.008
       226 -11.3090    159.0163    160.2446   5.1221447667e+01   1.8181348895e+01     0.186695    0.1143292  39.22 0.0003061008    1.537    0.350
       227 -12.2404     77.1809    159.7005   7.1585012408e+01   3.2454043368e+01    0.2309778    0.1814542 -89.41 0.0005230927    1.315    0.239
       228 -12.3184    188.1427    158.2999   4.4683898340e+01   1.3116449252e+01    0.2965274    0.2357609  29.75  0.000642364    1.195    0.163
       229 -11.6462    105.4493    158.1544   6.3834085871e+01   2.8342172318e+01    0.2798735    0.1921686  45.88 0.0006643211    1.371    0.271
       230 -12.3745     81.1971    157.0167   7.0103987574e+01   3.2484565593e+01    0.2959086    0.2027376  66.19  0.001010531    1.596    0.374
       231 -12.2716     76.9162    154.9572   7.0960668266e+01   3.3599216434e+01     0.237032    0.1900184  40.60 0.0003571546    1.206    0.171
       232 -12.8458     56.8571    157.3561   7.6788989994e+01   3.5760485414e+01    0.3260267    0.2133263  46.84 0.0007816461    1.423    0.297
       233 -12.1739     33.0447    157.9545   8.3313714073e+01   3.8315274547e+01    0.1926036    0.1625941  74.16 0.0003373231    1.016    0.016
       234 -12.7585     38.0627    154.7118   8.1637709366e+01   3.8563879103e+01    0.4184906    0.1970982  17.71  0.001788374    2.898    0.655
       235 -12.9623     63.0741    156.5015   7.4977419700e+01   3.5161860192e+01    0.2324865    0.2170145 -31.50 0.0006683163    1.294    0.227
       236 -12.8787     62.2277    152.9995   7.4744157988e+01   3.6104684397e+01    0.2917195    0.1690572  47.99  0.001136474    1.644    0.392
       237 -12.7792    126.5150    166.5199   5.9996655449e+01   2.2883271030e+01    0.2942344    0.2483146  62.84  0.001192052    1.271    0.213
       238 -12.2634    212.4178    153.7620   3.9173424881e+01   9.5023370138e+00    0.2375875    0.2304226  15.74 0.0004026581    1.236    0.191
       239 -12.3448     88.2768    153.2511   6.7586136660e+01   3.2271431455e+01    0.2426278    0.1750175 -59.36 0.0005861529    1.425    0.298
       240 -11.9417     51.0073    154.0994   7.8002518551e+01   3.7251223589e+01     0.211751    0.1807967  75.49 0.0006653531    1.055    0.052
       241 -10.7070    204.5512    156.5132   4.1167303345e+01   1.0452461454e+01    0.1336927    0.1202561  -2.51 2.079108e-05    1.042    0.040
       242 -11.4795    249.0999    151.9337   3.2808716368e+01   3.7346182389e+00    0.1816948    0.1474198 -12.34 0.0003106316    1.006    0.006
       243 -11.8298     45.4783    151.7899   7.9269241867e+01   3.8448278925e+01    0.3085628    0.1799276 -26.84  0.001302043    3.104    0.678
       244 -11.3289     79.5066    151.5492   6.9724426466e+01   3.4017292857e+01    0.1416239    0.1290552  66.59  0.000133556    1.020    0.019
       245 -11.9810    147.4322    149.5774   5.1713464079e+01   2.2475427372e+01    0.3113114    0.2521174  74.15  0.001352308    1.580    0.367
       246 -12.6561    108.6975    148.9639   6.1325086677e+01   2.9839551363e+01    0.3264956    0.2751782 -62.61 0.0008672443    1.244    0.196
       247 -12.7881     96.1052    149.1189   6.4746846150e+01   3.1961643231e+01    0.3721542    0.2554618 -24.45  0.001665562    2.156    0.536
       248 -12.9930     84.6861    149.2714   6.7919564957e+01   3.3763196739e+01    0.3446397    0.2547222 -48.15  0.001244287    1.468    0.319
       249 -12.0012     88.2154    144.8141   6.6174046846e+01   3.4255289634e+01    0.2247521    0.2036083   1.01  0.001246629    1.303    0.232
       250 -13.8534     33.5770    148.5763   8.2254824637e+01   4.0494040462e+01    0.5638033    0.2687558  25.12  0.001001364    2.309    0.567
       251 -12.0203     76.9274    148.8049   7.0012849033e+01   3.5050331173e+01    0.2076913    0.1907325 -25.22 0.0005898091    1.293    0.227
       252 -12.2356     66.9353    148.8473   7.2838883861e+01   3.6464641076e+01    0.3689335    0.1304635  50.44  0.001256766    3.295    0.697
       253 -13.2603      4.6186    147.5706   9.0148638181e+01   4.3195940960e+01    0.5071578    0.3484841   7.46  0.003061193    1.937    0.484
       254 -13.5991      3.0917    131.5106   8.9509201366e+01   4.7107302792e+01    0.5381973    0.3407936  36.08  0.001085771    1.639    0.390
       255 -14.2803     11.9439    141.4830   8.7711264520e+01   4.4102403852e+01     0.737249     0.420941  66.01  0.003994754    1.655    0.396
       256 -13.3693     14.6268    135.8791   8.6486817878e+01   4.5245598606e+01     0.420877    0.2527347  55.04  0.002014934    1.598    0.374
       257 -12.4606     11.9703    133.2463   8.7042201433e+01   4.6082659414e+01    0.2364999    0.2200864 -75.98 0.0003912756    1.168    0.144
       258 -11.2569    229.3000    145.9774   3.4686527220e+01   7.7771821196e+00    0.1815507     0.146854 -20.72 0.0003453859    1.091    0.084
       259 -11.4025    121.5210    146.4760   5.7480580944e+01   2.8067815684e+01    0.1467792    0.1402295  27.15 0.0001032872    1.056    0.053
       260 -12.6009    170.4205    144.5405   4.5458421410e+01   1.8950756863e+01    0.3640651    0.2008943  32.81  0.001549172    1.953    0.488
       261 -11.2433    105.5248    144.5089   6.1333224394e+01   3.1409077578e+01    0.2626466    0.2094031 -54.09 0.0006261866    1.299    0.230
       262 -13.3489    100.4602    141.8465   6.2212066656e+01   3.2906029153e+01    0.6216532    0.3384534  61.25  0.002358536    2.607    0.616
       263 -11.8771      2.9634    142.5055   9.0280352762e+01   4.4499957957e+01    0.1939992    0.1726465 -29.62  0.001216279    1.449    0.310
       264 -12.5958      3.7513    138.2072   8.9781781860e+01   4.5465251887e+01    0.4077865    0.2386996  51.18  0.002333792    1.609    0.379
       265 -11.2614    139.9967    141.0500   5.1697307717e+01   2.5680343359e+01    0.1790809    0.1702174 -38.44 0.0006718115    1.091    0.083
       266 -10.6179    118.5187    143.5618   5.7677294305e+01   2.9268387251e+01    0.1486023    0.1389131  56.86 4.991859e-05    1.052    0.049
       267 -12.6327     35.1758    138.7668   8.0732430338e+01   4.2714189247e+01     0.282954    0.1897289  26.68 0.0008287111    1.637    0.389
       268 -13.3397     37.6939    135.4183   7.9583864103e+01   4.3278768756e+01    0.4687889    0.2156193  53.57  0.001867427    2.334    0.572
       269 -14.4386     35.3739    131.0648   7.9753006528e+01   4.4590615781e+01     0.714507     0.387099  44.01            0    1.819    0.450
       270 -12.4475     41.7883    139.6039   7.8876933082e+01   4.1814801777e+01    0.2478381     0.174054  51.25 0.0004139103    1.379    0.275
       271 -13.1274     45.3019    137.9752   7.7625737905e+01   4.1824515653e+01    0.3828761    0.1660544 -61.16  0.001277915    2.108    0.526
       272 -11.3639    223.1973    138.0601   3.4022046708e+01   1.0033194909e+01    0.3434117    0.1381978 -28.05  0.001343559    2.701    0.630
       273 -12.3270    188.5799    138.5326   4.0392016882e+01   1.6462199851e+01    0.2417286     0.230933 -29.70  0.001424793    1.121    0.108
       274 -12.7754     29.6573    138.8025   8.2363060939e+01   4.3245359227e+01    0.2740984     0.188487  88.79  0.001529062    1.347    0.258
       275 -10.4277    212.6634    137.3243   3.5653002982e+01   1.2062163833e+01    0.1307328    0.1084353 -69.85 0.0004458754    1.717    0.418
       276 -11.5784    126.7904    137.1908   5.4190199060e+01   2.9096890502e+01     0.203723    0.1770399   1.20 0.0003779393    1.321    0.243
       277 -13.3378    118.0171    134.9855   5.6027109464e+01   3.1274738568e+01    0.6766652    0.3848624  60.27  0.002610878    2.404    0.584
       278 -11.5234    193.4747    134.9746   3.8646612062e+01   1.6120191021e+01     0.210141    0.1799694  33.69  0.000171432    1.170    0.145
       279 -10.5059    141.4519    135.5164   5.0127124549e+01   2.6545987991e+01    0.1482212    0.1440624  36.86 0.0002000066    1.021    0.020
       280 -13.3073     78.2453    133.4340   6.7027973976e+01   3.8545635316e+01    0.4039868    0.2776452 -26.01  0.001151718    2.079    0.519
       281 -12.2852     86.3023    134.6837   6.4879991175e+01   3.6972234678e+01    0.2942418    0.2316338 -64.79 0.0007422645    1.277    0.217
       282 -13.1980     83.4082    127.9480   6.4441444680e+01   3.9061306269e+01    0.5478015    0.2574135 -45.77  0.002128824    2.342    0.573
       283 -12.2645     80.2043    127.3915   6.5302789639e+01   3.9707392980e+01    0.2582158    0.2083695  66.63 0.0006428477    1.305    0.234
       284 -12.5998    102.8348    134.0460   6.0004131950e+01   3.4298820600e+01    0.2761696    0.2149596  41.51   0.00138648    1.250    0.200
       285 -11.3688    127.9405    133.1484   5.3008284139e+01   2.9753398845e+01    0.2515498    0.1724021  68.76  0.001069985    2.000    0.500
       286 -12.8971     16.4642    129.4848   8.5364135093e+01   4.6659501626e+01    0.4810058    0.1359261  54.70  0.001555717    4.654    0.785
       287 -12.5463     21.7047    131.2983   8.3954617097e+01   4.5792608509e+01    0.2233746    0.2104345  -7.13 0.0002119944    1.308    0.236
       288 -13.0892     22.1112    127.8607   8.3473625636e+01   4.6603447878e+01    0.3397762    0.2241989 -63.11 0.0003658951    1.403    0.287
       289 -12.8380    206.3194    129.4165   3.5022700202e+01   1.4549086634e+01    0.2767604    0.2304025 -25.57 0.0004182298    1.119    0.106
       290 -10.5853    230.4311    130.5335   3.1240837211e+01   9.8893452674e+00    0.1313069    0.1141914 -20.04  0.000147873    1.033    0.032
       291 -12.1220     50.2252    129.9711   7.5006558618e+01   4.3230300715e+01    0.2206061    0.1722675  71.31 0.0007734426    1.282    0.220
       292 -13.2308     44.8318    127.9055   7.6388403748e+01   4.4368574980e+01    0.5319907    0.2607424  64.18   0.00157578    2.722    0.633
       293 -10.8668    188.0145    127.7288   3.8055856306e+01   1.8481366510e+01    0.1925016    0.1779436  20.19 0.0002608108    1.067    0.063
       294 -10.4605    130.4707    128.4630   5.1294869720e+01   3.0266726099e+01    0.1503124    0.1462478  45.50  0.000119296    1.012    0.011
       295 -11.4177    121.7035    127.9986   5.3498352068e+01   3.2119937196e+01    0.2162369    0.1968843 -58.39  0.001141271    1.134    0.118
       296 -13.7108     60.5556    127.0231   7.1311926615e+01   4.2658372104e+01    0.3527437    0.2802776  36.84  0.001039861    1.294    0.227
       297 -10.9030     97.2883    125.3634   5.9775921743e+01   3.7323272459e+01    0.1527571    0.1168709 -21.86 0.0003972429    1.695    0.410
       298 -12.1504     74.9459    125.0027   6.6456194120e+01   4.1104594152e+01    0.2159302    0.2072683 -72.79 0.0003272372    1.048    0.046
       299 -13.4926     19.0770    123.3207   8.3938963827e+01   4.7969766358e+01    0.3726937    0.2562925  -5.12  0.001574379    1.986    0.496
       300 -12.0819    109.2368    123.0646   5.5815852283e+01   3.5656296523e+01    0.2688423    0.2133328  49.64 0.0003099127    1.256    0.204
       301 -11.6342    188.9875    121.6694   3.6449232650e+01   1.9351939382e+01    0.1970641    0.1808343  37.41 0.0002398261    1.119    0.106
       302 -11.2359    165.3180    122.0120   4.1412554652e+01   2.4287439451e+01    0.2075823    0.1936153 -35.94 0.0004206226    1.078    0.073
       303 -12.6432    103.8320    121.4263   5.6994963289e+01   3.7054075797e+01    0.3791541    0.2741133  63.90   0.00172178    1.624    0.384
       304 -12.6207     98.5758    117.3437   5.7610220055e+01   3.8980323006e+01    0.3903679    0.2482809  57.81 0.0009762626    1.846    0.458
       305 -10.7769     92.9766    122.0466   6.0339580400e+01   3.8869747614e+01    0.1759433    0.1669681 -72.11            0    1.045    0.043
       306 -12.3403     67.9560    122.2681   6.8129231747e+01   4.2810959626e+01     0.203134    0.1896717  55.46 0.0007054376    1.077    0.071
       307 -13.6795     10.3942    105.9664   8.4924576679e+01   5.2879160959e+01    0.3622728    0.2302215  83.73 0.0006231283    1.515    0.340
       308 -13.7157      4.6484    119.0989   8.8081205171e+01   5.0012376302e+01    0.5469403    0.2683373  87.16  0.002695065    1.911    0.477
       309 -12.5095     13.8875    117.9948   8.5038003896e+01   4.9673877548e+01    0.2262364    0.2020955 -62.26 0.0005565825    1.163    0.140
       310 -12.8909      9.0057    115.3854   8.6357118458e+01   5.0647903661e+01    0.3312949    0.2118886 -87.22 0.0003529447    1.374    0.272
       311 -13.9698     13.0750    112.8801   8.4768526841e+01   5.0993344428e+01    0.6250641    0.2301456 -74.97  0.001331033    2.320    0.569
       312 -11.3354    179.2098    120.1016   3.8013314088e+01   2.1685874350e+01     0.210862    0.1887796  -1.51 0.0003447135    1.143    0.125
       313 -12.3216     44.2976    120.9472   7.5525036576e+01   4.6164043853e+01    0.3421325    0.2313235 -37.88 0.0009539666    1.757    0.431
       314 -11.9559     50.9507    116.1994   7.2561026082e+01   4.6576775861e+01    0.4660017    0.3059022  49.26  0.001116543    1.586    0.369
       315 -13.3821     21.4676    115.9359   8.2336917923e+01   4.9608721489e+01    0.5283196    0.4332314  45.21  0.002545754    1.284    0.221
       316 -12.0638     58.7423    117.4462   7.0208278766e+01   4.5278313569e+01    0.2072721    0.1414089  31.26 0.0008971169    1.548    0.354
       317 -14.0871     62.5146    111.8235   6.7881879300e+01   4.6165153133e+01    0.5716262    0.4787757 -61.99  0.003146162    1.135    0.119
       318 -11.9682    197.0278    115.3482   3.3437767367e+01   1.8777995219e+01    0.2280764    0.1878755 -18.71 0.0003299433    1.211    0.174
       319 -11.8902     83.6701    115.6698   6.1808787181e+01   4.1988281923e+01    0.2346581     0.154059  33.81 0.0008644034    1.578    0.366
       320 -12.8454     82.4678    112.5398   6.1495583579e+01   4.2944477062e+01    0.5314507    0.1576589 -51.51  0.001689746    3.178    0.685
       321 -10.8123    187.5125    114.5605   3.5029706477e+01   2.0916808733e+01    0.1431661    0.1382675 -23.05  0.000122591    1.039    0.037
       322 -11.6664    104.8693    114.0768   5.4973034842e+01   3.8562607487e+01      0.23722    0.2079106  81.14 0.0008660374    1.256    0.204
       323 -12.2299    109.7211    111.9594   5.3038549304e+01   3.8104909372e+01    0.2826493      0.22823  30.24 0.0004481938    1.308    0.236
       324 -12.6935    113.1517    110.1485   5.1597375114e+01   3.7830596233e+01    0.2723802    0.2236599 -49.29  0.001034814    1.227    0.185
       325 -10.6794    100.4987    113.5729   5.6150368210e+01   3.9507209749e+01     0.149841    0.1457672  68.12 0.0001280926    1.017    0.017
       326 -11.6778     89.7441    110.9648   5.8830656133e+01   4.2077251350e+01    0.2277882    0.2191448  47.34 0.0003898822    1.050    0.047
       327 -11.3155     92.1319    107.8362   5.7333372665e+01   4.2393405596e+01    0.2281234    0.2013301 -12.77 -0.000430966    1.304    0.233
       328 -11.8607     52.9158    110.7720   7.0925103471e+01   4.7691300661e+01    0.2981076    0.2140316  43.63  0.000837287    1.437    0.304
       329 -11.9099     73.6622    109.5302   6.3687686295e+01   4.5091658178e+01    0.3392037    0.2098629  80.35  0.001326727    2.607    0.616
       330 -10.7919    216.4730    109.4668   2.8725165560e+01   1.5778421542e+01    0.1375734    0.1247552 -22.48 0.0001562646    1.007    0.007
       331 -12.2108    171.1050    108.7585   3.6881959548e+01   2.5540152662e+01    0.3779482    0.2949652  86.85  0.001787509    1.744    0.426
       332 -11.1122    209.6174    108.2074   2.9544756127e+01   1.7365650628e+01    0.2055299    0.1259126 -24.39 0.0009518787    1.707    0.414
       333 -10.5523    155.4936    108.4765   4.0236272357e+01   2.9071868065e+01    0.1498537    0.1494919   8.14 4.470014e-05    1.023    0.022
       334 -12.4589      2.9499    107.0243   8.7567967354e+01   5.3059324792e+01    0.2461433    0.1999696  40.95  0.001133984    1.357    0.263
       335 -10.8861    139.6616    107.3295   4.3739376250e+01   3.2819047939e+01    0.1595822    0.1241553 -88.70 0.0007051885    1.735    0.424
       336 -10.6639    120.9283    106.9839   4.8593433821e+01   3.6933184076e+01    0.1832643    0.1751249  44.13 0.0003192869    1.037    0.036
       337 -11.6036    219.2238    106.1538   2.7518243320e+01   1.5750558875e+01    0.1817209    0.1525198 -54.67 0.0004200732    1.301    0.231
       338 -11.2097    229.4645    103.0732   2.5271530165e+01   1.4211082419e+01    0.1810681    0.1737224 -16.53 0.0003241965    1.092    0.084
       339 -12.4909     78.9410    101.5208   6.0073458663e+01   4.6185272127e+01    0.2844614    0.2612197  60.25 0.0004020085    1.122    0.109
       340 -12.5746     32.8829     98.1460   7.5766413272e+01   5.3053959878e+01    0.4862554     0.238039 -40.84  0.002104114    2.334    0.571
       341 -11.4647    208.2415     99.9625   2.7789392007e+01   1.8982943032e+01    0.1967459    0.1733404 -30.86 0.0003676809    1.051    0.049
       342 -12.0646    193.2992    100.4197   3.0455478053e+01   2.2117681143e+01    0.3551031    0.1452883  54.96  0.001313473    2.676    0.626
       343 -12.1173    162.4919     99.5162   3.6313280727e+01   2.9215857202e+01    0.2754561    0.1358939 -49.05   0.00102824    2.238    0.553
       344 -13.4818    155.0481     97.3743   3.7389846265e+01   3.1334162825e+01    0.4380043    0.3469714  39.80 0.0006759805    1.292    0.226
       345 -12.1848     93.7793     99.1548   5.4615405929e+01   4.4122372042e+01    0.3174707    0.2483652  42.12  0.001207216    1.288    0.224
       346 -10.7147     55.6195    100.7137   6.7980772040e+01   4.9847758147e+01    0.1467677    0.1056574 -25.24 0.0007014187    1.733    0.423
       347 -11.5828     58.6317     98.0959   6.6332196785e+01   5.0091470583e+01    0.3879564    0.2591389  58.33  0.001837868    1.776    0.437
       348 -11.2635     45.8463     97.6223   7.0884019961e+01   5.1818936324e+01    0.1803363    0.1692785  36.90 0.0005025021    1.150    0.131
       349 -11.9052     24.9075     97.2760   7.8575278691e+01   5.3979728849e+01    0.3738515    0.2164282 -34.64 0.0008738248    2.052    0.513
       350 -10.3993    224.2979    120.3034   2.9958412777e+01   1.2568917957e+01    0.1342577   0.09870019   3.17 0.0002671298    1.584    0.369
       351 -12.6113     66.8525     94.6041   6.2567803743e+01   4.9765449992e+01    0.2824834    0.2429745  52.54  0.000795229    1.228    0.186
       352 -11.5388    117.3409     94.0717   4.6092235535e+01   4.0500937971e+01    0.2161985    0.1876679 -47.63 0.0003409766    1.160    0.138
       353 -10.4208     49.2772     93.6719   6.8786125326e+01   5.2388759558e+01    0.1404181    0.1047387  75.76 0.0006993243    1.593    0.372
       354 -11.8925     78.2251     92.4035   5.8002937379e+01   4.8474799801e+01    0.2161278    0.1355251  47.41 0.0009576515    1.701    0.412
       355 -12.5230    230.0541     89.8185   2.2119940714e+01   1.6067794969e+01    0.2508291     0.226336  -7.61  0.000421792    1.159    0.137
       356 -11.3349     28.7972     90.2263   7.5913178479e+01   5.5398111202e+01    0.1868565    0.1418959 -41.96 0.0005147147    1.327    0.246
       357 -11.3715     22.9950     90.0664   7.8135041676e+01   5.5924805483e+01    0.1989025     0.168985 -60.87   0.00028802    1.058    0.055
       358 -13.0700     61.4761     84.3744   6.1951230747e+01   5.3015281031e+01    0.4392362    0.2610931 -32.90  0.001762985    2.057    0.514
       359 -11.2255      3.8046     88.0541   8.5255387164e+01   5.7658306763e+01    0.2618915    0.1360086 -57.55  0.001368933    1.629    0.386
       360 -12.3846     54.3460     85.9390   6.5072200610e+01   5.3631607715e+01    0.4226055    0.3889421 -25.93  0.002467079    1.128    0.113
       361 -12.4159     11.8165     86.9054   8.2000873001e+01   5.7492069012e+01    0.2741165    0.2207383  16.40  0.001084349    1.452    0.311
       362 -11.6104    178.5687     86.7545   2.9606063915e+01   2.7792661488e+01    0.2070571    0.1347238 -46.25 0.0003481171    1.541    0.351
       363 -12.2531    149.0393     87.5100   3.6012874494e+01   3.4622426558e+01    0.2543979    0.2218322  -6.27 0.0006268864    1.295    0.228
       364 -12.8341    152.4710     81.1830   3.3399235816e+01   3.4985826384e+01    0.6859936    0.3970383  18.80  0.001952269    3.852    0.740
       365 -10.8782    244.2715     85.9819   1.9416412717e+01   1.3854306504e+01    0.1771199    0.1423371 -33.52 0.0002657021    1.068    0.064
       366 -10.8016    133.2464     84.3716   3.8951225441e+01   3.8933664013e+01    0.2041637    0.1464023  60.03 0.0002042017    1.499    0.333
       367 -10.8780    125.7993     84.5868   4.0976472641e+01   4.0604331786e+01    0.3427637    0.2291715  80.38  0.001320874    2.436    0.590
       368 -10.7147    123.6689     81.2013   4.0530517974e+01   4.1771319822e+01    0.2077358    0.1433953 -32.59            0    1.553    0.356
       369 -12.1345    112.5427     83.8330   4.4485453805e+01   4.3713088073e+01    0.4473415    0.2091006  51.84  0.001625427    2.316    0.568
       370 -11.9756    189.8886     83.4767   2.6684357398e+01   2.5718471185e+01    0.2639219    0.1477108  62.85  0.001118421    2.023    0.506
       371 -11.7606    171.4903     82.9880   2.9935618355e+01   3.0111034961e+01    0.2301133    0.1462639 -35.05 0.0006528519    1.557    0.358
       372 -12.6089    206.5255     80.9658   2.3339450819e+01   2.2359302280e+01    0.2675067    0.2358479 -28.53 0.0003591948    1.099    0.090
       373 -11.5680     78.6763     82.0635   5.4972838713e+01   5.0796991251e+01    0.2091633    0.1835353 -49.97 0.0003618943    1.111    0.100
       374 -12.3931    182.2408     81.0804   2.7390016651e+01   2.7894002968e+01    0.2508822    0.2163762  68.60 0.0002957702    1.223    0.182
       375 -11.4606    215.9774     80.0138   2.1715338744e+01   2.0442710424e+01    0.2154914    0.1527612 -60.81 0.0004019358    1.589    0.371
       376 -11.4444    112.8115     78.9198   4.2897429536e+01   4.4672718295e+01    0.2956786    0.2202076 -64.95  0.001344497    1.627    0.385
       377 -11.1633     52.2536     78.9682   6.4116754053e+01   5.5578048362e+01    0.3610279    0.2123896  10.76  0.001552148    2.380    0.580
       378 -11.2181     29.1277     78.8819   7.3572349212e+01   5.8155452208e+01    0.2925846     0.198953  78.80  0.001495006    1.827    0.453
       379 -11.6509     75.1109     75.6647   5.4354372899e+01   5.2863224986e+01    0.2520107    0.1974912 -60.72 0.0005868193    1.348    0.258
       380 -10.4748     48.4636     76.4492   6.4985866946e+01   5.6662743051e+01    0.1372355    0.1292076 -62.72 9.363435e-05    1.063    0.059
       381 -11.5829    214.9224     75.2774   2.0688944479e+01   2.1377558813e+01    0.2377756    0.1675784 -44.82 0.0005037214    1.315    0.240
       382 -11.4608     85.9466     74.9014   5.0231470886e+01   5.1066244529e+01    0.2733528    0.2100383  14.90  0.001071936    1.559    0.358
       383 -12.0064      1.9450     73.8007   8.4150420085e+01   6.1203738362e+01    0.4645773    0.1289586 -60.79  0.001369356    2.519    0.603
       384 -11.3456      1.9920     68.6387   8.3375355627e+01   6.2439073158e+01    0.1940753    0.1464927 -67.92  0.001219356    1.099    0.090
       385 -10.8903    155.7868     73.8109   3.0500055386e+01   3.5501897332e+01    0.2126151    0.1791094 -76.16 0.0005547162    1.338    0.252
       386 -11.9897     87.5380     78.9915   5.0955162901e+01   4.9869495103e+01    0.3139947     0.218776  40.79 0.0004053806    1.456    0.313
       387 -11.0913    105.2260     72.7788   4.3219468543e+01   4.7583553044e+01     0.217205    0.1831173   6.95  0.001072838    1.374    0.272
       388 -11.1029     51.1086     72.8821   6.2930881977e+01   5.7162410535e+01    0.2094703    0.1844869 -84.58  0.000597984    1.273    0.215
       389 -11.7068    182.6628     71.0082   2.4547826992e+01   2.9437599074e+01    0.2485801    0.2087953  77.88 0.0002899126    1.270    0.213
       390 -10.9228     11.2956     71.6311   7.9784609064e+01   6.1242113257e+01    0.1559244     0.117422 -11.24 0.0007107303    1.526    0.345
       391 -10.6298     93.8591     68.6066   4.5481115150e+01   5.0832640344e+01    0.1976318    0.1416716  55.11 0.0004034307    1.532    0.347
       392 -12.4633      7.2815     67.7920   8.0889258855e+01   6.2387259176e+01    0.2198551    0.1756809 -51.64    0.0002468    1.109    0.098
       393 -13.0125    203.3891     66.2737   2.0018009053e+01   2.5292296596e+01    0.2756614    0.2640559  48.73 0.0004947907    1.137    0.121
       394 -12.4694    199.1099     65.4921   2.0432925256e+01   2.6397531275e+01    0.2612718    0.2390226 -17.15 0.0004164814    1.168    0.144
       395 -11.7592     60.1611     67.1100   5.7493729294e+01   5.7202782617e+01    0.2142687    0.1812461 -27.71 0.0003483404    1.181    0.153
       396 -11.9443    179.2688     64.4324   2.3279885298e+01   3.1294742438e+01    0.2710589    0.2513246  89.62 0.0007003051    1.086    0.079
       397 -11.7536     44.8593     62.2750   6.2511266047e+01   6.0402698245e+01    0.2996229    0.2147402 -25.07  0.001568811    1.517    0.341
       398 -12.0414     11.2024     62.6551   7.8137797602e+01   6.3389992656e+01    0.3992716    0.1848398 -18.84  0.001742333    2.945    0.660
       399 -11.7025    108.9903     60.0274   3.7763900086e+01   4.9219956691e+01    0.2329633    0.2269423 -87.22 0.0008489786    1.088    0.081
       400 -12.9601     32.6284     57.0793   6.6581253983e+01   6.2968241789e+01     0.524368    0.2328287  39.65  0.002277394    2.600    0.615
       401 -11.1804     85.9759     67.2573   4.7724458110e+01   5.2687609981e+01    0.2003598    0.1899557  23.82  0.000216067    1.055    0.052
       402 -11.3031    159.9921     57.4963   2.4700372920e+01   3.7163767332e+01    0.2228741    0.1461318  61.75  0.000435338    1.523    0.343
       403 -11.4034    120.5464     57.0340   3.3473921498e+01   4.7047314257e+01    0.2209992     0.150005 -34.96 0.0002882731    1.513    0.339
       404 -10.8096    149.5035     56.4868   2.6471148326e+01   3.9967267064e+01    0.1499995    0.1450809  89.61 0.0008104607    1.020    0.019
       405 -12.1112    126.7557     53.5677   3.0669325239e+01   4.6126875414e+01    0.3604864    0.1829867  53.16  0.001438136    1.894    0.472
       406 -11.8593    110.2885     54.0295   3.5246474580e+01   4.9999455370e+01    0.2168996    0.2021044 -28.32  0.001170377    1.093    0.085
       407 -13.5039     30.9850     49.9977   6.5213380898e+01   6.4721086992e+01    0.3748992    0.3023369  48.62  0.001166272    1.515    0.340
       408 -12.0669     19.2194     47.1348   7.0369745084e+01   6.6419910135e+01    0.5112705     0.133076 -57.93  0.001942152    2.918    0.657
       409 -11.1236    143.4904     44.5032   2.3774239193e+01   4.3331126297e+01    0.1480461    0.1424236  62.31 0.0008105064    1.023    0.022
       410 -13.6105     36.6867     40.1815   5.8859447387e+01   6.6178088273e+01    0.3742287    0.2996491  10.49  0.001149837    1.282    0.220
       411 -11.2298    119.0704     40.8918   2.8027766801e+01   5.0027954726e+01    0.2944342    0.1956613   4.40   0.00123785    2.212    0.548
       412 -11.4633    241.8885     40.0826   9.1824535114e+00   2.0386237448e+01    0.1890842    0.1560139 -49.75 0.0003677364    1.017    0.016
       413 -10.0835    124.3257     40.6699   2.6657443064e+01   4.8754810686e+01    0.1542544    0.1142926 -71.00 0.0007050669    1.705    0.413
       414 -12.7970     25.2965     37.7434   6.4021641243e+01   6.7923412524e+01     0.458662    0.2590323 -16.67   0.00219373    2.225    0.550
       415 -10.3180    181.7163     39.2944   1.5656921185e+01   3.4300155419e+01    0.1457462    0.1004494 -63.45 0.0001963402    1.540    0.351
       416 -10.5337     63.2710     34.3201   4.3772450654e+01   6.3273625409e+01     0.138496    0.1015379  -3.29 0.0003282529    1.566    0.361
       417 -12.2912     44.4058     32.8814   5.1898932315e+01   6.6591544031e+01      0.32605    0.1918209 -23.57  0.001430134    1.984    0.496
       418 -12.9226     31.8402     32.4961   5.8360325223e+01   6.8296294744e+01    0.3473652     0.301874 -49.95  0.002150079    1.239    0.193
       419 -11.8319    106.7451     32.5282   2.8002292812e+01   5.4257060119e+01    0.2630794    0.2007002 -27.28 0.0008180727    1.373    0.272
       420 -10.9340     67.7008     33.6049   4.1603608502e+01   6.2580084407e+01    0.1737156    0.1301729  49.89 0.0002611959    1.458    0.314
       421 -12.6639     78.3225     31.3592   3.6488973367e+01   6.0840314648e+01    0.3065685     0.250012  72.42  0.001252624    1.590    0.371
       422 -11.6124    208.8311     30.6319   1.0016966434e+01   2.8804590579e+01    0.2406106    0.1639258  88.73  0.000905907    1.514    0.340
       423 -12.1572     19.3937     29.7880   6.4412064602e+01   7.0114157618e+01    0.2169721    0.1829122 -28.59 0.0003149839    1.021    0.021
       424 -11.3536      2.8958     29.8587   7.4537688619e+01   7.1243848835e+01    0.1957626    0.1314262 -34.41 0.0008370685    1.298    0.230
       425 -11.7329     81.4840     28.0170   3.3856757397e+01   6.0680854346e+01    0.2043977    0.1360092 -31.24 0.0003982843    1.534    0.348
       426 -12.4106    139.0992    247.7398   6.8723401817e+01   6.6352138552e+00     0.326357    0.2268644  49.70   0.00173697    1.451    0.311
       427 -10.3838    123.3289     26.2648   2.1485490208e+01   5.0971334110e+01    0.1494737    0.1024675  36.07 0.0002931055    1.572    0.364
       428 -10.9232     95.3717     26.2330   2.8593814369e+01   5.7823870569e+01    0.2002664    0.1267629 -40.53 0.0009352047    1.708    0.414
       429 -12.5150     81.0234     19.0338   2.9839292914e+01   6.2024857027e+01    0.3068399    0.2035591 -60.57  0.001409345    2.336    0.572
       430 -12.6872     84.0192     23.7081   3.1027412147e+01   6.0742499003e+01    0.2812757    0.2193902 -61.02 0.0009365422    1.695    0.410
       431 -11.1891     59.1130     25.8241   4.1635790810e+01   6.5440098474e+01    0.1865977    0.1464924   3.71  0.000406483    1.297    0.229
       432 -12.0038     45.5969     25.8975   4.8076231023e+01   6.7674732302e+01    0.2407187    0.1872735  36.14 0.0006572448    1.361    0.265
       433 -11.4131    166.3809     22.4074   1.2692479427e+01   4.0273302905e+01    0.2468976    0.1997159 -67.38  0.000786328    1.223    0.183
       434 -11.1165    143.4942     18.8478   1.4938788186e+01   4.6623466132e+01    0.2160307    0.1742501  70.31 0.0004516667    1.152    0.132
       435 -10.8149    131.4528     18.1242   1.6777591768e+01   4.9837068751e+01    0.1976225    0.1430349 -21.82  0.001000487    1.516    0.340
       436  99.0000     31.6754    239.3886   8.9058516687e+01   2.1581954464e+01    0.3423727    0.1535458 -83.87  0.001992254    2.379    0.580
       437 -11.6072     36.2546    241.3392   8.8281528413e+01   2.0754871916e+01    0.2503623    0.1002496  36.29 0.0007588311    1.939    0.484
       438 -13.4938     38.2895    247.0307   8.8181654979e+01   1.9554604753e+01    0.3329878    0.2654781  72.44  0.002086895    1.210    0.173
       439 -12.4353     33.9081    245.4583   8.8925510149e+01   2.0290820838e+01    0.1996412    0.1211248  44.36  0.001382385    1.239    0.193
       440 -12.1986     42.3275    244.7214   8.7301445175e+01   1.9510298396e+01    0.2294403    0.1473101  46.41  0.001125278    1.160    0.138
       441 -11.8109    162.3392    246.9833   6.4207508189e+01   3.5219775084e+00    0.2209292    0.1570875  14.26 0.0009410058    1.346    0.257
