#   1 NUMBER                 Running object number                                     
#   2 MAG_AUTO               Kron-like elliptical aperture magnitude                    [mag]
#   3 X_IMAGE                Object position along x                                    [pixel]
#   4 Y_IMAGE                Object position along y                                    [pixel]
#   5 X_WORLD                Barycenter position along world x axis                     [deg]
#   6 Y_WORLD                Barycenter position along world y axis                     [deg]
#   7 A_WORLD                Profile RMS along major axis (world units)                 [deg]
#   8 B_WORLD                Profile RMS along minor axis (world units)                 [deg]
#   9 THETA_WORLD            Position angle (CCW/world-x)                               [deg]
#  10 FWHM_WORLD             FWHM assuming a gaussian core                              [deg]
#  11 ELONGATION             A_IMAGE/B_IMAGE                                           
#  12 ELLIPTICITY            1 - B_IMAGE/A_IMAGE                                       
         1  -9.1817     96.5501     14.4909   2.2281952234e+01   5.9344501624e+01    0.3331468    0.2055172 -65.86  0.001401142    2.640    0.621
         2  -9.9120      2.2180     11.6251   6.8236134549e+01   7.5400600351e+01    0.2243873     0.212924   4.01  0.001677053    1.329    0.248
         3  -8.2982     55.7365      9.7594   3.3895286919e+01   6.8768090649e+01    0.1622294    0.1542613 -43.75 0.0005252741    1.362    0.266
         4 -10.2230      6.6894      8.7026   6.3322971297e+01   7.5659460870e+01    0.4149798    0.2061544  43.80  0.001943775    3.479    0.713
         5  -8.7096     21.2102      9.7128   5.3265147586e+01   7.4100140327e+01    0.2340364   0.09682897  36.11  0.001087742    2.697    0.629
         6  -8.1826     70.3783      6.2541   2.6080462807e+01   6.6205968763e+01     0.179347    0.1172686 -32.55 0.0006588596    1.632    0.387
         7  -8.5334     79.3434      4.4312   2.2161636269e+01   6.4405685938e+01    0.2276396    0.1224781 -21.60  0.001078625    1.921    0.480
         8  -8.4087     33.5172      5.0165   4.2397831913e+01   7.3199959574e+01    0.1857447     0.111443 -35.09  0.001020813    1.618    0.382
         9  -8.4426    248.3204      4.6748   2.5405695563e-01   2.3342168662e+01    0.1314221   0.06583887 -55.51 0.0003565275    1.680    0.405
        10  -8.2215     15.5455      3.4916   5.3462331636e+01   7.5766399541e+01    0.1225139   0.09623431 -16.75 0.0001504255    1.009    0.009
        11  -7.6827     44.3204      2.6755   3.4915938595e+01   7.1738105397e+01    0.1145224    0.1021906 -59.48 0.0007046264    1.678    0.404
        12  -7.8981     62.5055      1.4282   2.6159905727e+01   6.8368833675e+01    0.1296483    0.1143293  23.13 0.0001163775    1.051    0.048
        13  -8.8715    175.6318    247.4814   6.2377163959e+01   1.6265813291e+00    0.2440092    0.1818684  62.56  0.001294842    2.356    0.576
        14  -8.4470    241.5417    250.4958   5.1434256686e+01  -6.8978433383e+00    0.1734272    0.1035326  16.06 0.0007922341    1.247    0.198
        15  -8.7339    249.7484    249.5419   4.9998825510e+01  -7.7158110519e+00    0.2500229    0.1210585  23.32  0.001513553    1.632    0.387
        16  -9.5853    246.7332    228.3976   4.7265610912e+01  -5.2220574719e+00    0.4097266    0.1537002 -27.68  0.002179675    2.571    0.611
        17  -9.3630    242.7278    236.6809   4.9193593349e+01  -5.6292688566e+00    0.5605428    0.2361536  -8.64  0.002350054    4.327    0.769
        18  -9.2855    248.1201    234.1742   4.7947418947e+01  -5.9947102724e+00    0.2831467    0.2196637 -18.30  0.001821648    1.464    0.317
        19  -8.6158    242.7500    246.9983   5.0732836492e+01  -6.6873284061e+00    0.2032162    0.1246425 -14.77 0.0008689584    1.455    0.313
        20 -10.2649    247.7140    242.4415   4.9269417502e+01  -6.7925303618e+00    0.4954655    0.2984718   6.15  0.003510025    1.316    0.240
        21  -9.0331    236.3863    242.6373   5.1116288463e+01  -5.5089795736e+00    0.3037002    0.1250668  23.93  0.001482239    2.159    0.537
        22  -8.8364    234.4956    250.4956   5.2569122115e+01  -6.0959370784e+00      0.22542     0.081104  31.53  0.001232116    2.248    0.555
        23  -8.8742    232.7380    247.1738   5.2377154063e+01  -5.5523877461e+00    0.2097083    0.1882425 -21.89  0.001036812    1.798    0.444
        24  -9.2878    214.5746    250.4227   5.5872422546e+01  -3.7216897587e+00    0.3068158   0.08377481  33.21  0.001400724    2.949    0.661
        25  -9.9914    223.8447    243.6486   5.3339858944e+01  -4.1169578489e+00    0.3613582    0.1957421 -40.43  0.002213592    2.530    0.605
        26  -9.0747    220.0276    243.9737   5.4030986024e+01  -3.6853501544e+00    0.2208856    0.1182342  -4.48  0.001258128    2.163    0.538
        27  -8.7573    185.4514    250.2460   6.0950516222e+01  -1.3063974418e-02     0.212945    0.1181048  31.39 0.0008624268    1.395    0.283
        28  -9.1543    132.0227    247.5176   7.0618152118e+01   7.5315507347e+00    0.2100661    0.1545686  56.15 0.0006442482    1.522    0.343
        29  -9.4446    125.6449    249.7660   7.2084044576e+01   8.0619383048e+00    0.3855058    0.1880544  19.42  0.001796494    2.943    0.660
        30  -9.0852     93.8404    249.0615   7.8154305972e+01   1.2344600088e+01    0.3041398    0.1439116  57.18  0.001599334    2.350    0.575
        31  -9.7397     88.8954    246.9175   7.8931886787e+01   1.3316526541e+01    0.3018617    0.1363312  42.45 0.0008241064    1.664    0.399
        32  -9.4236     87.9576    242.5889   7.8752895538e+01   1.4143772105e+01    0.2123377    0.1671182 -74.86  0.001012079    1.530    0.346
        33  -8.7440     27.0082    250.4849   9.0792504907e+01   1.9782436859e+01    0.1585544   0.07907543  38.09 0.0008845422    1.573    0.364
        34  -9.8027    143.3025    247.5638   6.8458076084e+01   5.9918450102e+00    0.3077745    0.1452269  38.58 0.0009132677    1.656    0.396
        35  -9.5687    146.4876    245.5070   6.7610011749e+01   5.8475333926e+00    0.2712375    0.1463004  49.90  0.001338095    2.079    0.519
        36  -9.1798     20.7176    247.7388   9.1814966249e+01   2.0867485829e+01    0.1917168    0.1227006  49.62 0.0004605105    1.137    0.120
        37  -8.9635    210.9400    246.4710   5.5941152542e+01  -2.8354520760e+00    0.1718366    0.1497915 -32.59  0.000960452    1.713    0.416
        38  -8.4458    168.9223    247.2481   6.3587231354e+01   2.5568622527e+00    0.2256179    0.1103328  30.68 0.0009919079    1.619    0.382
        39  -9.9533    120.2858    245.4761   7.2677729847e+01   9.4244961743e+00    0.3227208    0.2043711  67.59  0.001866351    2.265    0.558
        40  -9.5827     76.3432    247.1038   8.1375544955e+01   1.4848458085e+01     0.227121    0.1403659  24.35 0.0007922465    1.774    0.436
        41  -8.7592     34.0027    247.3678   8.9386200405e+01   1.9597654877e+01    0.1575607    0.1022682  46.34 0.0007134306    1.163    0.140
        42  -9.8121     81.7003    238.4455   7.9645736511e+01   1.5634475448e+01    0.4357405    0.1585008  33.85  0.001987234    2.273    0.560
        43  -9.7925     82.6585    246.0325   8.0071231103e+01   1.4244810033e+01    0.3326929    0.1279944  46.31  0.001719032    2.037    0.509
        44  -9.4987     77.7816    242.9646   8.0781543603e+01   1.5359718163e+01    0.2446997    0.1219105  60.36  0.001151269    2.117    0.528
        45  -9.1792     45.1321    244.1318   8.7149312307e+01   1.8968426437e+01     0.206153    0.1191368  34.92 0.0007667778    1.507    0.336
        46  -8.2423    201.8377    242.9968   5.7040306767e+01  -1.2767497444e+00    0.1390183    0.1302382 -58.19 0.0007734371    1.892    0.472
        47  -9.7852    195.4675    241.4769   5.7961267066e+01  -2.6201205211e-01    0.3162699    0.2727337  66.42  0.002196216    2.147    0.534
        48  -8.5555    168.9066    243.0882   6.3057598977e+01   3.1064868192e+00    0.1706835    0.1355149  40.68 0.0006355506    1.343    0.256
        49  -9.8826    149.5315    242.6439   6.6684126931e+01   5.8344402779e+00    0.2757434    0.1482091  38.41 0.0008087327    1.494    0.331
        50  -8.6584     97.0783    242.7555   7.6969641151e+01   1.2939528638e+01    0.1772877     0.121024  14.26  0.001070683    1.886    0.470
        51  -8.8130    179.8103    241.6249   6.0834220072e+01   1.8141246334e+00    0.2518598    0.1253927  38.68  0.000836685    1.737    0.424
        52  -8.8214    182.2011    239.2285   6.0066288913e+01   1.7990191736e+00    0.3413028    0.2207482  55.99   0.00188141    2.682    0.627
        53  -9.9918    134.5502    241.9742   6.9511700015e+01   8.0041588637e+00    0.2356472    0.1356186  39.62 0.0007602374    1.389    0.280
        54  -9.3644    115.1566    242.1866   7.3345839020e+01   1.0625991066e+01    0.1756403    0.1388399  26.02 0.0006299226    1.204    0.169
        55  -9.2319     61.1320    240.8756   8.3881705881e+01   1.7721075340e+01    0.1783295    0.1151491  54.28 0.0005038353    1.236    0.191
        56  -9.1959     29.0659    241.0174   9.0011404788e+01   2.1201044896e+01    0.2133591    0.1314745  34.88 0.0007689509    1.484    0.326
        57  -9.2448     37.0089    240.3415   8.8486283695e+01   2.0498922187e+01    0.1586325    0.1081073  49.00 0.0006183103    1.111    0.100
        58  -9.5467      2.7450    239.6312   9.4767791010e+01   2.3932262693e+01    0.2092901    0.1266446  55.62 0.0006136528    1.161    0.139
        59  -9.9025    124.4010    239.0209   7.1180279026e+01   9.8569715079e+00    0.2977966    0.1346466  36.09  0.001019281    1.735    0.424
        60 -10.0081     71.0204    238.3905   8.1763153781e+01   1.6969689861e+01    0.2855449      0.17099  33.33   0.00102219    1.475    0.322
        61  -8.1072    209.3596    238.2158   5.5031183485e+01  -1.6852892685e+00    0.1331865    0.1010336 -34.51 0.0004689581    1.690    0.408
        62  -8.2223    172.9906    238.5382   6.1690318275e+01   3.1533178915e+00    0.1817842   0.09291764  32.47  0.000746388    1.559    0.359
        63  -9.4375    106.3699    238.0620   7.4676587828e+01   1.2472942498e+01     0.226153    0.1452986  31.31 0.0005889421    1.351    0.260
        64 -10.0666    109.2145    234.4756   7.3739543105e+01   1.2676448009e+01    0.5339564    0.2044683  51.23  0.002301022    2.964    0.663
        65  -9.0589     52.3281    238.1275   8.5418539779e+01   1.9214452571e+01    0.2118428    0.1237867  44.91  0.000591118    1.301    0.231
        66 -10.3142     17.1881    237.7360   9.2082372601e+01   2.2947332986e+01    0.3877223    0.1643617  29.76  0.001788517    2.277    0.561
        67  -9.7642    235.0841    231.6211   4.9660324087e+01  -4.1710892259e+00    0.4233019     0.228101  -9.28  0.001957986    1.909    0.476
        68  -9.5850    238.8355    222.2075   4.7555725231e+01  -3.5797540547e+00     0.376751    0.1743883 -24.90  0.001710628    2.080    0.519
        69  -9.9972    242.3038    216.8054   4.6109273425e+01  -3.3958988520e+00    0.3866594    0.1682575  20.46  0.001944599    2.487    0.598
        70  -9.0797    230.5656    236.6381   5.1176246746e+01  -4.1711671172e+00     0.226066    0.1934591 -44.24  0.001320742    2.123    0.529
        71  -8.8777    226.2950    237.0517   5.1952546497e+01  -3.6925867808e+00    0.2031107    0.1288476   6.37 0.0006484465    1.330    0.248
        72  -9.1172    217.0009    235.5179   5.3304889213e+01  -2.3513905504e+00    0.1632743    0.1398383  14.19 0.0006229195    1.346    0.257
        73  -9.3299    213.6192    231.6060   5.3302931792e+01  -1.4544107457e+00    0.2823249    0.2263336  61.32   0.00137355    2.620    0.618
        74  -9.6966    175.4911    233.0998   6.0474034293e+01   3.5415319478e+00    0.3800881    0.2716989 -58.65  0.002336106    2.281    0.562
        75  -8.8084     43.9788    235.7245   8.6900426537e+01   2.0570044949e+01    0.1604124    0.1119362  48.32 0.0004893473    1.109    0.099
        76  -9.1718    202.8993    234.2966   5.5598752286e+01  -3.6743570479e-01    0.2051845    0.1628824 -46.74  0.001033325    1.940    0.484
        77  -8.7024    198.6210    235.5987   5.6556162078e+01   4.2221600260e-02    0.3023877   0.08691055  27.62  0.001055104    4.481    0.777
        78  -8.6348    185.4897    234.5764   5.8808224855e+01   1.9542921326e+00     0.187642    0.1420289  19.67 0.0006349471    1.023    0.022
        79  -9.4012    186.3379    230.4832   5.8063396241e+01   2.3768923608e+00    0.2746729     0.209451 -62.21  0.001210892    2.375    0.579
        80  -9.0100    148.7467    236.3901   6.6066959716e+01   6.8484214934e+00    0.1710236   0.09370984  27.66 0.0007080252    1.599    0.375
        81  -9.2431     93.4143    233.5753   7.6858025299e+01   1.4953917780e+01    0.3629163    0.2364335  64.10  0.002220341    1.646    0.392
        82  -8.6487     78.4384    234.2065   7.9949264427e+01   1.6778422775e+01    0.2834233    0.1519364  69.03  0.001517416    2.280    0.561
        83 -10.0796    132.4306    233.3021   6.8924308141e+01   9.6275242388e+00    0.2363982    0.2068283 -15.46  0.001669312    1.355    0.262
        84  -8.4335    122.9385    233.9643   7.0910203840e+01   1.0859571465e+01    0.1870406    0.1250141  57.83  0.001111751    1.684    0.406
        85  -8.4867     99.7838    234.1772   7.5621651228e+01   1.4003697037e+01    0.2071206   0.09887718  60.29 0.0009516608    2.845    0.648
        86  -9.8109     69.0817    232.8135   8.1726778501e+01   1.8185495284e+01    0.4315407    0.1561499  56.71   0.00187513    3.107    0.678
        87  -9.3936      6.7540    234.4718   9.3890710741e+01   2.4492846605e+01    0.2305473   0.09184876  28.47  0.001284558    2.513    0.602
        88  -8.1831    141.3246    233.3614   6.7154696931e+01   8.3549118724e+00    0.2512683    0.1475375  13.44   0.00129055    2.249    0.555
        89  -8.9116    139.9301    229.9998   6.7015364319e+01   9.0734530973e+00    0.5337776    0.2131504  51.65  0.002046204    3.871    0.742
        90  -8.4551    194.4106    232.3151   5.6841095588e+01   1.0245385027e+00    0.1309467    0.1098113 -33.64 0.0003895426    1.533    0.348
        91  -8.4812    155.9053    232.2608   6.4135118988e+01   6.4381803652e+00    0.2987814   0.08788276  33.82  0.001199337    2.898    0.655
        92  -9.1864     11.1907    231.6698   9.2976504892e+01   2.4598213608e+01    0.2186743   0.07842949  46.02  0.001087424    1.912    0.477
        93  -8.5517    205.9219    230.2189   5.4451807002e+01  -2.6773784019e-01    0.2607814    0.1073436  35.94  0.001342738    2.086    0.521
        94  -9.9514    149.5324    225.7280   6.4532571691e+01   8.3439874016e+00    0.5174374    0.3424101 -88.52   0.00238971    3.795    0.737
        95  -9.1750    144.9771    226.4963   6.5550816808e+01   8.8896753275e+00    0.3579916    0.0970809  37.46  0.001395466    2.948    0.661
        96  -8.3654    125.5066    230.4553   6.9987899654e+01   1.1063419911e+01    0.2361736    0.1005772  32.44 0.0008799452    2.023    0.506
        97  -9.0625    128.0469    227.3143   6.9096788289e+01   1.1212046929e+01     0.268339    0.1967102  73.90  0.001290598    1.904    0.475
        98  -9.3352     31.5222    229.8066   8.9010281460e+01   2.2966167845e+01    0.2180269    0.1487074  39.22 0.0005732686    1.311    0.237
        99  -8.5272      1.4358    230.2265   9.4740091166e+01   2.5726657019e+01    0.1491378   0.07225655  73.58  0.000943472    1.698    0.411
       100  -8.3766    102.9972    229.2519   7.4469971965e+01   1.4407800368e+01    0.1761997    0.1300677  40.23 0.0005414037    1.095    0.087
       101  -8.0058    229.4815    228.5248   5.0110870861e+01  -3.1287878119e+00    0.1127526    0.0854363   8.77 0.0008088594    1.072    0.067
       102  -8.0717    196.6636    228.7196   5.5897897248e+01   1.1782866759e+00    0.1213023   0.07521813   9.22 0.0003329567    1.617    0.382
       103  -9.3365    161.7033    227.7650   6.2392801887e+01   6.2647161086e+00    0.2535184    0.1935768  32.36   0.00116731    1.112    0.101
       104  -9.7683    113.6942    227.7941   7.2105670444e+01   1.3173064315e+01    0.4804055     0.138095  41.45  0.001966069    2.746    0.636
       105  -9.4266     60.7785    227.5038   8.3013891492e+01   2.0148052740e+01    0.3395545    0.1535172  35.31  0.001313836    1.843    0.457
       106  -8.8200     47.7083    227.8165   8.5686826630e+01   2.1598065875e+01    0.1906702    0.1701176  10.24  0.001251687    1.538    0.350
       107  -8.1606     39.4804    228.4884   8.7372414475e+01   2.2374518276e+01    0.1136358   0.08706312  57.22 0.0003133291    1.013    0.012
       108  -8.6959     20.4633    227.9298   9.1069980767e+01   2.4414449641e+01    0.2301923    0.1221324  30.02  0.001415847    1.870    0.465
       109  -9.1864     93.8410    223.7310   7.5814651055e+01   1.6624726173e+01    0.3820694    0.1896205  63.94  0.001743197    2.851    0.649
       110  -8.5835    206.0573    225.8417   5.3760743875e+01   2.6156725150e-01    0.1792232    0.1462786 -38.88 0.0008082549    1.677    0.404
       111  -9.4209    179.8732    225.1960   5.8509875488e+01   4.0119240348e+00    0.4204581     0.235763  19.31  0.001241211    1.800    0.444
       112  -9.5650      5.8405    225.5286   9.3773973545e+01   2.6208336379e+01    0.1645402    0.1251788  48.56 0.0003845256    1.199    0.166
       113  -8.4865    190.1488    225.5685   5.6628007991e+01   2.4999187766e+00    0.2785501   0.09337907  28.81  0.001119138    3.116    0.679
       114  -9.0781    104.6833    223.5440   7.3515801766e+01   1.5168228660e+01    0.2793221    0.1810289 -88.42  0.001458874    2.193    0.544
       115  -9.2021     73.5229    224.4906   8.0143798220e+01   1.9143260917e+01     0.289736    0.2332119  -7.51  0.001689789    1.855    0.461
       116  -9.4741     10.7998    224.8520   9.2806340723e+01   2.5891903362e+01    0.2486458   0.08095808  57.36  0.001217542    2.361    0.576
       117  -8.8268    166.0411    223.9980   6.1013393791e+01   6.1886624718e+00    0.4887782    0.1624123  43.25  0.001997024    2.992    0.666
       118  -8.6167    159.2011    220.4860   6.1869222150e+01   7.7261329026e+00    0.2565405    0.1710978  54.89  0.001121551    1.958    0.489
       119  -8.4200    113.7984    223.7845   7.1631860771e+01   1.3843099990e+01    0.1715816    0.1234637  53.17 0.0004886356    1.341    0.254
       120  -9.4483    225.5652    221.8078   4.9711549490e+01  -1.8421537018e+00    0.2273982    0.1953132  -5.39  0.001083151    1.332    0.249
       121  -8.8355    216.1752    222.9587   5.1517966390e+01  -7.4237054322e-01    0.1625858    0.1406824  10.74 0.0007491986    1.296    0.228
       122  -8.6677    172.9427    222.8487   5.9499491859e+01   5.3485078052e+00     0.189943    0.1609216  81.14 0.0007859435    1.998    0.499
       123  -8.4851    121.8362    223.6425   6.9938248762e+01   1.2716813591e+01    0.2445353    0.1034604  32.73  0.001134676    2.067    0.516
       124 -10.1890    119.6488    219.1163   6.9850882137e+01   1.3809937472e+01    0.5011516    0.2841585  44.38  0.002047601    1.531    0.347
       125  -9.0816    202.3437    220.8791   5.3661011324e+01   1.4116888644e+00    0.2949388    0.1288953 -28.59  0.001406743    2.613    0.617
       126  -9.3923    192.2879    221.1751   5.5561432938e+01   2.7905948932e+00    0.2407443    0.2264675  82.53   0.00100074    1.761    0.432
       127  -8.8610     82.7133    220.5005   7.7851753821e+01   1.8699345456e+01    0.2021443     0.127787  68.54  0.001154636    1.733    0.423
       128  -8.8835     54.3112    221.1261   8.3884474104e+01   2.2101933455e+01     0.213359    0.1556607  33.39 0.0008083587    1.353    0.261
       129  -8.8798     51.6200    217.3226   8.4175251640e+01   2.3143085340e+01    0.2439371    0.1275238  60.09 0.0009197482    1.747    0.427
       130  -8.7682    132.7927    219.8363   6.7182373030e+01   1.1757297302e+01    0.2467204     0.148113  43.38 0.0006807457    1.465    0.318
       131  -9.6515    132.7608    215.8519   6.6667511030e+01   1.2434956060e+01    0.4804337    0.2997991  72.06   0.00219429    3.012    0.668
       132  -8.0836    218.3317    219.3054   5.0558533497e+01  -5.7939148046e-01    0.1230177   0.07397419   5.75 0.0007038117    1.660    0.398
       133  -8.1980    210.1256    219.1208   5.1978717860e+01   5.6075057159e-01    0.1446536    0.1307811   3.49 0.0004708602    1.348    0.258
       134  -9.2077     96.5771    218.4377   7.4687012657e+01   1.7211222074e+01    0.4252353    0.1538224  38.55  0.001909638    2.197    0.545
       135  -8.2134     61.6030    216.7778   8.2019951529e+01   2.2071544382e+01    0.2385882    0.1274989  82.59  0.000915184    2.244    0.554
       136  -8.1057      1.4456    218.9074   9.4400193361e+01   2.7833122582e+01    0.1451744   0.08620099  85.62 0.0003282603    1.465    0.317
       137  -8.3902    249.7868    218.6049   4.5204186721e+01  -4.5193817810e+00    0.1398284    0.0917699  33.67 0.0005941646    1.667    0.400
       138  -8.7589    152.3772    218.1616   6.2917836810e+01   9.1086006878e+00    0.2627059    0.1821685  20.12 0.0009648264    1.380    0.275
       139  -8.0138    154.2852    214.6661   6.2028086214e+01   9.3785883306e+00    0.1747694    0.1392543  51.81   0.00078428    1.430    0.301
       140  -8.7666    142.8184    217.0015   6.4720628476e+01   1.0732562475e+01     0.262454    0.1846669 -48.88  0.001572166    1.697    0.411
       141  -8.7364    169.2393    215.7995   5.9180638172e+01   6.9414104335e+00    0.2343375    0.1969756 -77.31 0.0008360868    1.921    0.480
       142  -9.1854    108.3466    216.8397   7.1986761052e+01   1.5845869067e+01    0.3983133    0.1435246  35.82  0.001727649    2.305    0.566
       143  -9.2372    230.9553    215.2017   4.7722855323e+01  -1.7535370480e+00    0.3963375    0.2012028   4.20  0.001878839    2.600    0.615
       144  -9.6544    235.8280    208.6347   4.5807443860e+01  -1.5985339883e+00      0.34578     0.226806  -4.70  0.001299795    1.332    0.250
       145  -9.4707     72.4600    211.2158   7.9195110319e+01   2.1802695220e+01    0.4760537    0.1722946  58.23  0.001750792    3.872    0.742
       146  -9.1945     11.4528    215.5479   9.2324530089e+01   2.7606701285e+01    0.2159275    0.1474493  40.26   0.00110154    1.344    0.256
       147  -8.7815     86.4836    214.9114   7.6496173965e+01   1.9246022800e+01    0.1994894    0.1388954  39.66 0.0006216997    1.217    0.178
       148  -8.5409    185.6392    214.1439   5.5724358004e+01   4.7396040306e+00    0.1623091    0.1546026 -38.59 0.0006739357    1.449    0.310
       149  -9.1697     93.2083    213.6866   7.4907034470e+01   1.8559809371e+01    0.3113917    0.1670357  57.13  0.001505239    1.995    0.499
       150  -8.8716     32.4443    213.7095   8.7959420218e+01   2.5941790878e+01    0.2249913    0.1551436  35.03   0.00094105    1.411    0.291
       151  -9.4117    213.9735    212.0193   5.0138229186e+01   9.4550517976e-01    0.2956592    0.2274585  53.22  0.001816119    2.121    0.529
       152  -8.1419    197.6301    213.7097   5.3389650326e+01   3.0453911158e+00    0.1293675   0.08013411   8.22 0.0007023985    1.716    0.417
       153  -8.7474    161.6768    212.3046   6.0172398174e+01   8.6284891908e+00    0.1900481    0.1612844 -65.03 0.0007498707    1.653    0.395
       154  -8.0441    225.0000    212.0312   4.8210831458e+01  -5.7183425790e-01    0.1737273   0.06059058 -34.71 0.0005582723    2.880    0.653
       155  -8.9985    204.4146    211.0153   5.1698275722e+01   2.4348747227e+00    0.2203543    0.1916725 -57.19 0.0008966793    1.887    0.470
       156  -9.4822    175.5310    209.8957   5.7023351099e+01   6.8865795431e+00    0.3750505    0.2584363  64.16  0.001579918    2.715    0.632
       157  -8.5204     43.0293    220.0370   8.6147941669e+01   2.3583624371e+01    0.1825265    0.1341118  55.21  0.000581366    1.065    0.061
       158  -9.1978    116.0688    210.7544   6.9581747362e+01   1.5824690245e+01    0.2764778    0.2629255  46.15   0.00168492    1.119    0.106
       159  -8.0825    106.4870    212.5187   7.1882909288e+01   1.6901886604e+01    0.1287833    0.1056129  47.83  0.000809273    1.070    0.066
       160  -8.9974     66.4611    211.6897   8.0548273428e+01   2.2467290970e+01    0.3933498    0.1222389  41.11  0.001713333    2.450    0.592
       161  -9.3985      3.0716    211.7094   9.3848129770e+01   2.9085648941e+01    0.2216911    0.1448033  36.22 0.0007820114    1.477    0.323
       162  -8.6469    147.9462    210.4243   6.2723009746e+01   1.1042675530e+01    0.2137294    0.1819341  85.82  0.001038092    1.649    0.394
       163  -8.8752     45.6166    210.7131   8.4983365893e+01   2.5123412062e+01     0.269725    0.2162142   4.48  0.001754421    1.796    0.443
       164  -7.9916    192.3751    210.1905   5.3807001630e+01   4.3087748910e+00    0.1521069    0.1148408 -43.65  0.000406228    1.683    0.406
       165  -9.1460     85.6374    209.4700   7.6121739953e+01   2.0404534976e+01     0.278171    0.1485656  68.19  0.001296041    2.507    0.601
       166  -8.7852     96.6915    208.9384   7.3617847484e+01   1.8974661947e+01    0.3259285    0.1543253  41.05  0.001369307    1.757    0.431
       167  -9.1729     99.3982    206.0063   7.2676275336e+01   1.9152270936e+01    0.3404694    0.2280741  75.65  0.001468658    1.883    0.469
       168  -8.6392     56.6298    205.4674   8.2180426820e+01   2.4910597854e+01    0.3588451    0.1473753  63.17  0.001515432    2.980    0.664
       169  -9.7098    246.4400    207.1476   4.3821002298e+01  -2.7957627128e+00    0.2598063    0.1664439 -22.56  0.001014374    1.390    0.280
       170  -9.3692    250.1029    202.5984   4.2454623066e+01  -2.7261636849e+00     0.317595     0.175536 -17.97  0.001259058    1.609    0.379
       171  -8.6672    134.7760    208.5228   6.5240396560e+01   1.3396264408e+01    0.2450001    0.1128158  32.21  0.001033768    1.979    0.495
       172  -8.9248     17.7876    220.1965   9.1260421848e+01   2.6126598952e+01    0.1958398    0.1341078  40.72 0.0006486311    1.317    0.241
       173  -9.1740     24.4810    207.6882   8.9293600051e+01   2.7942194964e+01    0.2363285    0.1807867  48.76  0.001081262    1.162    0.139
       174  -8.8161      2.7319    205.4032   9.3696814939e+01   3.0363293534e+01    0.1632693   0.09367913  36.28 0.0006645753    1.604    0.376
       175  -7.8296    156.3196    207.6703   6.0570062695e+01   1.0202221154e+01    0.1238092   0.09651958  60.87 0.0007047986    1.689    0.408
       176  -8.1760    138.8295    207.6043   6.4242644083e+01   1.2931465213e+01    0.1809074    0.1042764  43.20  0.000345172    1.569    0.363
       177  -9.5915    194.8952    203.1610   5.2163939003e+01   4.9450455023e+00    0.3861506    0.2268869 -30.94  0.001372957    1.764    0.433
       178 -10.2014    192.5843    197.0597   5.1561496394e+01   6.2032078015e+00    0.5815188    0.4423704  45.20  0.003106084    1.545    0.353
       179  -9.3602     77.8861    205.7187   7.7461461609e+01   2.2183304335e+01    0.3641944     0.159541  37.19  0.001339264    1.923    0.480
       180  -8.1110    109.0120    204.9608   7.0403533050e+01   1.7949381592e+01    0.2043775     0.139791  64.13  0.001056017    1.685    0.407
       181  -8.8220     12.0140    206.5317   9.1838552027e+01   2.9338578939e+01    0.1627549    0.0941883  36.72  0.000744039    1.572    0.364
       182  -8.3065     50.0618    205.5289   8.3636617688e+01   2.5666242620e+01    0.1804574    0.1027252  36.98  0.001017226    1.551    0.355
       183  -9.0240     37.3550    205.5727   8.6416998875e+01   2.7060857339e+01    0.4000931    0.1262119  23.87  0.001474553    4.476    0.777
       184  -9.0461    183.5211    203.6232   5.4435145877e+01   6.6148830690e+00     0.264745    0.2083011  53.97  0.001367683    1.716    0.417
       185  -9.6140    163.5304    202.7778   5.8317155747e+01   9.8744386940e+00    0.3594477    0.2387644  55.08 0.0009785306    1.985    0.496
       186  -8.7400    131.2535    203.9101   6.5351444439e+01   1.4761484360e+01    0.2451866    0.1593338  53.64  0.001183232    1.680    0.405
       187  -8.3118    121.0134    204.0427   6.7619191905e+01   1.6315383107e+01    0.2003189    0.1496558   6.03 0.0008606575    1.681    0.405
       188  -8.4748    178.0015    203.4941   5.5502980788e+01   7.4896862024e+00    0.1974021    0.1104483  34.35 0.0006217802    1.567    0.362
       189  -9.0262    140.4968    201.3779   6.2971648941e+01   1.3765386980e+01    0.3505353    0.2367111 -80.60  0.001693499    2.635    0.620
       190  -9.7560     11.4731    202.5088   9.1776477162e+01   3.0201469731e+01    0.2668979     0.148437  46.05 0.0007285559    1.459    0.315
       191  -8.9576    243.1231    201.0768   4.3307567372e+01  -1.6391132728e+00    0.2297824    0.1414847 -29.87 0.0008305917    1.568    0.362
       192  -8.4598    210.9867    201.9495   4.8973015007e+01   2.7211874070e+00    0.1650911    0.1576552  84.06  0.000844583    1.772    0.436
       193  -7.7500    222.2778    201.5995   4.6906308563e+01   1.1439349661e+00    0.1040245   0.09667458 -50.52 0.0006987688    1.762    0.432
       194  -8.4671     79.8093    200.9802   7.6535591733e+01   2.2880572301e+01    0.2169273     0.126315  70.19   0.00107534    2.063    0.515
       195  -9.4949    149.6610    198.6513   6.0578390230e+01   1.2784376427e+01    0.3816415    0.2752604  78.15  0.001232378    2.426    0.588
       196  -8.8244    124.0023    199.2801   6.6294563322e+01   1.6743629035e+01     0.284343    0.2016915  84.53  0.001469249    2.099    0.524
       197  -8.1150     59.8363    200.6414   8.1048195421e+01   2.5514533155e+01    0.1840708   0.09095875  43.32 0.0009412505    1.687    0.407
       198  -8.5189     28.6163    199.8196   8.7959185628e+01   2.9146902057e+01    0.1596963   0.09340818  81.62 0.0006297588    1.578    0.366
       199  -9.1421    237.1175    198.2784   4.3800563210e+01  -4.8813851966e-01    0.2434987    0.1373988 -39.34  0.001005455    2.069    0.517
       200  -8.6299    177.1554    198.6831   5.4872872607e+01   8.3769757513e+00     0.197082    0.1748568 -44.56    0.0005942    1.407    0.289
       201  -7.7801    133.7000    199.3167   6.4148908885e+01   1.5213043216e+01    0.1294644   0.09717008  62.75 0.0004953566    1.616    0.381
       202  -9.1002    112.8503    198.2748   6.8666425746e+01   1.8656313036e+01    0.3691731    0.2138258  61.32  0.001718226    2.251    0.556
       203  -8.9841     88.6617    198.3336   7.4211703972e+01   2.2199122747e+01    0.3285014    0.1909652  69.09  0.001352506    2.198    0.545
       204  -8.3853    202.1552    197.4908   4.9822018587e+01   4.6673463676e+00    0.1803851    0.1686121 -15.29 0.0006409273    1.337    0.252
       205  -8.5843    103.5719    198.3438   7.0789536396e+01   2.0039637899e+01    0.2602895    0.1414828  33.71 0.0008666736    1.676    0.403
       206  -8.9876     61.2382    196.9221   8.0390576360e+01   2.6118334892e+01    0.3799841    0.1696949  64.60  0.001618016    2.799    0.643
       207  -8.6890     21.1870    198.6380   8.9512735400e+01   3.0113968252e+01    0.1448721    0.1058685  22.42 0.0006587059    1.654    0.396
       208  -8.7445     51.3040    197.3391   8.2703959315e+01   2.7219474823e+01    0.2169481    0.1580072  10.92  0.001260393    1.894    0.472
       209  -8.6446    215.9178    195.4181   4.6941645438e+01   2.8979766398e+00    0.2110611    0.1625955 -42.04 0.0007661159    1.680    0.405
       210  -8.4800    169.8651    196.0762   5.5915113025e+01   9.9640125960e+00    0.2571808    0.1525963  15.21  0.001219896    2.062    0.515
       211  -9.3524    245.3952    193.0717   4.1523661901e+01  -9.5440550095e-01    0.2562937    0.1955387 -49.37   0.00129372    2.238    0.553
       212  -7.5768    209.2796    195.2988   4.8119762623e+01   3.9040796647e+00    0.1261151   0.08348176   2.06 0.0002364172    1.540    0.351
       213  -9.1209    185.2105    194.7974   5.2605414590e+01   7.7099204292e+00    0.2023236    0.1958058  81.37 0.0005764261    1.472    0.321
       214  -9.3300    160.9651    194.0942   5.7436109912e+01   1.1741432863e+01    0.2547167    0.2103816  81.44  0.001106493    1.841    0.457
       215  -7.7661     82.9529    196.0000   7.5265087710e+01   2.3472327151e+01    0.2129939   0.06612971  33.63 0.0007965214    2.902    0.655
       216  -8.7329    224.4396    193.7195   4.5137802252e+01   1.8848464215e+00    0.2180748    0.1080501 -37.69  0.001124618    2.104    0.525
       217  -8.5562     77.0308    193.8436   7.6407260370e+01   2.4728507145e+01    0.2058245    0.1447114  58.00 0.0005311808    1.319    0.242
       218  -8.8015     44.2707    193.7792   8.4025913562e+01   2.8773486269e+01    0.3682003    0.1562788  60.83  0.001669549    2.448    0.592
       219  -9.4231      5.4616    193.4996   9.2668214724e+01   3.2577272303e+01    0.2173236    0.1917499  27.96 0.0008897028    1.431    0.301
       220  -8.6940    152.8508    192.6657   5.8929873266e+01   1.3319271102e+01    0.3272184    0.1366264  42.27  0.001377785    2.223    0.550
       221  -8.3585    172.4804    191.5253   5.4601120356e+01   1.0291550603e+01    0.1961874    0.1286093 -53.73 0.0003103831    2.026    0.506
       222  -7.9223    126.9347    193.0000   6.4718681953e+01   1.7471721691e+01    0.2193433   0.06879008  36.53 0.0005364246    2.828    0.646
       223  -8.7141    116.4193    191.7026   6.6932004286e+01   1.9390784934e+01    0.3287654    0.1410332  35.23  0.001381274    2.108    0.526
       224 -10.2520     92.3258    189.1965   7.2241779517e+01   2.3558474792e+01    0.8150355    0.2807498  46.71  0.003109908    2.795    0.642
       225  -7.5597     32.6689    192.7043   8.6598917428e+01   3.0240296188e+01    0.1083466    0.0913367 -39.14 0.0004767779    1.638    0.389
       226  -8.2785    198.6588    191.3593   4.9394735550e+01   6.1120757862e+00    0.1635172    0.1536368  71.10 0.0008057849    1.617    0.381
       227  -7.9471    179.2473    191.6111   5.3238693411e+01   9.1745845928e+00    0.1167563    0.1053425 -84.98 0.0005814495    1.665    0.399
       228  -8.9793    139.3680    190.2713   6.1499010809e+01   1.5971180608e+01    0.3367119    0.2376724  74.50  0.001236736    2.246    0.555
       229  -9.2414    216.6634    188.1642   4.5497853351e+01   3.8023252325e+00    0.3135908    0.2020923 -44.96  0.001436504    1.995    0.499
       230  -8.9989    164.5177    187.6260   5.5583499538e+01   1.2269608823e+01    0.3872183    0.2177736 -37.38   0.00146849    1.927    0.481
       231  -9.2926    156.0765    187.5318   5.7372028102e+01   1.3697701834e+01    0.2979367    0.2173927 -72.02 0.0009489666    2.154    0.536
       232  -8.3907    148.1696    188.8607   5.9319619051e+01   1.4776795341e+01    0.2000475    0.1744417  60.12 0.0007521817    1.337    0.252
       233  -8.7989    129.2991    188.4646   6.3486923927e+01   1.7962846001e+01     0.274381     0.190029  64.24 0.0008614535    1.864    0.464
       234  -8.1638    237.1488    188.1763   4.1978944391e+01   8.0518233810e-01    0.1520429    0.1298823 -18.89  0.000606613    1.314    0.239
       235  -8.9448    191.2104    187.0944   5.0058236846e+01   7.9546657660e+00    0.2622043    0.1713086 -45.86 0.0008536649    1.834    0.455
       236  -9.4494    120.4893    185.8765   6.5121701011e+01   1.9901427203e+01    0.4171247    0.2424141 -74.81  0.001790564    2.762    0.638
       237  -8.7536     69.0786    188.4616   7.7707109164e+01   2.6927504034e+01    0.2886766    0.1282564  25.04  0.001204391    2.728    0.633
       238  -8.8257     66.8352    184.6290   7.7835990485e+01   2.8052160053e+01    0.3824975     0.165174  57.82  0.001146035    2.699    0.629
       239  -8.8795    249.3341    185.6948   3.9558394543e+01  -5.6191383610e-01    0.2884961    0.1691672 -42.34  0.001378888    2.207    0.547
       240  -8.1448    230.4083    187.2490   4.2937216719e+01   1.8921178201e+00    0.1598711    0.1055596 -36.67 0.0006604805    1.643    0.391
       241  -9.0741    109.6500    186.0189   6.7692849193e+01   2.1596535493e+01    0.3683673    0.2268337  67.06  0.001233993    2.237    0.553
       242  -8.7512     54.6984    186.6801   8.0968764073e+01   2.9109533043e+01    0.3485008    0.1453792  59.52  0.001451109    2.726    0.633
       243  -8.7595     47.7368    187.3995   8.2691124010e+01   2.9763267816e+01    0.3286987    0.1203263  35.71   0.00147087    2.340    0.573
       244  -8.8489      9.9613    187.5367   9.1416141807e+01   3.3467380318e+01     0.162577    0.1032247  34.60 0.0006263474    1.559    0.359
       245  -9.3463      3.0353    187.0304   9.2927279102e+01   3.4141191462e+01     0.193838   0.09664318  57.91 0.0006839731    1.623    0.384
       246  -9.2851     26.1212    186.3482   8.7677720021e+01   3.2265582060e+01    0.3678975   0.08896611  34.48  0.001518047    3.117    0.679
       247  -8.8456    202.7909    184.5429   4.7370940787e+01   6.4877241930e+00    0.2237486    0.1662796 -49.71 0.0007961364    1.823    0.451
       248  -8.7501    183.1024    184.6766   5.1223398724e+01   9.6705380711e+00    0.2127842    0.1787605 -45.60 0.0008660626    1.441    0.306
       249  -8.5345    224.0440    183.4834   4.3330950582e+01   3.3483337666e+00    0.1921707    0.1446529 -20.68 0.0006066177    1.209    0.173
       250  -8.9010    210.0425    183.9301   4.5911816156e+01   5.4336547800e+00    0.2135728    0.1648854 -21.02   0.00048191    1.216    0.178
       251  -8.9805    174.1963    183.3249   5.2793161695e+01   1.1384213065e+01    0.2642216    0.2074496 -52.73 0.0007987487    1.599    0.375
       252  -8.3464    142.6979    184.0445   5.9730249625e+01   1.6587144300e+01    0.1848717    0.1713368  11.05 0.0005376549    1.068    0.064
       253  -8.5140    196.7451    183.1596   4.8262697438e+01   7.6729803746e+00    0.1883819    0.1629282 -43.38 0.0006504142    1.447    0.309
       254  -8.9825     44.3356    182.4468   8.3076446220e+01   3.1238502876e+01    0.2913068    0.1451352  59.04 0.0009073825    1.943    0.485
       255  -7.8645     81.3280    186.3233   7.4520145353e+01   2.5737259167e+01     0.126743    0.1028936 -19.46 0.0007049167    1.693    0.410
       256  -9.1496     16.5171    190.8007   9.0120169170e+01   3.2197786179e+01    0.2065607    0.1425885  40.46 0.0006802487    1.363    0.266
       257  -9.2675    147.5065    180.5591   5.8053253556e+01   1.6428661566e+01    0.3015879    0.2310581  67.00  0.001021458    1.750    0.428
       258  -8.6837     58.2940    180.9696   7.9536890463e+01   2.9937399921e+01    0.2897119    0.1455576  41.72  0.001243287    1.751    0.429
       259  -9.5058     25.7334    179.0307   8.7280743628e+01   3.3919942458e+01    0.5738372    0.1904985  73.82  0.001932149    4.613    0.783
       260  -9.2113    205.1106    178.3449   4.5770473526e+01   7.0594340727e+00    0.3254171    0.1986541 -37.68  0.001323624    1.678    0.404
       261  -8.5325    137.8847    179.2020   6.0002784077e+01   1.8332974368e+01     0.260564    0.1793618  88.84  0.001149836    2.614    0.617
       262  -9.3401    191.2439    178.1566   4.8391708125e+01   9.3753252049e+00    0.2390805      0.22199 -34.57 0.0006491144    1.301    0.231
       263  -8.1814    158.9498    180.0000   5.5427254469e+01   1.4567157572e+01    0.2290064   0.07222898  38.80 0.0007991188    2.919    0.657
       264  -8.2436    113.0449    179.5116   6.5907799406e+01   2.2402694277e+01    0.2159791    0.1255385  37.36  0.001025892    1.571    0.363
       265  -8.8683    250.5321    172.8688   3.6969475747e+01   9.1660607740e-01    0.2231413    0.1410427 -27.89 0.0005017226    1.378    0.274
       266  -9.4200    249.0034    177.2153   3.8032041141e+01   5.6654360802e-01    0.2696548    0.2134346 -27.77  0.001276947    1.346    0.257
       267  -8.7087    247.4593    173.5353   3.7575170121e+01   1.2651163119e+00    0.1766935    0.1322008 -10.73 0.0001124033    1.070    0.066
       268  -7.9935    169.4581    178.5116   5.2902075460e+01   1.3023300585e+01    0.1349008     0.123568  21.90 0.0002619021    1.087    0.080
       269  -8.2173     75.2237    178.5940   7.5079456934e+01   2.8271319594e+01    0.2042463    0.1243636  34.19 0.0008181286    1.575    0.365
       270  -8.1585     71.1843    178.3825   7.6060405134e+01   2.8864351075e+01    0.2602417   0.09392451  43.32   0.00079219    2.431    0.589
       271  -9.1101     35.9145    176.5124   8.4626913645e+01   3.3475797645e+01    0.4617325    0.1735694  73.77  0.001632322    4.016    0.751
       272  -8.7004    231.1685    176.6217   4.0814179924e+01   3.2341312772e+00    0.2815506     0.122601 -37.47 0.0009092678    2.247    0.555
       273  -8.4591    217.4851    177.0917   4.3273902256e+01   5.2711192870e+00    0.1824575    0.1729538  -5.08 0.0008952829    1.330    0.248
       274  -9.4451    183.0853    175.9023   4.9590820173e+01   1.1129653274e+01    0.3066204    0.2130783 -47.65 0.0007668218    1.696    0.410
       275  -8.4177    129.0399    176.9800   6.1684879947e+01   2.0276522100e+01    0.2160098    0.1646422  72.31 0.0006418486    1.697    0.411
       276  -8.3425     97.4093    177.3626   6.9402614834e+01   2.5321181656e+01    0.2567401    0.1265381  20.56 0.0009467456    3.149    0.682
       277  -8.7997     88.8716    176.7742   7.1440090492e+01   2.6733847644e+01    0.2507178    0.1609317  74.89 0.0008054784    1.962    0.490
       278  -9.1442     58.7626    175.5192   7.8848237459e+01   3.1107680227e+01    0.5098543    0.2026431  63.38  0.001746519    3.949    0.747
       279  -9.3004     55.9952    170.9952   7.9061129508e+01   3.2483180501e+01    0.6340116    0.2571995  67.05   0.00209242    4.286    0.767
       280  -9.1915     12.7535    176.3130   9.0193688761e+01   3.5689788650e+01     0.283557    0.1231429  78.06  0.001086754    2.214    0.548
       281  -9.1656    158.8238    174.8062   5.4506308258e+01   1.5540810900e+01    0.3395222     0.254605  84.91  0.001036491    2.327    0.570
       282  -9.1592    104.0871    174.4705   6.7319764748e+01   2.4906191741e+01    0.5218311     0.244142  58.94  0.001814657    3.368    0.703
       283 -10.5075     75.7554    169.8159   7.3832060021e+01   3.0179345322e+01     1.217785    0.4718791 -78.36  0.003753752    4.781    0.791
       284  -9.6420     81.2335    155.0967   7.0270179781e+01   3.2824790096e+01    0.5369838    0.4735883 -53.27  0.002074837    1.209    0.173
       285  -8.5447    224.3034    174.0133   4.1483749575e+01   4.6522355638e+00    0.1813304    0.1408987 -21.51 0.0005504982    1.177    0.150
       286  -8.3666    151.2580    174.3823   5.6108049771e+01   1.6947618104e+01    0.2707608     0.125556  35.35  0.001122433    2.059    0.514
       287  -9.5723    175.5662    172.1093   5.0409495115e+01   1.3085181498e+01    0.3279238    0.2336162 -41.83  0.001111426    1.496    0.332
       288  -9.4827    121.3205    170.3464   6.2409293589e+01   2.2953361105e+01    0.3508903    0.2567031 -87.22 0.0009463333    1.884    0.469
       289  -9.1390     45.3251    171.1287   8.1798264263e+01   3.3695867358e+01    0.3407245    0.1648949  70.04  0.001245077    2.422    0.587
       290  -9.2385    230.7182    170.1174   3.9631253536e+01   4.2159131046e+00    0.2210616      0.18174  -7.77 0.0007943782    1.040    0.039
       291  -8.2599    194.9682    172.0000   4.6477322301e+01   9.7459598504e+00    0.2145274   0.07182028  40.57 0.0006485904    2.901    0.655
       292  -8.5406    134.6919    171.2352   5.9355040363e+01   2.0466476501e+01    0.2089427    0.1808158 -88.63 0.0007410208    1.416    0.294
       293  -8.3339    205.8489    170.1257   4.4037060467e+01   8.2113069331e+00    0.1896248    0.1729659 -31.91 0.0005818815    1.301    0.231
       294  -8.5170    198.4821    170.0325   4.5411802611e+01   9.4670004121e+00    0.1918178    0.1251654 -37.08 0.0005489714    1.545    0.353
       295  -8.4452    186.4440    171.0000   4.7966271727e+01   1.1376549837e+01    0.2933636   0.07296391  40.94 0.0009273342    3.875    0.742
       296  -8.3833    161.7521    170.1729   5.2991552096e+01   1.5880846342e+01     0.315818   0.09189501  44.76  0.001002787    3.595    0.722
       297  -8.9104     38.0095    169.8139   8.3533992568e+01   3.4792235885e+01    0.3565603    0.1289529  36.15  0.001569026    2.417    0.586
       298  -8.6169     18.8144    170.2322   8.8364110906e+01   3.6543023599e+01    0.2061735    0.1339189  38.22 0.0008317631    1.494    0.331
       299  -8.6097    244.4536    169.0222   3.7178850971e+01   2.3012429063e+00    0.1839721    0.1035353 -29.90 0.0004519923    1.556    0.357
       300  -8.5315    237.1865    169.1897   3.8378735262e+01   3.3595712737e+00    0.1916321    0.1437166  -7.22 0.0007464859    1.132    0.116
       301  -8.5901    218.8299    168.2724   4.1314853960e+01   6.3616815367e+00    0.2116553     0.160448 -34.51  0.000558477    1.365    0.267
       302  -9.0738    166.8080    168.3408   5.1538245389e+01   1.5314313371e+01     0.236975    0.2151154  87.42  0.000622962    1.465    0.317
       303  -8.3675    149.6680    169.3585   5.5536410487e+01   1.8193294347e+01    0.2081641    0.1661299  71.54 0.0007801409    1.687    0.407
       304  -8.9434    108.3223    169.5896   6.5495066547e+01   2.5282955964e+01     0.373162    0.1303156  36.61  0.001351076    2.661    0.624
       305  -8.6369    111.8830    167.7076   6.4293676908e+01   2.5104934023e+01    0.3106536    0.1972446  71.07  0.001335086    2.331    0.571
       306  -7.8846     88.9692    168.5014   7.0242604366e+01   2.8565578447e+01    0.2012496   0.09832606  54.52 0.0008064814    2.349    0.574
       307  -7.8110    211.3287    167.6968   4.2545371755e+01   7.6772360870e+00    0.1168459    0.1085087 -79.94 0.0003047299    1.649    0.393
       308  -9.4271    192.0915    165.7598   4.5802754726e+01   1.1271917510e+01    0.5101994    0.2015952 -34.32  0.002010876    2.646    0.622
       309  -9.7795    137.1814    164.8987   5.7606409990e+01   2.1315265729e+01    0.6233836    0.3551403  55.37  0.002110768    2.207    0.547
       310  -8.2823    184.8829    166.1338   4.7317999550e+01   1.2479004660e+01    0.1959209    0.1851076 -39.33 0.0005640221    1.259    0.206
       311  -9.8868     94.7695    162.5193   6.7823286025e+01   2.9032719819e+01    0.8009698    0.3998998  70.44  0.002351751    5.087    0.803
       312  -9.2493     20.4573    166.0456   8.7669939638e+01   3.7361615395e+01    0.3358505    0.1214529  52.11  0.001363569    2.524    0.604
       313  -8.7065    234.0697    164.7182   3.8008349353e+01   4.4639322609e+00    0.2111315     0.150322 -32.44 0.0005970597    1.358    0.264
       314  -9.5500     33.6845    163.2442   8.4060965464e+01   3.6770600346e+01     0.607595    0.1640929  49.18  0.002198619    3.540    0.718
       315  -8.7833    212.8840    163.5630   4.1432678724e+01   8.0567885446e+00    0.2430517    0.1758557 -35.30 0.0006150771    1.384    0.278
       316  -8.5835    159.4736    164.1020   5.2315217513e+01   1.7432341450e+01    0.2143745    0.1952648  64.14   0.00067214    1.308    0.235
       317  -9.1891     60.3530    163.1621   7.7022197605e+01   3.3772612573e+01    0.7031627    0.2246089  25.37  0.002314458    4.144    0.759
       318  -8.2064     60.5104    160.0136   7.6591241627e+01   3.4498689505e+01    0.3381003     0.174965  80.15  0.001365919    2.696    0.629
       319  -9.4187    245.9644    162.8068   3.5723858305e+01   2.9205596218e+00    0.2137722     0.149375 -22.95  0.000489647    1.205    0.170
       320  -8.6197    204.7358    162.3878   4.2691364622e+01   9.6266112457e+00    0.2269054    0.1549637 -42.22 0.0005227898    1.588    0.370
       321  -9.4597      3.4991    162.3059   9.1669491713e+01   3.9586561988e+01    0.3867382    0.1332087  52.33  0.001438567    2.516    0.602
       322  -8.6166    126.0164    162.0924   5.9790133317e+01   2.3887063108e+01    0.2242421    0.2020879  35.19  0.000765808    1.053    0.050
       323  -9.0250    177.3526    160.4492   4.7716840350e+01   1.4834616372e+01    0.2621324    0.2330435 -65.73 0.0007270638    1.463    0.316
       324  -8.8599    151.8274    160.7648   5.3382291623e+01   1.9481503885e+01    0.2577178    0.1932068 -79.42   0.00109377    2.060    0.514
       325  -9.1695    243.1483    154.8411   3.4567499420e+01   4.4496796381e+00    0.1840153    0.1503923 -26.48 0.0004024907    1.205    0.170
       326  -8.7650    242.2999    159.6996   3.5679879855e+01   3.9015330433e+00    0.1744074    0.1020484 -21.68 0.0002770382    1.537    0.349
       327  -9.8520    250.2245    157.6342   3.4042534186e+01   2.9891981242e+00    0.3087407    0.1603896 -33.31 0.0007824158    1.680    0.405
       328  -9.1079    246.7224    155.6124   3.4170888890e+01   3.7933412571e+00    0.2203869     0.130961 -12.53 0.0005381503    1.713    0.416
       329  -8.7656    227.2898    158.8274   3.7952443663e+01   6.3944352568e+00    0.2804013    0.1833993 -48.01  0.001109933    1.982    0.496
       330  -8.9027    236.8769    158.6765   3.6339166295e+01   4.8853990281e+00    0.2241484    0.1501201 -19.19 0.0005902852    1.315    0.240
       331  -9.4695    105.8408    157.8819   6.4153968335e+01   2.8289916675e+01    0.4538982    0.2709581  65.30  0.001296486    2.376    0.579
       332  -8.6988    196.4813    157.5121   4.3255577188e+01   1.1876181019e+01    0.2185975    0.1254701 -46.47 7.164094e-05    1.991    0.498
       333  -9.1852    167.5995    157.1523   4.9119708354e+01   1.7244459103e+01    0.3110757    0.2507679 -87.61  0.001243386    1.911    0.477
       334  -8.5925    142.6535    157.8468   5.4944196346e+01   2.1761945305e+01    0.3250991    0.1771654  36.76  0.001404098    1.777    0.437
       335  -9.0087    144.5414    154.7442   5.3872567948e+01   2.2045155184e+01    0.2859051    0.2128833 -69.10 0.0008743363    1.774    0.436
       336  -8.5471    217.9839    156.5045   3.9077394996e+01   8.2888469097e+00    0.2427511    0.1675353 -43.38 0.0006963374    1.622    0.383
       337  -7.8616    188.2614    157.6316   4.4899311024e+01   1.3339695871e+01    0.1304963    0.1113114 -67.81  0.000537125    1.648    0.393
       338 -10.0638     35.6450    155.9897   8.2864490714e+01   3.8299244880e+01    0.5093957    0.1729238  26.46  0.002028338    3.135    0.681
       339  -9.1358    157.4756    155.9221   5.1114231911e+01   1.9379111332e+01    0.2533482    0.2107925 -64.62 0.0008412911    1.486    0.327
       340  -9.2274    119.7659    155.1491   6.0059736930e+01   2.6496591836e+01    0.3957062    0.2674963  77.26  0.001647975    2.286    0.563
       341  -9.3250     49.4969    154.9266   7.8972080145e+01   3.7053710462e+01    0.4188356    0.1881744  58.37  0.001711185    2.574    0.612
       342  -8.2137    204.5538    155.1104   4.1218520297e+01   1.0836053283e+01    0.2021503    0.1246995 -34.51 0.0006712198    1.544    0.352
       343  -9.8684    132.9498    152.9827   5.6324851365e+01   2.4573252710e+01    0.4376092    0.3295289  76.70  0.001341089    1.840    0.456
       344  -9.5925    134.5117    147.7238   5.4863933042e+01   2.5403825208e+01    0.4770549    0.3487584  32.97  0.001966672    1.363    0.266
       345  -9.7531    139.0984    144.9210   5.3138703507e+01   2.5125436313e+01    0.4153021    0.2714398 -68.61  0.001317241    2.213    0.548
       346  -8.7207     97.3693    154.6026   6.5823200873e+01   3.0436389371e+01    0.3533974    0.1368401  34.35  0.001290316    2.581    0.613
       347  -8.9872     68.0923    153.6757   7.3672886159e+01   3.5024308903e+01      0.38211    0.2064417  65.69  0.001243372    2.376    0.579
       348  -8.7080    239.6271    153.1554   3.4776385771e+01   5.2392688567e+00    0.1843195    0.1021669 -21.00 0.0003885269    1.728    0.421
       349  -9.6267      8.7879    152.9171   8.9780639900e+01   4.1386016922e+01    0.5245182    0.1345665  22.02  0.001992239    4.278    0.766
       350  -9.4414     29.4069    150.4832   8.4038148510e+01   4.0238520634e+01    0.5242885    0.1953672  63.29  0.001905323    3.531    0.717
       351  -9.0404    189.5487    150.0866   4.3041527496e+01   1.4415465713e+01     0.281506    0.2246154 -60.47 0.0008877858    1.683    0.406
       352  -8.0553    182.3918    151.1436   4.4717522188e+01   1.5570175405e+01    0.1948625    0.1302639 -48.94 0.0007733234    1.704    0.413
       353  -8.5745    109.5850    151.7522   6.2061875776e+01   2.9041490347e+01    0.3980283    0.1027491  41.51  0.001193816    3.596    0.722
       354  -8.4295     98.2906    150.4313   6.4842406926e+01   3.1254532655e+01    0.2423812     0.172738 -87.27 0.0008161837    1.754    0.430
       355  -9.4669    248.9259    149.1520   3.2525562668e+01   4.3497480601e+00    0.2902195    0.1534673 -29.98 0.0006746507    1.602    0.376
       356  -8.4265    243.4147    149.7743   3.3491072288e+01   5.1216295098e+00    0.2410629    0.1036074 -36.45  0.001117863    2.077    0.519
       357  -8.4328    212.9380    149.5295   3.8504835550e+01   1.0254501815e+01    0.2048375    0.1648181 -24.19 0.0003840844    1.133    0.118
       358  -8.3405    162.4224    150.2878   4.8817796355e+01   1.9535075589e+01    0.1953671    0.1391901 -52.67 0.0006722747    1.599    0.374
       359  -8.3979    127.8172    158.5997   5.8691141194e+01   2.4310819975e+01    0.2077573    0.1285103  47.76 0.0008025628    1.627    0.385
       360  -8.4070    198.6582    148.5551   4.0933673878e+01   1.2989431241e+01    0.2091561    0.1613235 -51.79 0.0005183915    1.589    0.371
       361 -10.3615    148.9967    145.2763   5.0827028954e+01   2.3133652507e+01    0.6134903     0.419541  85.58  0.001804513    2.900    0.655
       362  -9.7852     89.3868    146.2670   6.6553581785e+01   3.3677142653e+01    0.6844791    0.3821514  86.37  0.002366095    3.500    0.714
       363 -10.7311     59.1921    135.3326   7.3518849541e+01   4.0706156458e+01    0.7791758    0.2945376  28.76  0.002930635    2.867    0.651
       364  -9.2962     52.6032    148.8280   7.7357632240e+01   3.8173160396e+01    0.3503143    0.1875189  36.16  0.001038986    1.826    0.452
       365 -10.4015     55.1602    144.8580   7.6100493202e+01   3.8840978635e+01    0.8010587     0.367097  67.00  0.002834931    3.436    0.709
       366  -9.7621     39.8054    147.8436   8.0863019349e+01   3.9848108309e+01    0.5248734    0.2049738  56.88  0.001970283    3.074    0.675
       367  -8.7807    233.5417    147.3447   3.4542590979e+01   7.0663221043e+00    0.2392126     0.111265 -35.84 0.0007582013    1.929    0.482
       368  -8.3601    121.9965    148.2691   5.8145915338e+01   2.7614146496e+01    0.2136051    0.1902392  37.08 0.0006020168    1.091    0.083
       369 -10.0013    106.5732    144.3263   6.1450345936e+01   3.1268631262e+01     0.638159    0.3774911  72.87  0.002172793    3.102    0.678
       370  -8.8959     78.0161    146.9778   6.9873024610e+01   3.5243071857e+01    0.2331887    0.1607715  69.98 0.0006972298    1.660    0.398
       371  -9.8371     73.3466    129.3690   6.8192867239e+01   4.0258398401e+01    0.4145874    0.2611775  80.21   0.00107759    2.181    0.541
       372 -11.1246     68.8561    141.6061   7.1638901424e+01   3.7861508582e+01     0.656339    0.5455523 -61.63  0.002707563    1.186    0.157
       373  -9.9562     71.7888    133.6801   6.9442628031e+01   3.9411110182e+01    0.8331269    0.2729964  26.59  0.002538251    4.180    0.761
       374  -8.3317    223.0892    146.3678   3.6063103436e+01   8.9790048280e+00    0.1774485    0.1575827   3.05 0.0005223935    1.093    0.085
       375  -8.1433    206.5030    146.0175   3.8914100497e+01   1.1976308612e+01    0.2080489      0.12617 -34.30 0.0005143351    1.546    0.353
       376  -8.3523    175.6699    146.0741   4.5018513643e+01   1.7778839625e+01    0.2217992    0.1766223 -55.83 0.0007294479    1.508    0.337
       377  -8.9912     13.0524    145.8638   8.8148574170e+01   4.2749697176e+01    0.2911671    0.1573963  69.36  0.001508985    1.755    0.430
       378 -10.5075    241.4445    143.5867   3.2509291426e+01   6.3196552062e+00    0.5942512    0.3039614 -12.00  0.002518994    2.766    0.639
       379  -9.2753    240.9957    137.5196   3.1294959544e+01   7.2711247722e+00    0.1805039      0.15714 -10.27 0.0006413425    1.078    0.072
       380  -8.9041    247.0206    143.8357   3.1715511179e+01   5.3906172168e+00    0.2336568    0.1548015 -22.92 0.0004600187    1.278    0.217
       381  -8.3315    250.3225    140.8900   3.0614983682e+01   5.2825352273e+00    0.1813614    0.1346733 -20.02 0.0005654571    1.106    0.096
       382  -8.8628    165.6217    143.8673   4.6707653688e+01   2.0157232635e+01    0.2483012     0.227362 -82.47 0.0006838979    1.356    0.262
       383  -9.7567    124.9197    142.3394   5.6170192928e+01   2.8387351985e+01    0.4922873    0.3292959 -83.23  0.001460344    2.469    0.595
       384  -9.2334     31.5420    143.9088   8.2788363559e+01   4.1643062248e+01    0.2678292    0.1351929  47.01 0.0008667673    1.915    0.478
       385  -7.6211    194.3023    143.6704   4.0703988220e+01   1.4638528648e+01    0.1338575     0.114064 -71.42 0.0005382159    1.648    0.393
       386  -8.0814    235.4927    142.4868   3.3205350299e+01   7.4590805934e+00    0.1318532    0.1100011 -14.32 -8.080533e-05    1.011    0.011
       387  -8.4303    181.9790    141.5047   4.2685377780e+01   1.7393531352e+01    0.2600214    0.1944669 -52.59 0.0006365901    1.567    0.362
       388  -9.2641      2.6906    141.4922   9.0691331456e+01   4.4531659603e+01    0.3782982    0.1534339  68.76  0.001604192    2.477    0.596
       389  -9.6894     44.4053    139.6688   7.8556025058e+01   4.1376308020e+01    0.5094554    0.1824307  23.35  0.001875011    3.419    0.707
       390  -9.7854     23.5486    138.0658   8.4508471002e+01   4.3808528520e+01    0.5368533     0.211347  61.88  0.002086597    3.096    0.677
       391  -9.0625     17.8231    138.5613   8.6214143486e+01   4.4157649774e+01    0.3156931    0.1650614   7.80  0.001481025    2.781    0.640
       392  -7.4792    218.6799    138.3673   3.5079563576e+01   1.1005373545e+01    0.1332716    0.1053557 -60.95 0.0007037679    1.788    0.441
       393  -8.4117    207.4720    137.5376   3.6866724862e+01   1.3197459133e+01    0.2377282    0.1196892 -44.97 0.0008624531    2.143    0.533
       394  -8.5562    197.3883    137.2389   3.8670587068e+01   1.5161212945e+01    0.2387397     0.162373 -42.50   0.00052377    1.494    0.331
       395  -8.6271    172.0287    137.9725   4.3979837943e+01   2.0017696349e+01    0.2240165     0.184552 -80.99 0.0006663329    1.718    0.418
       396  -9.3473    140.2169    136.9916   5.1121461027e+01   2.6591807581e+01    0.3658294    0.2350486  14.00  0.001451613    2.364    0.577
       397  -9.2134    151.6579    135.5724   4.8028953151e+01   2.4596555565e+01    0.5539117    0.2553463  33.85  0.002007254    2.519    0.603
       398  -8.9116    111.7561    136.6210   5.8470395089e+01   3.2127156481e+01    0.3478236    0.2143753  44.04  0.001538585    1.605    0.377
       399  -8.8706    112.8221    133.1004   5.7422850737e+01   3.2744924641e+01    0.3048041    0.2375233  88.65 0.0009328491    1.627    0.386
       400 -10.3188     83.3437    133.3420   6.5925746179e+01   3.7759389820e+01    0.5700492    0.3511818 -66.75  0.001615081    1.688    0.407
       401  -9.2466    248.5005    135.1454   2.9675297687e+01   6.3821414046e+00    0.2813092    0.1701729 -28.29 0.0008822481    1.386    0.279
       402  -8.7550    250.7995    129.7706   2.8204960642e+01   6.7692274102e+00    0.3987008    0.1000259 -30.31  0.001315711    3.901    0.744
       403  -8.2096    162.6116    136.2806   4.5665028092e+01   2.2239198386e+01    0.2179084    0.1777914 -83.79 0.0007501508    1.718    0.418
       404  -9.1068     91.4089    136.5962   6.4192025791e+01   3.5672051882e+01    0.3560602    0.1489286  29.94  0.001251221    2.808    0.644
       405  -8.5844    187.6455    135.2453   4.0113869768e+01   1.7412325634e+01    0.2007958    0.1287957 -28.61 0.0005301987    1.563    0.360
       406  -8.9338    126.9167    134.8794   5.4032114686e+01   2.9663276944e+01    0.4809805    0.1937436  30.77  0.001474605    3.518    0.716
       407  -8.7573     38.9384    135.8528   7.9703184277e+01   4.2911726380e+01    0.2586865    0.1479101  73.85 0.0007146178    1.966    0.491
       408  -7.9545    231.4743    134.4157   3.2103974542e+01   9.3499927588e+00    0.1329513    0.1129287 -13.25  9.77086e-05    1.017    0.017
       409  -8.6183    179.3214    133.6007   4.1427556338e+01   1.9374297042e+01    0.2650218    0.2166282 -71.95 0.0008246827    1.673    0.402
       410  -7.8144    237.4792    133.4788   3.0963472284e+01   8.4552046531e+00    0.1311256    0.1115998 -25.15 9.973889e-05    1.105    0.095
       411 -10.2483    132.2983    131.2087   5.1801996733e+01   2.9416051101e+01    0.5921476    0.3947239 -72.67  0.001496367    2.239    0.553
       412 -10.3812    135.0834    123.5765   4.9274741672e+01   3.0519214416e+01    0.5385171    0.4690607 -47.35  0.002769591    1.157    0.135
       413  -9.4450    130.4369    118.0262   4.9113168272e+01   3.2692280251e+01    0.4068236    0.2718382 -72.51  0.001094577    2.245    0.555
       414  -9.0198    143.0616    131.5498   4.9169924590e+01   2.7176792072e+01    0.2952322     0.231342 -75.67 0.0007849354    1.683    0.406
       415  -9.8805     12.7864    128.6227   8.6818772740e+01   4.6991941171e+01    0.5731106    0.2480115  79.91  0.002443473    2.531    0.605
       416  -8.5407    246.9942    129.9389   2.8784247249e+01   7.3706428178e+00    0.2025345    0.1605706 -23.82 0.0007027386    1.054    0.051
       417  -7.8358    204.6931    130.3180   3.5731042701e+01   1.4931303843e+01    0.1351433    0.1112814 -65.23 0.0004068494    1.633    0.388
       418  -7.9746    192.6196    129.8639   3.7887738348e+01   1.7381757169e+01    0.2025555    0.1270807 -45.87 0.0005742019    1.677    0.404
       419  -9.0820    168.3109    129.3177   4.2766128815e+01   2.2434934342e+01    0.2910622    0.2423266 -81.84 0.0005855468    1.627    0.385
       420  -9.4135    152.8966    128.7056   4.6125372613e+01   2.5751221836e+01    0.4017649    0.2133677 -50.41 0.0009991574    2.057    0.514
       421 -10.0505     99.3404    127.7749   6.0084933986e+01   3.6441964358e+01    0.5861326    0.3720591  84.55  0.001583959    2.720    0.632
       422  -8.0859    211.5102    129.0084   3.4216757266e+01   1.3841323268e+01    0.2124431    0.1251826 -37.18  0.000955055    1.569    0.363
       423 -10.5636     60.4860    125.4098   7.1486804351e+01   4.3035863867e+01    0.8033001    0.4270018  73.84  0.002857212    3.092    0.677
       424 -10.8175     46.0969    124.9088   7.5980468296e+01   4.4907554126e+01     1.219266    0.5630205  71.78  0.004073014    3.890    0.743
       425  -9.7928     40.4867    125.9540   7.7916890992e+01   4.5248143604e+01    0.4009869    0.2577894  84.10 0.0003056207    1.648    0.393
       426  -9.2897     27.6858    129.3811   8.2352967881e+01   4.5615363055e+01    0.3766509    0.1594698  22.91   0.00163408    2.690    0.628
       427  -9.7231    118.1857    125.3106   5.4187221292e+01   3.3518250277e+01    0.5683048    0.3435755  68.46  0.001586821    2.825    0.646
       428  -8.9862    179.2171    124.6200   3.9316430110e+01   2.1063774366e+01    0.2805414    0.2320253 -72.29 0.0005998647    1.593    0.372
       429 -10.2970     28.4331    122.3445   8.1280989175e+01   4.7325714189e+01    0.7335003    0.3071214  73.23  0.002518902    3.838    0.739
       430 -10.0061     30.6371    113.8716   7.9433901096e+01   4.9284113696e+01    0.8784681    0.1770411  22.89  0.002610491    5.512    0.819
       431  -7.7433    188.5229    123.5495   3.7186192456e+01   1.9334802874e+01    0.1446251    0.1367344 -25.04 0.0001162493    1.070    0.065
       432  -8.9469    171.8315    121.4745   4.0099413592e+01   2.3206969093e+01     0.312638    0.2058728 -36.47  0.001325488    1.480    0.324
       433  -9.8633    157.6258    121.7888   4.3335294084e+01   2.6163512881e+01    0.5717385    0.3195618  34.80  0.002017665    1.991    0.498
       434  -8.9498     76.0354    123.6234   6.6260140657e+01   4.1290328149e+01    0.3272237    0.1408156  33.26  0.001241201    2.418    0.587
       435  -8.3126     83.9833    122.4622   6.3554826986e+01   4.0333775672e+01    0.2197563    0.1473189  34.00 0.0007006216    1.554    0.356
       436  -7.8474    194.7378    121.3962   3.5472404832e+01   1.8442767378e+01    0.1464883    0.1095861 -60.00 0.0006971627    1.713    0.416
       437  -8.5613     89.0043    120.9965   6.1696785217e+01   3.9864995666e+01    0.3318934    0.1797223  30.21  0.001343433    2.068    0.516
       438  -9.8881    141.5744    118.4052   4.6345177204e+01   3.0275335469e+01     0.437313    0.3021713 -66.22   0.00115851    1.928    0.481
       439  -9.4774    104.9322    117.6577   5.6144664371e+01   3.7831370374e+01    0.4517528    0.2130791  27.19  0.001500515    3.071    0.674
       440  -9.3295     71.1128    119.7762   6.7050928123e+01   4.2984978965e+01    0.2991779    0.2029317  70.31  0.001156371    1.835    0.455
       441  -9.1411    122.7214    118.1125   5.1207630040e+01   3.4252823223e+01     0.508584    0.1930379  32.30  0.001448111    3.933    0.746
       442  -9.6761     18.7780    117.9016   8.3870569974e+01   4.9240165030e+01    0.3376388    0.1850277  -0.83  0.001569397    2.725    0.633
       443  -9.2193      2.8652    117.2295   8.8903392671e+01   5.0450450474e+01    0.3673402    0.1586366  67.64  0.001626517    2.517    0.603
       444  -7.7110    231.4590    117.4567   2.8322072184e+01   1.1930234741e+01    0.1350318    0.1162001 -28.30 0.0002310688    1.068    0.063
       445  -9.6980    109.4175    114.0523   5.3951890594e+01   3.7821486323e+01    0.4774452    0.3225989 -78.86  0.001290399    2.196    0.545
       446 -10.9041    248.6333    107.7863   2.3709525908e+01   1.0267039579e+01     0.523657    0.2737392 -25.81   0.00257017    1.748    0.428
       447  -7.9261    193.0128    115.0331   3.4246326471e+01   1.9915494574e+01    0.1820644    0.1522036 -30.06 0.0003760162    1.117    0.105
       448  -7.7999    185.5432    115.5030   3.5800001071e+01   2.1406324339e+01    0.1473013    0.1386406 -35.48 6.774463e-05    1.081    0.075
       449  -9.6009     61.2715    114.3929   6.9201563299e+01   4.5721850909e+01    0.5025143    0.2330192  21.38  0.001886236    2.898    0.655
       450  -8.2189    167.2249    114.1812   3.9260639689e+01   2.5597883382e+01     0.204613    0.1812523 -73.69  0.000476317    1.338    0.253
       451 -10.1126     92.7554    112.2447   5.8531862186e+01   4.1345762781e+01    0.5338627    0.3386521 -75.32  0.001419365    2.150    0.535
       452  -9.8447     78.9876    112.2871   6.2922312936e+01   4.3651991705e+01    0.5075988     0.338026  84.01  0.001764281    2.172    0.540
       453 -10.8991    133.7838    109.5042   4.6033333981e+01   3.3842917400e+01      0.76761    0.3664497 -45.56  0.002633862    2.083    0.520
       454 -10.0458    122.0415    112.2832   4.9918847945e+01   3.5701847806e+01    0.3680069    0.2743932 -77.99 0.0006683722    1.807    0.446
       455  -8.4441    174.8424    111.6883   3.6999310190e+01   2.4411706995e+01    0.2785926    0.1845023 -60.54 0.0007241566    2.020    0.505
       456  -8.9492    159.1899    111.6361   4.0392225696e+01   2.7854632290e+01    0.2692496     0.198374 -50.24 0.0005460966    1.424    0.298
       457  -8.9734     49.4003    111.9549   7.2747128769e+01   4.7832170023e+01    0.2816996    0.1779349  49.13  0.001358348    1.706    0.414
       458  -9.9481     66.4806    110.2889   6.6621051661e+01   4.6039359541e+01     0.431622    0.2889797 -77.92   0.00141576    1.675    0.403
       459  -9.1170     67.6039    104.8710   6.5053395629e+01   4.7238109969e+01    0.3667249    0.1813895  21.76  0.001380114    2.735    0.634
       460  -8.3305    189.3817    107.7439   3.3104791464e+01   2.1971539583e+01     0.279701    0.1297567 -40.69 0.0008108889    2.040    0.510
       461  -9.0304      6.3128    108.5871   8.7006838684e+01   5.2410225194e+01    0.2780942    0.1300088  12.54  0.001321398    2.700    0.630
       462 -10.1044    111.5718    106.2769   5.1324410065e+01   3.9192701189e+01    0.6039295    0.2752329  36.71  0.002167001    2.390    0.582
       463  -9.6220    150.6783    102.9821   4.0056630218e+01   3.1478504905e+01    0.5182388    0.3114712 -63.84  0.001362817    2.578    0.612
       464  -9.1241    139.9246    104.4340   4.3088149051e+01   3.3581434021e+01     0.351153    0.2653868  84.03 0.0008673859    1.880    0.468
       465  -9.8433     82.5182    104.2635   5.9874439381e+01   4.5050656808e+01    0.7190553    0.2477106  33.04  0.002309549    3.293    0.696
       466  -9.1128     82.0266     99.6009   5.8864152479e+01   4.6268637128e+01    0.3949488    0.2525509 -80.41 0.0009200275    2.329    0.571
       467 -10.5051     45.7000    102.2068   7.2224480272e+01   5.0743495900e+01    0.7579396    0.3883829  67.29  0.002773107    3.275    0.695
       468 -10.6756     22.5760    102.5831   8.0632780242e+01   5.2838931768e+01    0.6348313    0.3619711  69.51  0.002261452    2.067    0.516
       469  -8.3660    166.7097    103.8459   3.6664853192e+01   2.7695959721e+01    0.2786032    0.1969291 -54.34 0.0007012044    1.584    0.369
       470  -9.2616     95.6720    103.3424   5.5386653686e+01   4.2950717224e+01    0.5069399    0.2508233  21.25  0.001526005    3.989    0.749
       471  -8.4931      6.9910    103.0335   8.6207486241e+01   5.3764888941e+01    0.2123921    0.1285875  65.51 0.0007577823    1.734    0.423
       472  -7.6578    175.6783    102.2843   3.4371037224e+01   2.5973011726e+01    0.1486358    0.1198431 -75.72 0.0002965491    1.594    0.373
       473  -9.7625    128.1810    101.6180   4.5379177564e+01   3.6754570354e+01    0.3172086    0.2582384 -73.94 0.0008064315    1.487    0.328
       474  -8.1383    159.8096    100.7899   3.7351942608e+01   2.9844148377e+01    0.2083581    0.1777171 -64.20  0.000415535    1.322    0.243
       475 -10.3006    108.7814     98.6609   5.0079089887e+01   4.1492950506e+01    0.5874296    0.3939905  72.10  0.001114386    2.291    0.564
       476  -8.6626    107.6503     92.4387   4.8644106353e+01   4.3126385848e+01     0.300869    0.2530336  -4.38  0.000868828    1.399    0.285
       477 -10.1337    113.1372     90.4186   4.6404221509e+01   4.2426444029e+01     1.312584    0.4642493  55.37   0.00327973    5.195    0.807
       478  -9.6329     14.2825    110.3592   8.4510760031e+01   5.1466957429e+01    0.5389343    0.2231858  88.59  0.002162441    2.714    0.632
       479 -10.2654     63.7947     95.7664   6.4268221541e+01   5.0059789658e+01    0.5543472    0.3397057  83.40  0.001570973    2.796    0.642
       480  -9.2417     95.0098     96.7530   5.3828820597e+01   4.4628050122e+01    0.3046659    0.2435953 -71.73 0.0006413909    1.422    0.297
       481  -8.2247      7.3145     97.3243   8.5459882254e+01   5.5181102417e+01    0.1356919   0.07893274 -48.55 0.0002795974    1.664    0.399
       482  -8.4166    249.5763     95.5255   2.0839563471e+01   1.1840894975e+01    0.1308401    0.1072912 -29.18 0.0001408536    1.014    0.014
       483  -8.0882    164.6518     93.8002   3.4356226619e+01   3.0063122908e+01    0.2160916    0.1361031 -45.51 0.0004322341    1.590    0.371
       484  -8.5609    151.7731     94.4270   3.7408944626e+01   3.2927169580e+01    0.2258772    0.1444002  37.36 0.0006699145    1.714    0.417
       485  -9.1183     53.0668     93.5062   6.7680734776e+01   5.2067274204e+01    0.3731539    0.2006768  41.38  0.001274051    2.010    0.503
       486  -9.3036     47.0640     91.6993   6.9540984105e+01   5.3248925175e+01    0.4463368    0.2006951  16.80  0.001671002    3.158    0.683
       487  -9.7584    246.5746     93.2360   2.0693722965e+01   1.2712531641e+01    0.2135337    0.1111396 -32.68  0.001048648    1.598    0.374
       488  -8.2061    176.4899     92.9508   3.1688822871e+01   2.7483158840e+01    0.2301574    0.1430768 -38.07 0.0004815558    1.530    0.346
       489  -9.2833    138.9890     92.1195   3.9840900024e+01   3.6331633714e+01    0.4030935    0.2695163 -65.95 0.0007143376    2.075    0.518
       490  -8.6702    140.3138     86.8644   3.7953255379e+01   3.7078224645e+01    0.3463949    0.1715638  30.48   0.00108033    3.352    0.702
       491  -9.6805    124.5891     90.7495   4.3234180824e+01   3.9866679969e+01      0.42465    0.3091891 -68.08 0.0009313142    1.768    0.434
       492  -9.3559      5.1766     91.8049   8.5602957828e+01   5.6678664665e+01    0.2634999    0.1553448  63.91 0.0008425293    1.875    0.467
       493  -9.4923     34.7599     89.6397   7.3860832489e+01   5.5075791754e+01    0.4427807    0.2488919  83.11  0.001827535    2.552    0.608
       494  -9.2899     23.1979     89.7703   7.8402958881e+01   5.6043973596e+01    0.3697205    0.2090816  16.04  0.001831234    2.115    0.527
       495  -8.0609    151.0000     88.9511   3.6008514759e+01   3.4170533738e+01    0.2527348   0.08734316 -38.57 0.0004379224    2.834    0.647
       496 -10.1162     86.4639     86.1618   5.3645413389e+01   4.8681851340e+01    0.5942282    0.4035763 -75.21  0.001650921    2.089    0.521
       497  -9.1319     65.5053     86.9927   6.1402493976e+01   5.1967654206e+01    0.3078615    0.1928579   4.33  0.001248644    2.515    0.602
       498  -9.6065     48.6443     84.0527   6.7138949362e+01   5.4969520805e+01    0.5254706    0.3094806  71.17  0.001811688    2.910    0.656
       499  -8.3668    157.8673     83.6185   3.2897537304e+01   3.3550434407e+01    0.2544145    0.1721483 -42.35 0.0002967856    1.446    0.308
       500  -9.1336    128.3256     83.2471   3.9939970478e+01   4.0576589798e+01    0.5794197    0.2442173  33.92  0.001668186    3.860    0.741
       501  -9.0457    106.0533     71.8493   4.2658853330e+01   4.7889430738e+01     0.315143    0.2152928 -61.77 0.0008451015    1.851    0.460
       502  -9.6262    104.6409     82.8909   4.6687501049e+01   4.5856869760e+01    0.4604055    0.3046929 -62.48 0.0009345767    1.881    0.468
       503  -9.1170    107.1640     75.9077   4.3668035930e+01   4.6810596857e+01    0.6339821      0.27158  35.10  0.002061852    3.033    0.670
       504  -9.3200     10.0084     82.2177   8.2441571665e+01   5.8820315457e+01    0.5051963    0.2976914 -76.09  0.002241846    1.464    0.317
       505  -9.1442    140.8383     82.5865   3.6528287912e+01   3.7793148324e+01    0.3117128    0.1967266 -55.68 0.0007148838    1.870    0.465
       506  -9.8709    249.8858     81.1062   1.7527617929e+01   1.3795361699e+01    0.3560988    0.1031331 -38.63  0.001374716    2.690    0.628
       507  -9.4731     24.7003     80.7122   7.6145012273e+01   5.8204549549e+01    0.4065182    0.2365482  77.33   0.00133099    2.338    0.572
       508  -8.3412    150.2970     80.4212   3.3629829923e+01   3.5953130942e+01    0.2681385     0.177932 -55.50 0.0006386065    1.732    0.423
       509  -8.7742     74.8089     80.4537   5.6088101033e+01   5.2052760502e+01    0.2920473    0.1937173 -68.62 0.0008922013    1.864    0.464
       510  -8.5496    119.2880     80.1072   4.1444922542e+01   4.3269294789e+01    0.2882222    0.2091192  82.28 0.0006946692    2.046    0.511
       511  -8.5173     39.2624     80.5910   7.0093642256e+01   5.6889179818e+01     0.181736    0.1335553   0.23 0.0009204597    1.648    0.393
       512  -7.8086    166.8431     79.5941   2.9830982321e+01   3.2126131496e+01    0.1959976    0.1490434  70.63  0.000385165    1.505    0.335
       513  -9.0149     91.7385     78.7545   4.9573758995e+01   4.9367362314e+01    0.5630336    0.1789088  34.50  0.001529333    4.458    0.776
       514  -8.3084    184.2274     77.9647   2.6081100309e+01   2.8263648777e+01    0.2030601    0.1175007 -35.00 0.0005553917    1.630    0.386
       515  -9.2553    128.1571     75.0421   3.7384684514e+01   4.2243980841e+01    0.4014799    0.2502574 -52.52 0.0006633528    1.795    0.443
       516  -8.2997    140.4751     75.0574   3.4273112814e+01   3.9313136666e+01    0.2328396    0.1504172 -40.26 0.0006297093    1.523    0.343
       517  -9.9617     63.2258     73.5569   5.8424467865e+01   5.5513084353e+01     0.456535    0.2823744 -68.94  0.001028729    2.055    0.513
       518  -9.6243     82.5009     72.4347   5.0748600881e+01   5.2518276503e+01    0.4004766    0.2913091 -77.40 0.0009550921    1.989    0.497
       519  -8.2389    163.4853     73.0342   2.8560208012e+01   3.4080179927e+01    0.2371847    0.1458561 -37.30 0.0009032229    1.569    0.363
       520  -8.6364    151.3977     73.1708   3.1154633731e+01   3.7009251993e+01    0.2286313    0.1371243 -46.73 0.0005474426    1.716    0.417
       521  -8.5359    115.8321     73.0521   4.0139159071e+01   4.5477557922e+01    0.2364461     0.211149 -69.57 0.0005776339    1.251    0.201
       522  -9.1332     95.1564     70.9132   4.5842791271e+01   5.0381270608e+01    0.3612276    0.2262769 -58.00 0.0009099417    1.920    0.479
       523  -8.0426     42.5036     72.5263   6.6701480055e+01   5.8509689956e+01    0.1384681    0.1264659 -58.99 0.0001376623    1.068    0.064
       524  -9.6273     51.4799     69.4959   6.2010273405e+01   5.8130777767e+01    0.4481335    0.2531389 -75.71  0.001586111    2.781    0.640
       525  -8.7882     16.7241     69.9638   7.7441914545e+01   6.1450215625e+01    0.2401074    0.1643947 -86.96 0.0007944532    1.551    0.355
       526  -9.4602     31.6267     68.6146   7.0445252753e+01   6.0586296368e+01    0.3748963    0.2098685 -15.41  0.001643507    2.529    0.605
       527  -9.0066    147.0656     67.9007   3.0455011131e+01   3.9004218802e+01    0.2774815    0.2128421 -41.07 0.0006864624    1.287    0.223
       528  -8.6625    121.8094     66.0274   3.6084730391e+01   4.5456699019e+01    0.2389121    0.2061128 -66.19 0.0006035342    1.308    0.236
       529  -8.8666    110.0655     63.5172   3.8552850757e+01   4.8648228071e+01     0.287005     0.207127 -54.37 0.0006552988    1.556    0.357
       530  -9.4442     97.3303     61.3930   4.1766537308e+01   5.1865432183e+01    0.5056881     0.311528 -29.18  0.002043495    1.789    0.441
       531  -8.7126     65.1954     62.6764   5.4073361724e+01   5.7671573092e+01    0.4980041    0.2772452  -0.20  0.001474791    4.967    0.799
       532  -8.4510     37.3159     64.0501   6.6637391197e+01   6.1107802755e+01    0.1993434    0.1604231 -61.23 0.0009833167    1.182    0.154
       533  -8.4846     86.3699     63.3862   4.6235921619e+01   5.3713973200e+01    0.2917937    0.1316639  29.73 0.0009471131    3.283    0.695
       534  -8.5500    138.7173     65.9144   3.1737128284e+01   4.1406083009e+01    0.2904702    0.1949795 -51.78 0.0006727512    1.629    0.386
       535  -8.8761    137.4893     61.0064   3.0388744223e+01   4.2565832893e+01    0.2798962     0.218824  79.24  0.000707994    1.512    0.338
       536  -9.5098     73.2771     59.2514   4.9615184903e+01   5.7032942836e+01    0.3794163    0.2433933 -55.88  0.001078452    1.747    0.428
       537  -8.5710     40.0117     58.4746   6.3707674894e+01   6.2109361971e+01    0.1974529    0.1124995  -8.76 0.0008097026    2.704    0.630
       538  -9.8291     23.4145     56.0992   7.1001988620e+01   6.4293496233e+01    0.4693975    0.2798606  82.42  0.001955747    2.830    0.647
       539  -9.6146      7.4582     56.8596   7.9099768026e+01   6.5164140765e+01    0.3193627    0.1955404  85.10  0.001158546    1.982    0.495
       540  -8.4657    130.5109     57.1240   3.0736072251e+01   4.4951448363e+01    0.2269506    0.1499823 -35.51 0.0005128359    1.510    0.338
       541  -8.3917    139.9984     56.1795   2.8171116634e+01   4.2753296815e+01    0.2313337    0.1581109 -52.73 0.0006053866    1.617    0.381
       542  -8.7869    119.3736     55.7128   3.3104348869e+01   4.7901233034e+01     0.309785    0.2354199 -69.87 0.0007489887    1.704    0.413
       543  -8.8957     43.9917     55.1705   6.0755246135e+01   6.2381859165e+01     0.322984    0.1919552 -65.16  0.001207516    1.974    0.493
       544  -9.0139     62.9286     54.6264   5.2101424727e+01   5.9770866783e+01    0.2737773    0.1992138 -53.22  0.000641357    1.425    0.298
       545  -8.7849     54.1064     53.7377   5.5609141342e+01   6.1324575789e+01    0.3114094    0.1962441 -64.94 0.0009518001    2.063    0.515
       546  -9.5378    250.0181     54.3401   1.1371750016e+01   1.7329784498e+01    0.1767815    0.1544315 -48.95  0.001168029    1.071    0.067
       547  -8.6385    105.8204     53.0957   3.5996489783e+01   5.1540364712e+01    0.2344491     0.202173 -67.53 0.0006776821    1.368    0.269
       548  -9.3179     92.4745     50.4341   3.9215049169e+01   5.4980591110e+01    0.3720884    0.2430306 -51.21  0.001255135    1.750    0.429
       549  -8.6855     76.3234     50.8774   4.5221505368e+01   5.8166376272e+01    0.4552585    0.1921464  26.86  0.001264547    4.978    0.799
       550  -8.9053    129.9783     49.4507   2.8139345483e+01   4.6348533341e+01    0.2457888    0.2005231 -32.34 0.0007321138    1.238    0.192
       551  -8.4947    144.6632     48.8560   2.4654181786e+01   4.2734965182e+01     0.221446    0.1288073 -41.98 0.0005700805    1.728    0.421
       552  -7.7581    163.6832     47.6686   2.0634400995e+01   3.8059433201e+01    0.1533125    0.1135098  25.08 0.0007046966    1.686    0.407
       553  -8.5562    120.6358     47.2217   2.9635764526e+01   4.9015940716e+01     0.207683    0.1440165 -20.93  0.000798321    1.593    0.372
       554  -8.3062    112.3178     46.8415   3.1716371037e+01   5.1090415026e+01    0.2332044    0.1765893 -51.82  0.000581263    1.473    0.321
       555  -8.6962     82.1038     46.4374   4.1243025264e+01   5.7871373127e+01    0.2644077    0.1950771 -51.37 0.0007210881    1.528    0.346
       556  -9.4500     11.9491     47.6520   7.4609794581e+01   6.7080452130e+01    0.3603441    0.1245692   7.24  0.001374944    3.989    0.749
       557  -8.4541     44.8800     44.5900   5.6432516238e+01   6.4557524494e+01    0.2227991    0.1536845 -52.10 0.0007331897    1.430    0.301
       558  -9.2896     16.7100     44.4570   7.1122278911e+01   6.7494862319e+01    0.2869804    0.1650322 -73.45 0.0009330679    1.955    0.488
       559  -8.7835    132.7161     42.9969   2.5165635945e+01   4.6652673985e+01    0.2122345     0.193812 -29.26 0.0002985056    1.116    0.104
       560  -8.9672     58.0879     42.2687   4.9263597032e+01   6.3061704121e+01    0.3095695     0.186989 -59.29  0.001176622    2.286    0.562
       561  -9.8731      5.0667     41.8030   7.6850786296e+01   6.8800438209e+01    0.3200062    0.1899015 -83.57  0.001630996    1.962    0.490
       562  -9.3115     69.5306     41.1217   4.3857320177e+01   6.1281749735e+01    0.3229113    0.2385136 -65.42 0.0009444161    1.973    0.493
       563  -8.7866    105.9012     41.1244   3.1274002430e+01   5.3532810714e+01    0.2279087    0.2002358 -65.78 0.0006696639    1.327    0.246
       564  -8.3237     37.0522     40.8043   5.8883058992e+01   6.6342315663e+01    0.1884869    0.1815542 -88.88 0.0006335739    1.320    0.242
       565  -7.9285    140.4923     40.5138   2.2605745513e+01   4.5028739015e+01    0.1472412    0.1440263  76.86 -0.0001300624    1.010    0.010
       566  -8.9574     95.5127     37.9608   3.3096345276e+01   5.6434604856e+01    0.2168071    0.1404696 -36.25 0.0005746084    1.556    0.357
       567  -8.8751     21.4461     37.4672   6.6140166956e+01   6.8666736995e+01    0.2948931    0.1101237  29.19  0.001277155    2.859    0.650
       568  -9.5659     26.1106     35.3095   6.2656848058e+01   6.8692405212e+01     0.317025     0.226818 -64.09 0.0008614221    1.581    0.368
       569  -8.4895    126.1649     35.7047   2.3927589342e+01   4.9360251283e+01    0.2292107    0.1845269 -84.71 0.0008940415    1.463    0.316
       570  -7.9650     80.5688     36.5030   3.7541680989e+01   5.9915550263e+01    0.1404825    0.1348961 -11.38 0.0001639069    1.091    0.084
       571  -8.4750    111.8138     34.7222   2.7047714198e+01   5.3074208144e+01    0.1977813    0.1716875 -69.07 0.0005623701    1.340    0.254
       572  -8.8795     73.4464     35.1544   3.9628130955e+01   6.1580197924e+01    0.2768814    0.0958736  43.91 0.0009810422    2.872    0.652
       573  -9.3067      8.9568     34.2952   7.2397426075e+01   7.0274260037e+01    0.3362282   0.08994985  22.27  0.001332155    3.824    0.738
       574  -8.4614    119.3966     33.2107   2.4539663359e+01   5.1409047961e+01    0.2064611    0.1313704 -41.40 0.0004805699    1.647    0.393
       575  -8.7757     60.8157     32.3806   4.3596772305e+01   6.4417977346e+01    0.2246166      0.18034 -43.04 0.0006337403    1.330    0.248
       576  -8.7036     48.5967     33.1126   4.9665499919e+01   6.6297629869e+01    0.2070228    0.1878849  37.61  0.000671048    1.298    0.229
       577  -8.6285     72.2526     31.1627   3.8243961603e+01   6.2473106377e+01    0.1874308    0.1637454 -54.45 0.0006612211    1.397    0.284
       578  -9.3454     12.8908     29.9114   6.8455478580e+01   7.0963218751e+01    0.3271884    0.1745348 -71.21  0.001568062    2.360    0.576
       579  -8.1513    101.5276     29.4787   2.7651176640e+01   5.6292344727e+01    0.1427949    0.1376807  29.48 6.574755e-05    1.041    0.039
       580  -8.8954     81.4305     27.3939   3.3047628548e+01   6.1152542663e+01    0.2925362    0.2109338 -71.29  0.001042833    2.307    0.566
       581  -9.1965      3.8269     27.6847   7.3433310413e+01   7.1997864405e+01    0.2105215    0.1491775  82.61  0.001071368    2.029    0.507
       582  -8.4239     91.8344     26.1461   2.9037430486e+01   5.9014783938e+01    0.2105435    0.1889864 -57.63 0.0005135009    1.313    0.238
       583  -8.0889     64.2233     26.5942   3.9307421597e+01   6.4755118346e+01    0.1950318    0.1218983  32.96 0.0009509115    1.613    0.380
       584  -8.7417     75.6022     25.6119   3.4297556390e+01   6.2646469897e+01    0.2871476   0.09971292  38.69 0.0009558703    3.336    0.700
       585  -8.1620    104.4938     22.9993   2.4025068287e+01   5.6427230125e+01     0.213724    0.1399253 -27.58 0.0006548497    1.575    0.365
       586  -8.4734    120.8543     21.7878   1.9640083186e+01   5.2488296373e+01    0.1946898    0.1657114 -65.59 0.0004241117    1.312    0.238
       587  -8.7094     48.3971     21.3487   4.3903018538e+01   6.8382487519e+01    0.2386379    0.1862324 -45.30 0.0008000201    1.476    0.323
       588  -8.1572     34.3018     22.6610   5.2191092745e+01   7.0232389324e+01    0.1163126    0.1052363 -82.37 0.0007037548    1.669    0.401
       589  -8.8646     63.7564     20.8903   3.6594535386e+01   6.5712376426e+01    0.2375104    0.1794901 -45.38 0.0008176949    1.562    0.360
       590  -8.8977     16.0053     22.0000   6.3195898339e+01   7.2345504303e+01    0.1860263   0.06829369  22.02  0.000804542    2.957    0.662
       591  -8.8069     74.0789     19.4152   3.1772036814e+01   6.3835145028e+01    0.2500729    0.1813022 -43.72 0.0006276091    1.598    0.374
       592  -8.3732     38.5445     18.6604   4.7663622047e+01   7.0344539455e+01    0.2133468    0.1155915  34.28  0.001068202    1.891    0.471
       593  -7.8805     30.2352     15.9596   5.1025131447e+01   7.1939188331e+01    0.1610873   0.09517844 -40.45 0.0004622427    1.555    0.357
       594  -8.9579    134.6755    250.3179   7.0412818622e+01   6.7685962967e+00    0.2252765    0.1301847  37.00  0.001392483    1.326    0.246
       595  -8.5859     77.5745     12.7233   2.7092004260e+01   6.3920234457e+01    0.2455821    0.1149686  55.35  0.001033106    2.076    0.518
       596  -9.0314    152.8222    249.5854   6.6886512122e+01   4.4202449076e+00    0.1824854   0.09031688  33.78 0.0005727632    1.556    0.357
       597  -9.0810    156.4415    247.9464   6.6009163784e+01   4.1523354934e+00    0.1870602    0.1724767 -42.18 0.0006706578    1.452    0.311
       598  -8.8839    159.0272    244.4546   6.5093137311e+01   4.2744692249e+00    0.2172485    0.1344828  21.84 0.0006642346    1.455    0.312
       599  -8.1653     53.4452     14.6908   3.7785949713e+01   6.8528072199e+01    0.2229828    0.1140541  43.47 0.0009087857    1.933    0.483
       600  -9.2897    159.9660    239.9669   6.4348901577e+01   4.7638879754e+00    0.2836184    0.2206962 -84.95  0.001770692    2.379    0.580
       601  -8.3434     17.2931     14.2955   5.8542545630e+01   7.3703011437e+01    0.1272286   0.07813669 -22.39 0.0002231493    1.559    0.359
       602  -8.9075    113.0963    248.6066   7.4388069402e+01   9.9086021327e+00    0.1759536    0.1476557  77.03  0.001122736    1.442    0.306
       603  -9.8753    104.1082    246.9504   7.5975974220e+01   1.1349620415e+01    0.4014075    0.2411164  82.05  0.002238806    2.670    0.625
       604  -9.6648     64.5581    248.2642   8.3714509452e+01   1.6067667581e+01    0.2528791    0.1506624  43.62 0.0006384845    1.256    0.204
       605  -9.1881     67.6125    244.7960   8.2893626070e+01   1.6286770736e+01    0.2477232    0.1263478  89.14  0.001373597    2.582    0.613
       606  -9.4599     51.6636    249.0998   8.6199381643e+01   1.7404080872e+01    0.1980808    0.1272157  37.21 0.0005105509    1.323    0.244
       607  -9.0876    203.3797    247.9832   5.7464625678e+01  -2.0547715108e+00    0.2597287    0.1209932  21.95  0.001197696    1.978    0.495
