#   1 NUMBER                 Running object number                                     
#   2 MAG_AUTO               Kron-like elliptical aperture magnitude                    [mag]
#   3 X_IMAGE                Object position along x                                    [pixel]
#   4 Y_IMAGE                Object position along y                                    [pixel]
#   5 X_WORLD                Barycenter position along world x axis                     [deg]
#   6 Y_WORLD                Barycenter position along world y axis                     [deg]
#   7 A_WORLD                Profile RMS along major axis (world units)                 [deg]
#   8 B_WORLD                Profile RMS along minor axis (world units)                 [deg]
#   9 THETA_WORLD            Position angle (CCW/world-x)                               [deg]
#  10 FWHM_WORLD             FWHM assuming a gaussian core                              [deg]
#  11 ELONGATION             A_IMAGE/B_IMAGE                                           
#  12 ELLIPTICITY            1 - B_IMAGE/A_IMAGE                                       
         1 -13.4950    218.3650     48.0387   3.5329218801e+02   2.7418396684e+01    0.7699595    0.6589583  28.73  0.001299547    1.797    0.444
         2 -12.2770    247.1444     29.5956   3.4759902632e+02   2.4705614883e+01    0.6223338    0.3471167 -72.11  0.004170484    1.727    0.421
         3 -12.0896    247.8602     22.5505   3.4621409691e+02   2.5372500276e+01    0.5169147    0.3500296 -86.64  0.003920623    1.537    0.349
         4  -9.7902    227.3171      9.6367   3.4462869616e+02   3.0248038014e+01     0.196037    0.1480858 -53.77 0.0007062632    1.093    0.085
         5  -9.8900      2.1807      2.3954   3.8109018736e+01   7.9463822793e+01     0.184187    0.1424082 -44.77  0.001078846    1.420    0.296
         6 -11.2552     43.5541    239.3313   6.5280037173e+01   1.7360615914e+01    0.2841689    0.1866225  49.21  0.001071624    1.343    0.256
         7 -11.2893    139.4600    249.0676   4.4625816100e+01   5.3821436804e+00    0.3137068    0.2511003  89.61  0.002003174    2.239    0.553
         8  -9.5740    101.0739    250.2977   5.2956200483e+01   9.2945791055e+00    0.1776596    0.1386967   5.82 0.0009727688    1.203    0.169
         9  -9.4171     37.6640    249.8176   6.7253515280e+01   1.5855814717e+01    0.1465325    0.1404658  38.46  0.001082379    1.199    0.166
        10 -16.0537     16.9241    156.4600   6.6811628076e+01   3.9724651163e+01     12.04573     5.036516  71.95    0.0435393    2.872    0.652
        11  -9.1255     53.5951    230.0565   6.2225808185e+01   1.8255406849e+01    0.2576691    0.1501781 -79.37   0.00100892    2.019    0.505
        12 -11.9582     86.4755    222.9309   5.3521523254e+01   1.6100549127e+01     1.108816     0.319307  33.98   0.00427308    2.715    0.632
        13  -9.1490     41.9011    229.5646   6.5050032846e+01   1.9536960005e+01    0.2318366    0.1550012 -39.69  0.001285307    1.918    0.479
        14 -12.9409    110.1748    229.0989   4.8609982856e+01   1.2109311602e+01    0.9315728    0.4786369  26.57  0.004727033    1.681    0.405
        15  -9.4552     59.1723    231.2226   6.0958049964e+01   1.7432489249e+01    0.2136689     0.171408 -84.39  0.001170763    1.429    0.300
        16  -9.6360     72.1218    224.2653   5.7177328165e+01   1.7468024632e+01     0.182029    0.1698473 -15.43 0.0003156463    1.187    0.158
        17 -13.2158     46.5910    172.4277   5.8878956928e+01   3.2582358635e+01     3.293557     0.838197  34.19   0.01088613    3.073    0.675
        18  -9.7288    174.6200    223.2459   3.4175593471e+01   5.6563704975e+00    0.1643468   0.09465618 -32.12 0.0009467655    1.618    0.382
        19  -9.4992    101.2828    222.3269   4.9887367975e+01   1.4469460071e+01    0.1292778   0.09270916 -17.20 0.0001795557    1.602    0.376
        20 -14.7715     13.9837    241.6135   7.2285094849e+01   1.9579103537e+01     1.074708     0.952154  -8.78  0.007634446    1.418    0.295
        21 -13.5946    125.1497    229.6805   4.5304275330e+01   1.0247945092e+01     1.687097    0.4496441  29.87  0.006447236    3.115    0.679
        22 -10.3306     47.0515    229.2302   6.3766376980e+01   1.9095625108e+01    0.2151492    0.1705506  57.13 0.0007760511    1.201    0.168
        23  -8.9866    132.4414    211.5083   4.1234220230e+01   1.2720383787e+01    0.1293217    0.1132749   3.10 -0.0001768666    1.009    0.009
        24  -9.9114     95.7577    209.6237   4.9695219909e+01   1.7745928420e+01     0.262211    0.1924996 -81.26   0.00141347    1.751    0.429
        25  -9.5129    210.9236    198.8932   2.3915272579e+01   5.3955709722e+00    0.1747306    0.1346781 -17.30  0.000479661    1.007    0.007
        26 -10.0778    191.7157    192.7157   2.6198726875e+01   8.5939832157e+00    0.3710191    0.2062905 -64.59  0.001184859    7.117    0.859
        27  -8.5758     73.2175    191.9002   5.3413672997e+01   2.4553255222e+01    0.1681845    0.1161625 -70.85 0.0006094704    1.581    0.368
        28  -8.9202    234.3213    191.0470   1.9011131716e+01   4.0361037029e+00    0.1559017    0.1085914 -29.11 0.0004491244    1.122    0.109
        29 -10.5308     64.9120    185.4211   5.4958417372e+01   2.7142227326e+01    0.4895972    0.2666796  83.13  0.001937564    2.697    0.629
        30 -11.1258    116.5477    183.3385   4.0724617885e+01   2.0622529144e+01     0.271303    0.2301242  31.39  0.001532238    1.146    0.127
        31  -9.4776     94.4557    183.0621   4.6427820629e+01   2.3824172542e+01    0.3197716    0.2218577  49.23  0.001142034    1.522    0.343
        32 -10.5110    172.2679    174.2246   2.6632740304e+01   1.4365641746e+01    0.3464985    0.2660125  11.93  0.001848375    1.349    0.259
        33 -10.5231    176.5986    170.2148   2.5057693746e+01   1.4482529406e+01    0.2710156    0.2127291 -41.66  0.001542556    1.221    0.181
        34 -10.4341    172.9668    169.9657   2.5716153249e+01   1.5049390867e+01    0.2736408     0.233407  84.48  0.001262694    1.793    0.442
        35 -10.5727    105.1740    172.0036   4.1802775533e+01   2.4851121261e+01    0.2649057    0.2094125  30.14   0.00082925    1.229    0.186
        36 -11.0969     90.3151    168.8821   4.5383447855e+01   2.7791863474e+01    0.7662493    0.4124399  21.32  0.002678639    2.088    0.521
        37 -11.0045    179.2000    165.7353   2.3730283774e+01   1.4922272823e+01    0.5285976    0.4135929 -72.99  0.002944762    1.956    0.489
        38 -10.3741    110.4373    166.9612   3.9535425523e+01   2.5220380892e+01    0.2716126    0.2517586 -50.19 0.0003853059    1.100    0.091
        39 -11.6965     45.9955    140.8718   5.5058631108e+01   4.1126274210e+01     1.217829    0.3013783  42.04  0.003031117    3.881    0.742
        40 -11.9800     52.3991    114.8518   4.8171764358e+01   4.7443939959e+01    0.8826336    0.2959737 -61.54 0.0003417183    2.795    0.642
        41 -13.3817     56.6680    126.7222   4.8874160189e+01   4.3632882300e+01     1.699364     1.087575  70.49   0.00493218    1.995    0.499
        42 -11.4530     76.2130    150.0399   4.6450912902e+01   3.4611672521e+01    0.5919408     0.362319 -52.46 0.0004362813    1.631    0.387
        43 -14.0402     65.8838    144.6544   4.8859280569e+01   3.7515890012e+01     1.647989     1.285461  61.00  0.002397586    1.358    0.264
        44 -10.7509     84.9319    162.9254   4.5970124830e+01   3.0047143779e+01    0.5778758    0.2588288  47.91  0.002109508    2.530    0.605
        45 -13.1696     18.9271    234.1969   7.0837411314e+01   2.0682194665e+01    0.4037606    0.2981431 -87.75  0.000601555    1.455    0.313
        46 -14.6264      5.3149    228.4677   7.3847131888e+01   2.3017579683e+01    0.6768938    0.5044357  56.74  0.002772378    1.126    0.112
        47 -11.4383     66.9867    156.9552   5.0483982398e+01   3.4113536833e+01    0.4324841    0.3690864 -23.51  0.001452861    1.326    0.246
        48 -10.8809    133.1898    142.9922   2.9060340624e+01   2.6891099118e+01    0.8125954      0.20589 -53.66  0.002118276    5.018    0.801
        49 -10.5956    108.8760    145.3614   3.5875210883e+01   3.0557449599e+01    0.2906513    0.2674225  47.95 0.0006564806    1.115    0.103
        50  -9.7447    100.9277    143.9007   3.7827088528e+01   3.2252129470e+01      0.21828    0.2142458 -43.65 0.0002986205    1.015    0.014
        51 -10.1642     36.7418    142.6340   5.8570400913e+01   4.1680325579e+01    0.3006604     0.242988 -83.99 0.0007809008    1.209    0.173
        52 -11.4097    124.2049    132.5228   2.9033958282e+01   3.0834274298e+01     1.050603    0.5554492 -74.01  0.002837598    5.480    0.818
        53 -16.6258      5.8428    216.5154   7.3306349514e+01   2.5595349860e+01     3.096923     2.596093  44.78   0.01316731    1.060    0.056
        54 -14.8186      9.9568    206.4057   7.1852684712e+01   2.7588401018e+01    0.9837844    0.6055247   1.66  0.003017691    2.036    0.509
        55 -10.8440     99.6095    133.4809   3.6044206884e+01   3.5031460972e+01    0.5729269     0.373275   1.35  0.002202473    2.580    0.612
        56 -10.2064    105.6477    130.6437   3.3662100119e+01   3.4649777893e+01    0.3677225    0.3467382  85.13  0.001099823    1.108    0.097
        57  -9.5460     32.5694    133.5981   5.8897260055e+01   4.4623387319e+01    0.3647507    0.1756211  57.35   0.00122771    2.461    0.594
        58 -11.5603     86.2680    131.8388   3.9786140930e+01   3.7726295875e+01    0.2971237    0.2851561 -38.14  0.000415322    1.069    0.065
        59 -10.8675     44.0118    131.4701   5.4343125420e+01   4.3954517912e+01    0.3993246    0.2281623 -72.44   0.00140393    1.755    0.430
        60 -10.4033    222.0070    128.6603   9.6192441417e+00   1.4984680474e+01    0.5816275    0.1822327 -49.96  0.002030011    4.286    0.767
        61  -9.3722    219.0026    121.9762   8.7104071713e+00   1.6480477475e+01    0.1840144    0.1365095 -49.59 0.0003933692    1.252    0.202
        62 -10.5603     41.4748    147.0123   5.7486957881e+01   3.9960046803e+01    0.2739988    0.2615721  28.10 0.0004228387    1.097    0.088
        63  -9.8342     34.1533    128.0611   5.7529400942e+01   4.6004634907e+01    0.2375593    0.2118188  34.68 0.0004133397    1.146    0.127
        64  -9.7089    109.4754    126.0749   3.1538032336e+01   3.5041011591e+01    0.2806084    0.2183039  14.15 0.0009007126    1.574    0.365
        65 -11.5652     83.8652    144.4862   4.3056505079e+01   3.4880594497e+01    0.7342039    0.4870995 -28.58  0.002902517    1.943    0.485
        66 -12.5448     62.0137    161.5401   5.2722675379e+01   3.3571799846e+01    0.7432274    0.6258382  89.23  0.003917526    1.231    0.188
        67  -9.4675    141.9159    163.7508   3.1147875305e+01   2.0981148711e+01    0.2593578    0.1951955 -57.27 0.0006958671    1.448    0.309
        68 -10.4954    102.7922    239.1238   5.1422866667e+01   1.1097973843e+01    0.2250479    0.1951486 -38.15 0.0006940484    1.298    0.229
        69  -9.5566    114.9210    121.1656   2.8874998970e+01   3.5165094728e+01    0.2418482    0.2098748  80.99   0.00123282    1.300    0.231
        70  -9.8514     96.5427    121.0275   3.4169279354e+01   3.8634589243e+01    0.2726975    0.2166954  14.43 0.0006277095    1.504    0.335
        71  -9.4487     36.4333    117.7535   5.5029838388e+01   4.8630270256e+01    0.2134966    0.1305201 -56.40 0.0003815305    1.556    0.357
        72  -9.2857    106.2075    116.0496   3.0090237266e+01   3.8022059180e+01    0.2196227    0.2006391 -27.45 0.0003944786    1.169    0.145
        73  -9.8647    243.4727    114.4940   4.2733786195e+00   1.4099171184e+01    0.1164793   0.08664352 -39.77 -1.78597e-06    1.016    0.016
        74 -11.5001     53.8093    236.3270   6.2639763568e+01   1.6946077880e+01    0.3800487    0.3044205 -39.81  0.001127211    1.514    0.340
        75 -10.1407     46.7210    110.7215   4.9584214060e+01   4.9325835175e+01    0.2629824    0.2369662  59.64 0.0003117228    1.133    0.118
        76 -11.2039     37.5839    104.7790   5.2196490224e+01   5.2076531897e+01    0.3129567    0.2798809  66.55  0.000488133    1.156    0.135
        77 -11.1386     23.6402    104.7697   5.8263172117e+01   5.3528328673e+01    0.4604149    0.3256805  48.38  0.001567543    1.482    0.325
        78  -9.4702    134.0000    103.9718   1.9734359357e+01   3.5145179448e+01    0.2533268   0.08089515 -44.86  0.000523173    2.975    0.664
        79 -10.6949     32.8660    109.6578   5.5110026660e+01   5.1262598372e+01     0.391217    0.1880861 -61.23   0.00156747    1.897    0.473
        80  -9.5194     69.3892    102.1744   3.8754088329e+01   4.8172677714e+01    0.2584563    0.2292597  62.31 0.0003600883    1.174    0.148
        81  -8.7650     66.6796     99.7287   3.9153875349e+01   4.9250547908e+01    0.2149211    0.1790225  70.75 0.0003112426    1.336    0.251
        82 -10.7479     29.2350     99.5131   5.4844769824e+01   5.4433537639e+01    0.2792321    0.2447088  52.05 0.0004706173    1.185    0.156
        83  -9.8881    242.5217     94.4704   5.5593641511e-01   1.7100537212e+01    0.1163929   0.08669667 -43.06  0.000130131    1.001    0.001
        84 -10.2491     46.3556     91.6456   4.5454315577e+01   5.4466020061e+01    0.3295636    0.2302759  50.89 0.0009151264    1.559    0.359
        85  -9.1335    162.4352     88.4869   9.9198183305e+00   3.2244593371e+01    0.1409659    0.1237759 -56.99 0.0001028743    1.026    0.026
        86  -9.5738    101.9941     77.1512   2.0488753915e+01   4.7536251970e+01    0.2339361    0.1928743 -88.15 0.0006726004    1.370    0.270
        87  -9.2610     38.4716     76.1672   4.5021763851e+01   5.9496192240e+01    0.2908904    0.1427481  46.92 0.0009839326    2.370    0.578
        88 -11.9303    195.5426     63.0286   3.5890003649e+02   2.9665220274e+01     0.429038    0.3460879  68.87  0.001165953    1.401    0.286
        89 -12.8970    208.0691     55.4290   3.5583928038e+02   2.8337344675e+01    0.8460948    0.6502594 -48.95  0.003232845    1.064    0.060
        90  -9.5437    114.3981    247.7385   4.9774083421e+01   8.2950834015e+00    0.1924221    0.1214391 -62.16  0.001123189    2.067    0.516
        91 -11.0742     13.4630     60.2075   5.4395103639e+01   6.6191172375e+01     0.252683    0.2355407 -37.17 0.0005793062    1.012    0.012
        92 -11.5316      7.8363     60.1324   5.7849288543e+01   6.6629110348e+01    0.3097839    0.2357269  55.96  0.001682723    1.534    0.348
        93  -9.0288     52.2463     55.2079   3.1247422863e+01   6.2200015782e+01    0.1877158    0.1653354  70.71 0.0003189702    1.307    0.235
        94 -10.1880     23.6663     47.9182   4.4146252219e+01   6.8079005999e+01    0.2781692    0.1617747  42.84 0.0008308163    1.911    0.477
        95  -9.0507     44.6505    248.2382   6.5570661554e+01   1.5498555675e+01    0.1463704    0.1059075 -58.17 0.0005286571    1.673    0.402
        96 -11.0678    125.0224    244.0096   4.7062249960e+01   7.7662054406e+00    0.2241183    0.1636105 -46.83  0.001085309    1.561    0.359
        97 -10.5875      2.3426     23.2315   5.0129206914e+01   7.5519988637e+01    0.3406141    0.1036525 -59.27  0.001352065    3.048    0.672
        98  -9.6341     60.7673     21.3173   1.2023297041e+01   6.6339057557e+01    0.2215699    0.1933269  74.66   0.00081001    1.219    0.180
        99  -9.8805    108.3688    240.0956   5.0271877272e+01   1.0296894332e+01    0.2382571    0.1183563 -57.38  0.001220571    2.361    0.576
