#   1 NUMBER                 Running object number                                     
#   2 MAG_AUTO               Kron-like elliptical aperture magnitude                    [mag]
#   3 X_IMAGE                Object position along x                                    [pixel]
#   4 Y_IMAGE                Object position along y                                    [pixel]
#   5 X_WORLD                Barycenter position along world x axis                     [deg]
#   6 Y_WORLD                Barycenter position along world y axis                     [deg]
#   7 A_WORLD                Profile RMS along major axis (world units)                 [deg]
#   8 B_WORLD                Profile RMS along minor axis (world units)                 [deg]
#   9 THETA_WORLD            Position angle (CCW/world-x)                               [deg]
#  10 FWHM_WORLD             FWHM assuming a gaussian core                              [deg]
#  11 ELONGATION             A_IMAGE/B_IMAGE                                           
#  12 ELLIPTICITY            1 - B_IMAGE/A_IMAGE                                       
         1 -14.9600    165.8465     43.2542   7.6007734784e+01   3.8668213864e+01     1.265068     1.117538  -0.54  0.004133604    1.363    0.266
         2 -14.9214    180.8922     10.7665   6.4805416789e+01   3.8822286489e+01     1.309051    0.9883825  89.29  0.005209722    1.217    0.178
         3  -9.6385    160.2923    244.3141   1.2267557875e+02   7.6929153282e-01    0.1219829   0.09602036  12.82 0.0003181777    1.594    0.373
         4 -15.3661    100.3602    244.1294   1.3414677807e+02   1.0928567986e+01    0.8669813     0.691054 -59.36  0.005618264    1.526    0.345
         5 -20.0381     63.1484    174.9680   1.3345249105e+02   3.1412733715e+01     18.12007      6.82207 -66.43   0.07377648    2.444    0.591
         6 -10.9242    112.2066    196.9364   1.2557089796e+02   1.8591847644e+01    0.3626461    0.2310978  24.35  0.001606822    2.328    0.570
         7 -10.1606    103.9126    194.3554   1.2701254675e+02   2.0610661425e+01    0.3899348    0.2386684  21.68  0.001619438    2.806    0.644
         8 -11.4693    152.8827    192.9062   1.1591642641e+02   1.1804037721e+01    0.3332141    0.2659297  76.80  0.001088268    1.422    0.297
         9 -12.0715    162.3207    188.3535   1.1301120843e+02   1.0873208521e+01    0.2854047    0.2323458 -27.26  0.001075422    1.453    0.312
        10 -12.3967    165.4656    187.5065   1.1216606975e+02   1.0415680134e+01    0.5565622    0.2256806 -47.47  0.002059313    2.596    0.615
        11 -11.7239    153.0283    185.9057   1.1459093638e+02   1.3250004801e+01    0.3177667    0.2473136 -69.00  0.001043858    1.436    0.304
        12 -10.3601    138.6638    243.7133   1.2677699655e+02   4.6223720720e+00    0.1512188    0.1177117 -75.33 0.0004195997    1.501    0.334
        13 -10.4420    150.4375    180.2376   1.1409122564e+02   1.4988454699e+01    0.2028624    0.1437595 -64.72 0.0005836975    1.581    0.368
        14 -13.3600    193.5102    166.2832   1.0184743086e+02   8.9491637986e+00     1.189634    0.5276451 -55.93  0.001772113    3.292    0.696
        15 -11.7535    190.2072    155.9212   1.0027063857e+02   1.1759564884e+01    0.5564768    0.4935755 -62.43  0.002213506    1.191    0.160
        16 -13.1190    204.5670    176.4977   1.0175182987e+02   4.6782272331e+00    0.5378109     0.512639  79.15  0.002221043    1.184    0.155
        17 -12.9850    203.4433    166.0384   9.9765542702e+01   6.9251788406e+00    0.6595565     0.522989 -22.16  0.002103612    1.373    0.272
        18 -12.7094    143.2863    174.6429   1.1463375812e+02   1.7661365664e+01    0.7646504    0.4919918  19.70  0.002571556    2.506    0.601
        19 -14.2941    134.5032    169.3555   1.1564150391e+02   2.0613052373e+01     1.343498    0.5966642  50.94  0.004936231    2.361    0.576
        20 -12.3026    126.6154    172.7732   1.1815216694e+02   2.1378416867e+01    0.5302858    0.3371523  63.51  0.001805923    1.814    0.449
        21 -11.2011     11.0502    174.4716   1.4485613840e+02   3.7339314107e+01    0.1917896     0.124475 -68.69 0.0004264361    1.328    0.247
        22 -11.3859     12.9335    241.9253   1.4929487245e+02   2.3096099577e+01    0.3107886    0.1565581 -66.72  0.001961231    2.043    0.511
        23 -11.9460    177.0147    169.7701   1.0608954822e+02   1.1712987268e+01    0.2831124    0.2193373 -45.46   0.00139168    1.319    0.242
        24 -10.2872    151.1397    242.5470   1.2419997089e+02   2.6611953981e+00    0.1648066    0.1095436  31.94  0.000474359    1.550    0.355
        25 -11.3441    109.0598    240.3013   1.3206147091e+02   1.0240354286e+01    0.1761042    0.1719433 -67.75 0.0005333762    1.365    0.268
        26 -11.1496     21.8729    238.5129   1.4763531389e+02   2.2769576417e+01    0.1676841    0.1202657 -74.78 0.0007428761    1.460    0.315
        27 -10.8046     24.6465    165.2356   1.4102147102e+02   3.8169790774e+01    0.1853563    0.1776895  64.10 0.0008227235    1.336    0.252
        28 -10.5550    136.9296    179.3865   1.1699750278e+02   1.7871152410e+01    0.2089568    0.1770109  48.21 0.0003711659    1.145    0.127
        29 -10.5650     13.4221    163.1125   1.4328899574e+02   3.9684267562e+01    0.1674214    0.1269411 -81.97 0.0004658603    1.027    0.026
        30 -10.0515    131.1433    236.4124   1.2727685955e+02   7.2350381023e+00     0.112678   0.08783163 -42.66 0.0006425754    1.645    0.392
        31 -10.9038      7.4659    236.6161   1.4987280016e+02   2.4687654234e+01    0.1165024   0.09164603  54.45 0.0005941546    1.452    0.311
        32 -11.5057     13.5134    233.4122   1.4870244825e+02   2.4676771035e+01    0.1882347   0.08421843 -76.31  0.001100659    1.874    0.466
        33 -10.3988    149.9042    229.7487   1.2260310079e+02   5.1420566062e+00    0.2335467     0.181066 -34.60  0.001324326    1.637    0.389
        34 -11.3002    174.2200    148.5186   1.0204360261e+02   1.6825013052e+01     0.434885    0.2915441 -64.49  0.001746563    1.838    0.456
        35 -11.8187    152.8100    139.3946   1.0483052726e+02   2.3577728427e+01    0.3166436    0.2494796 -82.77  0.001200477    1.522    0.343
        36 -10.6878     22.2332    138.1237   1.3836056616e+02   4.4655826138e+01    0.1776644    0.1613443 -34.18 0.0005165297    1.378    0.274
        37 -11.2216      5.3084    137.4263   1.4245966861e+02   4.6141249277e+01    0.2504764    0.1723831 -50.13  0.001639348    1.494    0.331
        38 -10.5207     16.5561    226.6274   1.4776739024e+02   2.5695289194e+01    0.1075225   0.08285239  83.06 0.0002855147    1.147    0.128
        39 -12.1153    160.5065    127.9645   1.0027936237e+02   2.4377653114e+01     0.446643    0.3358155 -57.41  0.001924551    1.381    0.276
        40 -10.9584    110.7673    211.7750   1.2806164520e+02   1.5643528932e+01    0.1786462    0.1356522  78.61 0.0003533238    1.305    0.234
        41 -13.8197     11.8527    205.8684   1.4718805878e+02   3.0446071407e+01    0.4442368    0.3582609  22.62  0.002870621    1.951    0.487
        42 -12.9248    106.1245    204.6842   1.2804581499e+02   1.7955576629e+01    0.3993198    0.3284965 -80.27  0.001209166    1.185    0.156
        43 -10.7023    167.9550    112.9571   9.4803107092e+01   2.5847488429e+01    0.3910765    0.2594613 -82.98  0.001477742    2.417    0.586
        44 -11.7377    169.0264    201.5401   1.1401383289e+02   6.8967944206e+00    0.2615058    0.2047987 -71.39  0.001007324    1.562    0.360
        45 -10.7819    205.3826    110.2517   8.6480241049e+01   1.7524420688e+01    0.3132579    0.2127009  49.45 0.0008964188    1.534    0.348
        46 -10.4999    153.2360    200.5820   1.1720637575e+02   1.0153906890e+01     0.248891    0.1972825 -56.96 0.0008311711    1.359    0.264
        47 -11.4710      7.6575    102.0359   1.3711701610e+02   5.3890674977e+01      0.24326    0.2227795  69.40  0.001526293    1.317    0.241
        48 -10.3830    138.7449    200.3674   1.2030391440e+02   1.2975287043e+01    0.2204299    0.1820149  64.25 0.0006578797    1.163    0.140
        49 -10.4906    145.5028     81.4462   9.1383029007e+01   3.7424637206e+01    0.1503671    0.1467672  56.42 0.0001046475    1.012    0.012
        50 -10.6352     98.6316     80.8334   1.0370686681e+02   4.7492239723e+01    0.2318445    0.1877296  29.51 0.0007352839    1.281    0.219
        51 -10.5734    141.5635    198.7360   1.1941480347e+02   1.2781101169e+01    0.2628714    0.2053752  73.45 0.0006980029    1.384    0.277
        52 -14.4885    154.1166     57.8585   8.2542203465e+01   3.9407723822e+01     1.289367     1.112751  55.36 0.0009774227    1.098    0.089
        53 -12.0705    125.1231    242.5945   1.2924834544e+02   7.1360580163e+00    0.4351929    0.1607773 -55.04  0.001870886    3.099    0.677
        54 -13.0313    170.1734     35.1568   7.2968352054e+01   3.8669944150e+01    0.3957978     0.351614  50.55 0.0008358301    1.155    0.134
        55 -11.0451     13.5707     59.9123   1.2664196564e+02   6.2244493679e+01    0.1753062    0.1607669   2.23 0.0004123575    1.312    0.238
        56 -10.9605    138.1382     31.4860   7.7814564206e+01   4.6881851876e+01    0.2834198    0.2031897  75.65   0.00147848    1.540    0.351
        57 -10.5268    138.8694    250.5777   1.2762720223e+02   3.4037720135e+00    0.1838505    0.1051714  40.79  0.000975369    1.512    0.339
