#   1 NUMBER                 Running object number                                     
#   2 MAG_AUTO               Kron-like elliptical aperture magnitude                    [mag]
#   3 X_IMAGE                Object position along x                                    [pixel]
#   4 Y_IMAGE                Object position along y                                    [pixel]
#   5 X_WORLD                Barycenter position along world x axis                     [deg]
#   6 Y_WORLD                Barycenter position along world y axis                     [deg]
#   7 A_WORLD                Profile RMS along major axis (world units)                 [deg]
#   8 B_WORLD                Profile RMS along minor axis (world units)                 [deg]
#   9 THETA_WORLD            Position angle (CCW/world-x)                               [deg]
#  10 FWHM_WORLD             FWHM assuming a gaussian core                              [deg]
#  11 ELONGATION             A_IMAGE/B_IMAGE                                           
#  12 ELLIPTICITY            1 - B_IMAGE/A_IMAGE                                       
         1 -18.3359    143.9326    105.2845   9.3242666968e+01   3.3224196568e+01     6.402916     3.811603 -58.31   0.02729669    2.244    0.554
         2 -14.3133     65.7623     40.5859   9.5836014900e+01   5.9797263468e+01     1.001974    0.6321595  -3.10  0.004724034    2.464    0.594
         3 -15.4841     10.3236      7.4825   1.0632992297e+02   7.1909364336e+01     1.301208    0.8315334 -16.57  0.008650573    1.650    0.394
         4 -12.8974     10.9335    229.4731   1.3520401762e+02   2.9643230695e+01    0.2294421    0.1213405  64.04  0.001910063    1.310    0.237
         5 -15.6450    160.9808    202.5853   1.0801010202e+02   1.4209445149e+01     1.808183    0.6278849  55.91  0.005887104    5.477    0.817
         6 -15.2914    122.9432    188.1160   1.1296887910e+02   2.2508069193e+01    0.8321196     0.493769  63.05  0.004693861    1.857    0.462
         7 -14.9872    160.0117    186.2503   1.0580885238e+02   1.6640535350e+01    0.6708554    0.4545088  57.39  0.003984952    1.510    0.338
         8 -16.8397    164.5804    177.2848   1.0354419518e+02   1.7137047481e+01     1.735482     1.231372  82.21  0.009216311    2.328    0.570
         9 -15.8764    147.9543    207.3864   1.1093032848e+02   1.5680344244e+01     1.304742    0.9453306  83.29  0.008342677    1.955    0.488
        10 -15.2527    130.1312    184.6096   1.1114579374e+02   2.1916277642e+01     1.207347    0.5316912  60.08  0.004958529    3.396    0.706
        11 -16.8533    131.1933    166.8295   1.0832692961e+02   2.4645288014e+01     1.810999     1.090176  31.06  0.009439581    1.928    0.481
        12 -16.4855    144.5337    187.0928   1.0879452356e+02   1.9156236991e+01     1.237097     1.035019 -16.00   0.00828502    1.591    0.371
        13 -16.4541    140.8303    175.4108   1.0776205838e+02   2.1593744378e+01      2.04227     1.149808 -24.69  0.008723011    3.820    0.738
        14 -13.7046    132.2234    177.8082   1.0978256432e+02   2.2660567758e+01    0.4926884    0.3831591  32.17  0.001892242    1.350    0.260
        15 -11.7732    121.4103    222.2404   1.1718600918e+02   1.7685011226e+01    0.1292704   0.09680236 -86.77  0.000645568    1.618    0.382
        16 -12.1894    130.0982    219.5735   1.1544284394e+02   1.6773586848e+01    0.1767352    0.1669453 -44.59  0.001455148    1.424    0.298
        17 -13.2602    110.6725    216.6330   1.1842893793e+02   2.0015675942e+01    0.3967068    0.1911981  37.17  0.002283186    2.014    0.504
        18 -17.1223     72.8805    197.1422   1.2317623035e+02   2.8117237480e+01     2.343283     1.432775  65.04   0.01596825    1.444    0.308
        19 -16.3072     94.9287    193.8071   1.1884955966e+02   2.5747717276e+01     1.574278    0.9009466 -89.37  0.008956649    2.355    0.575
        20 -13.3583    192.1466    207.4019   1.0334784317e+02   8.4086804597e+00    0.2583398    0.1963459 -56.13  0.001707571    2.004    0.501
        21 -11.2228    220.3300    206.3037   9.8541544618e+01   3.8441615489e+00    0.1217497   0.07149997  22.26 0.0004209018    1.653    0.395
        22 -12.8667    179.9804    203.7086   1.0487041845e+02   1.0890177676e+01    0.1756933     0.129631  41.30  0.001116352    1.078    0.072
        23 -14.1399    130.2992    199.1064   1.1301679319e+02   1.9662043280e+01    0.5195729    0.2257649 -54.55  0.002709439    2.832    0.647
        24 -13.2091    135.9702    210.0414   1.1334758600e+02   1.7198615326e+01    0.2413212    0.2056133  -8.32 0.0009626179    1.686    0.407
        25 -14.5777    172.8135    198.4374   1.0534065760e+02   1.2771922027e+01    0.4364651    0.2848588  47.05  0.002705291    1.284    0.221
        26 -13.7636    115.9072    197.0623   1.1537758258e+02   2.2184342735e+01     0.343198    0.2308605  26.98   0.00209614    1.919    0.479
        27 -14.4348    204.1107    193.5928   9.9180440585e+01   7.9778589590e+00    0.6400734    0.3622214 -54.80   0.00303061    3.631    0.725
        28 -13.9420    123.8781    194.7360   1.1363879924e+02   2.1326220085e+01    0.4386576    0.2242866  58.05  0.002332219    2.047    0.511
        29 -15.4325    192.6932    191.9879   1.0087607854e+02   1.0160065218e+01    0.6378387    0.4742272 -27.65  0.004150604    1.595    0.373
        30 -13.5607    113.1122    186.9642   1.1467122571e+02   2.4213834533e+01     0.385055    0.1648795 -50.67  0.001953829    2.769    0.639
        31 -13.4068      9.2561    186.7372   1.3364346945e+02   3.6562305250e+01    0.3227999    0.1693254  84.62  0.002360305    1.547    0.353
        32 -15.5869    181.1232    177.6981   1.0056228149e+02   1.4088189853e+01    0.7935023    0.4608483 -34.66   0.00431262    2.037    0.509
        33 -12.8134    105.1092    182.3335   1.1561941141e+02   2.6183940567e+01    0.1917026    0.1709191  40.15 0.0006192835    1.257    0.205
        34 -13.9263     96.4653    174.1573   1.1628930124e+02   2.8858679057e+01    0.4003511    0.2397497 -50.69  0.002357692    1.975    0.494
        35 -14.6885    108.2013    171.8862   1.1366333471e+02   2.7502930931e+01     0.468218    0.4253916 -80.42  0.002473735    1.178    0.151
        36 -13.3139    109.8967    209.6200   1.1784414665e+02   2.1155414218e+01    0.2274546    0.1920959  69.12  0.001718305    1.134    0.118
        37 -15.1885    192.2957    170.3398   9.7240792086e+01   1.3026526926e+01    0.6287191    0.4687467 -11.47   0.00373783    1.548    0.354
        38 -15.6665    203.2864    163.7104   9.4033791458e+01   1.1832400284e+01    0.8090962     0.563853  45.88  0.004634611    1.323    0.244
        39 -16.2185    185.1457    113.0204   8.6437825447e+01   2.2936336826e+01     1.981361     1.314835  17.15  0.009005639    1.893    0.472
        40 -17.3440    149.1549    130.9793   9.8000292427e+01   2.7551447279e+01      2.28064     1.645462  55.26   0.01203976    1.401    0.286
        41 -12.4262    123.2486    236.7596   1.1831501704e+02   1.5495227619e+01     0.252518    0.1694617  83.95  0.001796707    1.955    0.488
        42 -11.6108     91.4167    164.1933   1.1603638990e+02   3.1371968900e+01    0.1613322    0.1052414 -80.57 0.0007947974    1.705    0.414
        43 -13.7996    185.1022    132.6509   9.1022232541e+01   1.9899744498e+01    0.3483859    0.2633573  51.97  0.001865868    1.327    0.246
        44 -13.0170    201.8680    129.6629   8.7189791590e+01   1.6808118899e+01    0.2499844    0.1872527 -11.95  0.001327499    1.413    0.292
        45 -13.9715    115.0740    128.8689   1.0516535186e+02   3.4308887461e+01    0.4127689    0.3315313  79.38  0.002063654    1.397    0.284
        46 -12.9635    125.5945    132.5665   1.0349756705e+02   3.1739633126e+01     0.338984    0.2152184  32.40  0.001501163    1.781    0.439
        47 -13.6322    118.3645    142.8277   1.0701740340e+02   3.1097074658e+01     0.362461    0.2668914 -63.42  0.001093571    1.468    0.319
        48 -14.0455    215.6012    168.2200   9.2740689937e+01   8.9437794665e+00    0.4080601    0.3586155  77.05  0.002023149    1.694    0.410
        49 -13.8665    126.8001    208.9157   1.1481500890e+02   1.8763113557e+01    0.3690211    0.2238924  42.19  0.001487336    1.371    0.271
        50 -15.9795    106.6649    143.8682   1.0977152807e+02   3.2845205848e+01     1.025535    0.8376817 -83.77  0.006383496    1.281    0.220
        51 -11.7438    230.5917    115.7760   7.8970145348e+01   1.2584232889e+01    0.1955688    0.1222924 -35.14 0.0009547871    1.681    0.405
        52 -13.3222     35.1751    113.6396   1.2219277126e+02   4.8224477735e+01    0.3983795    0.2665479  73.14   0.00254428    1.523    0.343
        53 -14.2238     45.0005    111.3112   1.1935758649e+02   4.7737505323e+01    0.8936357    0.3666424 -61.17  0.004482901    2.057    0.514
        54 -13.2339    116.7403    137.7453   1.0646206254e+02   3.2327868531e+01    0.3652274    0.2811483   4.93  0.001966179    1.949    0.487
        55 -12.9804    100.7363    157.5041   1.1317491145e+02   3.1222205787e+01    0.2488632    0.1814052  61.72  0.001276197    1.302    0.232
        56 -14.8784    127.3541    152.6419   1.0679475243e+02   2.7761457951e+01    0.7485049    0.4363304 -37.74   0.00373857    2.196    0.545
        57 -11.5666     85.5348    108.5109   1.0833135299e+02   4.3189970236e+01    0.1275877    0.1190917 -71.00 6.945912e-05    1.029    0.028
        58 -13.0567    175.0059    105.5726   8.6602379574e+01   2.6392683347e+01    0.3007754    0.2432477 -55.21  0.001146754    1.475    0.322
        59 -15.1602    116.7259    153.3832   1.0916085920e+02   2.9432667627e+01     0.627997    0.5812103 -25.70  0.003569787    1.323    0.244
        60 -12.8421     20.3171     95.4454   1.2369987626e+02   5.3319347261e+01    0.4003195    0.2736778 -63.49  0.002729071    1.233    0.189
        61 -14.3109    162.0335    163.7481   1.0172412818e+02   1.9642247282e+01    0.5336683    0.2838959  35.83  0.002580291    1.860    0.462
        62 -13.3859    196.8206    150.7190   9.2642381199e+01   1.4852397754e+01    0.3500316    0.1645133  44.66  0.001577374    1.879    0.468
        63 -12.5103     56.8577     95.1672   1.1342641866e+02   4.9839694243e+01    0.1867393    0.1550373 -89.17 0.0005242784    1.206    0.171
        64 -14.0196     49.5781     83.7686   1.1326905759e+02   5.3092499237e+01     0.568125    0.3740269 -60.89  0.002831977    1.302    0.232
        65 -14.4120    142.0688    146.5995   1.0262295335e+02   2.6179269281e+01    0.5635756    0.4445204  36.17  0.003283451    1.237    0.191
        66 -13.9282    105.5335     85.0249   9.7499668631e+01   4.4656427638e+01    0.5947523    0.3995433  68.15  0.002772491    2.106    0.525
        67 -14.5908    104.2304     75.0408   9.5062099122e+01   4.6847597637e+01    0.5737348    0.5724394  81.05   0.00309404    1.067    0.063
        68 -14.5143     95.5383     74.4133   9.7323008775e+01   4.8528861727e+01    0.6142552    0.4956135 -82.71  0.003328787    1.593    0.372
        69 -14.2553    104.8944     69.0753   9.3097910421e+01   4.7866459640e+01    0.6356629    0.5189456 -89.58  0.002758695    1.646    0.392
        70 -13.4351     99.0760     69.5766   9.4891908097e+01   4.8844939471e+01    0.4289027    0.4087776  18.18  0.001753333    1.093    0.085
        71 -13.1948    188.5920    146.3248   9.3275653258e+01   1.7128924308e+01    0.2525577    0.2063068  43.97 0.0007903433    1.146    0.128
        72 -13.3748     21.3879     67.9523   1.1897193402e+02   5.9063708979e+01     1.230816    0.6283184 -30.04  0.006283091    2.834    0.647
        73 -13.9159    178.3448     65.3767   7.4686086258e+01   3.1891644284e+01    0.8849428    0.5582246  78.74  0.003543096    2.358    0.576
        74 -12.6975     89.9597    144.8031   1.1362311910e+02   3.5234629557e+01    0.2421737    0.1520158  59.76  0.001233709    1.632    0.387
        75 -13.6648     74.4510     60.4998   9.9568686183e+01   5.4700118038e+01    0.4744233     0.196289  38.88  0.002018762    2.683    0.627
        76 -15.4077     78.6696     47.5895   9.3968013996e+01   5.6512357461e+01     1.432314    0.8305147  52.37  0.006832218    2.228    0.551
        77 -13.6939     52.2015     46.2546   1.0264829204e+02   6.0540405799e+01    0.8162949    0.5236027  -1.66  0.004190403    2.340    0.573
        78 -12.1615    206.4843    229.7974   1.0418983360e+02   3.7092536684e+00    0.2247614    0.1200442  41.31  0.001424648    1.384    0.278
        79 -12.6827     18.2016    154.3577   1.3004198496e+02   4.1615609176e+01     0.421003    0.1249458 -76.44  0.002074377    2.926    0.658
