#   1 NUMBER                 Running object number                                     
#   2 MAG_AUTO               Kron-like elliptical aperture magnitude                    [mag]
#   3 X_IMAGE                Object position along x                                    [pixel]
#   4 Y_IMAGE                Object position along y                                    [pixel]
#   5 X_WORLD                Barycenter position along world x axis                     [deg]
#   6 Y_WORLD                Barycenter position along world y axis                     [deg]
#   7 A_WORLD                Profile RMS along major axis (world units)                 [deg]
#   8 B_WORLD                Profile RMS along minor axis (world units)                 [deg]
#   9 THETA_WORLD            Position angle (CCW/world-x)                               [deg]
#  10 FWHM_WORLD             FWHM assuming a gaussian core                              [deg]
#  11 ELONGATION             A_IMAGE/B_IMAGE                                           
#  12 ELLIPTICITY            1 - B_IMAGE/A_IMAGE                                       
         1 -13.9076    219.9510     33.9607   3.8737608428e+01   2.6663022251e+01     1.466744    0.6999413  56.70  0.006598902    2.238    0.553
         2 -13.9378    225.2664     27.7579   3.6821508937e+01   2.6262642235e+01      1.41705    0.9002012  37.82  0.001548273    2.539    0.606
         3 -11.9081      2.7260      6.0946   8.7711013054e+01   7.3890006587e+01    0.5040841    0.1835016 -47.21  0.002551854    2.769    0.639
         4 -13.5234    244.4530     10.5599   3.1666306510e+01   2.4208801452e+01    0.7209564    0.4805059 -60.45  0.002646047    1.206    0.171
         5 -11.5163     44.2190    217.8073   1.1602861549e+02   2.3340216128e+01    0.4534305    0.2737744  47.40  0.001782481    1.453    0.312
         6 -14.7878     71.1163    247.9022   1.1319115927e+02   1.3856918473e+01     7.748878     2.342892  28.72   0.02297496    6.619    0.849
         7 -12.7672     21.2929    208.0482   1.2003354574e+02   2.7987788765e+01    0.3801803    0.2834337 -55.07 0.0008081451    1.652    0.395
         8 -15.1463     31.8664    198.0985   1.1700045981e+02   2.9091102857e+01     3.103925     1.763528  72.53   0.01315532    1.695    0.410
         9 -11.7996     22.8442    224.2697   1.2081586224e+02   2.4378182654e+01    0.4616133    0.1990066  82.41  0.002257284    2.424    0.587
        10 -13.5936     86.2378    228.3290   1.0821087881e+02   1.5566173400e+01     2.240654     1.050116  53.00     0.010509    2.057    0.514
        11 -12.1470    164.4666    224.1661   9.1028383319e+01   3.9976300276e+00    0.5325847    0.2681267  20.62  0.002140052    2.859    0.650
        12 -10.7038     60.2395    232.8518   1.1403456111e+02   1.8216857479e+01    0.2886994    0.1783851  57.65 0.0007836863    1.391    0.281
        13 -11.6164     52.0607    180.5255   1.1051935653e+02   3.0855160684e+01    0.3743707    0.2705053 -37.83  0.001265861    1.833    0.454
        14 -11.6585     58.6680    174.4050   1.0811126471e+02   3.1493683029e+01    0.3083711    0.2666968 -38.49  0.001011125    1.407    0.289
        15 -11.0909     69.8956    164.4376   1.0378608974e+02   3.2415268468e+01    0.2725394     0.242615 -63.43 0.0003699043    1.122    0.109
        16 -13.6293     59.6637    125.3082   9.9895583305e+01   4.3584702420e+01     1.507779     1.114773  73.31  0.004435562    1.630    0.387
        17 -13.0858     68.1879    144.1432   1.0089190428e+02   3.7710808153e+01     0.983371    0.6303082  73.96  0.002928532    2.050    0.512
        18 -13.2656     56.0267    160.9323   1.0694963262e+02   3.5137638528e+01    0.5285818     0.322296 -42.18  0.001407612    1.972    0.493
        19 -11.7730     34.7003    158.8270   1.1232235203e+02   3.8111091513e+01    0.6625751    0.3047535  67.73  0.002535052    3.049    0.672
        20  -8.5730    122.3765    150.7245   8.7287165881e+01   2.6963688113e+01    0.1596024    0.1186996  71.93 0.0007003709    1.697    0.411
        21 -11.8789     23.7393    147.5566   1.1390351596e+02   4.1946659429e+01    0.4513721    0.2121162  85.04  0.001872062    2.678    0.627
        22  -9.5452    134.0000    147.0006   8.3491675720e+01   2.5554807941e+01    0.4350056   0.08755874 -48.90  0.001051435    4.935    0.797
        23 -10.1505     93.5451    143.6810   9.3602590554e+01   3.3892271891e+01     0.295315    0.2797217 -34.08 0.0007305257    1.127    0.113
        24  -9.2638     97.1454    140.2454   9.1877584314e+01   3.4118462177e+01    0.3322176    0.2333381 -25.41  0.001458943    1.900    0.474
        25 -12.0354     81.3072    142.0612   9.6744914017e+01   3.6285303674e+01    0.3163536    0.2669926 -54.22 0.0005660515    1.141    0.123
        26 -10.5415    106.3065    131.3676   8.7329045980e+01   3.4624392206e+01    0.3630447    0.3329016  51.67  0.001035271    1.121    0.108
        27  -9.8928     93.7080    127.8211   9.0131689042e+01   3.7753069660e+01    0.3093162    0.2390832 -15.09  0.001450658    1.672    0.402
        28  -9.3342    114.0221    125.4968   8.3773479662e+01   3.4546100216e+01    0.2180947    0.1405136  13.37 0.0008100372    2.527    0.604
        29  -9.5963    104.7693    120.0915   8.5067868529e+01   3.7601329855e+01    0.2153379      0.20075 -77.94 0.0003699049    1.118    0.106
        30  -9.0427    167.3810    112.6947   6.7153685141e+01   2.5875491380e+01     0.161971    0.1227524 -84.92 0.0003370153    1.785    0.440
        31  -9.7916    205.0304    110.5248   5.9211394298e+01   1.7926988133e+01    0.3478292    0.2292857  35.29  0.001599269    1.858    0.462
        32 -12.5137     77.0687    157.2778   1.0070306513e+02   3.3145917716e+01    0.9672339    0.6272923  67.11  0.001364235    1.862    0.463
        33  -9.4429     70.4627    107.5400   9.2542107471e+01   4.6426535653e+01    0.1456444    0.1344676 -47.65 3.277481e-05    1.001    0.001
        34  -9.8818     41.2401     88.1125   9.7939073629e+01   5.4755157747e+01    0.2350723     0.163768  57.63 0.0006710915    1.960    0.490
        35  -8.6885     82.2590     87.6909   8.3305720923e+01   4.9085245388e+01    0.1377683    0.1161367 -83.77 0.0002427866    1.525    0.344
        36  -9.0386     24.9322     82.6867   1.0278737009e+02   5.7555570211e+01    0.1672988    0.1493755 -34.79 0.0003145652    1.101    0.092
        37  -9.7163    162.7076     82.6597   6.0058964300e+01   3.2765305522e+01    0.1519522    0.1208873  10.02  0.000702709    1.651    0.394
        38 -10.7846     13.2694     60.2300   1.0203497895e+02   6.3361054630e+01    0.2300422    0.1732381 -38.53 0.0004912184    1.083    0.076
        39 -12.0993    202.1762     47.1760   4.3940712738e+01   2.8967803241e+01    0.8935803    0.4759822 -56.08  0.004082821    1.957    0.489
        40  -8.8221     22.9930     49.7578   9.4587081166e+01   6.4727100804e+01    0.1432106   0.09921594  13.88 0.0004327578    1.529    0.346
        41  -8.5649     94.6694     46.3537   6.5422902760e+01   5.4460017234e+01    0.1376337    0.1120163 -75.96 0.0007046037    1.780    0.438
        42 -13.9154     10.0148    206.9525   1.2226670828e+02   2.9325202907e+01    0.9680135    0.7873787  59.22  0.003064398    1.199    0.166
        43  -9.9915     53.3869    230.5294   1.1521845940e+02   1.9560483904e+01    0.2241727    0.1376036 -82.87 0.0008582712    1.609    0.379
        44 -10.8401      2.5656     38.0179   1.0063076787e+02   6.8484878266e+01    0.2332223    0.1744826 -59.90   0.00158181    1.420    0.296
        45 -15.4897      6.4641    238.6336   1.2466035815e+02   2.3151899783e+01     13.88253    0.8485629 -76.93   0.03317909   12.325    0.919
        46  -9.7291    189.5143     15.4855   3.7464537352e+01   3.5848217146e+01    0.1304101    0.1105879 -83.50 0.0001537442    1.018    0.018
