#   1 NUMBER                 Running object number                                     
#   2 MAG_AUTO               Kron-like elliptical aperture magnitude                    [mag]
#   3 X_IMAGE                Object position along x                                    [pixel]
#   4 Y_IMAGE                Object position along y                                    [pixel]
#   5 X_WORLD                Barycenter position along world x axis                     [deg]
#   6 Y_WORLD                Barycenter position along world y axis                     [deg]
#   7 A_WORLD                Profile RMS along major axis (world units)                 [deg]
#   8 B_WORLD                Profile RMS along minor axis (world units)                 [deg]
#   9 THETA_WORLD            Position angle (CCW/world-x)                               [deg]
#  10 FWHM_WORLD             FWHM assuming a gaussian core                              [deg]
#  11 ELONGATION             A_IMAGE/B_IMAGE                                           
#  12 ELLIPTICITY            1 - B_IMAGE/A_IMAGE                                       
         1  -8.8822    189.7586     14.8415   6.5888068591e+01   3.5476774895e+01    0.4123934    0.2579779 -69.76  0.001596239    1.837    0.456
         2 -10.0400    233.9758      7.4742   6.0142859772e+01   2.5975202253e+01    0.4200138    0.2672761 -38.35  0.001733492    1.337    0.252
         3  -8.0392    206.3590      2.8885   6.0908754754e+01   3.2572968494e+01    0.2041723    0.1652707 -69.47 0.0003828402    1.199    0.166
         4  -7.6318    134.3234    240.9876   1.2747184589e+02   1.0728168737e+01    0.1467582    0.1172017  30.71 0.0004521369    1.067    0.062
         5 -11.0206     44.1680    247.4086   1.4469622283e+02   2.0080793988e+01    0.5535844    0.3733338  60.01  0.004411066    1.243    0.195
         6  -8.0579    120.4650    239.6603   1.2994879338e+02   1.2656541244e+01    0.2489748     0.157052 -65.00  0.001641621    2.271    0.560
         7  -6.9504    110.3247    233.2507   1.3127015920e+02   1.4849733906e+01    0.1050902   0.07572985  13.89 0.0002291413    1.541    0.351
         8  -8.1845     80.0763    232.5680   1.3708954668e+02   1.8585146308e+01    0.1565555    0.1472599  61.79  0.001293051    1.230    0.187
         9  -6.9527    247.7181    231.2892   1.0640968949e+02  -2.3981394458e+00   0.08747765   0.07178171  12.54 0.0001865874    1.527    0.345
        10 -11.8498     57.2242    230.0719   1.4133902237e+02   2.1500095011e+01    0.8253801    0.5489269  42.16  0.005973253    1.161    0.139
        11  -8.3702     31.6949    229.3977   1.4615987370e+02   2.4136217697e+01    0.1786332    0.1431488  37.47 0.0008749684    1.243    0.196
        12  -7.3056    104.2257    228.4211   1.3200132903e+02   1.6341438505e+01     0.152864   0.08266518  41.18 0.0003571809    1.462    0.316
        13  -7.5292    130.7543    224.2306   1.2631682316e+02   1.3551138938e+01    0.1476118    0.1145225  14.77 0.0003324142    1.275    0.216
        14  -7.0699     88.5231    224.0133   1.3472283148e+02   1.8962667040e+01    0.1356703     0.110623 -72.95 0.0004718986    1.483    0.326
        15  -7.7293    157.9890    222.9762   1.2085860423e+02   1.0050550125e+01    0.1727462    0.1337808  22.24 0.0003281358    1.030    0.029
        16  -7.2956    106.8141    223.1068   1.3096561026e+02   1.6843457591e+01    0.1426791    0.1198356  12.50 0.0004449473    1.301    0.231
        17  -7.6333     81.2112    223.3582   1.3613327680e+02   1.9937751707e+01    0.1384715    0.1230169  43.92 0.0002889029    1.127    0.113
        18  -7.4877    137.7794    222.0195   1.2467083558e+02   1.2933686747e+01    0.1544139    0.1269185  26.21  0.001098133    1.048    0.046
        19  -7.6977     95.0112    221.6877   1.3320645723e+02   1.8549865507e+01    0.1605385    0.1152153  37.66 0.0004188744    1.114    0.103
        20  -7.4568     75.8342    221.7650   1.3708459091e+02   2.0826851737e+01    0.1532567    0.1029028  52.29 0.0003957967    1.285    0.222
        21  -7.1156    106.7734    236.4042   1.3225262158e+02   1.4822517903e+01    0.1039033    0.0717514  61.51 0.0003506507    1.660    0.398
        22  -6.8272    126.0000    219.9798   1.2677408173e+02   1.4822435313e+01    0.1496989   0.06797905 -53.51  0.000449751    2.755    0.637
        23  -7.4533    117.7582    220.1446   1.2845082480e+02   1.5890702554e+01    0.1706834    0.1269332  44.65 0.0004735246    1.208    0.172
        24  -7.2393    111.4843    219.0091   1.2959802721e+02   1.6890363053e+01    0.1404619    0.1163997 -56.42 0.0003591184    1.492    0.330
        25  -7.8333     84.8491    218.8186   1.3501048010e+02   2.0259672493e+01    0.1577822    0.1375078  34.51 0.0005219199    1.136    0.120
        26  -8.8103     68.6815    217.5466   1.3820391557e+02   2.2356268158e+01     0.284404    0.1473557  89.66  0.001557188    2.627    0.619
        27  -8.9587     45.9278    235.6618   1.4379839592e+02   2.1745999358e+01     0.153731    0.1337808 -88.46  0.001049678    1.347    0.258
        28  -7.0633     78.3714    217.7518   1.3624220844e+02   2.1207752010e+01    0.1362221    0.1019537 -55.03 0.0009386761    1.646    0.392
        29  -7.1320     38.6769    217.2889   1.4422655938e+02   2.5542315400e+01    0.1145519     0.058819  54.79 0.0004206322    1.606    0.377
        30  -6.9244    164.3197    216.6397   1.1879223601e+02   1.0043123679e+01     0.111093   0.08651762  54.98 0.0007043189    1.768    0.434
        31  -7.0475     73.5136    216.4305   1.3712831894e+02   2.1997846446e+01    0.1132519   0.09005971  45.84 0.0002695217    1.010    0.010
        32  -7.2642    122.0244    214.7026   1.2696791305e+02   1.6175374996e+01    0.1625388    0.1232481  35.53 0.0004110297    1.073    0.068
        33  -6.9833    146.5468    214.5000   1.2198664727e+02   1.2831209682e+01    0.1198267   0.09613049  27.52 0.0001456008    1.022    0.021
        34  -7.0687    132.4714    234.4409   1.2712285465e+02   1.1861586932e+01    0.1136267   0.08670243  29.26 0.0001314657    1.030    0.029
        35  -7.9180     87.2209    212.8771   1.3398209051e+02   2.0978105255e+01    0.1758229      0.13251  54.29 0.0008099392    1.219    0.179
        36  -8.2218     72.0307    212.0852   1.3708033175e+02   2.2923308784e+01    0.2560188    0.1204309  39.34  0.001109921    1.676    0.403
        37  -8.8210     65.1054    210.9730   1.3843472390e+02   2.3906063905e+01     0.193523    0.1776336 -85.78  0.000855802    1.250    0.200
        38  -6.8210    143.5188    210.5267   1.2206975787e+02   1.3849347197e+01    0.1212638   0.09808587  31.48 -3.473113e-06    1.067    0.063
        39  -7.4212    127.4777    210.4158   1.2533277075e+02   1.6109637383e+01    0.1207276   0.09739812  29.49  4.29095e-05    1.031    0.030
        40  -7.6234    110.4018    208.6707   1.2868401691e+02   1.8717633140e+01    0.1912034    0.1284796  17.29 0.0009317454    1.637    0.389
        41  -8.1811     96.4467    208.2677   1.3158728712e+02   2.0613850888e+01    0.1995175     0.150102  43.69 0.0002371309    1.118    0.106
        42  -8.5916     63.9468    203.2670   1.3806895728e+02   2.5429602682e+01    0.1841192    0.1298781  55.33 0.0005886511    1.238    0.192
        43  -9.0354     74.4819    208.5224   1.3626520689e+02   2.3267960560e+01    0.2294681    0.1695337  51.22 0.0009007842    1.155    0.135
        44  -9.8481     71.8053    205.8965   1.3660702048e+02   2.4051332226e+01    0.3872472    0.2991738 -21.61  0.002365039    1.876    0.467
        45  -9.4700     67.6868    206.2803   1.3751640481e+02   2.4456293535e+01    0.2877208    0.1792852  35.30 0.0008896954    1.372    0.271
        46  -7.7926    114.8883    212.5715   1.2819119805e+02   1.7475299203e+01    0.1683509    0.1544945  -6.97  0.001226331    1.259    0.206
        47  -7.5928    135.9658    207.0342   1.2315036733e+02   1.5456648096e+01      0.17527    0.1311578  56.20 0.0003717218    1.594    0.372
        48 -10.6300    124.0025    206.0002   1.2550682379e+02   1.7303140533e+01     0.172579    0.1429553  31.75            0    1.004    0.004
        49  -7.7271    118.6073    205.8441   1.2662266995e+02   1.8075536117e+01    0.1537783    0.1422277  45.85  0.001095712    1.151    0.131
        50  -7.2696    159.2149    204.4128   1.1805802991e+02   1.2510427006e+01    0.1681658    0.0972587  41.29  0.000737019    1.605    0.377
        51  -7.3668    153.2467    203.9340   1.1918956689e+02   1.3450835550e+01    0.1562852    0.1378319  10.67 0.0004892448    1.117    0.105
        52  -7.3268    106.7633    204.5975   1.2899102381e+02   1.9893981621e+01     0.168036   0.09279768  41.79 0.0002866921    1.528    0.346
        53  -8.4603     79.5538    203.6847   1.3474603709e+02   2.3531022056e+01    0.2059011    0.1525678  44.06 0.0003212464    1.122    0.109
        54  -7.7988     57.3510    203.1399   1.3947209510e+02   2.6181006505e+01    0.1500945   0.09562612  83.74 0.0003787212    1.700    0.412
        55  -6.9522    125.4800    237.4485   1.2877416521e+02   1.2335572473e+01    0.1123024    0.0856919  29.32 2.938375e-05    1.057    0.054
        56  -9.1022     69.5227    200.4414   1.3662496561e+02   2.5314932852e+01    0.2587897    0.2008929 -21.74  0.001452058    1.849    0.459
        57  -9.5616     67.4935    197.4978   1.3681048862e+02   2.6099618031e+01    0.3372646    0.2490885  42.77  0.002243226    1.144    0.126
        58  -8.1071    176.6760    201.3076   1.1414793468e+02   1.0401667674e+01    0.2233741    0.1457474  27.85  0.001342895    1.265    0.209
        59  -8.1431     75.7188    199.1686   1.3515566246e+02   2.4819566011e+01    0.1967462    0.1520333  36.82 0.0007465807    1.147    0.129
        60  -7.7842     59.6119    199.2865   1.3868513645e+02   2.6652373159e+01    0.1447193    0.1029654 -62.63 0.0009438623    1.595    0.373
        61  -7.7674    107.1136    197.8452   1.2812342540e+02   2.1022687665e+01    0.1769418    0.1408703  48.65 0.0003006913    1.173    0.148
        62  -8.1384     91.6883    196.9605   1.3141422989e+02   2.3234241372e+01     0.186839     0.149585  23.38 0.0004355589    1.266    0.210
        63  -7.6494    142.0321    196.1401   1.2038095647e+02   1.6317714628e+01    0.1883188    0.1509045  12.22 0.0005641901    1.212    0.175
        64  -8.7535    192.2750    194.6627   1.1009375616e+02   9.0157071089e+00    0.1987871    0.1473266 -40.62  0.000786181    1.716    0.417
        65  -8.0769     57.5183    194.9802   1.3879836324e+02   2.7699423752e+01    0.1562116    0.1094423 -77.02  0.000467877    1.517    0.341
        66  -7.0712     76.0337    193.5227   1.3454308704e+02   2.5839951789e+01    0.1825394    0.1029093  34.56 0.0006214258    1.544    0.352
        67  -7.0910    136.4352    192.4836   1.2104113805e+02   1.7751114194e+01    0.1259052    0.1074938  28.15 3.699834e-05    1.017    0.016
        68  -6.8580    127.6157    191.2760   1.2277869446e+02   1.9261891789e+01     0.129558   0.08727103  54.86 0.0007000184    1.717    0.417
        69  -6.8075    111.7099    195.6747   1.2684986381e+02   2.0772329990e+01    0.1182231   0.09194386  -5.24 0.0005647602    1.613    0.380
        70  -8.0975     81.9327    189.5526   1.3280308294e+02   2.5867279204e+01    0.1715877     0.164634 -64.00 0.0003440634    1.204    0.169
        71  -7.0872    141.5832    189.5090   1.1949587839e+02   1.7474692263e+01    0.1266593    0.1085448  22.96 9.471043e-05    1.019    0.018
        72  -8.0310     16.8184    188.4303   1.4729965579e+02   3.2877661813e+01    0.1769148    0.1253774  50.76 0.0006892749    1.165    0.142
        73  -7.3292    176.6703    187.7037   1.1194429398e+02   1.2361939112e+01    0.1309862    0.0861471   7.36 0.0002575324    1.636    0.389
        74  -7.2665     74.5766    187.4631   1.3426690711e+02   2.7182459365e+01    0.1201799    0.1040021  52.12 8.402279e-05    1.010    0.010
        75  -7.7228     89.2329    186.0020   1.3073459696e+02   2.5609324312e+01    0.1612656    0.1513017  68.52 0.0004067893    1.107    0.097
        76  -6.8649    144.2405    183.3108   1.1796318949e+02   1.8108312811e+01    0.1221764   0.09242927  -4.02            0    1.501    0.334
        77  -7.6387     76.9763    181.6440   1.3309605569e+02   2.8032860127e+01    0.1716992    0.1412442  41.66 0.0004643597    1.088    0.081
        78 -10.2405    101.0036    175.9887   1.2671645537e+02   2.5945231486e+01    0.1824987     0.162896  42.00  0.001167318    1.010    0.010
        79  -7.4488     32.9976    174.9898   1.4288691806e+02   3.4189113757e+01    0.1394025    0.1161848  71.08  0.000336749    1.038    0.037
        80  -7.4058    121.7744    170.0248   1.2092038512e+02   2.4004614815e+01    0.1583526    0.1110005 -52.20 0.0004133063    1.587    0.370
        81  -6.8380     97.6935    170.3129   1.2672812050e+02   2.7541906257e+01    0.1327615    0.0931526  62.56 0.0006596986    1.621    0.383
        82  -7.3233     45.6990    170.6942   1.3951640834e+02   3.3854805072e+01    0.1117877   0.09038123 -36.32 0.0004517825    1.595    0.373
        83  -7.8018     51.3886    166.0973   1.3769735489e+02   3.4238531359e+01    0.1963021    0.1682388  20.01 0.0009068443    1.327    0.247
        84  -7.2873     38.8279    164.2153   1.4066067860e+02   3.5924589151e+01    0.1476987    0.1342081 -51.63 0.0002720633    1.305    0.234
        85  -6.9668     43.6980    161.2689   1.3918084456e+02   3.6084822005e+01    0.1258957   0.07844315  59.17 0.0002398665    1.528    0.345
        86  -7.2565     50.6648    157.7906   1.3705780196e+02   3.6125419129e+01    0.1720002     0.108017 -86.87 0.0009316547    1.646    0.393
        87  -9.3315    122.2905    147.5554   1.1689815406e+02   2.8348551699e+01    0.2803634    0.2242621  36.02   0.00021441    1.177    0.150
        88  -7.2694    134.3294    138.3004   1.1205658490e+02   2.8112693040e+01    0.1467166    0.1093968  -0.09 0.0006989447    1.644    0.392
        89  -7.8023    169.9981    134.4944   1.0295130057e+02   2.2171333027e+01    0.2125354    0.1141694  21.47 0.0008106218    2.611    0.617
        90  -8.6235    120.0570    132.2729   1.1443116763e+02   3.1896819836e+01    0.2405386    0.2122131 -13.88  0.000264602    1.199    0.166
        91  -7.3006     71.5511    131.4889   1.2784715085e+02   3.9643199379e+01    0.1340153    0.1279121  84.72 0.0001132005    1.005    0.005
        92  -7.3005     62.3117    129.3044   1.3022805958e+02   4.1331765239e+01    0.1342573    0.1007567 -31.50 0.0003602342    1.614    0.380
        93  -8.4370    250.6646    112.9463   8.3841619382e+01   1.0577176880e+01    0.1828268   0.09939148 -26.31            0    1.532    0.347
        94  -8.3233    184.0778    111.6806   9.4592104297e+01   2.3290834954e+01    0.1973877    0.1748234  20.76 0.0003238372    1.096    0.087
        95  -8.4661    141.6618     93.8246   9.9304758175e+01   3.5510359360e+01    0.2228066    0.1944484  15.00  0.001144859    1.163    0.140
        96  -8.8858      4.7401     92.0610   1.4429125819e+02   5.5409629896e+01    0.3806222    0.1386829 -69.37  0.001095169    2.132    0.531
        97  -7.7817    214.9956     92.7792   8.4305239839e+01   1.9880485901e+01    0.2225347    0.1414959  21.98 0.0006055865    1.904    0.475
        98  -9.8322    148.6964     82.9771   9.4438198678e+01   3.5985938149e+01    0.4322411    0.3407387   1.46  0.002083071    1.436    0.304
        99  -8.5389    185.0563     77.9393   8.5398820181e+01   2.8523473701e+01    0.2432726    0.1716085  16.84  0.001130683    1.699    0.411
       100  -6.9448     13.3087     73.3102   1.3870202640e+02   5.9599158779e+01    0.1358133   0.07917023 -45.40 0.0002518527    1.620    0.383
       101  -9.3317    163.1375     69.3000   8.7082746695e+01   3.4980940852e+01    0.3516375    0.1700845 -31.28  0.001366752    2.017    0.504
       102  -7.1319     37.7038     70.6656   1.2788576203e+02   5.8392202218e+01    0.1452628   0.09011193 -37.58 0.0003772886    1.646    0.392
       103  -9.8075    157.5961     66.5007   8.7368636806e+01   3.6753328576e+01    0.5353285     0.300192  18.78  0.001814068    3.205    0.688
       104  -9.7268    244.1805     56.5091   7.1410697182e+01   1.8726602944e+01    0.2333271    0.2170538   7.42 0.0003817398    1.165    0.142
       105  -8.9363    248.0953     52.3350   7.0000120421e+01   1.8443702668e+01    0.3113769    0.2231045  -7.32  0.001076701    1.457    0.314
       106  -9.4005    152.2384     54.6377   8.4649141451e+01   3.9931407163e+01    0.3133371     0.267422 -51.32 0.0009494454    1.268    0.211
       107 -10.3544    167.9318     48.7872   7.9681475852e+01   3.6911789969e+01    0.5940118    0.4383125  24.98  0.002866701    1.539    0.350
       108  -8.0594    244.7006     45.6881   6.8718080484e+01   1.9860947247e+01    0.2517039    0.1331204  49.19  0.001272345    2.182    0.542
       109  -6.8312    185.7135     42.2707   7.4761245554e+01   3.3403898902e+01    0.1411951    0.1051129 -59.20 0.0002675319    1.503    0.335
       110  -7.7100    115.4242     41.7921   8.8835054945e+01   5.0910248576e+01    0.2039866    0.1434163 -15.73 0.0003466936    1.543    0.352
       111  -7.2184    229.0287     38.7737   6.8516508278e+01   2.3868196257e+01    0.1635118    0.1096065  69.66 0.0008841916    1.685    0.407
       112  -7.3768    157.5168     34.9957   7.6930212187e+01   4.1372935934e+01    0.2040313    0.1240091  10.41 0.0005647239    2.329    0.571
       113 -10.1102    139.9847     33.1758   7.9622108280e+01   4.6081825448e+01    0.2705452      0.24967 -12.52  0.000337669    1.079    0.073
       114  -6.9903    173.3355     31.6825   7.3256619972e+01   3.7766513012e+01    0.1533486    0.1045898 -60.02 0.0007048438    1.698    0.411
       115  -8.1214    173.4583     25.9850   7.1387229361e+01   3.8391167003e+01    0.3815264    0.1834753 -88.48  0.001275264    3.641    0.725
       116  -8.8853    183.6142     24.0652   6.9430688809e+01   3.6052280782e+01    0.3833369    0.2639237 -78.85  0.001137066    1.706    0.414
       117  -8.8832    166.1013     23.2323   7.1526404088e+01   4.0570116382e+01    0.3976462    0.2383796 -37.30  0.001674545    1.632    0.387
       118  -7.2344    200.2984     20.6555   6.6501954931e+01   3.2338268700e+01     0.146756   0.09049467 -53.52 0.0007035368    1.674    0.403
       119  -9.1204     63.3840    243.0943   1.4097282833e+02   1.8787888948e+01     0.176674    0.1176801  30.29 0.0009958911    1.361    0.265
       120  -7.8769     78.0304    246.7529   1.3850307607e+02   1.6650846435e+01    0.2044078    0.1022637  67.31  0.001172839    2.664    0.625
