#   1 NUMBER                 Running object number                                     
#   2 MAG_AUTO               Kron-like elliptical aperture magnitude                    [mag]
#   3 X_IMAGE                Object position along x                                    [pixel]
#   4 Y_IMAGE                Object position along y                                    [pixel]
#   5 X_WORLD                Barycenter position along world x axis                     [deg]
#   6 Y_WORLD                Barycenter position along world y axis                     [deg]
#   7 A_WORLD                Profile RMS along major axis (world units)                 [deg]
#   8 B_WORLD                Profile RMS along minor axis (world units)                 [deg]
#   9 THETA_WORLD            Position angle (CCW/world-x)                               [deg]
#  10 FWHM_WORLD             FWHM assuming a gaussian core                              [deg]
#  11 ELONGATION             A_IMAGE/B_IMAGE                                           
#  12 ELLIPTICITY            1 - B_IMAGE/A_IMAGE                                       
         1 -14.0130      8.4611    152.2474   1.4903182979e+02   4.2028923710e+01     3.061991     1.007093  79.83   0.01343935    3.231    0.690
         2 -14.2320      2.6115    130.8822   1.4934327872e+02   4.6977710772e+01     2.597481     0.710515 -74.80   0.01162276    2.915    0.657
         3 -13.7104    192.6516     23.1204   7.2697026831e+01   3.3570521065e+01     1.855508     1.564347  26.34  0.008116978    1.303    0.233
         4 -13.3415    207.6482      5.6861   6.5910043043e+01   3.1512333898e+01      1.00568     0.863418  56.86  0.005649712    1.226    0.184
         5 -12.5025      2.5603     22.3840   1.3587724516e+02   7.1747682404e+01       1.1844     0.226529 -68.47  0.004035597    4.302    0.768
         6 -11.9074      2.5102      8.9107   1.3153268859e+02   7.4633958658e+01    0.9854073    0.3988741 -34.35  0.004852521    2.415    0.586
         7 -10.1544      2.4748      3.4977   1.2935746157e+02   7.5747588436e+01    0.3722437    0.2104349 -46.25  0.002264137    1.363    0.266
         8 -13.2249      8.9415     21.5139   1.3177672046e+02   7.1602638577e+01     1.339233    0.5105273 -71.59  0.005707672    2.911    0.656
         9  -9.1901     12.2227    240.6221   1.5158873306e+02   2.5894267498e+01    0.1353449   0.08486267  60.10  0.001072614    1.102    0.093
        10 -10.3206    248.3867    250.0018   1.1306500682e+02  -4.0290687952e+00    0.2009203    0.1004826  41.03   0.00135021    2.047    0.511
        11 -11.1910    147.5163    242.5058   1.2835549281e+02   9.8576981372e+00     0.180247    0.1439429  69.17  0.001012628    1.684    0.406
        12 -12.1091    144.0632    243.8392   1.2908791892e+02   1.0163101535e+01    0.2663353    0.2488491  78.92  0.001869879    1.447    0.309
        13 -12.4926    124.2443    249.8445   1.3306300233e+02   1.2042966323e+01     1.002755    0.1632465  43.66  0.003830058    4.347    0.770
        14 -13.1871    133.8161    245.8163   1.3104955511e+02   1.1290151844e+01    0.8644199    0.3613138  41.95  0.005131963    1.724    0.420
        15  -9.5258     64.3717    250.4658   1.4331777862e+02   1.9215870235e+01    0.2364775   0.08241025  32.17  0.001150375    2.752    0.637
        16 -11.4582     45.0008    202.9279   1.4408430737e+02   2.8848331989e+01     1.634498    0.2909518  55.50  0.004439978    8.980    0.889
        17 -11.1583     30.3474    244.2955   1.4872283891e+02   2.3657567496e+01    0.5120502    0.2958266 -70.44  0.001939555    2.122    0.529
        18 -11.6055     57.3469    211.8867   1.4225518904e+02   2.5946108999e+01    0.9387059    0.2437166  50.00  0.004289875    3.010    0.668
        19 -12.8812     38.4135    237.6570   1.4709581997e+02   2.3851622779e+01     0.250956    0.2326996  65.52 0.0007624839    1.428    0.300
        20 -13.9428     43.5601    230.5593   1.4587063652e+02   2.4415688694e+01    0.8008427    0.4181383  45.70  0.003410413    1.368    0.269
        21 -11.9218    182.8874    235.0507   1.2145252153e+02   5.8461257255e+00    0.5376002    0.3799122 -81.98  0.002792606    4.735    0.789
        22 -10.6332     19.3816    247.5885   1.5062650163e+02   2.4212151062e+01    0.3251399    0.2171173  33.49  0.002721357    1.565    0.361
        23 -12.9486    133.0245    231.9664   1.2981693919e+02   1.3174414435e+01    0.9249504    0.2100766  37.20  0.003723846    3.474    0.712
        24 -12.6572    119.4791    231.1950   1.3218655878e+02   1.5127042231e+01    0.7797781    0.2941332  44.99  0.004104133    2.045    0.511
        25 -12.4865    102.8757    229.9833   1.3510069520e+02   1.7502874667e+01     1.312672          nan  40.85  0.003705072    7.219    0.861
        26  -9.7749      3.8278    227.6128   1.5264355950e+02   2.8631279438e+01    0.2285324    0.1346885  45.38  0.001638562    1.285    0.222
        27 -12.5426     83.6000    224.9439   1.3823744292e+02   2.0712171610e+01     1.522304          nan  45.53  0.004035449    8.591    0.884
        28 -10.9031    100.3717    248.9030   1.3708301427e+02   1.5192159034e+01    0.2244475    0.1567504  61.94  0.001752234    1.398    0.285
        29  -9.2530     28.6253    221.0475   1.4809960995e+02   2.7441611506e+01    0.1923606    0.1369438 -56.72   0.00147311    2.024    0.506
        30  -9.7036     33.0788    218.4243   1.4717583781e+02   2.7435157800e+01    0.1936812    0.1822791 -47.17  0.001691045    1.639    0.390
        31  -9.6905     83.7769    219.5586   1.3777654155e+02   2.1529405798e+01    0.2871083    0.1069551  54.58  0.001400027    2.691    0.628
        32 -10.3418     37.8138    213.2654   1.4604719883e+02   2.7818887590e+01    0.2717068    0.2419776  66.93  0.001785664    1.280    0.219
        33  -8.4713    221.3739    213.6865   1.1211665924e+02   2.7010939688e+00   0.09950347   0.08250239  49.53 0.0007031907    1.788    0.441
        34 -10.9026      1.9372    201.4329   1.5228264843e+02   3.3146077348e+01    0.5444692     0.107637 -79.05  0.002450541    4.474    0.776
        35 -10.6517     20.6644    210.4026   1.4911425721e+02   2.9973672910e+01    0.3824569    0.2171853  49.90   0.00261458    1.292    0.226
        36 -12.4303     10.7775    206.7068   1.5080816519e+02   3.1491529038e+01    0.5625718    0.4028943  40.20  0.002868425    1.356    0.263
        37 -11.5491     63.7905    202.3177   1.4030870988e+02   2.6839517408e+01    0.2059381    0.1925931  67.24 0.0004510848    1.269    0.212
        38 -12.4958     51.6522    218.8382   1.4376854458e+02   2.5426476269e+01     1.038268     0.569239  53.46  0.007086853    1.383    0.277
        39  -9.7583    191.9267    193.1074   1.1396785868e+02   9.4803359276e+00    0.3897463    0.2347494 -62.93  0.001594858    5.125    0.805
        40  -9.8960      9.9552    196.0209   1.5059010302e+02   3.3440762350e+01     0.198043    0.1181185  40.14 0.0008176853    1.460    0.315
        41 -11.8761     69.8358    193.6309   1.3836788272e+02   2.7648858401e+01    0.2159097    0.2022023  70.71 0.0004407507    1.232    0.188
        42 -11.3932      3.0851    185.1367   1.5155745293e+02   3.5989031318e+01    0.9042211    0.2847487 -85.84  0.004687106    2.893    0.654
        43 -12.8768      5.7791    170.3934   1.5045754159e+02   3.8584372912e+01    0.9469716    0.8814086  22.63  0.007909976    1.477    0.323
        44 -11.8021      2.6812    151.0543   1.5032445354e+02   4.2700858831e+01     1.269763     0.314115 -89.14  0.005004174    4.060    0.754
        45 -10.9519    237.6454    247.5334   1.1432754629e+02  -2.5399221216e+00    0.2084131    0.1428678   5.81  0.001052722    1.247    0.198
        46 -11.7530     86.8972    170.5308   1.3227864243e+02   2.9724446908e+01    0.5483491    0.5157318 -26.71  0.003793974    1.366    0.268
        47 -10.1794     98.8389    154.1364   1.2728499616e+02   3.1201060542e+01    0.2903704    0.2656073 -53.27 0.0007641427    1.236    0.191
        48  -9.1642    101.5462    149.9423   1.2599122057e+02   3.1622386980e+01    0.1900322    0.1762374  20.08 0.0005257934    1.224    0.183
        49 -11.9047     87.6503    153.4859   1.2989439528e+02   3.3009951176e+01    0.2527185    0.2397763 -28.14  0.000644221    1.297    0.229
        50 -10.6022    225.6045    249.6297   1.1641966711e+02  -1.2232445561e+00    0.2504879   0.07239505  40.88  0.001256767    2.907    0.656
        51  -9.4849    133.7842    144.5500   1.1740189167e+02   2.7192386503e+01    0.4709995    0.1486406 -56.96  0.001297823    5.989    0.833
        52 -12.1364     67.6751    143.9688   1.3360530035e+02   3.7765979169e+01    0.4977444    0.3699983  63.50   0.00180862    1.264    0.209
        53 -11.4391     64.6836    141.6771   1.3408134235e+02   3.8645359076e+01    0.3506857    0.2828945 -63.27  0.001051839    1.290    0.225
        54 -13.2180     66.6010    178.5413   1.3769305099e+02   3.0853804190e+01     0.428474    0.2641121 -43.88  0.001755153    2.362    0.577
        55  -9.7928    110.0010    138.4525   1.2198245182e+02   3.2574299847e+01    0.3918145    0.2632212 -19.66  0.001474719    2.518    0.603
        56 -10.7451     79.6797    180.1638   1.3497630599e+02   2.8869903849e+01    0.2026541    0.1779789  59.94 0.0003263989    1.074    0.069
        57 -10.5096     97.5222    135.7933   1.2467135366e+02   3.5185885700e+01    0.2325086    0.2188853  18.51 0.0004540925    1.204    0.169
        58  -9.2124     86.3525    136.3028   1.2765238655e+02   3.6808996933e+01    0.2105995    0.1373951  57.24  0.000422732    1.562    0.360
        59  -9.0945     54.3108    131.6440   1.3555301539e+02   4.2125737164e+01    0.1375354    0.0841766  68.42 0.0007043488    1.732    0.423
        60  -8.8130    116.2597    130.1841   1.1885982376e+02   3.3175960268e+01    0.2281251    0.1528929 -10.93 0.0009496121    2.760    0.638
        61  -9.0553    107.1877    124.7971   1.2012154921e+02   3.5895224756e+01    0.1890665    0.1753507  65.11 0.0002849572    1.042    0.040
        62 -10.0887     23.8413    114.8196   1.4224653778e+02   4.9009188232e+01    0.1740837    0.1212237  65.41 0.0006230215    1.347    0.258
        63  -9.9640    168.0598    113.1187   1.0291617469e+02   2.6143359840e+01    0.2991544    0.2642927 -73.81 0.0009240026    1.407    0.289
        64  -9.0652    203.4529    111.5240   9.5649522810e+01   1.8912540138e+01    0.1421251    0.1251823   6.82 0.0001041395    1.055    0.052
        65 -11.7764      1.7825     90.0717   1.4678208225e+02   5.6212994415e+01    0.6894977    0.1558799 -83.47  0.002331511    4.398    0.773
        66  -9.6217    239.6688     83.3341   8.3161925623e+01   1.5285177784e+01    0.1358613   0.09697052 -53.98 0.0007052181    1.728    0.421
        67  -9.7302    156.2993     75.0638   9.5205079350e+01   3.5437898706e+01    0.2191056    0.1966428 -29.78 0.0006540833    1.110    0.099
        68 -11.7286      2.3721     66.1844   1.4410137583e+02   6.1745360593e+01    0.4846652    0.2506939  78.45  0.002533425    2.052    0.513
        69  -9.6309     27.1737     59.9738   1.3281593307e+02   6.1615484788e+01    0.2497662    0.1240103  49.43  0.001122446    2.533    0.605
        70 -12.0935    173.9610    249.0882   1.2459253258e+02   5.5485644394e+00     0.585888    0.1765447  34.77  0.002874182    2.595    0.615
        71 -10.5838     81.4165    249.1005   1.4034620645e+02   1.7456108651e+01    0.2133896    0.1063718  44.79  0.001461168    1.393    0.282
        72  -9.5294     89.2521    250.2038   1.3908221373e+02   1.6374137877e+01    0.1446086   0.08505899  52.94 0.0006137068    1.344    0.256
        73  -8.8002     66.4923    243.0351   1.4253452830e+02   2.0036813499e+01    0.1232571   0.08927017  84.73 0.0004998464    1.494    0.331
        74  -9.4308      2.4834    249.5145   1.5335651532e+02   2.5428016039e+01    0.1642435    0.1053475  57.51 0.0006595852    1.017    0.017
