#   1 NUMBER                 Running object number                                     
#   2 MAG_AUTO               Kron-like elliptical aperture magnitude                    [mag]
#   3 X_IMAGE                Object position along x                                    [pixel]
#   4 Y_IMAGE                Object position along y                                    [pixel]
#   5 X_WORLD                Barycenter position along world x axis                     [deg]
#   6 Y_WORLD                Barycenter position along world y axis                     [deg]
#   7 A_WORLD                Profile RMS along major axis (world units)                 [deg]
#   8 B_WORLD                Profile RMS along minor axis (world units)                 [deg]
#   9 THETA_WORLD            Position angle (CCW/world-x)                               [deg]
#  10 FWHM_WORLD             FWHM assuming a gaussian core                              [deg]
#  11 ELONGATION             A_IMAGE/B_IMAGE                                           
#  12 ELLIPTICITY            1 - B_IMAGE/A_IMAGE                                       
         1 -12.5811    198.2520     38.6330   4.6606050401e+01   3.0826038010e+01     1.169532     1.050089  -7.92  0.004777811    1.229    0.186
         2 -12.6447    209.0372     27.6585   4.2357325328e+01   2.9588910619e+01     0.947463    0.7574156  12.37  0.002290313    1.579    0.367
         3 -10.4415     32.7279     13.0430   8.2978376388e+01   7.2939052070e+01      0.70309    0.1094823 -47.30  0.001837413    6.418    0.844
         4 -11.1757    233.4021      3.4207   3.4203236635e+01   2.6630858505e+01    0.7357649    0.4015335  78.36   0.00398761    1.931    0.482
         5  -8.8344     61.4664      7.5301   6.4008402761e+01   6.8798563673e+01    0.1354514    0.1219315  10.95 0.0002087368    1.008    0.008
         6 -10.1213     45.4680    220.9384   1.1722994503e+02   2.4033642258e+01    0.3624299    0.1841115  59.07  0.001128952    1.689    0.408
         7 -11.4441     16.1764    191.0054   1.2200476721e+02   3.2670000585e+01    0.3048574    0.2096181  46.27 0.0004725482    1.210    0.173
         8 -13.9353     50.1616    197.2386   1.1471620452e+02   2.8008147608e+01     3.761353     2.132709  51.28   0.02205843    1.443    0.307
         9 -11.8854     57.9615    241.4427   1.1591672885e+02   1.9174050011e+01    0.4854734    0.2363448  53.99 0.0005230327    1.674    0.403
        10 -15.2015      8.1194    243.3426   1.2526541593e+02   2.3789356593e+01     7.208002     1.728365 -84.49   0.03465879    4.389    0.772
        11  -8.1074     23.5210    185.5360   1.2008146125e+02   3.3133155569e+01     0.118297   0.09336247  62.54 8.862564e-05    1.013    0.012
        12  -8.2153     99.5072    180.8779   1.0155617024e+02   2.4899499719e+01    0.1998531    0.1574068  39.26 0.0006175437    1.128    0.114
        13  -7.1294    144.9839    181.0000   9.1207707843e+01   1.7766269927e+01    0.2187204   0.06686781  37.93 0.0007944866    2.888    0.654
        14 -10.4021     69.4889    175.7898   1.0824243765e+02   3.0119199906e+01    0.3725321    0.2653917 -33.20  0.001734216    2.033    0.508
        15 -10.3578     74.0247    170.4518   1.0651254451e+02   3.0672552733e+01    0.3390584     0.268901 -33.17 0.0009741504    1.679    0.404
        16  -8.3079     86.8673    249.3597   1.1093379496e+02   1.4625991565e+01    0.1650951    0.1246213  65.37 0.0005918291    1.371    0.271
        17  -8.8173    106.5155    172.4901   9.8728240693e+01   2.5532405713e+01    0.1343563    0.1194964  47.19 4.697995e-05    1.005    0.005
        18  -9.3075     96.9943    169.4952   1.0063190101e+02   2.7604783069e+01    0.2756445    0.1469462  72.17  0.001032706    3.432    0.709
        19  -8.7595     93.4315    168.2005   1.0133919139e+02   2.8411060591e+01    0.1827261     0.126788 -83.40  0.000653342    1.705    0.413
        20  -9.7102     32.7837    165.5021   1.1658911496e+02   3.6586313258e+01    0.2565477    0.1606662 -80.15  0.001323931    1.516    0.340
        21 -10.9858     82.5823    161.5678   1.0320193656e+02   3.1433343648e+01    0.6078736    0.3180422  54.27 0.0005240947    1.989    0.497
        22 -12.0849     70.9603    156.4604   1.0560339323e+02   3.4196948904e+01     0.541328    0.4637289 -32.55  0.001527584    1.473    0.321
        23 -12.7905     68.6028    144.2903   1.0462437678e+02   3.7341349285e+01     2.459364     1.140399  78.10  0.005282213    4.772    0.790
        24  -9.9207     32.6635    156.9776   1.1597246371e+02   3.8537692952e+01    0.2198475    0.1520661  52.55 0.0009016241    1.265    0.210
        25  -9.6020     54.6690    149.4681   1.0921717539e+02   3.7897613926e+01    0.2919277    0.1774196  71.13  0.001450687    1.742    0.426
        26  -9.4207    133.9716    145.2686   8.7380264931e+01   2.6455474665e+01    0.6786204    0.1987461 -53.37  0.002038941    4.329    0.769
        27 -11.3073     30.6069    140.4011   1.1514578106e+02   4.2645097256e+01    0.6231838    0.4093798  82.16  0.002390956    1.403    0.287
        28 -10.6351     90.4081    139.6877   9.7740672054e+01   3.5212658858e+01    0.2751284     0.264484 -22.08  0.001621599    1.188    0.158
        29  -7.9621    158.1887    160.6200   8.4794713977e+01   1.9150461441e+01    0.1884527    0.1194464  29.68  0.000305365    1.562    0.360
        30  -8.5433    105.8825    130.8982   9.1784624538e+01   3.4636054892e+01    0.3142425    0.2137158 -61.52  0.001373267    1.560    0.359
        31 -10.3969     32.6577    130.5956   1.1358567768e+02   4.4839898225e+01    0.4415646    0.1742502 -74.31  0.001874272    2.310    0.567
        32  -9.2302    112.3216    130.0600   8.9849518391e+01   3.3670460092e+01    0.2789378    0.2068697  20.20  0.001339671    1.615    0.381
        33  -9.7002    103.0037    139.3444   9.4204495115e+01   3.3224357742e+01    0.5128639    0.3239106 -21.67  0.002053885    2.815    0.645
        34  -9.4215     99.3075    126.1849   9.2681603123e+01   3.6868186603e+01    0.3096461    0.2439422 -29.31 0.0007148253    1.543    0.352
        35  -8.1164    135.2876    126.3418   8.3054805213e+01   3.0104802327e+01     0.149187    0.1164261  -6.84 0.0004798503    1.644    0.392
        36 -10.6878     89.4814    154.6404   1.0040232637e+02   3.1956048815e+01    0.5732923    0.4111025  -6.72  0.002749958    2.207    0.547
        37  -9.5133    118.8446    123.3601   8.6643684257e+01   3.3940641040e+01    0.3845893    0.2298978  -0.06  0.001042607    5.729    0.825
        38  -8.2266    108.1353    119.1531   8.8660603679e+01   3.6901113938e+01    0.2099098     0.196949   2.35            0    1.180    0.153
        39  -8.0188    168.5485    113.0763   7.2214324244e+01   2.5865995979e+01    0.2104393    0.1225913 -59.39 0.0008079103    2.564    0.610
        40 -11.3092     32.2519    108.0726   1.1107016250e+02   5.0525901102e+01    0.6353812    0.2287998 -68.52  0.002552293    2.376    0.579
        41  -8.3236    114.7599    111.0516   8.4898354363e+01   3.7466502273e+01    0.2042008    0.1269796 -51.08 0.0008852732    1.624    0.384
        42  -8.2533    205.4198    110.1509   6.4529897167e+01   1.8758073761e+01    0.2301891    0.1769436  35.21 0.0006263452    1.366    0.268
        43 -10.6121     52.0376    108.2375   1.0419931764e+02   4.8359462351e+01    0.4474314    0.3684318  78.73  0.002502304    1.198    0.165
        44 -10.3547     43.2909    109.4448   1.0742389997e+02   4.9062387070e+01    0.2905135    0.2704063 -40.99  0.001765966    1.217    0.178
        45 -14.5230     38.1515    249.2108   1.2000744963e+02   2.0016801539e+01     8.614149     2.478415  23.09   0.02299199   11.281    0.911
        46  -9.1124    134.6769    104.9537   7.8010202428e+01   3.4695319810e+01    0.4944153     0.137181 -40.31  0.001374132    4.015    0.751
        47  -8.7575    241.6935    101.6535   5.7136551824e+01   1.3121384935e+01    0.1317814   0.09108937   2.96 0.0007042777    1.698    0.411
        48  -8.4304     51.4841     92.0539   1.0132188678e+02   5.2529078598e+01    0.2217121   0.09264159 -44.91 0.0008089512    2.709    0.631
        49  -8.0266     75.2590     84.8169   9.0728065080e+01   5.0867877136e+01    0.1931531    0.1700637 -18.69 0.0004780369    1.294    0.227
        50  -8.6991     58.2105     67.1812   9.2338272166e+01   5.7770702197e+01    0.2178486     0.187206 -31.22 0.0005374826    1.207    0.172
        51 -15.6216      6.2337    207.1567   1.2469661053e+02   3.0344438250e+01     17.19542    0.9409289 -81.78    0.0245352   13.987    0.929
        52  -9.7529     54.0341    221.8549   1.1552897547e+02   2.2935336553e+01    0.4058267    0.2585716  37.70  0.001383981    1.295    0.228
        53 -12.0324    188.2300     46.1837   5.0096726642e+01   3.2264377794e+01    0.8724065    0.6664724  -1.28  0.002913573    1.597    0.374
        54  -9.5792     60.0450    232.2355   1.1496331014e+02   2.0462742801e+01    0.2099706    0.1569088  50.79 0.0004939932    1.024    0.023
        55  -8.2982     60.5619    220.5121   1.1409591376e+02   2.2436442519e+01    0.1635238   0.09653072 -58.09 0.0006586266    2.121    0.529
        56  -8.5446     71.3342     53.5519   8.2228450477e+01   5.8724408952e+01    0.2879368    0.1253744  53.37 0.0009599266    3.368    0.703
        57 -10.0796    145.7753     50.2322   5.8645652838e+01   4.2357974934e+01    0.5296518      0.33711 -74.30  0.001769232    2.306    0.566
        58  -8.6737    147.7957     43.9493   5.6065085446e+01   4.2806189781e+01    0.2477143    0.2136863  70.92 0.0004083171    1.172    0.147
        59 -10.2556     32.7886     31.5060   9.2248288691e+01   6.9247382511e+01    0.5842476   0.06530128 -53.22  0.001487019    6.038    0.834
        60  -8.2807     92.7721    217.2265   1.0709887524e+02   1.9055377572e+01     0.167185    0.1287181  50.18 0.0002907883    1.104    0.094
        61  -9.2972     49.3243    216.6515   1.1618250235e+02   2.4394245787e+01    0.3254154    0.1957192  49.15  0.001326518    1.277    0.217
        62  -9.6859     48.7880    224.6329   1.1676361977e+02   2.3018592625e+01      0.23593    0.1507624  40.90 0.0009481218    1.232    0.188
