#   1 NUMBER                 Running object number                                     
#   2 MAG_AUTO               Kron-like elliptical aperture magnitude                    [mag]
#   3 X_IMAGE                Object position along x                                    [pixel]
#   4 Y_IMAGE                Object position along y                                    [pixel]
#   5 X_WORLD                Barycenter position along world x axis                     [deg]
#   6 Y_WORLD                Barycenter position along world y axis                     [deg]
#   7 A_WORLD                Profile RMS along major axis (world units)                 [deg]
#   8 B_WORLD                Profile RMS along minor axis (world units)                 [deg]
#   9 THETA_WORLD            Position angle (CCW/world-x)                               [deg]
#  10 FWHM_WORLD             FWHM assuming a gaussian core                              [deg]
#  11 ELONGATION             A_IMAGE/B_IMAGE                                           
#  12 ELLIPTICITY            1 - B_IMAGE/A_IMAGE                                       
         1  -9.8348     81.1768     13.1674   4.6646763464e+01   6.1366836232e+01    0.3332236    0.1650192  52.80 0.0007752696    1.689    0.408
         2 -10.9494     50.4290     33.2430   6.6826734996e+01   6.4947710408e+01    0.8016835    0.5753839 -17.30  0.004552282    1.398    0.285
         3 -12.5951     61.5205     33.4950   6.2242532672e+01   6.2947615926e+01     1.591976     1.272321 -50.32   0.00915998    1.629    0.386
         4 -12.1689     62.7316     19.5371   5.5495570274e+01   6.4549532717e+01       1.3783     1.218859  64.05     0.008751    1.406    0.289
         5 -11.8468    151.1662     46.8394   4.3096029390e+01   4.0959346597e+01     1.034485    0.7604849   6.39   0.00389833    1.990    0.497
         6 -11.3238    164.7415     40.0272   3.8995667540e+01   3.8635734662e+01    0.4392508    0.3221645  34.52 0.0002201115    1.750    0.429
         7 -11.2728      3.7078     30.4452   9.1176488903e+01   7.1065465056e+01    0.7893637    0.5636976  85.76  0.004251488    2.836    0.647
         8 -12.2952    192.2247     46.3910   3.6967061789e+01   3.1499042444e+01    0.7283738    0.5316409 -19.12  0.003934758    1.751    0.429
         9 -13.2377    243.1902     14.0691   2.5511191335e+01   2.4961205132e+01     2.081105    0.8573745 -44.50   0.01184221    1.855    0.461
        10 -12.6470    182.9017     47.9874   3.8556531893e+01   3.3375513436e+01     0.807981    0.4356422  57.36  0.003942838    1.862    0.463
        11 -11.9290    100.5461     45.7343   5.4012045235e+01   5.3068914506e+01     1.012084    0.6045399 -33.20  0.003142022    1.786    0.440
        12 -10.3941     75.1076     17.7008   5.0421972475e+01   6.2218120260e+01    0.4659797    0.3555962   7.72  0.002713788    1.396    0.283
        13  -9.8184     40.4126     24.2794   6.7376789800e+01   6.7905416396e+01    0.5243095    0.3531051 -59.96    0.0025463    2.962    0.662
        14 -10.8505     44.4712     19.2401   6.2966502449e+01   6.7936585192e+01    0.8780535    0.4649843  29.09  0.004431929    1.832    0.454
        15  -9.9845     37.9960     15.5223   6.4189372409e+01   6.9484664737e+01     0.403125    0.2347901 -37.09   0.00222211    1.910    0.476
        16 -10.1931    107.6522     25.3885   4.4778490231e+01   5.4055897332e+01     0.638001     0.336841  29.86 0.0006339229    2.600    0.615
        17 -10.5266    132.3327     21.4596   3.8587915026e+01   4.8578015468e+01    0.6053569     0.323349 -76.45  0.002059585    2.912    0.657
        18  -8.7854     93.0387     15.0073   4.4286332314e+01   5.8527325861e+01     0.305813    0.1646313  26.93  0.001383823    2.383    0.580
        19  -8.7964     30.1433     19.0065   7.0085259951e+01   7.0196695028e+01    0.3410242    0.2521709 -56.79    0.0019355    2.300    0.565
        20  -8.5230     85.2822     16.3833   4.6864635977e+01   6.0140565835e+01    0.4161663    0.2206325   9.78  0.001718917    3.140    0.682
        21  -9.9807     70.2430      7.3510   4.7273633783e+01   6.4270815503e+01    0.3682998    0.2923026   7.47  0.001171192    1.307    0.235
        22 -11.4855     60.0902     50.9909   7.0009620251e+01   6.0367577874e+01     1.082602    0.4946562 -30.75   0.00297646    2.614    0.617
        23  -8.2056     99.2203      8.6401   4.0369544445e+01   5.7681847355e+01    0.1781129   0.09817103  54.08 0.0003821502    1.506    0.336
        24  -8.6676     92.0628      3.7312   3.9993865879e+01   5.9738912935e+01    0.1742107    0.1389301  53.41 0.0002619733    1.049    0.047
        25  -9.1073     12.5679    153.9453   1.1094267514e+02   4.0936743649e+01    0.1902781    0.1712546  49.37 0.0005312455    1.181    0.153
        26 -10.0517    214.9489    249.6179   7.5275232940e+01  -5.9849815247e+00    0.2533061    0.1822017 -14.73  0.001102239    1.182    0.154
        27 -10.5216    204.3910    250.2518   7.7320647164e+01  -4.8495143168e+00    0.5898476    0.1147477  33.47  0.002103604    4.522    0.779
        28 -10.4576    165.4413    248.9447   8.4773515046e+01   2.1145151945e-01     0.387796    0.2188169   9.70  0.001979121    1.998    0.499
        29 -10.0280    152.3178    250.0926   8.7646634412e+01   1.7647783679e+00    0.3900171    0.1291029  34.09   0.00165371    2.506    0.601
        30  -8.9251      3.4660    151.9886   1.1342395812e+02   4.2078827501e+01    0.1868872   0.08898015  72.59  0.000455499    2.326    0.570
        31  -7.7731     19.4538    149.5859   1.0844183816e+02   4.1516039122e+01    0.1343499    0.1197286 -72.07 6.702579e-05    1.054    0.051
        32  -9.5724     36.7074    144.4193   1.0242392815e+02   4.1272530003e+01    0.3359267    0.1620356  47.01 0.0006362728    2.267    0.559
        33  -9.6031      1.7774    144.2528   1.1326361734e+02   4.4155476004e+01    0.2999803    0.1980156 -86.37  0.001653645    1.339    0.253
        34  -8.9550     49.0008    139.2428   9.7664550902e+01   4.1273470172e+01     0.267435    0.2012459 -76.16 0.0003337391    1.325    0.245
        35  -8.7852     38.1858    139.6297   1.0125192976e+02   4.2376708343e+01    0.1892471    0.1369059   2.34 0.0004335819    1.686    0.407
        36  -8.9443     15.6282    136.6032   1.0817112657e+02   4.5188555325e+01    0.2918617    0.1823612  87.00  0.001448144    1.642    0.391
        37  -9.6756     25.1943    134.2635   1.0474938328e+02   4.5026080396e+01    0.2638708    0.2477247  68.63 0.0005883084    1.117    0.105
        38 -10.1555     30.6930    132.9870   1.0273862700e+02   4.4863532346e+01    0.5067891    0.2483491 -64.95  0.002217348    1.793    0.442
        39  -9.2564     43.5237    132.7356   9.8390576712e+01   4.3610946108e+01    0.3793662    0.1910585 -65.57  0.001599223    1.850    0.460
        40  -9.7725      8.8660    131.8411   1.0982135599e+02   4.6898225390e+01    0.3519674    0.2329475 -70.01 0.0008143442    1.292    0.226
        41  -8.1415     61.6981    132.7045   9.2304894905e+01   4.1363935715e+01    0.1522632    0.1107036 -29.02 0.0001585853    1.576    0.365
        42  -9.3059     82.5760    129.3134   8.4770350399e+01   3.9092529376e+01    0.2891193     0.237969  50.78 0.0007553337    1.298    0.230
        43  -8.6279     73.5240    130.1154   8.7878730752e+01   4.0321954190e+01    0.2234547    0.1474176 -59.83 0.0006030622    1.494    0.331
        44  -9.0735     22.9340    128.9573   1.0477549861e+02   4.6605414533e+01    0.4566135    0.1783313 -42.13  0.001538262    2.880    0.653
        45 -10.4334      3.8045    124.8358   1.1072316483e+02   4.9014729432e+01    0.3402644    0.3094423  11.36  0.001298615    1.287    0.223
        46  -9.0415     69.8876    120.6324   8.7023254151e+01   4.3288392610e+01    0.4575709    0.1980325 -40.47  0.001574589    2.697    0.629
        47 -10.4014     43.3488    122.4529   9.6638509773e+01   4.6318094652e+01    0.4853299    0.2615823 -65.79 0.0002106602    1.765    0.433
        48  -9.6181     46.9363    115.9197   9.4091574481e+01   4.7595286806e+01    0.2861024    0.2506304   9.16 0.0003974512    1.228    0.185
        49 -11.5024     42.2007    109.7883   9.4579521628e+01   4.9712313917e+01    0.6810848    0.5413187   2.77  0.001128353    1.396    0.283
        50  -8.1050     80.6715    121.7423   8.3665116881e+01   4.1305000576e+01    0.2266961    0.1908278 -40.67            0    1.169    0.145
        51  -8.9646     76.6781    120.4890   8.4698230706e+01   4.2267469331e+01    0.3427742    0.2635949  83.02  0.001581896    1.704    0.413
        52  -9.5531     35.1756    122.3868   9.9512839925e+01   4.7202626942e+01      0.32512    0.1748543  35.19  0.001457935    1.955    0.488
        53  -7.9854     50.6512    121.0242   9.3788608190e+01   4.5829441872e+01    0.2659426   0.07010936 -44.84 0.0007049214    4.455    0.776
        54  -9.3963      3.4653     98.9963   1.0758696927e+02   5.5608693744e+01    0.5126684      0.17567 -43.96  0.002061473    2.636    0.621
        55 -11.3789      4.2002    114.1534   1.0934298494e+02   5.1730640119e+01     0.861959    0.4148436 -67.60  0.002473783    1.701    0.412
        56 -10.0390      3.4553    104.9225   1.0842154130e+02   5.4117391556e+01    0.4521842     0.248432 -21.21  0.002199588    2.147    0.534
        57 -10.5526     12.8009    112.5672   1.0602117714e+02   5.1613840444e+01     1.146054     0.217623 -53.87  0.003755535    3.504    0.715
        58  -9.5295     13.3071    105.5650   1.0477961190e+02   5.3369913238e+01    0.2488538    0.2083627 -10.78 0.0008948856    1.315    0.240
        59  -9.7185    108.0098    119.9846   7.4667565090e+01   3.6799685076e+01    0.2255993    0.2196635 -18.99 -0.007547014    1.009    0.009
        60  -9.2072     88.9506    120.1284   8.0588494889e+01   4.0295579784e+01    0.2374738    0.2068908  70.55 0.0004944785    1.323    0.244
        61  -8.1687    101.4889    122.4662   7.7241729961e+01   3.7453324636e+01    0.1543795    0.1522971 -26.71 -1.313296e-05    1.016    0.016
        62  -8.9913     32.8327    112.6698   9.8636317423e+01   4.9952297365e+01    0.3451568    0.2057505  13.16  0.001018417    1.947    0.486
        63  -9.5508     27.2908    113.6162   1.0085558560e+02   5.0221604016e+01     0.349475    0.1926211 -43.93            0    1.747    0.427
        64  -9.7217     25.0269    110.2393   1.0111513372e+02   5.1286986440e+01    0.4817916    0.2883199 -45.92  0.001645194    1.546    0.353
        65  -8.7095     82.1931    110.9717   8.0533523098e+01   4.3700639356e+01    0.2360981    0.1939424 -23.61 0.0004861651    1.305    0.234
        66  -9.9258     66.9900    108.6105   8.5213032523e+01   4.6737246490e+01    0.4602574    0.2616709  10.46  0.001734719    2.619    0.618
        67 -10.0482     70.3428    103.5244   8.2732711785e+01   4.7461671442e+01    0.4101155    0.2855203 -53.75 0.0006890442    1.405    0.288
        68 -10.6637     64.7930    103.0254   8.4613262537e+01   4.8439556366e+01    0.5609574    0.3842798 -32.21  0.002136001    1.565    0.361
        69  -9.9229     65.9307     89.2370   8.0463689043e+01   5.1533538204e+01     0.418042     0.199251 -43.14  0.001654639    2.058    0.514
        70  -9.6921     52.7182     90.0349   8.5817157900e+01   5.3291255222e+01    0.3169802    0.1914647  35.86 0.0006906505    1.736    0.424
        71 -10.7940     51.1182    103.5067   8.9829522887e+01   5.0225930388e+01     1.409586    0.6094984  53.16  0.004285227    4.418    0.774
        72 -11.7450     46.3005     95.6628   8.9812891777e+01   5.2765059964e+01    0.8577759     0.673079 -56.19  0.003582685    1.216    0.178
        73 -11.7618     64.8156     82.8266   7.9005472161e+01   5.3162221994e+01     1.121683    0.7511662  39.38  0.005378534    1.556    0.357
        74 -10.3536     48.7840     85.3249   8.6121386682e+01   5.4923186453e+01    0.5459474     0.273668 -56.73   0.00178402    1.967    0.491
        75 -11.6241     51.7908     80.5490   8.3527441108e+01   5.5618185639e+01     1.244105    0.5296707 -51.04  0.004552038    2.192    0.544
        76  -9.3530     77.5734    107.7145   8.1273178987e+01   4.5271234569e+01    0.2892929    0.2668688 -71.83  0.001534662    1.173    0.147
        77 -10.0572    114.4774    104.6399   6.8731288389e+01   3.8996551586e+01     0.394954    0.2621157  12.22  0.001089257    2.319    0.569
        78  -9.5643     36.4279    104.6928   9.5717632914e+01   5.1630100274e+01    0.3249657    0.2589507 -66.57  0.001085645    1.217    0.178
        79  -9.2043     34.0268     99.0367   9.5465061989e+01   5.3298267611e+01    0.2737165    0.2340937  11.52  0.001157002    1.253    0.202
        80  -8.3585    145.1616    102.8482   6.0216017436e+01   3.2762465289e+01    0.2109942    0.1832796   2.26 0.0005685168    1.329    0.248
        81  -9.0365    109.3190    103.3076   6.9869668944e+01   4.0353515368e+01    0.2876452    0.2178573  59.57  0.001323352    1.528    0.346
        82  -9.8409    112.5122     99.4815   6.7862680394e+01   4.0530736905e+01    0.3494098    0.2647415 -26.56 0.0009966641    1.465    0.318
        83  -9.2394     96.3987    102.2219   7.3541417634e+01   4.3167613119e+01    0.2845557    0.2548517  25.57 0.0004648525    1.127    0.113
        84  -9.7496     97.9229     98.3028   7.1957026518e+01   4.3753815853e+01    0.3087194    0.2344999 -45.77 0.0006784403    1.310    0.236
        85  -8.5528     29.0229    103.3377   9.8315843842e+01   5.2695840909e+01    0.2695924    0.1766559 -10.55  0.001307073    1.826    0.452
        86  -8.7984     14.8715    100.3782   1.0332626741e+02   5.4578058950e+01    0.2899359    0.1600914 -72.50  0.001002365    1.708    0.415
        87  -9.8310     10.9532     97.2504   1.0435478120e+02   5.5621362135e+01     0.281379    0.2233381 -13.55 0.0006841324    1.363    0.266
        88  -9.2683     15.4904     94.9859   1.0212912082e+02   5.5887745006e+01     0.240985    0.1938464 -11.40 0.0006484767    1.332    0.249
        89 -10.3528     80.3588    100.1486   7.8301864256e+01   4.6597536900e+01     0.346736    0.2689877  16.08 0.0003965398    1.419    0.295
        90  -9.2819    116.7257     88.1638   6.3384119404e+01   4.1996293216e+01    0.3594866     0.206222 -32.26 0.0007221409    1.983    0.496
        91 -11.0328    116.5089     96.5009   6.5871001421e+01   4.0322797405e+01    0.6566138    0.4260098  87.02  0.002251019    3.360    0.702
        92 -10.7314    113.7251     93.6044   6.5829937348e+01   4.1525218749e+01     0.582077    0.2526177  42.11  0.001455062    2.327    0.570
        93  -8.9605     70.1040     99.1058   8.1654221941e+01   4.8559728069e+01    0.2284463    0.1896243 -24.19  0.001163089    1.237    0.192
        94  -9.1195    105.6143     97.7350   6.9412524763e+01   4.2336311231e+01    0.2135951    0.1981862  20.14 0.0008922853    1.086    0.079
        95  -9.9409     22.7345     96.8444   9.9542151107e+01   5.4875233055e+01    0.2750826    0.2094908   9.01 0.0002247029    1.445    0.308
        96 -10.1985     72.4486     89.0798   7.7988463734e+01   5.0504013331e+01    0.4570552    0.3591888  88.14  0.001128882    1.838    0.456
        97  -9.2916     29.2228     95.5505   9.6649447793e+01   5.4631768225e+01    0.3229719    0.2449151 -34.38 0.0005910331    1.264    0.209
        98  -8.2465     32.3497     94.6958   9.5192936882e+01   5.4544481409e+01    0.2474367    0.1624194  83.66 0.0009601581    2.220    0.550
        99  -8.5145     86.0957     94.3082   7.4690726979e+01   4.6907806364e+01    0.4033186    0.1153161  46.13  0.001097403    4.278    0.766
       100  -9.9065     40.1370     80.9829   8.8551382451e+01   5.7006022262e+01    0.4692648    0.4126779 -41.74  0.001519639    1.063    0.060
       101  -9.4073    134.2756     93.4373   6.0276673710e+01   3.7060327004e+01    0.2873839    0.1457372  44.11  0.000718981    2.006    0.502
       102  -9.9235     97.8933     90.9501   6.9830763729e+01   4.5369856556e+01    0.4484393    0.3846589 -89.87   0.00224238    1.466    0.318
       103  -9.4804     98.0155     85.1252   6.8034824903e+01   4.6576205680e+01    0.4645151    0.2881626 -25.90  0.001475371    2.029    0.507
       104 -11.3269    107.3666     86.3696   6.5544142785e+01   4.4374088895e+01    0.4938946    0.4147075  62.87 0.0004674327    1.331    0.249
       105  -9.9883     14.9179     87.4222   1.0093065303e+02   5.7796244570e+01     0.568686    0.4349153  34.68  0.003045725    1.506    0.336
       106  -9.5651      7.1398     87.9170   1.0432179185e+02   5.8161480351e+01     0.240517    0.1901619 -15.54 0.0003726261    1.332    0.249
       107 -10.0425    139.4394     84.7417   5.6557368090e+01   3.7568556441e+01    0.5636357     0.274084 -32.03  0.002112207    2.400    0.583
       108  -8.5587    173.9706     87.0030   5.0011041538e+01   2.9328949529e+01    0.2043754    0.1996434 -73.64            0    1.048    0.046
       109  -8.6052    176.6813     85.2974   4.9085535476e+01   2.9023632665e+01    0.2056734    0.1789056  60.12 0.0004971817    1.195    0.163
       110  -8.9685     89.7885    107.9568   7.7231435461e+01   4.3077611213e+01    0.2463381    0.2138089  31.21 0.0002123801    1.167    0.143
       111  -9.6515    161.6342     84.2508   5.1633563332e+01   3.2585015491e+01    0.3472064    0.1922674  61.65  0.001463695    2.005    0.501
       112  -8.6238     88.3069     84.0935   7.0890219039e+01   4.8721912374e+01    0.2589443    0.1913683  27.34 0.0006129525    1.414    0.293
       113  -9.3114     29.4339     83.5270   9.3822284494e+01   5.7543887427e+01    0.2894846    0.2390752  86.87  0.001010149    1.514    0.339
       114 -11.5707     81.2325     55.8768   6.3809303111e+01   5.5571133131e+01    0.7051966     0.608129  21.74            0    1.104    0.094
       115 -10.4477     82.0764     80.1722   7.1809112555e+01   5.0734728494e+01    0.5750108    0.3090263 -43.47  0.002014048    1.852    0.460
       116  -9.6029     82.0275     73.5155   6.9675992533e+01   5.2111158003e+01     0.449973    0.3431458 -21.84  0.001270123    1.417    0.294
       117  -9.4587     84.8213     65.1261   6.5865567436e+01   5.3190035403e+01    0.6392491    0.3501065  16.38  0.002105846    3.740    0.733
       118 -10.1728     88.3384     73.5152   6.7504344780e+01   5.0879687184e+01    0.4719571    0.3652521   3.30 0.0009885634    1.529    0.346
       119  -9.0059     87.5165     68.6010   6.6139873924e+01   5.1996128381e+01    0.2886447    0.2689243  27.97 0.0007677003    1.047    0.045
       120  -9.5870    102.8485     77.1652   6.4047676478e+01   4.7170853560e+01    0.2587223    0.2157409 -37.95 0.0005803186    1.218    0.179
       121  -9.8722    106.3356     73.4533   6.1819680441e+01   4.7129710903e+01     0.397817    0.3391635 -17.56   0.00207693    1.260    0.206
       122  -9.2977    117.0172     67.6694   5.6979304445e+01   4.5795095598e+01    0.3293396     0.258288  36.55 0.0009756886    1.299    0.230
       123 -11.0401    119.0734     61.3699   5.4415988052e+01   4.6392111856e+01    0.7952864    0.5724545  12.20  0.001629098    1.919    0.479
       124 -10.2128    118.4643     81.3302   6.0853482211e+01   4.2959754564e+01    0.7748998    0.3188257  51.59  0.001924429    2.527    0.604
       125 -10.7482    114.4457     73.5315   5.9538287843e+01   4.5324451906e+01    0.8402321    0.6687648 -40.89  0.004277751    1.287    0.223
       126 -10.1991    101.4601     69.9617   6.2137049525e+01   4.8835826984e+01    0.3726014    0.3651595  -8.96  0.001807219    1.048    0.046
       127 -11.1963    107.7688     63.3934   5.8111364495e+01   4.8624758164e+01    0.9671044    0.6933037  -7.55  0.004495291    1.854    0.461
       128 -10.9964    170.9641     67.6279   4.5473590558e+01   3.3230164803e+01    0.7062781    0.3067596  49.81  0.002839222    2.421    0.587
       129 -11.3212    171.7946     77.5712   4.7953703694e+01   3.1427556162e+01    0.5421702    0.5052952  35.89  0.001534418    1.203    0.169
       130 -10.3512    174.1027     71.8978   4.6067914157e+01   3.1834168119e+01    0.3578765    0.2592314  61.90  0.001856077    1.403    0.287
       131  -9.5336    128.0222     80.3732   5.8059105831e+01   4.0989342346e+01    0.4524603    0.3065575  -6.98 0.0003484264    2.331    0.571
       132 -10.6997    126.2010     74.7694   5.6827443050e+01   4.2434337446e+01    0.6347153    0.3039896  47.02  0.002504377    2.046    0.511
       133 -10.0621    154.5666     61.8985   4.6816711612e+01   3.7946546767e+01    0.5608954    0.3929389  39.02  0.002228217    1.650    0.394
       134 -10.8242    149.9882     67.9902   4.9445476973e+01   3.8053918029e+01    0.6335951    0.5406646 -85.08  0.001226883    1.247    0.198
       135 -10.6927    136.6989     77.5681   5.5119596293e+01   3.9512808150e+01    0.6575901    0.3399204  60.73  0.001450338    2.212    0.548
       136 -11.8698    139.6842     72.3492   5.2900570596e+01   3.9737424652e+01     1.048074    0.4818331  55.23  0.001347323    2.168    0.539
       137 -10.1537      5.0229     80.0010   1.0379614542e+02   6.0198284308e+01    0.4418303    0.2439383  -9.74  0.001529251    2.066    0.516
       138 -10.1225      9.1744     79.6051   1.0187322278e+02   6.0059811380e+01    0.4814915    0.2388797 -53.32   0.00174721    1.619    0.382
       139 -10.4123     45.0015     85.4621   8.7717206820e+01   5.5372706115e+01    0.4953007    0.2873458  19.07   0.00109501    1.896    0.473
       140 -10.6035     10.0018     67.8759   9.8923681999e+01   6.2763672844e+01    0.5180587     0.356441 -20.03  0.001771991    1.426    0.299
       141  -9.7554     39.0151     72.5088   8.6630012251e+01   5.9071003887e+01    0.3433152    0.3203161 -86.53  0.001066551    1.334    0.251
       142 -10.2996     18.1627     66.5524   9.4647482399e+01   6.2480977492e+01    0.5435444    0.2748823 -62.32  0.001583331    1.923    0.480
       143 -10.3914     26.9126     76.8817   9.3272082305e+01   5.9351444891e+01    0.7975461    0.3840846   0.79  0.003006577    2.937    0.660
       144 -10.2148     33.6953     69.8849   8.8259144886e+01   6.0262640029e+01    0.4739911    0.3167957 -47.74  0.001528842    1.353    0.261
       145 -10.5712     24.4039     68.4672   9.2183800627e+01   6.1513932649e+01    0.6557276    0.2597973  28.45  0.002788009    2.586    0.613
       146 -11.4027     29.1592     61.8302   8.7951937676e+01   6.2512284574e+01     0.694371    0.3283314 -40.86  0.002282377    1.923    0.480
       147  -9.9965     72.3626     76.2208   7.4070382493e+01   5.3327798289e+01    0.3633099    0.2525989  37.35  0.001313724    1.441    0.306
       148  -8.9164    194.4627     76.5089   4.4001843451e+01   2.6595864405e+01    0.1383031    0.1214064 -61.25 0.0001831481    1.045    0.043
       149  -9.1569     15.7638     74.5470   9.7780821444e+01   6.0823047513e+01    0.3454666    0.2624272  79.72  0.001912128    1.762    0.432
       150  -9.9805    162.7033     74.4731   4.8785619604e+01   3.4021326147e+01    0.4906203    0.2271693  61.48  0.001869165    2.351    0.575
       151  -9.8527    181.8726     71.6523   4.4731024251e+01   3.0123740834e+01    0.1957253    0.1740124  86.04  0.001139777    1.120    0.107
       152  -8.0199      1.6178     71.7265   1.0374498533e+02   6.2332372348e+01    0.1401443   0.07446067 -35.60 0.0006998085    1.706    0.414
       153 -10.6456    203.4969     68.5140   4.0827974715e+01   2.5911387258e+01    0.2743101    0.2105924 -28.14  0.001097018    1.429    0.300
       154 -11.2833    207.0203     67.7700   4.0196323089e+01   2.5285138990e+01    0.5320925    0.2082719 -53.79  0.002037631    2.972    0.663
       155  -8.7298    123.1894     67.7877   5.5423549840e+01   4.4359073304e+01     0.306187    0.1914118 -50.22 0.0008465816    1.771    0.435
       156  -9.8383     93.9866     66.7008   6.3371459476e+01   5.1024161177e+01    0.2740986    0.2506541 -23.96 0.0007906987    1.107    0.097
       157 -10.3983     96.8877     62.1769   6.0913344223e+01   5.1221918795e+01    0.4183789    0.2988508  -9.83  0.001482226    1.791    0.442
       158 -10.9464    189.3884    249.2768   8.0038199618e+01  -2.8977084836e+00    0.5262476    0.2255195  34.22  0.002649278    2.131    0.531
       159 -10.9617     60.4696     63.8382   7.4573291492e+01   5.7877979391e+01    0.8320897    0.6620302  17.59  0.004539224    1.235    0.190
       160 -11.3692     39.5673     61.9717   8.3067949977e+01   6.1286354489e+01    0.7706541    0.4732282  15.21  0.002253066    1.746    0.427
       161 -10.8475     42.1104     54.0754   7.9129313418e+01   6.2556673786e+01    0.7362837     0.382017  13.48   0.00309357    2.542    0.607
       162  -9.6116     47.8039     47.8108   7.4116786132e+01   6.2923603801e+01    0.2946006    0.2330926 -14.27 0.0007803083    1.192    0.161
       163  -8.7095    133.7067    247.6562   9.1268152030e+01   4.6796022032e+00    0.1266763   0.08950221  -6.14 0.0003483398    1.661    0.398
       164  -9.9482    198.4182    244.3847   7.7556613263e+01  -3.3014435466e+00    0.2855905    0.1644707 -26.02   0.00164914    1.689    0.408
       165 -11.8226    178.3067    242.4364   8.1208843359e+01  -4.5936511722e-01    0.6120021    0.3241722  11.22  0.002976086    2.195    0.544
       166 -12.5439    190.9057     58.1638   4.0023956534e+01   3.0156284644e+01     0.584277    0.4787979 -45.33  0.003481882    1.164    0.141
       167 -11.5190    128.4148     55.2968   5.0220440341e+01   4.5168587363e+01    0.8651761    0.6791946  27.54  0.004489159    1.470    0.320
       168 -11.9223    139.0137     55.1719   4.7890391644e+01   4.2667653687e+01    0.8850884    0.7951805  84.52  0.002058081    1.113    0.102
       169 -12.6057    163.6426     55.8855   4.3529236838e+01   3.6716215682e+01     1.306981    0.7616846 -43.27  0.006253006    1.679    0.405
       170  -9.2070    161.7028     35.2763   3.8126279720e+01   3.9950981192e+01    0.2837359      0.20809 -78.08 0.0007115104    1.401    0.286
       171  -9.7790    245.0564    241.9629   6.8836068133e+01  -8.2491302777e+00    0.1999897     0.120229 -25.35  0.001151428    1.376    0.273
       172  -8.4116    212.0380    241.4831   7.4546643342e+01  -4.5293959831e+00    0.1702075   0.09925463  24.74 0.0003652998    1.532    0.347
       173 -10.7130     54.2033     45.0948   7.0179737115e+01   6.2390974427e+01    0.6116974    0.3573932  24.39  0.001989135    1.803    0.445
       174 -10.3788    176.3012     60.7621   4.2800738528e+01   3.3060351472e+01    0.3790014    0.1591249  61.71  0.001541139    2.399    0.583
       175  -9.0327     13.4053     38.8663   8.8475942858e+01   6.8704077005e+01    0.2357276     0.158982   7.17 0.0004768317    1.437    0.304
       176 -10.4390      2.7861     38.6577   9.4638631736e+01   6.9519164039e+01    0.4545984    0.2383705 -66.87  0.001502893    2.274    0.560
       177 -10.4565     20.3696     56.7664   9.0739433013e+01   6.4447631576e+01    0.4830297    0.3221376  33.99  0.001931458    1.724    0.420
       178  -9.4768     16.3272     43.7275   8.8577976112e+01   6.7495933939e+01    0.2652249    0.1808807  -9.21 0.0008314474    1.403    0.287
       179 -10.1220     16.0077     49.7791   9.0805476309e+01   6.6293912178e+01    0.5021591    0.3551157 -72.81  0.002782878    1.898    0.473
       180 -10.2678      9.4484     44.6591   9.2745216858e+01   6.7858620252e+01    0.4983937    0.3820431  84.64 0.0009011798    2.101    0.524
       181 -10.9126    175.8263    239.0215   8.1194940807e+01   4.0369151525e-01    0.2795829     0.233949  29.19  0.001418522    1.290    0.225
       182 -10.0120     10.3339     32.1793   8.7743999158e+01   7.0235786236e+01    0.4087234    0.2696677 -43.58  0.001722703    1.359    0.264
       183 -10.1829      3.5682     56.1788   9.9276050061e+01   6.5775259784e+01    0.4530352    0.3204269   4.72  0.002030922    1.481    0.325
       184 -10.0878      3.0287     51.7854   9.8410763315e+01   6.6763572172e+01    0.4266324    0.2474748 -38.15  0.002389665    1.425    0.298
       185 -10.7700    180.9951     56.3723   4.0961619798e+01   3.2635099103e+01     0.343585    0.2409787 -66.76   0.00117076    1.489    0.328
       186  -8.7085    221.0372    239.2748   7.2558805270e+01  -5.2727748886e+00    0.1713644    0.1263267   2.59  0.001169762    1.066    0.062
       187 -10.5900     93.9567     44.2128   5.5360340935e+01   5.4759327937e+01    0.9998811    0.2889089 -39.38  0.003350625    3.640    0.725
       188 -10.5102     83.0075     40.5574   5.7382810432e+01   5.7652161179e+01    0.7593632     0.313948  41.10  0.003017483    2.350    0.574
       189  -9.8563     82.3858     35.4735   5.5566256113e+01   5.8501579389e+01    0.3828069    0.2431296  56.75  0.001575056    1.630    0.387
       190  -9.7735     82.8728     30.1786   5.3268723416e+01   5.9095757421e+01    0.5726677    0.3568065  22.99  0.001128093    1.918    0.479
       191 -10.5560     90.2792     37.4193   5.3880699788e+01   5.6531527951e+01    0.5712898    0.4461318  -2.44  0.003130455    1.446    0.308
       192 -11.8250    127.4965     39.0575   4.5186160515e+01   4.7684497494e+01     0.871286    0.6430708  79.92  0.001841758    1.458    0.314
       193  -8.8912    122.9681     31.9020   4.3750277094e+01   4.9663276439e+01     0.438092    0.1771159  64.24  0.001729767    2.399    0.583
       194  -8.3134    110.7807     45.0606   5.1041267061e+01   5.0824344901e+01    0.1670903    0.1157915 -34.17 0.0003450557    1.540    0.351
       195  -9.1937     41.3050     43.0946   7.5285233463e+01   6.4727184113e+01    0.4397559    0.2885963 -58.88  0.002188923    2.219    0.549
       196  -9.1992     23.5065     43.9918   8.4748114608e+01   6.6755057831e+01    0.2417202    0.1805753  10.95 0.0006633532    1.287    0.223
       197 -12.0573    197.3929     55.2426   3.8466636013e+01   2.9151044363e+01    0.6339049    0.2607927 -31.60  0.002642183    2.591    0.614
       198 -11.6160     30.5524     37.7903   7.8534929947e+01   6.7107731211e+01    0.3065534    0.2285051 -18.01  0.000547229    1.205    0.170
       199  -8.4542     25.4038     38.2786   8.1499771377e+01   6.7629207329e+01    0.2185788    0.1723601   6.69 0.0006553018    1.165    0.141
       200  -9.5342    174.7730     55.4334   4.1638957835e+01   3.4193125272e+01    0.2393942    0.2236074   4.43 0.0007478417    1.310    0.237
       201  -8.7424    141.5551     40.3303   4.2866414253e+01   4.4137162015e+01    0.2384976    0.1783806 -57.73 0.0006459047    1.429    0.300
       202  -9.2540    110.7751     39.2750   4.9016844321e+01   5.1623320089e+01    0.4249319    0.2834077  58.03  0.002152662    1.398    0.284
       203  -9.3886    111.5896     33.9424   4.6939953889e+01   5.2119593251e+01    0.3885385    0.3168246  18.53  0.001525883    1.385    0.278
       204 -10.2089    192.3172    233.6565   7.7060334995e+01  -9.2680199964e-01    0.2861018    0.1976236  30.12  0.001738862    1.407    0.289
       205 -11.1787     86.9935     47.1351   5.8617786803e+01   5.5821190437e+01     0.701375    0.3814568  42.90  0.003183213    1.719    0.418
       206  -9.8073     91.7062     31.1128   5.1012357096e+01   5.7041634787e+01     0.643729    0.2586644  57.60  0.001735994    2.435    0.589
       207 -10.4160    138.4544     35.0331   4.1796533643e+01   4.5554717056e+01    0.5191146    0.2443214  56.18  0.002299602    1.908    0.476
       208  -9.9587    177.3045    234.9102   8.0262691717e+01   8.6306498321e-01    0.1767492    0.1609045 -40.88  0.001075115    1.439    0.305
       209  -8.7002    237.7643    219.7474   6.6423010926e+01  -4.4734247985e+00    0.1739198   0.08479077 -44.39  0.000888926    2.424    0.587
       210 -10.2617     96.1774     74.3286   6.5207149732e+01   4.9125183421e+01    0.6696318    0.4271899 -41.72  0.003060962    1.596    0.374
       211  -8.7978     98.2982     31.9698   4.9530571532e+01   5.5447710722e+01    0.2793285    0.1862383  38.13  0.001095278    1.466    0.318
       212 -12.3353    209.5715     57.3542   3.7486094379e+01   2.6261593514e+01    0.6842507    0.3283922 -42.35  0.003333422    1.813    0.448
       213 -10.1156    130.4374     30.7556   4.1912108656e+01   4.8003200985e+01    0.4775171     0.212047  61.98 0.0008868098    2.016    0.504
       214  -9.2350    154.0202     29.6600   3.7659720428e+01   4.2451908090e+01    0.2458731     0.164922 -53.06  0.000696077    1.532    0.347
       215  -9.7083    125.3811     27.3700   4.1762045968e+01   4.9611006736e+01    0.2509809    0.2205425 -83.19 0.0007699308    1.180    0.152
       216  -9.6200    213.0629    216.2211   7.0197440499e+01  -9.2446529552e-01    0.1954008    0.1408354  -4.30 0.0005355229    1.215    0.177
       217  -8.5239    222.6654    213.6860   6.8011616984e+01  -1.7641047725e+00    0.1299652   0.07942326  -6.42 0.0007046196    1.687    0.407
       218  -9.1985    219.2615    210.7875   6.8119200183e+01  -8.8662506588e-01    0.3421711    0.1189529 -32.24   0.00140471    2.903    0.656
       219  -9.4710    229.5935    203.2027   6.4950033349e+01  -1.0472292433e+00    0.1752018   0.09601671 -27.34 0.0008619807    1.606    0.377
       220  -8.8707      6.8299    176.3340   1.1437371668e+02   3.5746934375e+01    0.3068384   0.08358471 -56.01  0.001113475    3.553    0.719
       221  -9.7488    103.5372     23.5370   4.5048568215e+01   5.5223679014e+01    0.3409449    0.2403538  67.29  0.001254552    1.385    0.278
       222  -9.3089     23.8666     26.2222   7.7128111312e+01   6.9906323825e+01    0.3443663    0.1572688  23.19   0.00164972    2.205    0.546
       223  -9.2861    149.0127     23.9556   3.6737819109e+01   4.4293309642e+01    0.3133398    0.2127353  72.52  0.001717738    1.336    0.252
       224  -7.5912    101.2723    176.2709   8.8454273077e+01   2.4350947764e+01    0.1423779    0.1138228 -16.97            0    1.480    0.324
       225  -8.5968     94.8901     24.3002   4.7482407282e+01   5.7132607923e+01    0.1822103    0.1453018  49.81 0.0002175181    1.104    0.094
       226  -8.9404     16.4527    174.4763   1.1168506877e+02   3.5429195677e+01    0.1319323    0.1135709  82.43 6.393882e-05    1.015    0.015
       227  -8.2452     92.2357     19.0160   4.6087272646e+01   5.8307598129e+01    0.3042822    0.1887813  40.22  0.001587139    1.513    0.339
       228  -9.3929     89.4868     23.4526   4.8597913231e+01   5.8447474485e+01    0.2849039    0.2606549  36.79  0.001095533    1.048    0.046
       229  -9.3992     85.4270     22.1413   4.9207672457e+01   5.9496461767e+01    0.3738834    0.1693166  51.05  0.001156579    1.881    0.468
       230  -8.5420    157.5651     21.6603   3.4895717103e+01   4.2497799694e+01    0.1704954    0.1133052 -46.75 0.0009331038    1.517    0.341
       231  -8.4713      2.2331     21.0441   8.8330949962e+01   7.2894943179e+01    0.2859829    0.1348245   7.19  0.001229434    2.188    0.543
       232  -9.5944     19.9356    171.8129   1.1050936156e+02   3.5794513493e+01    0.2348819    0.1196459  51.84  0.001094454    1.963    0.491
       233  -9.7964      7.5199    166.7796   1.1347747451e+02   3.8063432229e+01    0.3184291    0.1625836  24.82  0.001574495    2.107    0.525
       234  -8.8717    116.9031     16.1553   3.9568762774e+01   5.2820618071e+01    0.1830314    0.1350505  45.05 0.0004748056    1.308    0.236
       235  -9.1032     37.1882    159.8422   1.0431429738e+02   3.7201060785e+01    0.1941053    0.1579821 -40.11 0.0006175209    1.353    0.261
       236 -10.8518      6.1205    158.4944   1.1320223111e+02   4.0249281022e+01    0.4318461     0.266023 -85.99  0.001878565    1.447    0.309
       237  -8.8087     30.7926    157.6264   1.0594522559e+02   3.8416884852e+01    0.1919606    0.1178264  39.14 0.0004503736    1.644    0.392
