#   1 NUMBER                 Running object number                                     
#   2 MAG_AUTO               Kron-like elliptical aperture magnitude                    [mag]
#   3 X_IMAGE                Object position along x                                    [pixel]
#   4 Y_IMAGE                Object position along y                                    [pixel]
#   5 X_WORLD                Barycenter position along world x axis                     [deg]
#   6 Y_WORLD                Barycenter position along world y axis                     [deg]
#   7 A_WORLD                Profile RMS along major axis (world units)                 [deg]
#   8 B_WORLD                Profile RMS along minor axis (world units)                 [deg]
#   9 THETA_WORLD            Position angle (CCW/world-x)                               [deg]
#  10 FWHM_WORLD             FWHM assuming a gaussian core                              [deg]
#  11 ELONGATION             A_IMAGE/B_IMAGE                                           
#  12 ELLIPTICITY            1 - B_IMAGE/A_IMAGE                                       
         1 -13.0124    195.1427     31.6265   6.5064413581e+01   3.1825749390e+01     1.027743    0.9044064  32.18  0.005882949    1.361    0.265
         2 -13.9067    208.6772     14.9753   5.9153519396e+01   3.0386893319e+01     1.472637     1.063987  28.64  0.007865194    1.926    0.481
         3 -12.0214      2.1079      4.2514   1.2934279261e+02   7.8601268765e+01    0.6017485    0.3971308 -24.25   0.00370416    1.343    0.255
         4 -11.8322      2.3026     13.3742   1.3276785810e+02   7.6596401799e+01    0.6992529    0.1722197 -69.49  0.002591953    3.527    0.716
         5 -10.4314    189.9860     15.5203   6.0924228803e+01   3.4964841602e+01    0.2144872    0.1815986 -45.09 0.0007771834    1.132    0.116
         6 -11.9901    199.9178    246.4487   1.1096807915e+02  -6.9919782076e-01    0.4845207    0.1855834  32.81  0.002282327    1.986    0.496
         7 -10.3124    193.9182    245.0209   1.1186241076e+02   2.0642735848e-01    0.1735902    0.1341007   2.33 0.0003559584    1.212    0.175
         8 -10.9832    185.0314    250.2797   1.1416749520e+02   7.2209597460e-01    0.3947495    0.1170962  33.45  0.001864253    2.486    0.598
         9 -11.4467    149.8495    248.1915   1.2061859828e+02   5.5284470748e+00     0.298442    0.2956272  79.92  0.002433509    1.507    0.336
        10 -10.7487    143.3766    249.2533   1.2201053371e+02   6.2409737072e+00    0.2247451     0.140998  38.55 0.0005907846    1.302    0.232
        11 -11.0045    125.1722    249.1263   1.2562818183e+02   8.6544153346e+00    0.5066576    0.2805245  25.00  0.003001473    1.543    0.352
        12 -11.4982    133.9308    248.7256   1.2383139982e+02   7.5584935635e+00    0.5106476    0.2437908  35.87  0.002920081    1.510    0.338
        13 -12.0232    135.7444    241.3448   1.2268023700e+02   8.3561654885e+00    0.5221163    0.3546289 -10.80  0.002909808    2.023    0.506
        14 -10.1643    121.9274    244.9582   1.2587497751e+02   9.6834431722e+00    0.2805839    0.1578108  44.04  0.001243303    1.504    0.335
        15 -11.8933    125.2057    240.7403   1.2477546403e+02   9.8674537995e+00    0.6283352    0.3092653  35.66  0.003526872    1.483    0.326
        16 -11.6089    134.1739    232.4951   1.2201349368e+02   9.8721037606e+00    0.4388394    0.3039385 -30.21  0.001863491    1.883    0.469
        17 -10.0796    102.9074    247.5005   1.2999885041e+02   1.1785076855e+01    0.2469523    0.1588219  36.83 0.0006577992    1.117    0.105
        18 -10.8742     98.7904    246.9145   1.3079264929e+02   1.2400339516e+01     0.446923    0.2294658  60.20  0.002395403    2.475    0.596
        19 -10.9566    115.4591    250.4265   1.2770828023e+02   9.7335507201e+00    0.4136708    0.2387226  27.19 0.0008695827    1.412    0.292
        20 -11.7996    109.8092    247.9320   1.2862765122e+02   1.0831439675e+01    0.5318573     0.422291  24.82  0.002912283    1.196    0.164
        21 -10.8746     87.5710    247.7722   1.3315800899e+02   1.3675830710e+01    0.3513862    0.2390029  28.05  0.001233913    1.292    0.226
        22  -9.0341     69.3932    250.5711   1.3703595805e+02   1.5419605290e+01    0.2470663   0.03212176  41.11 0.0009501284    3.458    0.711
        23  -9.5303     69.4705    247.0000   1.3680046842e+02   1.5984266804e+01    0.3293015   0.03436659  33.80  0.001106384    4.462    0.776
        24 -10.1677     74.5519    241.8011   1.3541526935e+02   1.6230376717e+01    0.2930658    0.2220944 -54.83   0.00206421    1.807    0.447
        25 -11.4649     60.2676    245.7225   1.3859678423e+02   1.7257738784e+01    0.4285588     0.324325  48.29  0.001693183    1.076    0.070
        26 -10.7658     67.6325    243.7716   1.3697523849e+02   1.6728445687e+01    0.3844528    0.1719207  37.72  0.002186268    1.559    0.359
        27 -12.0672     63.1326    221.3382   1.3646184188e+02   2.1194953706e+01     1.366377     0.545267 -82.00  0.006241885    3.424    0.708
        28 -11.4993     33.4207    201.7963   1.4206678856e+02   2.8333813795e+01    0.4237609    0.1784675  35.41   0.00052798    1.843    0.457
        29 -14.2734      7.6154    146.8263   1.4611212231e+02   4.2950788510e+01     3.138857    0.8485896 -85.72   0.01161179    3.411    0.707
        30 -13.9104      5.9365    245.1546   1.4925790068e+02   2.2830895893e+01     1.247089    0.8111767  70.93  0.005520486    1.344    0.256
        31 -12.9063     13.7535    238.7869   1.4762537634e+02   2.3223778359e+01    0.6677687    0.3783767  42.10  0.004640546    1.248    0.199
        32 -13.5927     27.9059    247.0173   1.4510007865e+02   2.0479628910e+01     1.234416    0.6905342  55.07  0.008544034    1.318    0.241
        33 -13.5460     40.4367    243.8675   1.4250863373e+02   1.9737418158e+01     1.177087    0.6909628  37.23  0.007906131    1.278    0.217
        34 -13.3010     36.4092    228.3229   1.4266418559e+02   2.2888452794e+01     1.011956    0.3352641  38.41  0.001805892    1.997    0.499
        35 -14.4493     43.0772    218.6624   1.4075363642e+02   2.3983579392e+01     1.471992      1.24233  -0.22   0.01021975    1.664    0.399
        36 -10.8080    112.8806    230.2740   1.2629100813e+02   1.3168924150e+01    0.3940653     0.264641  15.97  0.001761739    1.616    0.381
        37 -11.4283    105.4487    228.7325   1.2774223007e+02   1.4436725718e+01    0.5472372    0.2375235  33.01  0.002296053    1.777    0.437
        38 -10.2524     91.3614    241.7948   1.3191118629e+02   1.4149224641e+01    0.2623158    0.1842782  53.98 0.0009985423    1.324    0.245
        39 -10.4501     89.9320    238.0930   1.3191140955e+02   1.4931809820e+01    0.2136281    0.1906728 -70.11 0.0008322501    1.468    0.319
        40 -11.7044    246.0677    241.2003   1.0243308612e+02  -5.5154313762e+00    0.3799281    0.1524959  20.14  0.002152089    2.211    0.548
        41 -10.8730    165.9042    242.4735   1.1680767821e+02   4.1435515541e+00    0.3305412     0.086784  34.12  0.001380346    2.823    0.646
        42  -8.5571     83.6193    238.2653   1.3325854430e+02   1.5701118619e+01    0.1279551   0.06361379  49.32 0.0006985642    1.684    0.406
        43  -9.6553     84.6818    241.8040   1.3330555387e+02   1.4987370806e+01     0.256447     0.171923  14.27  0.001572164    1.811    0.448
        44 -10.4976    116.5630    238.7127   1.2636338178e+02   1.1336699610e+01    0.3341121    0.2070099 -30.02  0.001903931    2.479    0.597
        45 -10.9226    104.5112    237.9978   1.2882459640e+02   1.3054111337e+01    0.3188266    0.1625018  21.53  0.001599152    2.135    0.532
        46  -9.2535     61.0361    238.7477   1.3803473785e+02   1.8340521767e+01    0.1716302    0.1116458  40.09  0.001114842    1.130    0.115
        47  -8.8208    172.9851    236.0238   1.1461243706e+02   4.0246883506e+00    0.1373833    0.1066336  16.61  0.000313601    1.081    0.075
        48 -10.9398    129.0467    234.7409   1.2333760583e+02   1.0243354661e+01    0.3459523     0.205201  50.19  0.001987725    1.778    0.438
        49  -9.2913     71.6336    236.1555   1.3564026493e+02   1.7531469495e+01    0.1814999    0.1176777  60.28  0.001163911    1.456    0.313
        50  -9.6581     55.2956    235.8048   1.3906441465e+02   1.9504204846e+01    0.2638575    0.1402339  49.19 0.0009698744    1.418    0.295
        51 -10.0457    165.6305    234.7531   1.1588651003e+02   5.1906001204e+00    0.1309002    0.1158913 -47.12 0.0009463665    1.650    0.394
        52 -10.5183    122.4875    233.3677   1.2456716416e+02   1.1357418018e+01    0.3038964    0.2752078 -29.40  0.001792403    1.415    0.293
        53 -10.7140     62.9980    233.0267   1.3726853231e+02   1.9102000066e+01    0.1893452    0.1349468  40.81            0    1.074    0.069
        54 -10.7771    156.7984    231.6570   1.1725466987e+02   6.8341657797e+00    0.2093358    0.1779487  12.56 0.0003628533    1.174    0.148
        55  -8.9185     78.1134    233.0237   1.3403177608e+02   1.7273664681e+01    0.1917141    0.1544107  78.44  0.001327243    1.402    0.287
        56  -8.3589     92.4999    232.5006   1.3089329119e+02   1.5529504703e+01    0.1232729    0.0925765  39.48 -0.000688874    1.005    0.005
        57 -10.8123    142.1338    229.6341   1.2001435859e+02   9.1848971945e+00    0.3347021    0.2055526 -27.01  0.001890948    2.225    0.551
        58  -8.8939     57.4636    230.9072   1.3831957499e+02   2.0119681827e+01    0.1437592    0.1090474 -89.99 0.0009973007    1.494    0.331
        59 -10.7600     79.5111    225.8946   1.3317168165e+02   1.8344366472e+01    0.3796527    0.2926163 -78.93  0.001663999    1.580    0.367
        60  -9.8632     77.1666    220.8155   1.3328143645e+02   1.9558377202e+01     0.232877    0.1477742  47.53 0.0004442682    1.259    0.206
        61  -9.3204    196.8512    226.2155   1.0870875258e+02   2.0525198429e+00     0.175902    0.1316203  61.61 0.0009753808    3.073    0.675
        62 -10.2470     92.4405    225.9552   1.3032590443e+02   1.6655651727e+01    0.2743535     0.132817  41.25 0.0008328971    1.560    0.359
        63 -10.3923    132.3051    224.5783   1.2148292379e+02   1.1356884265e+01    0.1928844    0.1696739 -12.64  0.001076915    1.345    0.256
        64 -10.1381    117.2909    224.2429   1.2469405788e+02   1.3543486759e+01    0.2166846    0.1770141  30.19 0.0002910926    1.079    0.073
        65 -10.8065     99.2169    223.4498   1.2859193503e+02   1.6181454065e+01    0.3565065    0.2321069  43.42  0.001092144    1.226    0.184
        66 -10.3945    160.4829    223.7283   1.1546581506e+02   7.4387648154e+00    0.2631242    0.1590884  20.15 0.0006381515    1.489    0.328
        67 -11.2326    142.3587    221.6880   1.1897890021e+02   1.0360037147e+01    0.3787671     0.192439  30.77  0.001085999    1.572    0.364
        68  -9.6042    110.7349    221.3961   1.2582677109e+02   1.4943194232e+01    0.2790973   0.09335545 -51.36  0.001191532    3.677    0.728
        69 -10.2155    245.4902    221.0059   9.9490267097e+01  -3.4523281259e+00     0.154188   0.08873093 -22.16  0.001032574    1.589    0.371
        70 -11.0282     72.8742    209.8100   1.3334954389e+02   2.2179459711e+01    0.4689547    0.2631969  20.90  0.001939008    2.004    0.501
        71 -10.5419     70.6373    218.6307   1.3457862859e+02   2.0783357299e+01    0.3523918    0.2619704 -88.39  0.001996013    1.541    0.351
        72  -9.3998     68.2340    214.6364   1.3481604612e+02   2.1834740490e+01    0.2035494    0.1467665  67.29 0.0004907716    1.361    0.265
        73  -8.6027    173.2915    219.2813   1.1225222079e+02   6.2316793050e+00    0.1216611   0.07965814   8.77 0.0001702893    1.530    0.346
        74  -9.5209    104.8681    218.7278   1.2685202730e+02   1.6226397898e+01    0.1717276    0.1624645  13.92 0.0002715135    1.247    0.198
        75  -9.5817     99.8381    217.5097   1.2785967252e+02   1.7141320911e+01    0.2190333    0.1569853 -33.78  0.001092513    1.943    0.485
        76 -10.8504    137.3887    214.4669   1.1911887474e+02   1.2238504391e+01    0.2825569    0.2360802  78.55  0.001263212    1.703    0.413
        77  -8.7126    119.2554    217.3546   1.2348072710e+02   1.4418235756e+01     0.118065   0.09123125  -2.92 0.0002462924    1.608    0.378
        78  -9.6363     88.1565    212.8863   1.3007278883e+02   1.9584058406e+01     0.216901    0.1583883  76.19  0.000757486    1.579    0.367
        79  -9.3770    101.8032    211.7712   1.2680767825e+02   1.7902458626e+01    0.2960034    0.1065465  47.95  0.001188851    2.725    0.633
        80 -10.5692     84.8770    234.3580   1.3268505915e+02   1.6196522288e+01     0.373742     0.183462  48.33  0.001034838    1.686    0.407
        81 -10.2992    107.2323    209.4413   1.2529523995e+02   1.7551495871e+01    0.3507178    0.2316435 -11.07  0.001281331    2.538    0.606
        82 -10.4867    112.5294    208.3820   1.2394783331e+02   1.6972281530e+01    0.2461733    0.1988233  36.37  0.000342067    1.006    0.006
        83  -9.8693    140.7569    213.0152   1.1819127511e+02   1.1972268835e+01    0.3657106     0.229628  72.33  0.001567105    3.759    0.734
        84 -10.7843     92.1590    204.8026   1.2832010852e+02   2.0567824944e+01    0.8020526    0.2300933  42.88  0.002738865    2.754    0.637
        85  -9.2826     93.5139    201.5089   1.2764227094e+02   2.1015621384e+01    0.4600313    0.2022524  39.39  0.002133596    1.792    0.442
        86  -9.7585     84.5338    229.8741   1.3239575690e+02   1.7006240175e+01     0.222927    0.1765998   4.17 0.0009146997    1.640    0.390
        87  -9.2021     32.8399    206.9051   1.4245630631e+02   2.7356070113e+01    0.1536389    0.1452182  68.48 0.0003486458    1.288    0.224
        88 -10.7869    246.3241    205.9923   9.6943995782e+01  -1.9494629018e+00    0.2226812    0.1233342   9.22  0.001354242    1.658    0.397
        89  -8.8266    125.5387    205.5341   1.2060106611e+02   1.5538316607e+01    0.1332908    0.1080738  31.79 8.026909e-05    1.015    0.015
        90  -9.2746     74.9403    203.5614   1.3231144066e+02   2.3141055912e+01    0.2994985    0.1990665   4.80 0.0007528106    2.249    0.555
        91 -10.4497    250.2509    201.2069   9.5525974717e+01  -1.9015016834e+00    0.3033514    0.1070134 -23.34  0.001421033    2.951    0.661
        92  -8.9008    133.0264    202.6822   1.1850844731e+02   1.4892182597e+01    0.1895241    0.1442393  31.20 0.0003823131    1.073    0.068
        93  -9.7270    103.0536    202.8500   1.2551449749e+02   1.9385325232e+01    0.3474522    0.1765695  40.31  0.001359987    1.582    0.368
        94 -10.3254     84.1988    201.7382   1.2990958918e+02   2.2267177438e+01    0.3621211    0.2261458 -35.52  0.001357337    2.453    0.592
        95  -9.1864     85.7056    195.7042   1.2891453925e+02   2.3269904107e+01    0.2280022    0.1496343  49.02 0.0002151074    1.320    0.242
        96 -11.3234     98.7360    232.3262   1.2953492981e+02   1.4739547355e+01    0.3633038    0.2557008  89.28  0.001533005    1.931    0.482
        97  -8.4811    182.7354    200.3314   1.0744978826e+02   7.5498382182e+00    0.1096762   0.09895493  52.12 0.0002069114    1.577    0.366
        98  -8.9947    127.8081    199.8223   1.1931217569e+02   1.6209180127e+01     0.170788    0.1384892  50.71  0.000378706    1.271    0.213
        99  -9.4238    115.0997    200.1743   1.2233310059e+02   1.8097174161e+01    0.1885387    0.1572562  23.92 0.0002728185    1.146    0.127
       100 -11.3051     96.9275    239.7788   1.3057844572e+02   1.3760133309e+01    0.4643407    0.2733813 -27.90  0.002358482    3.308    0.698
       101  -9.4986    168.7473    197.5701   1.0988390341e+02   1.0134999744e+01     0.322753    0.1648766 -36.26  0.001583889    2.227    0.551
       102  -9.3659    120.1351    199.4030   1.2104608231e+02   1.7471619407e+01    0.1908951    0.1016885  42.80 0.0003537059    1.613    0.380
       103 -11.4507     62.6637    194.8030   1.3453236908e+02   2.6495547601e+01     0.325394    0.2560602 -40.37  0.001641496    1.713    0.416
       104  -9.3449     57.6996    199.2888   1.3611247702e+02   2.6166559465e+01    0.2768212    0.1325276  51.38 0.0007979784    1.779    0.438
       105  -9.8401     53.2511    197.7821   1.3707985487e+02   2.7003924958e+01    0.3069445    0.1617326  39.30  0.001631042    1.503    0.335
       106 -10.2356     57.9436    194.0435   1.3563933659e+02   2.7231906702e+01    0.4239931    0.2981383 -47.33  0.002429821    1.875    0.467
       107  -8.4683    149.7297    198.7330   1.1418064993e+02   1.2952073896e+01    0.1258485   0.09164909   7.62 0.0006858524    1.470    0.320
       108  -9.2051    133.8776    197.8051   1.1762669092e+02   1.5620677340e+01    0.1761778    0.1421319  50.64 0.0004152644    1.307    0.235
       109  -9.6565     97.7798    196.6301   1.2605645855e+02   2.1360504897e+01    0.4310478    0.1868064  44.00  0.001211382    1.953    0.488
       110  -9.5525    102.8383    196.0501   1.2475528783e+02   2.0729652687e+01    0.1996144    0.1720047  41.96 0.0006915766    1.044    0.042
       111  -9.4094     38.4751    192.7984   1.4035423207e+02   2.9693325160e+01    0.4430717     0.175003 -78.36  0.001942375    2.654    0.623
       112  -9.6543     40.8949    188.5898   1.3948970267e+02   3.0341262463e+01    0.3089086    0.1976867 -74.51  0.001060955    1.655    0.396
       113 -10.7120    249.5043    194.0986   9.4433770135e+01  -1.0145897283e+00    0.2940117    0.1936551   9.74  0.001990168    1.235    0.190
       114  -9.8265    113.0083    193.4616   1.2195676210e+02   1.9692763226e+01    0.4021247    0.2083323 -58.63   0.00121511    2.334    0.571
       115  -9.1493     31.8701    195.3588   1.4210037005e+02   2.9828200507e+01    0.2570066   0.06491567  36.39  0.001077039    2.617    0.618
       116  -8.5174    159.7234    194.3432   1.1129966521e+02   1.2088766785e+01    0.1219944    0.1013807  60.48 0.0002634267    1.624    0.384
       117  -9.7656     20.3880    192.1452   1.4469798841e+02   3.1602124702e+01    0.3237164     0.144587  68.58  0.001647638    2.030    0.507
       118  -8.8484    119.4788    193.3689   1.2038556223e+02   1.8704157984e+01    0.2636679    0.1607488   8.18  0.001151752    2.502    0.600
       119  -9.5081     72.8067    192.9288   1.3183629027e+02   2.5592387231e+01    0.1794713    0.1646345  26.44 0.0003537576    1.224    0.183
       120  -9.4862     25.7266    192.4208   1.4343054219e+02   3.1048553574e+01    0.2261993    0.1410901  53.28 0.0007028123    1.261    0.207
       121  -9.8464    191.4865    191.4731   1.0422135787e+02   7.5030359062e+00     0.225659    0.1825294  10.05 0.0006732268    1.023    0.023
       122  -8.9089     84.7825    192.2028   1.2876483419e+02   2.4116086970e+01    0.1631249    0.1474254  14.75 0.0003294682    1.268    0.211
       123 -10.0704     32.5704    189.5599   1.4161616576e+02   3.0993738002e+01     0.354165    0.2599918  41.21  0.002245525    1.183    0.154
       124  -9.6796     30.0624    184.2151   1.4194253231e+02   3.2405401641e+01    0.2915248    0.1700021 -69.79  0.001286735    1.823    0.452
       125  -9.1600    135.2599    190.0503   1.1616061291e+02   1.6802537438e+01    0.1783009     0.159869  29.23 0.0003075513    1.074    0.069
       126  -9.1212     15.1477    190.0950   1.4586755543e+02   3.2500654037e+01    0.1597574    0.1490836  81.17 0.0006262097    1.278    0.218
       127 -10.9871    249.7669    187.9395   9.3320538487e+01  -3.4193512830e-01    0.2870274    0.1683182 -14.41  0.001787488    1.464    0.317
       128  -9.9342     76.7008    188.8316   1.3044280515e+02   2.5935557651e+01    0.2707645    0.1852338  28.77 0.0006710598    1.389    0.280
       129 -11.7030     68.3380    187.3705   1.3242928617e+02   2.7356419197e+01    0.2839337    0.2556738 -24.78 0.0006729822    1.444    0.307
       130  -9.2725    111.3066    187.5463   1.2157355430e+02   2.1118715133e+01    0.2095387    0.1673146 -84.34 0.0007279554    1.565    0.361
       131  -9.3271    244.3302    186.2994   9.3887452473e+01   5.5768636055e-01    0.1225025   0.07216763   3.82 0.0002848518    1.643    0.391
       132  -9.2881    140.1159    183.1555   1.1393702426e+02   1.7273631879e+01    0.2062263     0.176512  32.36 0.0002741253    1.042    0.040
       133  -9.1873     37.4220    183.9956   1.4006769019e+02   3.1712438797e+01    0.2174923    0.1379887  35.34  0.001237488    1.391    0.281
       134  -9.9294     24.4132    184.2206   1.4335697796e+02   3.2941606129e+01    0.2198856    0.1481204  37.04 0.0005963305    1.319    0.242
       135  -8.4847     65.9310    181.9854   1.3252732640e+02   2.8840882802e+01    0.1602827    0.1310616  47.45 0.0003154879    1.039    0.037
       136  -9.5382    115.4216    177.3463   1.1906794360e+02   2.2522771747e+01    0.3285213    0.2140751 -66.35  0.001611453    1.924    0.480
       137  -8.9750     47.7913    179.6955   1.3708089660e+02   3.1545350449e+01     0.186896   0.09529937  37.99 0.0006448231    1.627    0.385
       138 -10.1008     19.9739    179.0599   1.4422538270e+02   3.4482532881e+01    0.1917077    0.1511981  48.63 0.0003154219    1.110    0.099
       139 -12.3303     11.8795    175.2835   1.4611575834e+02   3.6005306229e+01    0.7793348    0.2608285 -71.84  0.003472513    2.874    0.652
       140 -10.6870     19.2433    172.6459   1.4411050347e+02   3.5988858567e+01    0.5069638    0.2088536  57.18  0.002300064    2.067    0.516
       141 -12.4817     14.8470    138.2993   1.4351153147e+02   4.4542672551e+01     1.050348     0.139464  35.28  0.003565323    3.986    0.749
       142 -11.0473     12.1808    166.9196   1.4570533149e+02   3.7877768730e+01    0.2921475    0.1832191  50.64  0.001154901    1.314    0.239
       143 -11.5595     15.6097    165.8187   1.4474633355e+02   3.7859158769e+01    0.3103958    0.2420405  80.34  0.001927513    1.135    0.119
       144  -9.2371     92.7961    178.1707   1.2503160491e+02   2.5917826031e+01    0.1976799    0.1627287  50.65 0.0002444321    1.090    0.083
       145  -8.5928     84.2993    178.0279   1.2725159631e+02   2.7202679318e+01    0.2105858   0.08347491 -43.35 0.0007028532    4.126    0.758
       146  -8.9510    182.4732    176.5531   1.0338122517e+02   1.1246148804e+01    0.1351044    0.1151149  16.07 0.0002315345    1.042    0.041
       147 -11.5733     77.7765    175.0959   1.2863862693e+02   2.8780581196e+01    0.2884298    0.2770822 -13.06 0.0006044474    1.259    0.206
       148  -8.8196     68.6528    175.8603   1.3117720872e+02   2.9851611991e+01    0.2460304    0.1607374 -79.19 0.0005907946    1.670    0.401
       149 -11.5048     64.6977    173.4128   1.3198715421e+02   3.0923309202e+01    0.4653094    0.2806956 -48.49   0.00110707    2.053    0.513
       150 -10.1993     68.8424    166.7736   1.3011327333e+02   3.1908211877e+01    0.2584321    0.2433865 -65.84  0.001213692    1.213    0.175
       151 -12.7315    247.8783    101.1425   7.6208133481e+01   1.1120460616e+01    0.8043998     0.464362 -28.89  0.004349243    1.455    0.313
       152 -13.2395    247.7371    115.5979   7.9388105533e+01   9.1907789960e+00     1.531705    0.7697478 -18.31    0.0071928    2.174    0.540
       153 -11.7967    248.0121    142.7290   8.5028086684e+01   5.5200762890e+00    0.5727988    0.4479443  -8.32  0.002883229    1.051    0.048
       154 -12.3811    248.6210    133.7658   8.3105959311e+01   6.6100141801e+00    0.9660752    0.4671721 -24.90  0.004850072    1.853    0.460
       155 -11.1210    107.8204    172.8588   1.2034684788e+02   2.4703501228e+01    0.2423191    0.2221086  42.03 0.0002718752    1.048    0.046
       156  -8.5800     95.2789    172.6694   1.2363305614e+02   2.6735854719e+01     0.144369   0.09898774  62.98 0.0004433474    1.602    0.376
       157  -9.3734     45.9985    172.4722   1.3697644086e+02   3.3389927631e+01    0.2496072     0.228625  48.43  0.000376577    1.146    0.128
       158 -10.5273     43.6641    169.0256   1.3733053697e+02   3.4446737409e+01    0.3436616    0.2307859 -28.32  0.001448181    2.288    0.563
       159 -10.5569     44.9901    164.9640   1.3662088757e+02   3.5255440537e+01    0.3605901    0.2471022  77.90 0.0007569685    1.405    0.288
       160 -10.1048     28.3749    170.5067   1.4158314897e+02   3.5656355354e+01    0.3604311    0.2547277 -74.79  0.001863385    1.448    0.309
       161  -8.7415     52.6150    171.1170   1.3505770909e+02   3.2944276537e+01    0.1611986    0.1189899 -64.18  0.000236127    1.484    0.326
       162  -8.4442    150.7347    170.2836   1.0922630645e+02   1.7841325635e+01    0.1293043    0.1086236  62.96 0.0001900348    1.489    0.329
       163 -12.1361     85.7181    166.5951   1.2539395551e+02   2.9550952510e+01    0.7002735    0.4667179  37.26  0.003543356    1.331    0.249
       164  -9.0992    126.4939    167.5093   1.1466143611e+02   2.2670225228e+01     0.146621    0.1288926  40.00 0.0003761554    1.052    0.050
       165  -8.7212     58.4889    167.4750   1.3308198333e+02   3.3081577894e+01    0.1391174    0.1167941  57.15 3.653955e-05    1.028    0.027
       166  -8.7924     53.7884    164.9551   1.3414664611e+02   3.4246454720e+01    0.1715199    0.1049344 -74.67 0.0004950771    1.675    0.403
       167  -9.1736     33.1130    164.5568   1.3990185003e+02   3.6589501990e+01    0.2296994    0.1193859 -55.56 0.0009081708    2.216    0.549
       168 -11.3562     24.2199    162.1192   1.4220697464e+02   3.7995391450e+01    0.2303181    0.2220833 -88.29   0.00037151    1.232    0.188
       169 -10.4055     89.8297    160.2081   1.2333777112e+02   3.0389966166e+01    0.2380505     0.209355  49.11 0.0002888481    1.018    0.018
       170  -8.6230     40.6170    161.7424   1.3758026689e+02   3.6493746890e+01    0.1245982    0.1008197 -23.88 0.0006970197    1.673    0.402
       171  -9.5396     73.5237    159.5072   1.2789169899e+02   3.2973684568e+01    0.1447697      0.12491  56.40 4.665646e-05    1.039    0.037
       172  -8.8293     52.4657    158.4625   1.3387171280e+02   3.5955081620e+01    0.1377748    0.1201801  61.09  0.000164705    1.007    0.007
       173  -8.9119     47.6329    158.1483   1.3524409939e+02   3.6590541764e+01    0.1861674     0.114453 -62.38 0.0003651006    1.701    0.412
       174 -11.1249     31.8931    155.7319   1.3960336435e+02   3.8818529978e+01    0.4182264    0.2458018 -54.29  0.001213501    1.942    0.485
       175  -8.3305    112.2746    157.6945   1.1670448421e+02   2.7249495279e+01    0.1453963    0.1094995  66.05 0.0002653774    1.544    0.352
       176 -12.1003     23.1910    154.4217   1.4202319334e+02   3.9924465915e+01    0.5285912    0.3374844  65.69  0.002935563    1.381    0.276
       177  -9.8033     84.9318    155.2704   1.2400282361e+02   3.2302188973e+01    0.2022528    0.1698074  42.31   0.00109551    1.086    0.079
       178  -9.0368    228.2302    155.2559   9.0656692608e+01   6.9059224781e+00    0.1626696    0.1379137 -32.17   0.00060083    1.362    0.266
       179  -9.9507    113.8664    150.5722   1.1499176486e+02   2.8555881065e+01    0.2916383    0.2635593 -65.39 0.0007499286    1.214    0.177
       180 -10.6580     98.2238    151.0840   1.1949582556e+02   3.1155125551e+01    0.3908497    0.3220668   6.19   0.00200851    1.449    0.310
       181  -9.5872    101.6396    146.3513   1.1768196862e+02   3.1680719187e+01    0.3967191    0.2250479 -28.48   0.00111041    3.085    0.676
       182 -12.9598     11.8455    212.8307   1.4734376765e+02   2.8163533764e+01     1.168788    0.4623957  39.61  0.005729998    1.776    0.437
       183  -9.8063     86.3958    150.1706   1.2279188136e+02   3.3289431125e+01    0.2372209    0.1794749 -77.39 0.0003773813    1.445    0.308
       184 -10.4416     56.2740    149.5702   1.3176063022e+02   3.7669389216e+01    0.3066726    0.2974855  38.83   0.00187194    1.158    0.136
       185 -12.5485     68.2844    144.3979   1.2740267668e+02   3.7381743475e+01    0.7413236    0.5614641  73.76     0.002305    1.356    0.263
       186 -11.1678     73.1486    139.6358   1.2517385047e+02   3.7879179963e+01    0.4554752    0.3406735  -0.70  0.001329567    1.811    0.448
       187  -9.7366     76.9718    147.0257   1.2512552462e+02   3.5487785127e+01     0.211441    0.1953899  56.51  0.001194022    1.022    0.022
       188  -9.8623     39.9441    146.9771   1.3646357043e+02   4.0169825228e+01    0.2316311    0.1327803  57.26 0.0007597575    1.651    0.394
       189 -10.1598    236.2423    145.8879   8.7459466745e+01   6.9287538319e+00    0.2345625    0.1673939  24.07 0.0007428533    1.389    0.280
       190 -10.3567    133.4070    141.5769   1.0791638893e+02   2.6860844394e+01    0.5811298    0.2735353 -53.30  0.002191701    2.448    0.592
       191 -11.2632     32.6808    140.4673   1.3811275188e+02   4.2521762317e+01     0.348342    0.1912318  74.21  0.001043689    1.853    0.460
       192  -8.9418     41.5156    140.4873   1.3532654903e+02   4.1636847752e+01    0.1379184    0.1235057  72.25 3.820258e-05    1.019    0.019
       193 -10.3561     56.1702    138.8985   1.3046634649e+02   4.0359508119e+01    0.2358787    0.2277694  41.12 0.0003589256    1.132    0.116
       194 -11.3107     60.7698    136.9708   1.2872502697e+02   4.0263728002e+01    0.4303759    0.2944392  74.56            0    1.572    0.364
       195 -10.2597     50.6143    138.1712   1.3215749802e+02   4.1214947279e+01    0.3387155    0.1375591  28.75  0.001081406    2.378    0.579
       196 -14.6647      3.8691    180.3279   1.4826708283e+02   3.5511803087e+01     6.907539    0.9339513 -86.28   0.01916044    7.526    0.867
       197  -9.9190    109.9950    136.2903   1.1331793490e+02   3.2537665953e+01       0.3553     0.272607   0.34  0.001002728    1.723    0.420
       198 -11.5203     44.8646    131.3938   1.3321173475e+02   4.3605471474e+01    0.4192249    0.3600472  77.05  0.002407712    1.070    0.065
       199 -11.2110     33.0004    131.3019   1.3714504773e+02   4.4828274665e+01    0.4167942    0.2004571 -75.12  0.001262155    1.937    0.484
       200 -10.7121     30.1695    126.8190   1.3764775399e+02   4.6242015279e+01    0.2259014    0.1767544  37.05 0.0006697419    1.284    0.221
       201 -11.6103     67.3209    128.8253   1.2532997286e+02   4.1458112733e+01     0.473511    0.3501481 -89.10  0.002334608    1.443    0.307
       202  -9.4012     31.2068    150.6339   1.3941346615e+02   4.0127639469e+01     0.202636    0.1255485  27.20  0.001053598    1.631    0.387
       203  -9.4362    106.1830    128.7917   1.1288481367e+02   3.5020133712e+01    0.3397404    0.1259463 -60.38  0.001021035    3.543    0.718
       204  -8.7428     80.3031    129.3220   1.2113453773e+02   3.9386158352e+01    0.1504063    0.1174832 -24.35 0.0003713896    1.633    0.388
       205  -9.5865     59.4915    128.4772   1.2790194357e+02   4.2610118795e+01    0.1465803    0.1339716  70.08 -9.280079e-06    1.016    0.016
       206 -11.4507     24.0990    127.1311   1.3972203872e+02   4.6672219943e+01    0.3139469    0.2543532 -57.49  0.001208842    1.309    0.236
       207 -10.4311    209.8444    125.8283   8.7517634541e+01   1.4496173203e+01    0.2914494    0.2101185 -22.85 0.0004927153    1.300    0.231
       208 -11.5565     23.7333    121.6359   1.3935773509e+02   4.8121838958e+01     0.464082    0.2359446  -8.85  0.001872478    3.220    0.689
       209 -11.5334     17.4153    121.5440   1.4152627958e+02   4.8611656262e+01    0.3716806    0.2837418 -27.74  0.002116755    1.627    0.385
       210 -11.8643     30.7518    119.5667   1.3669282154e+02   4.8079492706e+01    0.4929208    0.2931539  43.85  0.002436602    1.622    0.383
       211 -10.0283     54.6695    120.8015   1.2838090513e+02   4.5222292070e+01    0.2916937    0.2125469   3.01 0.0009766291    1.763    0.433
       212 -11.0284    249.6177    150.9478   8.6434150341e+01   4.2118483041e+00     0.425292    0.2713189 -27.99  0.002586319    1.353    0.261
       213 -10.3480     66.3246    115.6349   1.2335645011e+02   4.5015879235e+01    0.2917893    0.1242706  41.15  0.001086705    2.246    0.555
       214 -10.8257    168.0658    113.1781   9.2716543766e+01   2.5348696383e+01    0.3507256    0.2958797 -79.91 0.0008119717    1.539    0.350
       215 -12.9136     11.3475    205.8341   1.4725445837e+02   2.9583258071e+01     1.336131    0.6349863   6.55  0.005933004    4.037    0.752
       216  -9.1063    203.4709    111.5168   8.5282937803e+01   1.8049587684e+01    0.1432956    0.1287322  -8.80 4.131589e-05    1.042    0.040
       217  -9.2630     44.7118    105.4176   1.2959577036e+02   5.0452369471e+01    0.2512808    0.1317858  31.23 0.0006458417    1.904    0.475
       218 -11.3311     14.7069    103.8307   1.4101727514e+02   5.3394803612e+01    0.2745642    0.1709477  35.40  0.001439674    1.647    0.393
       219 -10.5427     17.2435     99.0452   1.3956498947e+02   5.4497188199e+01     0.227831    0.1863302  40.28 0.0002840657    1.287    0.223
       220 -12.0229    248.5579    171.9118   9.0610797533e+01   1.7282595702e+00    0.4682137    0.3075652  13.18   0.00297464    1.388    0.279
       221 -13.3438    245.0157    158.0859   8.8528071225e+01   3.9672761599e+00     1.735133    0.7080333 -41.81    0.0077236    2.990    0.666
       222 -11.2276    170.0057    248.2221   1.1672410317e+02   2.8842509740e+00    0.3200001    0.1828988  10.32 0.0009606975    1.883    0.469
       223 -10.3173     81.6395    246.8192   1.3430247519e+02   1.4555530093e+01    0.3235363    0.2041457  79.97  0.002063797    2.041    0.510
       224 -10.1990    222.7834    244.4135   1.0670558049e+02  -3.2207916684e+00    0.1560127   0.07418213  21.58 0.0004576578    1.645    0.392
       225 -11.1154    135.2138    236.5795   1.2226091015e+02   9.1201523941e+00    0.4091155    0.1921348  22.27  0.001794083    2.239    0.553
