#   1 NUMBER                 Running object number                                     
#   2 MAG_AUTO               Kron-like elliptical aperture magnitude                    [mag]
#   3 X_IMAGE                Object position along x                                    [pixel]
#   4 Y_IMAGE                Object position along y                                    [pixel]
#   5 X_WORLD                Barycenter position along world x axis                     [deg]
#   6 Y_WORLD                Barycenter position along world y axis                     [deg]
#   7 A_WORLD                Profile RMS along major axis (world units)                 [deg]
#   8 B_WORLD                Profile RMS along minor axis (world units)                 [deg]
#   9 THETA_WORLD            Position angle (CCW/world-x)                               [deg]
#  10 FWHM_WORLD             FWHM assuming a gaussian core                              [deg]
#  11 ELONGATION             A_IMAGE/B_IMAGE                                           
#  12 ELLIPTICITY            1 - B_IMAGE/A_IMAGE                                       
         1 -10.7919     33.4787     62.9698   9.7424518252e+01   6.0606056630e+01     1.664285    0.5370468 -33.10  0.005170981    4.805    0.792
         2  -9.7664     26.3127     24.5588   8.6985671340e+01   6.8565913291e+01     0.840009    0.3375971 -24.74  0.003444494    3.249    0.692
         3 -10.1839      4.7184     41.7561   1.0404891224e+02   6.7049873823e+01    0.9141374    0.3517444 -62.47  0.004295247    2.503    0.600
         4 -10.1858     73.3952     16.6300   6.3149345353e+01   6.2729883758e+01     1.313052    0.2463552 -31.67   0.00418868    4.950    0.798
         5  -9.4570     78.2622      4.0315   5.5857818415e+01   6.3051142819e+01    0.5059353    0.2797118  -9.34  0.002091409    1.955    0.488
         6 -10.1141     62.9281      3.1895   6.0489401906e+01   6.6051164644e+01    0.4875363    0.3755033  20.16  0.002148721    1.043    0.042
         7 -10.0678     69.6487     40.5918   7.4765873455e+01   6.0111450577e+01    0.8707418    0.3996976 -33.00    0.0026552    2.120    0.528
         8  -9.9289     75.8768     32.2044   6.9046157605e+01   6.0287104531e+01    0.5426585    0.2947114  52.49  0.001777576    2.272    0.560
         9  -9.9304     64.5676     12.7826   6.4516796202e+01   6.4772625293e+01    0.4148939    0.2848015 -28.72  0.001526469    1.544    0.352
        10  -9.7284     63.0342     20.9149   6.8867036886e+01   6.4064084379e+01    0.4848968    0.3154714 -47.47  0.001525016    2.269    0.559
        11 -10.0899     52.3738     13.9700   6.9877708381e+01   6.6680540547e+01    0.6291948    0.3018715  25.58  0.002189098    2.223    0.550
        12  -8.4740     96.4983     12.9825   5.4581565971e+01   5.8441481913e+01    0.3195135    0.1897989  16.81    0.0014756    1.935    0.483
        13  -9.4837     91.5087     26.5230   6.1558885163e+01   5.8004638879e+01    0.4216792    0.2372497 -46.06 0.0007874303    2.421    0.587
        14  -8.2794    104.2089     15.4075   5.3578795894e+01   5.6519411513e+01    0.3928167    0.1881238  15.06  0.001439674    3.624    0.724
        15  -9.1150    103.0633     21.1035   5.6120451825e+01   5.6178356214e+01    0.3342728    0.2067253 -35.39 0.0009765908    1.794    0.443
        16  -9.3554    118.6386     21.4031   5.2439192876e+01   5.2634078650e+01    0.2705613    0.2319448  62.53 0.0005697599    1.187    0.157
        17  -9.8870     10.5742     18.6598   9.2766191444e+01   7.0943647030e+01    0.6661246    0.2677611 -15.11  0.002650496    4.063    0.754
        18 -10.7244     37.2337      9.4712   7.4396804163e+01   6.9465932958e+01    0.8666021    0.2850851 -36.97  0.002492357    3.035    0.671
        19  -9.7405     30.0230     11.0113   7.8733987777e+01   7.0190230339e+01    0.5789191    0.4071838 -49.22  0.003459664    2.264    0.558
        20  -9.4358     24.1452     11.2686   8.1914896155e+01   7.0832411965e+01    0.3425211    0.2297917  -0.83  0.001237623    1.282    0.220
        21 -10.3054     18.3831      4.9978   8.1834894027e+01   7.2323873000e+01    0.7538559    0.5574133 -56.55  0.004507912    2.781    0.640
        22  -9.4636      2.1948     14.0863   9.5578297625e+01   7.2291463675e+01    0.4709522    0.2180082 -59.52  0.002315416    3.089    0.676
        23 -10.4415      5.3467      4.5675   8.9261520579e+01   7.3578366461e+01    0.4782968    0.3562565 -10.38  0.001935446    1.106    0.096
        24  -9.1728    132.7859      4.9162   4.3801841627e+01   5.0840121392e+01    0.4334313    0.3055875  38.38  0.002179612    1.385    0.278
        25  -7.9808    136.4939      1.4648   4.2037722904e+01   5.0228254574e+01    0.1835493    0.1150501  78.14  4.03377e-05    1.604    0.376
        26  -9.4109    132.6998     17.1090   4.7987207887e+01   4.9762718860e+01    0.4214734    0.3135769  70.27  0.001994336    1.334    0.250
        27  -8.8304    133.7701     11.7842   4.5966887143e+01   5.0012358443e+01    0.4504667    0.1905127 -43.45  0.001428701    2.874    0.652
        28  -9.2598    114.4156      9.7139   4.9023473089e+01   5.4746285035e+01    0.3508014    0.1969917  34.93 0.0001797013    1.779    0.438
        29  -8.2302    141.4605     13.2093   4.5100791315e+01   4.8031000885e+01    0.2363415    0.1358979 -13.07  0.001136893    2.109    0.526
        30  -8.1885    126.6788      9.2783   4.6403328100e+01   5.1922971377e+01    0.2068225     0.176238  63.17 0.0004746762    1.103    0.094
        31  -9.2683    125.7336      5.3825   4.5204477609e+01   5.2475280347e+01    0.3404523    0.2224469  20.57  0.001812074    1.752    0.429
        32 -10.1602     46.2531     29.4768   7.9679892918e+01   6.5410608096e+01    0.4862716    0.3003244 -45.61  0.001271876    1.897    0.473
        33  -7.7102    246.1636     10.2015   3.2763286643e+01   2.4126156316e+01    0.1599323    0.1394693 -68.57 0.0004112902    1.117    0.105
        34  -8.1133    156.1594      8.4460   4.1323412840e+01   4.4900512628e+01    0.2348578    0.1004712 -18.65 0.0009887161    2.844    0.648
        35  -8.7002    101.9688      7.9180   5.1145320336e+01   5.7712938444e+01    0.2743813    0.1910748 -40.06 0.0008613152    1.740    0.425
        36  -8.3137    104.4439      2.0894   4.8253046789e+01   5.7640548982e+01    0.3660062    0.1690914  28.88  0.001268318    2.514    0.602
        37  -9.2166    110.8945      5.1701   4.8052431562e+01   5.5938333931e+01    0.4997818    0.2337074  -0.57   0.00208431    3.091    0.676
        38  -8.8612    115.4061      4.2310   4.6765526751e+01   5.4979080587e+01    0.2220192     0.210469 -75.67 0.0006867378    1.243    0.196
        39  -8.2192     97.6001      6.1594   5.1495703857e+01   5.8823568306e+01    0.2448963    0.1571046  24.03 0.0008229297    1.564    0.361
        40  -8.3259     96.0214      2.9591   5.0563866070e+01   5.9431096475e+01    0.1918241    0.1689139  38.98 0.0003975272    1.077    0.071
        41  -7.6344     80.4902     12.9772   5.9190596474e+01   6.1756565229e+01    0.2427309    0.1110728 -31.83 0.0009857361    2.319    0.569
        42  -8.3168     85.4697      2.9209   5.3285345561e+01   6.1677375603e+01     0.180718    0.1189837 -13.62  0.001032221    1.593    0.372
        43  -9.5419     85.1770     12.8994   5.7725991377e+01   6.0822712287e+01      0.39331    0.2915166 -55.73  0.001355063    2.065    0.516
        44  -9.3447    125.1695     12.9208   4.7984992606e+01   5.1951478795e+01    0.3716152    0.1955067 -42.86 0.0006900462    2.271    0.560
        45  -8.4758     89.1314      2.9695   5.2319428334e+01   6.0906611661e+01    0.2705278    0.1737178 -17.32 0.0009003062    1.657    0.397
        46  -8.3518    151.2121      2.0885   4.0071775168e+01   4.6638830573e+01     0.254076    0.1529725 -76.27  0.001206727    2.054    0.513
        47  -7.8657    161.0176    129.3811   7.5541303258e+01   2.4266970974e+01    0.3407919    0.1628724 -51.93   0.00120201    2.434    0.589
        48 -10.0507    200.1859    249.8004   9.0677926569e+01  -4.5232552958e+00     0.410063    0.1654699  42.57   0.00190126    2.576    0.612
        49  -9.6456    189.7925    249.7650   9.2642255603e+01  -3.0350531949e+00    0.2955073    0.2387478 -66.55  0.001858803    2.142    0.533
        50 -10.3346    185.7870    245.7793   9.2819593487e+01  -1.8879209549e+00    0.3590829    0.1917273  22.30  0.001854133    1.868    0.465
        51  -7.5879    126.2778    129.6608   8.4387902189e+01   3.1361431782e+01    0.1545147    0.1247885 -86.86  0.000320866    1.618    0.382
        52  -7.7657    198.9907    127.9910   6.6981198659e+01   1.6492013432e+01    0.2281982    0.1743195   3.12 0.0003115696    1.573    0.364
        53 -10.1664    139.5045    103.9874   7.4180897923e+01   3.4298559486e+01     1.060036    0.4400769 -51.63  0.003255821    2.966    0.663
        54 -10.6619    128.3330    100.8873   7.6273540876e+01   3.7353450919e+01     1.060294    0.5656869 -26.64  0.003109515    2.597    0.615
        55 -10.5069    123.7032     90.2292   7.4452692782e+01   4.0563093442e+01      1.21126    0.5822706 -31.42  0.002045107    2.479    0.597
        56 -10.0551    140.7266    118.0629   7.7658257692e+01   3.1016876496e+01    0.8117028    0.4114069 -54.93  0.001213606    2.405    0.584
        57 -10.1596    117.2535    125.4826   8.5837907588e+01   3.4072846060e+01    0.7637208    0.5033779  76.85  0.001897823    2.791    0.642
        58 -11.3687    121.2877    110.4890   8.0868578686e+01   3.6709585039e+01     1.575371    0.7960002 -49.13  0.003787247    1.986    0.496
        59 -10.3484    108.7520    114.5790   8.5524273145e+01   3.8209070732e+01    0.9433994    0.5616892 -66.74  0.002474041    2.411    0.585
        60 -10.5846    131.2078    118.8601   8.0361247896e+01   3.2823326376e+01    0.9352427    0.6310441 -84.12  0.001928735    2.813    0.644
        61 -10.6916    108.5473     99.5697   8.1540411739e+01   4.1647590065e+01     1.036113    0.7752641  86.35  0.002618067    2.124    0.529
        62  -9.9531     41.8604    122.8807   1.0780776517e+02   4.5808041289e+01     0.691319    0.3871621 -87.57   0.00294802    2.328    0.571
        63 -10.0526     27.3162    122.7348   1.1219488949e+02   4.7161403705e+01    0.5980249    0.3127384  69.85  0.002167692    2.818    0.645
        64  -7.8037    157.8596    122.0660   7.4447474518e+01   2.6489013362e+01    0.2349612    0.2165784 -75.17 0.0006295033    1.237    0.191
        65  -8.1869    152.5012    121.0310   7.5475614032e+01   2.7863354062e+01    0.2453099     0.152139 -42.40 0.0009147795    1.574    0.365
        66  -8.7398     99.6401    119.0368   8.9316685474e+01   3.8809840500e+01    0.5621722    0.3287147 -12.42   0.00178197    3.886    0.743
        67  -8.6716      1.6260    116.8987   1.1905882197e+02   5.0286725047e+01     0.401568    0.1346828 -79.46   0.00139897    2.791    0.642
        68 -10.3144     92.1820    113.1405   9.0108283445e+01   4.1484014453e+01    0.6381779    0.4998693  78.32  0.001690367    1.723    0.420
        69  -8.9991     92.5314    103.5737   8.7537173572e+01   4.3662067866e+01    0.6572934    0.4100009  16.00  0.002725218    2.194    0.544
        70 -10.2703     78.1588    113.0274   9.4436950628e+01   4.3732366168e+01    0.5714667    0.3515685 -75.80  0.001830512    2.327    0.570
        71  -8.1910     78.2996    105.2669   9.2505557113e+01   4.5563860731e+01    0.4114076    0.2412737 -10.82  0.001474523    3.238    0.691
        72  -9.5317     81.6096    100.4507   9.0193387094e+01   4.6181093480e+01    0.5377954    0.3067186 -65.77  0.002094729    2.321    0.569
        73  -8.0707     81.9705     94.3113   8.8415618372e+01   4.7532370093e+01     0.381891     0.222779 -16.65  0.001414016    2.875    0.652
        74  -8.1542    152.8463    115.5781   7.3972171335e+01   2.8945423998e+01    0.2165579    0.1517725  57.53 0.0004745961    1.651    0.394
        75 -10.8147    133.6381    109.5429   7.7244602843e+01   3.4370702297e+01    0.9461205    0.4921329 -50.42  0.002323086    2.039    0.510
        76  -7.6960    167.2214    114.1816   7.0226725662e+01   2.6070047975e+01    0.2078089    0.1837786 -75.49 0.0003990304    1.333    0.250
        77  -8.2122     63.5623     81.7803   9.1236424859e+01   5.3074078811e+01    0.2725725    0.1714455 -72.83 0.0004317402    2.533    0.605
        78 -10.4777     62.9872     95.7665   9.5212201304e+01   4.9964901904e+01    0.8278336    0.5148801 -85.25  0.001724388    3.027    0.670
        79  -8.9140     65.3798     85.7265   9.1704233211e+01   5.1945400782e+01    0.6246656    0.3465633  -2.05  0.002264132    3.451    0.710
        80 -10.2862     65.5945    109.8682   9.7721290422e+01   4.6263267016e+01    0.9105868    0.5191391 -63.64  0.001917575    1.783    0.439
        81  -9.1869     58.9297    109.1375   9.9727529454e+01   4.7290465273e+01    0.5105011    0.2669001 -67.88 0.0006390611    2.119    0.528
        82  -9.3006     35.5712    111.3351   1.0777127700e+02   4.9242684563e+01    0.3203879    0.1329188 -57.57  0.001280152    1.916    0.478
        83  -9.8485     14.3819    111.3226   1.1449844789e+02   5.0882144251e+01     0.505385    0.2453509 -88.93  0.002075602    2.501    0.600
        84  -8.9743     14.7323    104.8520   1.1343374350e+02   5.2415236505e+01    0.2727146    0.1538753 -37.77  0.001132193    1.827    0.453
        85  -8.2227    158.8096    112.0150   7.1600134541e+01   2.8376616547e+01    0.2382874    0.2066945 -60.31 0.0004609137    1.269    0.212
        86 -10.9958     21.4156    101.9099   1.1076325029e+02   5.2670684926e+01     1.419682    0.7130571  79.07  0.003539746    3.720    0.731
        87 -10.0038     20.8044     83.0765   1.0743017639e+02   5.7153919594e+01     1.181812    0.2010019 -62.31  0.003721127    4.179    0.761
        88 -10.5786     25.6159     77.7180   1.0443181272e+02   5.8028743472e+01    0.7930009    0.4899902 -87.56  0.003816884    2.456    0.593
        89  -8.8840    224.9179    248.6947   8.5939867404e+01  -7.7721787160e+00    0.2053093    0.1361961 -12.38 0.0009516863    1.419    0.295
        90 -10.1520     34.3473     90.4039   1.0404414796e+02   5.4375440618e+01    0.5309153    0.2843195 -79.77  0.001974981    2.679    0.627
        91 -10.0370     37.0744     80.9760   1.0084381571e+02   5.6307484652e+01     0.751812    0.3482496 -23.28  0.002870627    3.375    0.704
        92 -10.9011     45.3697    102.6649   1.0284122066e+02   5.0394976827e+01     1.000222    0.5527936  71.17  0.003611042    3.951    0.747
        93  -8.7876     40.1452    106.7410   1.0541862953e+02   4.9933290412e+01    0.2351807    0.1653611 -73.42 0.0006501144    1.410    0.291
        94  -8.3554    149.7467     97.0277   6.9657889609e+01   3.3449306108e+01    0.5126622    0.2815513  20.90  0.001564743    3.790    0.736
        95  -9.5607      5.6022    103.8345   1.1621902297e+02   5.3187968285e+01    0.3689599    0.3322344  66.03  0.001510967    1.304    0.233
        96  -8.2652    166.0255    103.9344   6.7769336715e+01   2.8386668170e+01    0.2658189    0.2124852 -43.27 0.0005687377    1.230    0.187
        97  -9.6827    149.5057    103.1906   7.1443000180e+01   3.2257970222e+01    0.4804093    0.2924472 -53.28 0.0009616339    1.873    0.466
        98  -8.0764     73.8003    102.4520   9.3264769944e+01   4.6896574084e+01    0.2540241    0.1752709 -65.06 0.0005183838    1.587    0.370
        99  -8.7745    159.0960    101.0360   6.8558764794e+01   3.0532239421e+01    0.4431194    0.2222697 -44.29 0.0009410355    1.984    0.496
       100  -8.3033    249.4782     99.4486   5.1891088573e+01   1.1320916078e+01    0.1345139    0.1150417 -38.78 8.596466e-05    1.007    0.007
       101  -9.5143     94.2960     97.0516   8.5199954936e+01   4.4840001765e+01    0.3982315    0.2640772 -53.37  0.000693089    1.536    0.349
       102  -8.7161     96.2253     90.6276   8.2747558540e+01   4.5915533341e+01    0.5187387    0.3158569  -7.03  0.001864226    3.024    0.669
       103  -9.4834    239.7614     96.4056   5.2549014488e+01   1.3686525703e+01    0.3486132    0.2423776  17.06 0.0004923479    2.150    0.535
       104 -10.1644      4.4867     89.5585   1.1448707848e+02   5.6604437983e+01    0.6318341    0.2928564 -87.88  0.002021949    2.817    0.645
       105  -9.6213      6.1908     78.8364   1.1204454252e+02   5.8994292380e+01    0.6744475    0.1928487 -37.11  0.002564506    3.702    0.730
       106  -8.4437    164.4794     94.1972   6.5438175589e+01   3.0628329105e+01    0.3339959    0.2380359 -39.37 0.0008452358    1.369    0.269
       107  -9.2580    138.7032     92.6035   7.1144103322e+01   3.6814137729e+01    0.3850496    0.2978489 -76.44 0.0008651263    1.793    0.442
       108  -9.5920    140.5712     82.4283   6.7649962708e+01   3.8375527653e+01    0.6221731    0.3235247 -33.66  0.001279879    1.996    0.499
       109  -8.5793    140.0241     74.9845   6.5510810967e+01   3.9875870670e+01    0.4713351    0.2121142 -40.16  0.001340152    2.209    0.547
       110  -8.8307    157.4418     91.4120   6.6242234896e+01   3.2786120052e+01    0.3379939    0.2303685 -36.97  0.001497521    1.443    0.307
       111  -9.8268    110.7560     90.0631   7.8123708486e+01   4.3266389399e+01    0.8725562    0.3859624  29.45  0.002784794    3.366    0.703
       112  -9.8385     81.6060     72.4575   8.1968910485e+01   5.2300442447e+01    0.4115164    0.3284404 -77.24 0.0009573261    1.883    0.469
       113  -9.2321     83.2962     65.0756   7.8920430764e+01   5.3465715067e+01    0.6162053    0.3616753 -10.27  0.002402005    2.737    0.635
       114 -10.1592     85.3125     86.4972   8.5068932310e+01   4.8722071995e+01    0.5119264    0.4036244  89.94   0.00083555    1.928    0.481
       115  -9.6987     87.8307     78.6044   8.1821467267e+01   4.9969791764e+01    0.6875994    0.3771577  22.77  0.002101401    2.389    0.581
       116 -10.2860     48.0075     84.5586   9.7673329914e+01   5.4370156952e+01    0.6675624    0.4409438 -71.82  0.002275438    1.852    0.460
       117  -9.3693     48.4454     77.3844   9.5591764592e+01   5.5936262312e+01    0.5753465    0.3187901  -0.17  0.002320644    2.700    0.630
       118  -8.2123    163.6941     86.3459   6.3396754089e+01   3.2280311970e+01    0.4132021    0.1837064 -27.96  0.001372962    2.882    0.653
       119  -8.8266    149.3028    109.9969   7.3353697056e+01   3.0893570800e+01    0.2227061    0.2116718 -20.89 0.0009143737    1.020    0.019
       120  -8.8607    197.3883     83.6631   5.6074666667e+01   2.4894423755e+01    0.3546066    0.2424804 -20.86  0.001009414    1.681    0.405
       121  -8.9584    150.6694     89.4907   6.7275321746e+01   3.4715314839e+01    0.2977624    0.1882459 -43.07 0.0006857408    1.575    0.365
       122 -10.8884    102.7319     83.3261   7.8508201913e+01   4.6246773453e+01     0.545534    0.4657742  10.87  0.002853954    1.211    0.174
       123  -9.6596    105.0424     71.9762   7.4174194157e+01   4.8049973468e+01    0.7192853    0.4515364 -13.81  0.002556416    2.205    0.547
       124  -8.2958    157.7586     83.7000   6.3950429432e+01   3.4156805224e+01    0.3311747    0.2107592 -40.35  0.001039249    1.550    0.355
       125  -8.7085    156.8911     76.2866   6.1967742536e+01   3.5693074323e+01    0.5127557    0.2666404 -54.40  0.001869288    2.594    0.614
       126  -7.6779    170.5216     83.0323   6.1005452461e+01   3.1274374009e+01    0.2244789    0.1206343 -56.35 0.0008099613    2.540    0.606
       127  -8.9023    149.9454     80.4907   6.4799465590e+01   3.6572017332e+01    0.4939821    0.2096779 -38.63  0.001469595    2.319    0.569
       128  -9.2995     74.4461     79.3102   8.6625149405e+01   5.2028358224e+01    0.7024696    0.2796853 -48.35  0.001904209    2.345    0.574
       129  -9.0444    118.9309     80.4069   7.2793203470e+01   4.3545792264e+01    0.3565296    0.2057268 -46.69 0.0008028354    1.811    0.448
       130  -8.2391    119.8812     76.0925   7.1163002198e+01   4.4174797231e+01    0.2662665    0.2197572  34.23 0.0007844206    1.208    0.172
       131  -8.1600     69.0331     79.2428   8.8524829976e+01   5.2856674318e+01    0.2902089    0.1538368 -38.68  0.001271381    1.787    0.441
       132  -8.2851    184.1369     78.1688   5.6983207650e+01   2.8904974045e+01     0.257582    0.2128786 -51.03 0.0007136824    1.213    0.175
       133  -7.6126    174.5482     78.7958   5.8995776291e+01   3.1064646389e+01    0.2130683    0.1355834 -47.51 0.0009353597    1.617    0.382
       134  -8.7105    166.4044     78.3840   6.0535993052e+01   3.3068590887e+01    0.3451599    0.1854896 -30.81 0.0009037762    1.965    0.491
       135  -8.0202    240.3530     78.3169   4.8313494141e+01   1.6411014838e+01    0.1312282    0.1035586  11.71 0.0007046582    1.741    0.425
       136  -8.6532    131.1350     65.0684   6.4592637873e+01   4.3660619332e+01    0.5464913    0.2580204 -47.90  0.002024115    2.534    0.605
       137  -9.4371    127.3626     75.1964   6.8828512079e+01   4.2707073181e+01    0.3695115    0.2886481 -63.09 0.0009148616    1.610    0.379
       138  -8.5152    128.4431     69.8081   6.6821901565e+01   4.3445353408e+01    0.4371492    0.2710074   1.88  0.001268286    2.851    0.649
       139 -10.6346     54.9487     70.8934   9.1218377675e+01   5.6567487059e+01    0.6768972    0.4469289  60.31  0.001130874    2.683    0.627
       140  -8.8238     55.2997     63.1157   8.8619434028e+01   5.8138024430e+01     0.377585    0.2416218 -12.54  0.001495985    1.840    0.457
       141 -10.0524     62.6047     60.7933   8.4998548351e+01   5.7599048527e+01    0.7796336    0.2777918  31.46  0.002063104    3.088    0.676
       142  -8.3169    162.8336     73.2312   5.9786196683e+01   3.4808430099e+01    0.2532603    0.1978963 -50.80 0.0006933648    1.344    0.256
       143  -9.1317    115.2602     72.2009   7.1220961098e+01   4.5895222438e+01    0.5638241    0.2568454 -34.13  0.001163191    2.297    0.565
       144  -9.8086     15.8937     70.7314   1.0663237446e+02   6.0280741461e+01    0.4613722    0.1988069 -58.06  0.001245518    1.792    0.442
       145  -9.9002     17.0672     61.1256   1.0381281610e+02   6.2307230984e+01    0.6787599    0.5116495   2.25  0.004371063    1.461    0.315
       146 -10.9194     21.7819     53.6088   9.9677951850e+01   6.3552400054e+01    0.7994865    0.5372218  85.41  0.003004824    3.080    0.675
       147 -10.7164     23.0863     34.3259   9.2566410606e+01   6.7186952281e+01    0.6289616    0.4002759  -6.78  0.002853939    1.555    0.357
       148 -10.7138    169.9491    248.0080   9.6221809124e+01   1.2636024986e-01    0.4858006    0.2321016  37.40  0.002418591    1.742    0.426
       149 -10.2625     12.5364     45.7800   1.0153895794e+02   6.5792501025e+01    0.9376704    0.3950369 -11.45  0.004028289    3.408    0.707
       150 -10.1274     71.2659    125.8251   9.9382635052e+01   4.1595469577e+01    0.5766139    0.3640272 -81.98   0.00130369    2.121    0.529
       151  -9.5723      6.8967     32.3517   9.9988806739e+01   6.8753480727e+01     0.285738    0.1942318 -31.41 0.0009975584    1.129    0.114
       152 -10.0781      7.2442     28.1365   9.8319580479e+01   6.9514047576e+01     0.411171    0.2390843  26.28  0.001047581    2.049    0.512
       153  -7.8923    175.4684     72.5219   5.7045543874e+01   3.1907483840e+01    0.2216767    0.1357906  45.70 0.0004314665    1.693    0.409
       154  -8.7974    169.3789     71.1975   5.7856352374e+01   3.3584599957e+01    0.2780976    0.2301807 -58.74   0.00110614    1.298    0.229
       155  -9.5376    147.0152     68.9275   6.1969624219e+01   3.9304590095e+01    0.5576516    0.2726196 -45.39  0.001840942    2.207    0.547
       156  -7.9166    156.4986     69.9898   6.0174384967e+01   3.6871039012e+01    0.2199855     0.146978 -35.47 0.0003684843    1.497    0.332
       157  -9.7401     94.8431     68.3693   7.6179623770e+01   5.0731068560e+01    0.4320428     0.268087 -49.08 0.0007137518    1.777    0.437
       158  -9.0725     97.1533     58.0321   7.1860931332e+01   5.2170223285e+01    0.7048769    0.4833879 -24.18  0.003460361    1.489    0.329
       159  -9.4836     88.2120     56.3651   7.4178031037e+01   5.4179027165e+01    0.7864262    0.4314429 -24.97  0.002952824    2.071    0.517
       160 -10.2396     85.1399     48.0678   7.2144105895e+01   5.6161137875e+01    0.4280358    0.3122994 -53.24 0.0009657388    1.816    0.449
       161 -10.3087     89.9660     38.2798   6.6760898079e+01   5.6743491074e+01     1.044771    0.3876595  32.39  0.003333228    4.015    0.751
       162  -8.5407    138.1143     66.3788   6.3277835927e+01   4.1826361369e+01    0.2723468    0.2224874 -66.56 0.0005293916    1.502    0.334
       163  -8.0412    139.0176     61.9546   6.1646454303e+01   4.2353162141e+01    0.3128836    0.2229277  18.44  0.001427624    1.746    0.427
       164  -9.1193    121.1585     65.9386   6.7509622318e+01   4.5752955911e+01    0.3873393    0.2572495 -43.46 0.0008793988    1.576    0.365
       165  -8.4516    122.0657     61.4605   6.5771393582e+01   4.6322616461e+01    0.3761606    0.2150202  30.18  0.001522195    2.127    0.530
       166  -9.5066    109.6648     63.7809   7.0043007591e+01   4.8609192207e+01    0.3902284    0.2748885 -54.47 0.0006310811    1.769    0.435
       167  -8.7190    110.5908     58.2481   6.7869508676e+01   4.9369377687e+01    0.3843013    0.2611832  15.77  0.001114652    1.818    0.450
       168  -7.9934    170.7959     65.3487   5.5888080728e+01   3.4196499616e+01    0.2099549     0.129167  47.42 0.0003190766    1.645    0.392
       169  -8.2101    157.5329     63.2527   5.7921385741e+01   3.7730848388e+01    0.2589078    0.1941908 -49.99 0.0006576956    1.423    0.297
       170  -8.4995    164.4669     61.0335   5.5850696051e+01   3.6406495100e+01    0.3486508    0.1386248 -35.67  0.001206891    2.469    0.595
       171  -9.8298     73.0998     59.1782   8.0493595201e+01   5.6303027756e+01    0.4661327    0.2634245 -52.03  0.001012474    2.122    0.529
       172  -9.4685     75.0030     50.8268   7.6754505251e+01   5.7500351173e+01    0.5841299    0.3478642   0.98  0.002460525    2.522    0.603
       173  -7.2150    152.4874     60.4919   5.8143677907e+01   3.9384353853e+01    0.1471228    0.1417725 -80.31   0.00080877    1.094    0.086
       174  -9.4503    147.1470     55.9966   5.7891865221e+01   4.1366764955e+01    0.8330152    0.2743237 -26.62  0.002429429    4.228    0.763
       175  -9.0699    149.7521     46.9264   5.4466605322e+01   4.2070010719e+01    0.4971865    0.1820211 -33.90  0.001531048    2.720    0.632
       176  -8.7930    138.7990     56.7663   6.0022941759e+01   4.3235119635e+01    0.3871434    0.2153562 -44.45 0.0009911347    1.951    0.487
       177  -8.1352    138.6820     52.3087   5.8596195558e+01   4.3946285366e+01    0.2163242    0.1981902 -12.77 0.0005903533    1.118    0.105
       178  -8.6503    130.0104     57.8672   6.2509790488e+01   4.5111848054e+01     0.252248    0.2300134 -59.45 0.0004933451    1.246    0.197
       179  -9.3104    118.1036     55.5036   6.4813568363e+01   4.8186738778e+01    0.3718484    0.2934625 -79.88 0.0008106034    1.859    0.462
       180  -8.4203    118.7769     51.2455   6.3154259167e+01   4.8708684328e+01    0.3314137    0.1690587  36.50  0.001335041    2.140    0.533
       181  -9.0620    121.1565     47.0924   6.1079245840e+01   4.8797882866e+01    0.3245924    0.2358388 -44.92 0.0004725947    1.541    0.351
       182  -8.6608     44.0233     54.0227   9.0160849906e+01   6.1337860999e+01    0.2584586    0.1799088 -31.23 0.0006756276    1.233    0.189
       183  -8.5464     53.5201     39.0874   8.0571134825e+01   6.2848334049e+01    0.2455756    0.1913192 -53.45  0.001031422    1.749    0.428
       184 -10.1519     49.9288     54.0280   8.7700552760e+01   6.0625060550e+01    0.5839937    0.4066433 -61.16   0.00227368    1.933    0.483
       185  -9.7266     56.0309     43.4883   8.1277826105e+01   6.1741072618e+01    0.8274856    0.4247952  -1.52  0.002829704    4.339    0.770
       186  -7.3881    157.5137     55.5121   5.5568764500e+01   3.8937938386e+01    0.1444864    0.1404235  88.12 -7.39139e-07    1.052    0.050
       187  -8.6385    162.7628     52.5121   5.3632192261e+01   3.8105788785e+01    0.4924037    0.2388509 -22.57  0.001881837    2.596    0.615
       188  -7.8051    162.4911     46.5072   5.1872248183e+01   3.9024460415e+01    0.2456007    0.1625287 -53.64 0.0005740996    1.710    0.415
       189  -8.9878    105.5474     52.0989   6.7167587073e+01   5.1450178530e+01    0.5412664    0.2749593 -31.90  0.001941658    2.006    0.502
       190  -7.4234    153.3024     53.7234   5.5873826788e+01   4.0226332205e+01    0.1429067    0.1130812 -74.61 0.0002044977    1.542    0.351
       191  -7.5013    172.3793     50.4712   5.1278357190e+01   3.6055419496e+01    0.1405032    0.1329802 -67.18 -0.0001012196    1.058    0.055
       192  -9.7072    130.4435     46.5292   5.8588978604e+01   4.6736925893e+01    0.7818444    0.3327804 -21.66  0.001308686    3.231    0.691
       193  -8.4809    157.4482     49.1905   5.3642631938e+01   3.9879057676e+01    0.2061683    0.1290554 -44.94 0.0006656288    1.690    0.408
       194  -8.6497    142.1260     48.6077   5.6616949002e+01   4.3669606380e+01    0.2750746    0.2080591 -58.43 0.0005022606    1.581    0.367
       195  -8.4118    111.9548     46.9195   6.3470318135e+01   5.0878131393e+01    0.2305797    0.1978913 -27.26 0.0004521451    1.194    0.162
       196  -9.0933    240.9562    247.7512   8.2934875583e+01  -9.7314383260e+00     0.192496    0.1471218 -17.51 0.0004662254    1.321    0.243
       197  -8.7484    100.6893    242.9945   1.0935588373e+02   1.1182913998e+01    0.1577071       0.1425  65.62 0.0002258273    1.114    0.102
       198  -9.3456     60.4390     33.7061   7.5509045212e+01   6.2682851363e+01    0.4063175    0.2687292 -46.27  0.001544952    1.875    0.467
       199  -8.2233     62.5269     26.7631   7.1684948512e+01   6.3365751478e+01    0.3361571    0.1675311  31.16  0.001607638    1.990    0.497
       200  -8.3508    211.8035    237.3997   8.6541484851e+01  -4.4804450245e+00     0.190084    0.1494799 -17.66 0.0002376549    1.262    0.207
       201  -9.0740     69.8849     26.3209   6.8698230311e+01   6.2169767911e+01    0.3009289     0.266656 -17.83  0.001226149    1.234    0.190
       202  -9.1221    187.9959    234.2669   9.0619373875e+01  -5.1783838661e-01     0.255443    0.1850269 -36.09  0.001454411    1.536    0.349
       203  -7.8301    250.0102    231.6652   7.8672851378e+01  -8.9054829427e+00    0.1648231    0.1209172   8.83 0.0007629275    1.090    0.082
       204  -8.8579    210.5732    220.0002   8.3836187326e+01  -1.7905314127e+00    0.2463014    0.2199235 -74.37  0.001321326    1.921    0.480
       205  -9.5868     79.3270     24.0503   6.4399502132e+01   6.0725450548e+01    0.4952001    0.2419535  31.87  0.001251892    2.117    0.528
       206  -9.0303     84.6927     21.9275   6.1749375702e+01   5.9934721988e+01    0.2557077    0.2170264   5.04 0.0006477706    1.084    0.077
       207  -8.6986     40.0358     34.7852   8.4714817169e+01   6.5336931478e+01     0.299081    0.2572034  -0.25  0.001149955    1.169    0.144
       208  -9.9277     37.8377     42.0397   8.8556269860e+01   6.4309939519e+01    0.3525992    0.2957404 -79.86  0.001785606    2.043    0.511
       209 -10.0822     35.8964     37.9935   8.7890784177e+01   6.5254667979e+01    0.3087342    0.1972982 -32.40 0.0003699818    1.312    0.238
       210  -9.1189    153.4534     40.7711   5.1795609131e+01   4.2006070629e+01    0.3550972    0.2255335 -33.82  0.001380879    1.626    0.385
       211  -8.5347    114.1003     40.8788   6.0701761175e+01   5.1276959811e+01    0.4957573     0.243911  -9.70  0.001657431    3.822    0.738
       212  -9.2365    110.2990     32.8082   5.8722924608e+01   5.3198493146e+01    0.5112109    0.2182484 -39.43  0.001358818    2.608    0.617
       213  -7.8385    110.3270     26.3448   5.6276192477e+01   5.3978203435e+01    0.2247971    0.1258628  50.55 0.0006903046    1.606    0.377
       214  -8.9745    104.9466     41.1255   6.3313738983e+01   5.3244914759e+01    0.3358808    0.2240583 -41.52 0.0008483101    1.671    0.402
       215  -8.4303    106.3122     36.2797   6.1106892254e+01   5.3621623772e+01    0.2847354    0.1719881  34.82 0.0009801042    1.643    0.391
       216  -8.9633    139.3562     39.6523   5.4269688412e+01   4.5568533195e+01    0.4385199    0.2440923 -43.94  0.001594233    2.001    0.500
       217  -7.1877    209.5191     40.4481   4.3116791332e+01   2.8554335255e+01    0.1312471    0.1220705 -75.89 0.0008077286    1.041    0.039
       218  -8.2319    122.8443     40.9447   5.8492376808e+01   4.9284592174e+01    0.3960135     0.219394  15.65  0.001449661    3.149    0.682
       219  -7.7873     55.6656    215.8914   1.1583510481e+02   2.2424537931e+01    0.1802254    0.1009899 -86.40 0.0009555634    1.870    0.465
       220  -8.9036    132.8781     35.8483   5.4386605146e+01   4.7607120579e+01    0.3647063    0.2760753  13.98  0.000511229    1.507    0.336
       221 -10.8922    134.0207     31.0241   5.2492700297e+01   4.7929099987e+01    0.3757213    0.2749339  10.85 -0.005334738    1.613    0.380
       222  -8.9535    144.2747     36.4909   5.2215657403e+01   4.4790204694e+01    0.2759036    0.2126622 -58.99 0.0006330666    1.519    0.342
       223  -8.4590    153.6740     34.9064   4.9914842359e+01   4.2700031110e+01    0.1903223    0.1844532 -36.11 0.0006670142    1.094    0.086
       224  -8.5504    118.8837     34.6738   5.7226314533e+01   5.1023811567e+01     0.249555    0.1917225 -31.01 0.0006399654    1.375    0.273
       225  -9.2363    101.1255     32.1357   6.0975421855e+01   5.5284395592e+01    0.3702517    0.2154385 -37.56  0.001057239    1.872    0.466
       226  -7.4193    168.5747     31.7854   4.6443073913e+01   3.9429493846e+01    0.1835863    0.1244126 -42.92 0.0004528677    1.523    0.344
       227  -7.7596     45.5017     15.5193   7.3598145195e+01   6.7525534740e+01    0.1952384    0.1427589 -24.69  0.001004177    1.310    0.237
       228  -8.8233     46.8379     19.9517   7.5119207860e+01   6.6734858384e+01    0.3776716    0.2052053 -16.99  0.001812156    1.934    0.483
       229  -8.8574    198.9298    214.2115   8.5092707147e+01   9.1091736913e-01    0.2408529    0.1775675  32.80  0.000732595    1.280    0.219
       230  -8.9677    153.0516     30.1023   4.8518364625e+01   4.3430127374e+01    0.2872283    0.1792757 -79.60  0.001256068    2.312    0.567
       231  -8.6022     92.4415     20.5771   5.8839252568e+01   5.8509237632e+01    0.3609427    0.2163311  22.92  0.001733301    1.812    0.448
       232  -8.4983     95.8463     16.7937   5.6321521093e+01   5.8198457896e+01    0.2102662    0.2061174 -14.65 0.0003977303    1.237    0.192
       233 -10.3982    230.3331    213.3238   7.8929252018e+01  -3.7416717973e+00    0.2215837    0.1838607   1.32 0.0002224199    1.085    0.079
       234  -8.8158    144.2371     26.1305   4.8840340021e+01   4.6032415641e+01    0.2638785     0.180532 -38.07  0.001023246    1.567    0.362
       235  -7.3107    121.8056    211.0530   1.0094483607e+02   1.4085793777e+01    0.1628965    0.1059893 -57.45 0.0003208027    1.696    0.410
       236  -8.7849    128.4347     25.5096   5.1765806495e+01   4.9894016698e+01    0.3750608    0.2396507 -21.27   0.00142693    1.710    0.415
       237  -8.8881    200.0365    209.7384   8.4073816177e+01   1.4552946820e+00    0.2203804    0.1723144 -18.93 0.0003284297    1.232    0.188
       238 -10.0169     10.8341    207.3153   1.2423088447e+02   2.8915968866e+01    0.4734107     0.283093  28.25  0.002973555    1.985    0.496
       239  -7.1639    140.3612     23.1369   4.8575803625e+01   4.7299220420e+01    0.1852748    0.1192047 -39.52 0.0005731882    1.692    0.409
       240  -8.2558    200.4433    205.0864   8.3144861253e+01   2.1511644641e+00    0.2129454    0.1596495  17.73 0.0003960672    1.219    0.180
       241  -7.7552    227.0786    201.3685   7.7310490943e+01  -1.4725786042e+00    0.1774975    0.1446938  14.74 0.0005293002    1.130    0.115
       242  -8.7857     40.7773     20.4655   7.8107280428e+01   6.7499591385e+01    0.2744728    0.1554341 -37.59 0.0009759863    1.744    0.427
       243 -10.3387    167.9739    199.8773   8.8953434216e+01   8.5322725576e+00    0.2535933    0.2354331 -16.55 0.0004705069    1.111    0.100
       244  -7.5604      8.6531    201.7179   1.2432632597e+02   3.0285430714e+01    0.1026686   0.08047748 -51.77 0.0007014572    1.643    0.392
       245  -9.1344    191.8211    194.1205   8.2838367171e+01   5.4659449347e+00    0.7642937    0.4089175 -62.42  0.002373548    5.508    0.818
       246  -7.2868    132.9846    198.9883   9.6580953149e+01   1.4696961438e+01    0.1608349    0.1432132  36.39 -0.005334738    1.045    0.043
       247  -8.6286    120.0170    197.9809   9.9388334484e+01   1.7053639823e+01    0.1987389    0.1861081  48.64            0    1.010    0.010
       248  -9.2950     52.5038    189.7248   1.1395970453e+02   2.8505349174e+01    0.2176186     0.201159 -73.27 0.0004057625    1.184    0.155
       249  -7.3754    222.9899    187.9993   7.5484776366e+01   1.2845613931e+00    0.1581732    0.1330131  -1.85            0    1.016    0.016
       250  -8.7499    189.8155    184.9204   8.1462945065e+01   7.4698971356e+00    0.2194518    0.1879619  21.03 0.0004589707    1.097    0.089
       251  -7.4687    175.3589    182.1933   8.4010315992e+01   1.0580424386e+01    0.1912994    0.1339833 -53.04 0.0004126206    1.678    0.404
       252  -7.8171    100.7842    175.9727   1.0047150684e+02   2.5025482045e+01    0.1832382    0.1739778  74.83  0.001065483    1.016    0.016
       253  -8.1168    154.8110     17.0808   4.4166085340e+01   4.4412129986e+01    0.2817668    0.1575018 -79.89   0.00117831    2.651    0.623
       254  -8.1992    111.6519     21.4502   5.4090786490e+01   5.4227721429e+01    0.3173577    0.1597791 -26.53   0.00107766    2.100    0.524
       255  -8.8194    234.2794     15.6923   3.4825692067e+01   2.6006822029e+01    0.1961628    0.1808552 -83.42 0.0003016056    1.170    0.145
       256  -8.4388    112.2791     15.4133   5.1650916149e+01   5.4705255004e+01    0.2273616    0.1980016 -45.83 0.0007485415    1.369    0.269
       257  -7.0733    117.4207    174.5807   9.6104694597e+01   2.2603878893e+01    0.1409648    0.1375163  55.19 0.0001546946    1.001    0.001
       258  -8.8546     53.9190    174.0554   1.1184383829e+02   3.1975630314e+01    0.1875538    0.1672332 -85.14            0    1.042    0.040
       259  -7.3880    230.5109    167.5036   6.9911909059e+01   3.4236009686e+00    0.1363513    0.1195681 -17.79 0.0008089626    1.091    0.083
       260  -7.0129    209.6983    161.6326   7.2572366605e+01   8.1198108241e+00    0.1522824    0.1044726  -4.86 0.0007033859    1.738    0.425
       261  -8.2881    139.8565     18.4600   4.7115251411e+01   4.7908188124e+01    0.2534473    0.2000157 -63.05 0.0008150131    1.483    0.326
       262  -7.8938    134.0000    148.9765   8.6823634732e+01   2.5435620095e+01    0.2992026    0.1942553 -59.29 0.0009561885    1.739    0.425
       263  -8.2187    133.5253    145.0088   8.6063513988e+01   2.6430237819e+01    0.3440669    0.1963044 -47.78   0.00142229    1.732    0.423
       264  -9.6148     67.0828    144.2213   1.0405285697e+02   3.7602300179e+01    0.5508496    0.3881323  65.93  0.002755562    1.660    0.397
       265  -7.2776    236.4980    138.5123   6.2602034253e+01   7.2773923389e+00    0.1408126    0.1201536 -20.21 0.0008103328    1.034    0.032
       266  -8.7147    112.4719    133.9655   8.9171929938e+01   3.2971775431e+01    0.3720935    0.2719065  80.54  0.001247534    1.990    0.498
       267  -8.3991     42.1890     27.8909   8.0815739009e+01   6.6196061443e+01    0.2297225    0.1424051 -13.26 0.0002244057    1.600    0.375
       268  -8.9698     83.3398    131.8254   9.7024652428e+01   3.8373034741e+01    0.6697812    0.4093643  77.49  0.002171517    2.981    0.665
       269  -8.0000    238.2264    133.2200   6.1140651056e+01   7.8597777111e+00    0.2278596    0.0922725 -44.81  0.000877534    2.470    0.595
       270  -9.1246    135.8472    131.2475   8.2244942079e+01   2.9095345036e+01    0.5829766    0.2023167 -49.76  0.001815102    3.005    0.667
       271  -9.2899    132.0055    131.4815   8.3305870589e+01   2.9812729335e+01     0.424566    0.2989297 -87.23  0.001684265    2.384    0.581
       272  -9.6844    194.0775    131.0941   6.8711820445e+01   1.6921227411e+01    0.2609649    0.2460646  34.66 0.0002865375    1.127    0.113
       273  -8.1506    142.7169    131.8984   8.0640985175e+01   2.7551408925e+01    0.4326491    0.2264667  59.79  0.001432453    3.110    0.678
       274  -9.8793     98.5043    128.5643   9.1893042187e+01   3.6727183487e+01    0.6365287    0.4090028  75.05   0.00214307    2.742    0.635
       275 -10.1517     58.2551    124.4837   1.0307859338e+02   4.3606619516e+01    0.5929403     0.362449  80.97  0.002197553    2.527    0.604
       276 -10.3781     66.3776    129.0957   1.0150558112e+02   4.1442929818e+01    0.4963962    0.4778351 -17.27  0.002854958    1.134    0.118
