#   1 NUMBER                 Running object number                                     
#   2 MAG_AUTO               Kron-like elliptical aperture magnitude                    [mag]
#   3 X_IMAGE                Object position along x                                    [pixel]
#   4 Y_IMAGE                Object position along y                                    [pixel]
#   5 X_WORLD                Barycenter position along world x axis                     [deg]
#   6 Y_WORLD                Barycenter position along world y axis                     [deg]
#   7 A_WORLD                Profile RMS along major axis (world units)                 [deg]
#   8 B_WORLD                Profile RMS along minor axis (world units)                 [deg]
#   9 THETA_WORLD            Position angle (CCW/world-x)                               [deg]
#  10 FWHM_WORLD             FWHM assuming a gaussian core                              [deg]
#  11 ELONGATION             A_IMAGE/B_IMAGE                                           
#  12 ELLIPTICITY            1 - B_IMAGE/A_IMAGE                                       
         1 -13.8912      2.7743     82.8678   1.0315548832e+02   5.8835893059e+01     4.006711    0.4359334 -73.15  0.008806251    9.676    0.897
         2 -12.8458     38.4727     48.4093   8.0348694889e+01   6.3484627922e+01    0.9104467    0.7372708  46.04  0.005579752    1.494    0.331
         3 -13.3112    236.3025     32.6542   3.0204275821e+01   2.2465572140e+01    0.7157227     0.712186  46.89  0.004916129    1.203    0.169
         4 -10.2241    176.5176     28.5052   3.5539606443e+01   3.7089385542e+01     0.138818     0.132214 -76.52 0.0002831795    1.015    0.015
         5 -14.7064    136.7562    242.6420   9.0457348289e+01   8.7744372496e+00     4.271917     1.140816  45.48   0.01745332    3.316    0.698
         6 -13.0582     80.4640    228.6409   9.9527360363e+01   1.8805171515e+01    0.5820089    0.4729981  24.79  0.002573929    1.511    0.338
         7 -13.5967     97.8918    245.8089   9.7820931098e+01   1.3690554925e+01     1.642915    0.4714316  48.06  0.007311794    2.948    0.661
         8 -13.7702     86.2822    234.7377   9.8969539494e+01   1.7007449721e+01    0.8670218    0.7701398  14.94   0.00396255    1.506    0.336
         9 -12.3331     60.3691    249.3747   1.0478760811e+02   1.7870057800e+01    0.7130757    0.2087625  41.56  0.003654539    2.389    0.581
        10 -13.3153     52.7689    242.8128   1.0570590064e+02   1.9834200162e+01    0.6395695    0.5490683  68.30  0.003211492    1.212    0.175
        11 -12.2636     36.0765    248.1142   1.0892226080e+02   2.0830142917e+01    0.5525486    0.2600896  63.10  0.003534948    1.775    0.437
        12 -12.2744      3.5253    248.0548   1.1435599875e+02   2.4102664151e+01    0.6121981    0.2868221  68.91  0.004262192    1.648    0.393
        13 -10.9087     40.3450    236.6971   1.0755186837e+02   2.2278851970e+01    0.2753152     0.195503  50.88  0.001018015    1.143    0.125
        14 -12.7261     75.5705    247.9033   1.0200012572e+02   1.6250855695e+01     1.351513    0.3516385  40.71  0.006350478    2.704    0.630
        15 -11.1409     63.4816    225.9615   1.0254065988e+02   2.1442834715e+01    0.4759742    0.1834547 -75.06   0.00233889    3.084    0.676
        16 -11.1037     58.6727    222.1242   1.0316267814e+02   2.2720753766e+01    0.3968425    0.2198272  63.03  0.001375031    1.640    0.390
        17 -10.1100     55.2914    228.0567   1.0424816557e+02   2.2067143574e+01    0.2159834      0.19258 -60.82  0.001674217    1.511    0.338
        18 -12.0088     48.5420    221.3685   1.0505165630e+02   2.4063970992e+01    0.4775256     0.335241  48.43  0.002235809    1.197    0.164
        19 -11.5620     46.4656    216.7720   1.0512605913e+02   2.5151545011e+01    0.4143238     0.236139  43.77  0.001524827    1.466    0.318
        20 -10.5737     57.4935    212.4811   1.0262617495e+02   2.4645091614e+01    0.2715482     0.189692  35.29  0.001034223    1.475    0.322
        21 -11.5877     53.6273    208.5005   1.0307686529e+02   2.5870628706e+01     0.486922    0.3337486  64.19  0.002213003    1.226    0.184
        22 -11.4502     23.6925    191.4248   1.0796693910e+02   3.2567826146e+01    0.4881089    0.4268788  13.94  0.003584148    1.639    0.390
        23 -12.8926      4.6490    205.4482   1.1254296046e+02   3.1585524860e+01    0.3623482    0.2538779 -85.27 0.0007288822    1.318    0.242
        24 -13.8597     11.0925    200.7664   1.1107011105e+02   3.1910315683e+01    0.7940853    0.5253183 -89.18  0.003212338    1.305    0.234
        25 -11.2346     39.4779    179.1738   1.0360072808e+02   3.3458582654e+01    0.2096115    0.1881485  84.98 0.0004375989    1.171    0.146
        26 -10.3050    249.6141    172.7737   5.9793673625e+01   1.1148678337e+00    0.1673044   0.09896219 -35.74 0.0009579146    1.691    0.408
        27 -11.5536     47.8363    172.5342   1.0105689635e+02   3.3930427585e+01    0.2230382    0.2034451  67.52 0.0004574574    1.159    0.137
        28 -10.7095      1.6283    163.1370   1.1099551012e+02   4.0503376439e+01    0.2870324      0.12021 -87.93 0.0009435273    2.065    0.516
        29 -10.2060     61.4573    162.5274   9.6669692260e+01   3.4443749734e+01    0.2112467    0.1835161  77.79 0.0004127352    1.004    0.004
        30 -12.6789     45.9931    159.0891   1.0005901805e+02   3.7120416907e+01    0.4221128    0.2871982 -32.68  0.001630173    2.281    0.562
        31 -12.3049     40.0181    148.8171   1.0039350156e+02   4.0134288189e+01     1.102834    0.3931063 -62.76  0.004806011    2.448    0.592
        32 -11.6708     33.9349    145.5076   1.0159443622e+02   4.1547446441e+01    0.7561786    0.2885101 -61.41  0.003427403    2.315    0.568
        33 -12.0924     29.8451    132.4846   1.0117958768e+02   4.4995960961e+01    0.4930279    0.3878675  57.19    0.0024391    1.261    0.207
        34 -12.6403    116.9853    247.1868   9.4505914367e+01   1.0890680182e+01    0.8516984    0.4988045  53.19  0.005387786    1.557    0.358
        35 -12.9390      2.6543     62.0406   9.9694893221e+01   6.3625952471e+01     1.010177    0.3279762 -73.39  0.004128193    2.953    0.661
        36 -13.4475     17.5223    147.0900   1.0598217291e+02   4.2755937776e+01     1.209245     1.024424  74.77  0.008448555    1.091    0.083
        37 -13.0423     24.5889    140.8911   1.0355043486e+02   4.3538096397e+01    0.8761547    0.5492144  68.55  0.003402055    1.542    0.352
        38 -13.9858      4.4370    134.1934   1.0826916969e+02   4.6756527112e+01     1.248082    0.7280752 -74.06  0.005605998    1.414    0.293
        39 -13.0692      3.5277    123.8493   1.0762264802e+02   4.9207337833e+01     1.142572    0.3401088 -65.85  0.004506601    2.551    0.608
        40 -11.2764     70.4621    156.0335   9.3572913214e+01   3.4682810242e+01    0.4171163    0.3552882 -19.10  0.002461295    1.620    0.383
        41 -11.7366     67.6398    143.3935   9.2421961671e+01   3.7955154759e+01    0.6818902    0.3596726  62.90  0.002678401    2.400    0.583
        42 -10.8978     87.5468    142.9374   8.7127130781e+01   3.5100242709e+01    0.3108412    0.2561217 -56.59 0.0009957826    1.227    0.185
        43 -13.0465     11.9991    121.1930   1.0494679468e+02   4.9212159365e+01    0.6873795    0.3984562  89.94  0.002702067    1.566    0.362
        44 -11.1652     75.1955    140.9540   9.0027517805e+01   3.7439054778e+01    0.2704561    0.2291182 -72.13 0.0004085987    1.118    0.106
        45 -10.5648    105.3596    131.1170   8.0215227670e+01   3.4751291838e+01    0.3991684    0.2920047  49.67  0.001371393    1.370    0.270
        46 -10.1277     89.0677    127.6224   8.3835020404e+01   3.8346102152e+01    0.2361184    0.1964872 -54.77 0.0004119848    1.186    0.157
        47  -9.2543    102.0524    119.6852   7.8608637596e+01   3.7900160997e+01    0.1918826    0.1840765  51.57 0.0003866481    1.076    0.071
        48 -10.5384    249.4949    113.5062   4.7638648952e+01   9.0876597055e+00    0.1294808    0.1103783 -24.08 0.0008105974    1.015    0.015
        49 -10.5907    249.2054     98.5875   4.4351806958e+01   1.1211503087e+01    0.1744498     0.117302  39.80 0.0009585836    1.722    0.419
        50  -9.8560     52.7732     89.4196   8.6577399523e+01   5.2651469086e+01    0.1790217    0.1343274  11.59 0.0009527205    1.696    0.410
        51 -11.1140     13.5151    246.0726   1.1264217023e+02   2.3482191636e+01    0.1942957   0.08507678  61.04  0.001020429    1.710    0.415
        52 -12.7090     16.6428     58.1637   9.2833442539e+01   6.3557686670e+01    0.5145413    0.3384708 -38.93  0.003041169    1.442    0.307
        53 -11.9851     36.0199     57.0247   8.4215968707e+01   6.1960781939e+01    0.3066491    0.2820455  23.85  0.002014416    1.233    0.189
        54 -12.7931    215.8045     48.0680   3.6163115900e+01   2.5139251743e+01    0.5608691    0.5002459  -1.08  0.003345879    1.293    0.226
        55 -11.0794     85.6566     38.9214   5.8642901981e+01   5.7494257944e+01    0.4788055    0.3330533  -1.12  0.002114128    1.861    0.463
        56 -10.8279     68.0962    238.7446   1.0266075778e+02   1.8671638776e+01    0.1907375    0.1392346  30.59  0.001332259    1.541    0.351
        57 -11.3390     78.8592     37.4213   6.0247758800e+01   5.9089766801e+01    0.2837863    0.2372991 -31.40  0.001551462    1.152    0.132
