#   1 NUMBER                 Running object number                                     
#   2 MAG_AUTO               Kron-like elliptical aperture magnitude                    [mag]
#   3 X_IMAGE                Object position along x                                    [pixel]
#   4 Y_IMAGE                Object position along y                                    [pixel]
#   5 X_WORLD                Barycenter position along world x axis                     [deg]
#   6 Y_WORLD                Barycenter position along world y axis                     [deg]
#   7 A_WORLD                Profile RMS along major axis (world units)                 [deg]
#   8 B_WORLD                Profile RMS along minor axis (world units)                 [deg]
#   9 THETA_WORLD            Position angle (CCW/world-x)                               [deg]
#  10 FWHM_WORLD             FWHM assuming a gaussian core                              [deg]
#  11 ELONGATION             A_IMAGE/B_IMAGE                                           
#  12 ELLIPTICITY            1 - B_IMAGE/A_IMAGE                                       
         1 -11.4757    154.9952     35.9457   3.6244577563e+01   4.1982564122e+01    0.9788586    0.5355425 -66.08  0.004147187    2.344    0.573
         2  -9.4589     76.0357     13.2656   4.5382975954e+01   6.3378184600e+01    0.3223393    0.2235973 -12.42  0.001629034    1.622    0.383
         3  -9.4012     71.1778      7.6715   4.4280417188e+01   6.5000043717e+01    0.3540359    0.2537595 -86.15  0.001879324    2.157    0.536
         4 -11.0951     81.8124     26.6686   4.9498583368e+01   6.0510811573e+01    0.6791091    0.4869648 -14.23  0.003660752    1.591    0.371
         5 -11.0185     75.8112     21.2521   4.9087356186e+01   6.2481351494e+01    0.7681513    0.5094135   6.90  0.003878029    1.964    0.491
         6 -11.5195    122.3639     49.6163   4.7027865068e+01   4.7950858485e+01    0.8547146    0.4106985 -34.35  0.003505667    2.197    0.545
         7 -12.0750    126.8344     34.2329   4.0810994599e+01   4.9104729490e+01    0.7872629    0.4388134 -52.93            0    2.089    0.521
         8 -11.8746     54.2389     34.4919   6.3350674263e+01   6.4649520300e+01    0.5162385     0.252577 -45.89  0.001399241    2.217    0.549
         9 -11.1215     16.2624     26.3178   7.9648323784e+01   7.1147465095e+01    0.5551967    0.4340371  -8.30  0.003669959    1.166    0.143
        10 -12.2170     45.9841      9.2420   5.4779233464e+01   6.9707624764e+01    0.3204517    0.2788486   7.48  0.000332332    1.054    0.052
        11  -9.9654     48.1163      2.5107   5.0111266346e+01   7.0089920697e+01    0.2055315    0.1615398  -9.26  0.000293545    1.271    0.213
        12 -11.5785     36.1299      3.4053   5.6248900749e+01   7.2069812168e+01    0.6925272    0.4256673  39.54  0.003963358    1.496    0.331
        13 -11.9851     28.8557     17.0973   6.7809654525e+01   7.1272055726e+01     1.183024    0.5142275 -25.57  0.004883527    3.265    0.694
        14 -10.7433     35.4730     10.1406   6.0444828915e+01   7.1324492327e+01    0.4976206    0.2792984  48.87  0.002606543    2.123    0.529
        15 -11.2362     38.4584     16.5785   6.2343050299e+01   6.9968340608e+01    0.6061831    0.2985077  47.70  0.002675342    2.407    0.585
        16 -11.8373     30.7657     31.4435   7.3508793474e+01   6.8620475413e+01    0.5161801    0.3329494 -50.51   0.00186997    1.644    0.392
        17 -10.5058    226.9102     17.6257   2.3680862224e+01   2.7758051099e+01    0.5801763    0.3040234  40.40  0.002542806    4.010    0.751
        18 -10.4706    223.3624     21.6371   2.4826467582e+01   2.8029636952e+01    0.4876146     0.231041 -51.53  0.002552144    1.757    0.431
        19  -9.8716    221.5191     15.9454   2.3703933627e+01   2.9071018765e+01    0.2738961    0.2006084 -76.13 0.0006867426    1.168    0.144
        20 -11.5117    238.8655     20.8766   2.3533656953e+01   2.4970502429e+01    0.5837873    0.5001569  41.48  0.004065278    1.727    0.421
        21 -11.1986    236.3571     16.5520   2.2799634612e+01   2.5965991409e+01    0.3954053    0.2491183  87.06 0.0009467012    1.531    0.347
        22 -10.1487     65.8335     24.3105   5.4023308474e+01   6.4091818101e+01    0.4196974    0.2943878 -25.63   0.00167149    1.485    0.327
        23 -10.6796    164.3923     22.3609   3.0902884624e+01   4.1369917446e+01    0.4039351    0.2988443  48.84  0.002258518    1.516    0.340
        24  -9.7239     51.5613     23.3795   5.9466963736e+01   6.6842201276e+01    0.4120035    0.2014975 -39.31  0.001640836    2.121    0.529
        25 -11.4508     55.4844     19.4230   5.5850068972e+01   6.6705735926e+01    0.4717863    0.2884744  29.06 0.0008044431    1.671    0.402
        26 -11.8654     56.9403     13.6610   5.2385466694e+01   6.7179291784e+01    0.6305692    0.3325228  34.91  0.001617249    1.877    0.467
        27 -10.9376     62.5100     14.4803   5.0620095460e+01   6.6009618773e+01    0.3350583    0.2667923 -32.64 0.0005489599    1.372    0.271
        28 -10.0228    212.5370     21.4822   2.5665345992e+01   3.0350842208e+01    0.3911152    0.2416229 -20.45  0.001904224    2.133    0.531
        29 -12.1984    111.3270     19.2310   3.8703980001e+01   5.4682664705e+01    0.5622118    0.4270663  12.86  0.002987861    1.628    0.386
        30 -10.2060    131.3650     13.2386   3.2812852801e+01   5.0450912674e+01    0.3500008     0.212745  61.41  0.001292035    1.462    0.316
        31 -10.1761    116.7879      8.6639   3.3689190380e+01   5.4452506628e+01    0.2616179    0.1953979 -88.40 0.0005484549    1.397    0.284
        32  -9.8777    140.0906      2.6377   2.8050535796e+01   4.9315038090e+01    0.7123562    0.2696158  82.52  0.002391209    3.041    0.671
        33 -11.9167    122.5466     11.3491   3.3637920773e+01   5.2795728330e+01    0.6207868    0.2987495  44.14  0.001247739    2.247    0.555
        34 -12.2660    127.7399      4.7108   3.0467163500e+01   5.2150218591e+01    0.4891502    0.3411477  72.17  0.001258676    1.262    0.208
        35 -10.4289      1.8358     21.1701   8.6824914982e+01   7.3267253704e+01    0.3544106    0.1475209 -52.00  0.001606455    1.984    0.496
        36 -10.8172      7.3756     22.3050   8.3587675372e+01   7.2659457251e+01    0.4038889    0.2715025 -44.15  0.001373926    1.294    0.227
        37 -10.7039     24.2774     12.3659   6.7998674158e+01   7.2594975925e+01    0.3883925    0.2516373  25.14 0.0002996218    1.463    0.316
        38 -11.0928     16.6117      4.3733   6.8325175741e+01   7.4722167665e+01    0.7933443    0.3770565  41.78  0.004103456    2.568    0.611
        39 -11.6863      3.3080      3.7859   7.7533075356e+01   7.6192742743e+01    0.4092681    0.3399652  26.66    0.0030112    1.469    0.319
        40 -11.0413      9.8706     15.2141   7.8736782074e+01   7.3718014411e+01     0.293588    0.2464618  11.65  0.001228994    1.239    0.193
        41 -12.3458     15.8980     13.5602   7.3894262754e+01   7.3397195736e+01     0.331063    0.2169313  10.28 0.0004755226    1.489    0.329
        42  -9.9271    153.0982      3.1115   2.6626067356e+01   4.6102585368e+01    0.4380312    0.2889033  36.34  0.001646515    1.958    0.489
        43 -11.1315    151.8743     17.7196   3.1193775914e+01   4.4942963600e+01    0.6354204     0.549279  43.52  0.003869371    1.322    0.244
        44 -10.3996    156.6124      9.7540   2.8192953571e+01   4.4615578347e+01    0.3111027    0.2206131 -48.03 0.0006516929    1.396    0.284
        45 -10.9030    153.0742      9.6596   2.8594689025e+01   4.5486650366e+01    0.3184656    0.2479542  86.65  0.000369648    1.142    0.125
        46 -10.5188     81.0758     19.4364   4.6596640102e+01   6.1585785104e+01    0.3226685    0.2135075 -34.29   0.00173724    1.625    0.385
        47  -9.2322    103.7330      7.9466   3.5953760428e+01   5.7645907892e+01     0.286993    0.1551647  62.50 0.0006746809    1.616    0.381
        48 -11.5453    100.6371     16.1023   3.9898982606e+01   5.7553591366e+01    0.5152349    0.4384215  53.27  0.001219842    1.060    0.057
        49  -9.5697     97.9709      7.6669   3.7089225898e+01   5.9026011249e+01    0.2428131    0.2165021  46.01  0.001546033    1.063    0.060
        50 -10.9491     92.4552      9.5278   3.9160229005e+01   6.0123979056e+01     0.523594    0.4137875  60.61  0.001812905    1.150    0.131
        51 -11.3508     89.4531      3.0529   3.7102771346e+01   6.1409407824e+01    0.4578677     0.294416  62.72  0.002539231    1.389    0.280
        52  -9.4068    188.9105      7.9092   2.4401413291e+01   3.7134170309e+01    0.6122667    0.3287521 -69.08  0.003138128    1.821    0.451
        53  -8.9621    176.3335     12.1553   2.6691768274e+01   3.9630078236e+01    0.3997025    0.2475385 -64.40 0.0003337562    1.545    0.353
        54 -12.4946    187.1076     13.6789   2.6032455459e+01   3.6942380947e+01    0.2993902    0.2330512 -82.75 0.0003788368    1.114    0.102
        55 -11.8442    182.5097     12.5095   2.6170453227e+01   3.8138576070e+01    0.3836198    0.3033434 -23.74  0.001388162    1.515    0.340
        56  -9.3210    143.4334     11.9506   3.0572689309e+01   4.7618023908e+01    0.4170948    0.2307124 -49.71  0.002051142    1.881    0.468
        57  -9.4016     84.0686     13.3711   4.3036882353e+01   6.1620853127e+01     0.250982    0.1869712 -70.19 0.0009074742    1.834    0.455
        58  -9.1762    200.8380     11.6374   2.4314885706e+01   3.4035095251e+01    0.3195354    0.1033752 -46.68  0.001369059    2.574    0.612
        59 -10.6921    208.5494     10.2949   2.3389535992e+01   3.2474653819e+01    0.3629611    0.2569082  56.04  0.000968359    1.698    0.411
        60 -11.2962    216.8831      6.2254   2.1869362497e+01   3.1110772779e+01    0.4694978    0.3419345   1.61  0.001616003    2.333    0.571
        61 -10.0392    212.1426      5.8485   2.2107882249e+01   3.2165105105e+01    0.2837137    0.1845147 -84.43  0.001655139    1.359    0.264
        62  -8.8045    137.6173      8.5873   3.0313288787e+01   4.9374903101e+01    0.2072455    0.1042972 -40.63 0.0006546957    2.030    0.507
        63 -10.0431    238.3943      7.0908   2.0715256205e+01   2.6608815620e+01    0.3424408    0.1356972 -55.33  0.001157337    2.043    0.511
        64 -10.6580    168.2151      5.7544   2.5768357614e+01   4.2209412200e+01    0.4037842    0.3241432   5.85  0.002067589    1.735    0.423
        65  -9.5970     77.9830      5.9639   4.1410905083e+01   6.3708869347e+01    0.2726079    0.2344463 -89.43  0.001713261    1.395    0.283
        66  -9.9937    199.1472      4.1696   2.2654899492e+01   3.5192561454e+01    0.4323009    0.1917135 -66.01   0.00203312    2.272    0.560
        67  -9.7703    195.2291      1.6029   2.2330128062e+01   3.6327588269e+01    0.2473501    0.1256066  69.48  0.001152429    1.839    0.456
        68 -10.7668    105.6385      3.1430   3.3672242073e+01   5.7623819687e+01    0.5881175    0.3282371 -79.99   0.00262583    2.591    0.614
        69 -11.3832      8.4083      8.5292   7.6358122271e+01   7.4968950943e+01    0.3553623    0.2134212 -26.30 0.0001082377    1.508    0.337
        70  -8.9025    175.5153      4.8130   2.4801046104e+01   4.0566819478e+01    0.1755643    0.1184134 -35.76  0.001010027    1.527    0.345
        71  -9.3472    204.2526      3.5320   2.2129232854e+01   3.4123527885e+01    0.2113256    0.1558151  56.71 0.0008801168    1.623    0.384
        72  -8.1034    185.3369      4.2627   2.3782187856e+01   3.8325620345e+01    0.1187267   0.08739747  53.38 0.0003605062    1.585    0.369
        73 -10.3255    118.1355      1.6027   3.0874375948e+01   5.4753648647e+01    0.3253656    0.1982921  83.68 0.0008396581    1.653    0.395
        74 -10.2030    245.1070      1.8258   1.9291287754e+01   2.5859770341e+01    0.4230891    0.1612815  82.68  0.002171119    2.623    0.619
        75  -9.3313    230.3132      2.4360   2.0216309327e+01   2.8717252535e+01    0.2371276    0.1136333 -57.09 0.0005735328    1.690    0.408
        76  -9.3335     64.2548      1.8742   4.3656930220e+01   6.7004447273e+01    0.1728391    0.1674337  -1.66  0.001205763    1.185    0.156
        77 -10.1403    112.4969    101.4362   6.5579763582e+01   4.0134642928e+01      0.29081    0.2518338  68.83 4.782219e-05    1.239    0.193
        78 -10.3454     67.9833    104.6410   8.0617542920e+01   4.7503200625e+01    0.3404149    0.2454061  33.83  0.001317755    1.453    0.312
        79  -9.2427    131.2285    104.5908   6.1348911684e+01   3.5469002850e+01    0.2123024    0.1466072  35.26 0.0005629787    1.617    0.382
        80 -11.5734     80.8774    103.1048   7.5840036477e+01   4.5779407037e+01    0.3036754    0.2697372  19.64  0.001604432    1.227    0.185
        81 -10.2847     45.7470    102.7714   8.8205170009e+01   5.1009626639e+01    0.4096546    0.2672553  88.03  0.001585238    1.962    0.490
        82  -9.8450     60.6214    101.2928   8.2435339962e+01   4.9423853826e+01    0.3459753    0.2112811 -86.70 0.0007937137    2.494    0.599
        83  -9.8237     61.1543     96.0986   8.0989368718e+01   5.0622961444e+01    0.2732167    0.2352462 -17.21 0.0005321414    1.290    0.225
        84 -10.2245     68.7550     98.5492   7.8860184576e+01   4.8876291471e+01    0.4790982    0.3337018 -26.03  0.001752575    1.804    0.446
        85 -10.8657    116.8471     97.6841   6.3326897149e+01   4.0052916153e+01    0.4121397    0.3138715 -72.18  0.001423743    1.565    0.361
        86 -12.1829    101.2727     97.6894   6.7874773985e+01   4.3257106589e+01    0.4637508    0.3381476  57.01  0.002159729    1.501    0.334
        87 -10.4343     37.1502     97.2250   9.0305082257e+01   5.3374968547e+01    0.4563975    0.3070234  70.04  0.001682968    1.889    0.471
        88  -8.7941     11.1774     97.9151   1.0045349505e+02   5.5421174484e+01    0.1908246    0.1609158  74.09 0.0008034976    1.244    0.196
        89  -9.8108    109.3244     96.7961   6.5225952172e+01   4.1824410349e+01    0.2654862    0.2098483  56.93 0.0007549372    1.330    0.248
        90  -8.7622     51.0855     97.2714   8.5009154595e+01   5.1720584922e+01    0.1841383    0.1806082  61.16 0.0002609128    1.084    0.077
        91  -9.6442     26.9825     97.0045   9.4196035070e+01   5.4427645824e+01    0.2055106    0.1968313  20.88 0.0004176134    1.167    0.143
        92  -9.9095     22.6766     96.4800   9.5776504080e+01   5.4931181596e+01    0.3050111    0.2100003 -80.85  0.001620364    1.438    0.305
        93 -10.0301     16.6447     95.7738   9.8009490539e+01   5.5579424175e+01    0.3320462    0.2251021  85.75  0.001759903    1.597    0.374
        94 -10.0471    145.6135     96.2083   5.5595055209e+01   3.4040083152e+01    0.4676119    0.1751656  46.97  0.001588592    2.738    0.635
        95 -10.2913    126.3865     91.2739   5.8956519075e+01   3.9348680091e+01    0.2941972    0.2714672 -28.14 0.0003299749    1.154    0.133
        96 -12.0638    131.3679     86.0053   5.6177891983e+01   3.9305784026e+01    0.3793058    0.3062745  30.11 0.0001814593    1.426    0.299
        97 -10.5272    137.2959     94.2172   5.7027204058e+01   3.6310880301e+01    0.3865863    0.2774563 -31.63 0.0005113936    1.546    0.353
        98 -10.3657    139.2303     87.3822   5.4655356056e+01   3.7244961764e+01     0.533229    0.2613631 -55.36  0.001279717    2.510    0.602
        99  -9.6778     78.3477     94.2253   7.4376684464e+01   4.8330597603e+01    0.2925452    0.2353898  45.44 0.0002239073    1.288    0.223
       100 -10.5890     87.3505     91.9890   7.0717260356e+01   4.7236334216e+01     1.068916    0.4943553 -40.50  0.003947745    2.396    0.583
       101  -8.1176     48.9502     93.9598   8.5051006621e+01   5.2811409221e+01    0.1655467    0.1515029 -54.56            0    1.015    0.015
       102  -8.4460      5.0151     93.7628   1.0224807375e+02   5.6829154721e+01    0.1637457    0.1543026 -38.96 0.0004717647    1.161    0.139
       103  -9.0936      1.3930     94.1571   1.0370612965e+02   5.6922718753e+01    0.1883861     0.104891 -71.86 0.0003746757    1.496    0.331
       104 -10.3324     87.7795     86.4362   6.8983768386e+01   4.8410572266e+01    0.3914026    0.2401273  27.52  0.001518818    1.979    0.495
       105  -9.7025     42.7552     90.9702   8.6762377659e+01   5.4301053501e+01    0.4538258    0.2408988  18.92  0.001975654    2.263    0.558
       106 -12.5200     34.8197     89.4732   8.9585176896e+01   5.5544742866e+01    0.3752452    0.3055289 -82.56  0.002116312    1.293    0.227
       107  -9.8484     29.6850     85.3003   9.0772473393e+01   5.7078929302e+01    0.2837615    0.2185247  82.49 0.0006790584    1.522    0.343
       108  -9.0393     51.9835     91.2253   8.3230952853e+01   5.3087043757e+01    0.4495635    0.2563855  63.78  0.001745989    2.876    0.652
       109 -10.3255     55.8022     88.8340   8.1162318238e+01   5.3144564252e+01     1.038959     0.294745  29.52  0.003208283    4.047    0.753
       110  -9.3431     63.0980     89.5043   7.8578880515e+01   5.1921781450e+01    0.3093884    0.2384397  11.15  0.001042081    1.527    0.345
       111 -10.3315    110.2790     87.8785   6.2408958237e+01   4.3562271052e+01    0.2793123    0.2661411 -56.62 0.0002772049    1.041    0.039
       112 -10.7375    102.2022     85.7882   6.4193590108e+01   4.5699093248e+01    0.6320876    0.2593447 -41.42  0.002219019    2.560    0.609
       113 -10.4230    120.8853     82.3988   5.7834679428e+01   4.2385738056e+01    0.3061879    0.2640869 -43.01 0.0003294579    1.164    0.141
       114 -10.7437    120.8952     87.6908   5.9386550392e+01   4.1303657366e+01    0.4100956    0.3345438  52.09 0.0002528185    1.232    0.188
       115  -9.9478    124.2389     85.9456   5.7988868678e+01   4.0920429948e+01    0.3070995     0.266889 -64.80 0.0006937633    1.193    0.161
       116  -9.4300     71.9593     83.6734   7.3690074929e+01   5.1863878430e+01    0.3515466    0.2580804  52.58 0.0008305505    1.524    0.344
       117 -10.8589     79.4715     81.2628   7.0290234067e+01   5.1096224894e+01    0.7900469    0.4716787 -18.68  0.002869342    3.081    0.675
       118 -10.7578     77.2839     75.0891   6.9169811605e+01   5.2839413163e+01    0.5924886    0.3310299  34.82  0.002037505    1.891    0.471
       119 -10.3938     83.1998     74.1581   6.6789581211e+01   5.1943336205e+01    0.3665245     0.307429 -32.48  0.000722579    1.218    0.179
       120 -10.1972    156.3003     84.9763   5.0186564593e+01   3.3783337217e+01    0.3726001    0.1689102 -46.59 0.0008859867    2.183    0.542
       121  -9.1732     59.0573     83.5131   7.8488797335e+01   5.3937472303e+01    0.2490686    0.2372409  33.17   0.00119712    1.105    0.095
       122 -11.1486     54.0470     80.9643   7.9748597482e+01   5.5251825232e+01    0.3039816    0.2788514  -8.96 0.0002991204    1.128    0.113
       123 -11.5917    112.9368     81.4276   5.9731183381e+01   4.4335357763e+01    0.8837403    0.4618983  34.77  0.003334633    2.400    0.583
       124 -11.0334    104.2307     58.6607   5.4893888421e+01   5.0615969318e+01    0.3092354    0.2694784  21.40 0.0001444172    1.254    0.203
       125 -11.9801    103.1432     78.3357   6.1648807300e+01   4.7069721100e+01      1.05641    0.5704595 -49.23  0.004356811    1.902    0.474
       126  -9.4128      1.9043     82.9772   1.0196059410e+02   5.9644001882e+01    0.1893303    0.1621498 -67.88 0.0004702034    1.034    0.032
       127  -9.0079     92.0237     79.9905   6.5651774311e+01   4.8996742326e+01    0.2286044    0.2236206 -22.45 0.0006364223    1.026    0.025
       128  -8.7200      6.8137     79.8679   9.9389320784e+01   6.0139295109e+01    0.1587179    0.1365498  78.78 0.0002524622    1.267    0.211
       129 -11.5218    164.4057     70.3094   4.4548422090e+01   3.4504994690e+01    0.5697106    0.4223685 -78.55  0.002809605    1.542    0.352
       130 -10.1084    161.2368     64.7263   4.3569570614e+01   3.6187409770e+01    0.2897952    0.2492063 -71.79 0.0004525687    1.141    0.124
       131  -8.7473     40.8213     78.7691   8.4566001191e+01   5.7466925683e+01    0.1848208    0.1595008  85.04 0.0007004669    1.349    0.259
       132  -8.7524     36.4235     76.7197   8.5901784296e+01   5.8448706451e+01    0.1890825    0.1134327 -48.88 0.0005661647    1.499    0.333
       133  -9.0622    187.4208     76.2091   4.2168600659e+01   2.8217629663e+01    0.2016068    0.1204281 -48.59 0.0004774317    1.570    0.363
       134 -10.5221    154.6136     50.6892   4.0707319700e+01   3.9993428538e+01     1.004432    0.2287576  59.84  0.002501811    4.094    0.756
       135 -12.6338    151.9434     73.5372   4.7889605237e+01   3.6882889070e+01     1.106157    0.8246059  -7.99 0.0009190757    1.928    0.481
       136 -11.5182    140.0245     72.5127   5.0163681003e+01   3.9875660838e+01    0.5921791    0.4057577  43.91  0.001617924    1.551    0.355
       137 -10.3906    136.4356     74.1157   5.1464242597e+01   4.0424268857e+01    0.3599203    0.2546863 -44.07  0.001036859    1.405    0.288
       138 -11.8463    136.7557     67.0131   4.9250025125e+01   4.1628668365e+01    0.7496725    0.6046428  55.06  0.001367518    1.226    0.184
       139 -10.9029    147.0361     61.7104   4.5438065811e+01   4.0081592722e+01    0.3329449    0.2910931   2.70 0.0003893479    1.425    0.298
       140 -12.9910    150.7772     57.6870   4.3497536318e+01   3.9836329697e+01    0.5037854    0.3907974 -57.79  0.000463898    1.299    0.230
       141 -11.5140     46.4427     73.3928   8.0733446408e+01   5.8023772281e+01    0.5318607     0.408901  82.56 0.0007379454    1.769    0.435
       142  -8.9481      4.7480     75.9793   9.9621464750e+01   6.1189754054e+01    0.1886222    0.1135869 -67.44 0.0002315426    1.410    0.291
       143 -10.8485      8.7541     74.1981   9.7523765736e+01   6.1389415797e+01    0.3182723    0.2460756  24.09 0.0008797291    1.473    0.321
       144  -8.9626    178.8368     75.0998   4.3291240735e+01   3.0345756813e+01    0.1875394    0.1711064  -6.05 0.0005023786    1.327    0.246
       145  -9.0531     46.0028     82.4020   8.3368825746e+01   5.5979043384e+01    0.4262824     0.122211 -44.17  0.001305594    3.867    0.741
       146 -10.0616     56.3626     73.2675   7.6597308102e+01   5.6678956275e+01    0.4727842     0.239436 -34.95  0.001763283    2.382    0.580
       147  -9.9685     11.7983     88.1521   9.8693049514e+01   5.7810319239e+01    0.3723404    0.1885234  14.82 0.0008810054    2.294    0.564
       148  -8.7938     18.5590     74.4921   9.3202465433e+01   6.0646698807e+01    0.1947702    0.1299334  15.27 8.394873e-05    1.675    0.403
       149 -10.4660     17.3780     70.6739   9.2890421266e+01   6.1640284595e+01    0.2654553    0.2408881 -60.32 0.0008936626    1.080    0.074
       150  -8.9668     14.4663     66.4576   9.3283863062e+01   6.2839635798e+01    0.2006116    0.1803855 -52.33 0.0005967398    1.055    0.052
       151  -8.9929     11.6669     68.2413   9.4992225618e+01   6.2615247437e+01    0.1815993    0.1692399 -43.62 0.0001910624    1.089    0.082
       152  -8.9365      9.3411     65.7501   9.5550326993e+01   6.3344763030e+01     0.191247    0.1360857 -63.70 0.0002306503    1.240    0.193
       153  -8.7351     70.7106     71.8385   7.0552706491e+01   5.4697324691e+01    0.1814736    0.1646005  84.35 0.0004223874    1.290    0.225
       154 -10.7583     60.3067     58.4947   7.0164104360e+01   5.9219076362e+01    0.5081969    0.4194484 -57.90  0.002838167    1.337    0.252
       155 -10.0240     64.5798     70.2491   7.2392209876e+01   5.6067075683e+01     0.361385     0.286139  21.27 0.0005354328    1.346    0.257
       156 -10.1698     59.5743     66.3507   7.3125087155e+01   5.7703723074e+01    0.5107476    0.3359576  29.05  0.001755365    1.600    0.375
       157  -9.1352    129.2352     71.0298   5.2251643595e+01   4.2671946354e+01    0.2031025    0.1874023 -50.10 0.0003097332    1.086    0.079
       158 -12.5040    110.7910     65.0430   5.5170312248e+01   4.7997275356e+01    0.6901646    0.6017577  22.61  0.003674955    1.273    0.215
       159  -8.0181     30.6892     71.2974   8.7012107031e+01   6.0320350687e+01    0.1287985    0.1019844  67.98 0.0003012655    1.598    0.374
       160  -8.5394      3.6569     72.7432   9.9541765508e+01   6.2019495349e+01    0.1912626    0.1453344 -50.48 0.0007232488    1.133    0.117
       161  -9.4693     49.2337     67.3234   7.7739635187e+01   5.9013556130e+01    0.3090467    0.1920923  44.43  0.001494031    1.820    0.451
       162  -9.9525     42.0000     66.0179   8.0484160962e+01   6.0249369680e+01    0.4639238    0.1653896 -50.27  0.001805597    2.472    0.595
       163 -10.3722     43.3155     62.4964   7.8809293140e+01   6.0856516895e+01    0.4839123     0.332879  62.35  0.002355056    2.164    0.538
       164 -10.9000     34.8855     67.5221   8.4104524564e+01   6.0745518213e+01    0.3577386     0.299523  71.71 0.0009785172    1.504    0.335
       165 -10.4831     33.6140     63.2569   8.3456481996e+01   6.1844263698e+01    0.4586039    0.2669256  -8.75   0.00093967    2.428    0.588
       166  -9.1772     60.9588     76.1315   7.5627253332e+01   5.5344176336e+01    0.1973194    0.1837942  67.47 -0.0009232552    1.206    0.171
       167 -10.6605     81.2806     65.6561   6.4666438044e+01   5.4057190119e+01    0.3944809    0.2963987  31.01 0.0003098006    1.391    0.281
       168 -10.4053     83.3104     63.2680   6.3142263505e+01   5.4137176127e+01    0.2518254    0.2470885  54.26 0.0002609059    1.070    0.065
       169  -8.5924     26.8083     66.7055   8.7572336052e+01   6.1758982879e+01    0.3754469    0.1558108 -71.83  0.001360623    3.415    0.707
       170  -9.6792    206.0537     52.3127   3.3638787535e+01   2.7766570216e+01    0.2783635    0.2386654  36.06  0.001270589    1.542    0.351
       171  -8.4083    191.0538     61.4508   3.7859982181e+01   2.9758670521e+01    0.4644621      0.18039  66.10  0.001771128    2.872    0.652
       172 -10.0481    195.7597     60.9901   3.7087663643e+01   2.8769535576e+01    0.5537516    0.2300425 -26.11  0.001946377    3.513    0.715
       173 -10.9914    199.9043     55.4858   3.5170304702e+01   2.8665000054e+01    0.8481126    0.5445473  -0.89  0.003509862    3.328    0.700
       174 -10.1905    180.6304     64.1777   4.0124839190e+01   3.1720117852e+01    0.4675725     0.257233 -36.59  0.001450959    1.770    0.435
       175 -10.2279    177.0003     63.9978   4.0654362537e+01   3.2591184997e+01    0.2954794    0.2110675 -46.18  0.000345348    1.316    0.240
       176 -10.3732     94.3357     56.7477   5.7214943779e+01   5.3108060918e+01    0.5714354    0.4397299  49.41  0.002263178    1.281    0.219
       177  -8.9175     91.1741     67.3902   6.1892341811e+01   5.1758044491e+01    0.2830894     0.198692  58.01  0.001154124    1.599    0.374
       178 -10.5536     89.0597     62.9362   6.1079894258e+01   5.3055023736e+01    0.5284353    0.2455581 -43.40  0.001850794    2.169    0.539
       179  -9.1923     71.2502     66.2939   6.8537142313e+01   5.5771794230e+01    0.3234999    0.2227948  25.06  0.001564242    1.622    0.384
       180  -9.3612     19.8786     83.0543   9.4409153424e+01   5.8480980409e+01    0.2033059    0.1901806  -1.32 0.0004341728    1.181    0.153
       181  -8.5750    126.4146     63.8009   5.0685525031e+01   4.4630964286e+01    0.1841434    0.1443023 -25.69 8.828857e-05    1.440    0.306
       182 -11.0346     21.8264     61.1872   8.8451147930e+01   6.3465404268e+01    0.3503867    0.2161671 -22.48 0.0003925416    1.805    0.446
       183  -9.1415      1.8531     64.2264   9.8804665962e+01   6.4110894225e+01    0.1784868    0.1612344 -85.13 0.0007606068    1.202    0.168
       184  -9.5754    203.7568     63.0079   3.6518315219e+01   2.6697047276e+01    0.2232993    0.1809425 -84.47 0.0003643457    1.231    0.188
       185  -9.2645    171.9641     63.0009   4.1211063482e+01   3.3929086527e+01     0.225489     0.200184 -68.76  0.001276383    1.049    0.047
       186  -9.7446    168.1146     60.6454   4.1210602027e+01   3.5213031746e+01    0.2709694    0.2357669  -9.54  0.001485623    1.429    0.300
       187  -8.9994     67.0213     63.0664   6.9065970192e+01   5.7169865817e+01    0.2102293    0.1972565 -29.53 0.0004304477    1.037    0.035
       188 -10.5335    219.0366     59.5292   3.3834072166e+01   2.3957034832e+01    0.3537635    0.2293899 -45.95 0.0008066668    1.318    0.241
       189  -9.0072     99.9033     61.9312   5.7296487013e+01   5.0969737803e+01    0.2175351    0.1934113   7.90 0.0004149704    1.245    0.197
       190  -8.9665     11.3579     60.3773   9.3357320783e+01   6.4451991556e+01    0.2484931     0.139177 -11.82 0.0007216518    2.128    0.530
       191  -9.2200      3.9983     59.4990   9.6796341030e+01   6.5091264838e+01    0.2816105    0.1846396   3.64  0.001322327    1.704    0.413
       192  -9.6700      8.2503     57.0872   9.4119633007e+01   6.5396268595e+01    0.3406405    0.2388294 -23.70  0.001171436    1.426    0.299
       193  -9.7446     26.9349     57.9985   8.5069391107e+01   6.3702178545e+01     0.369074    0.1854355 -49.78 0.0009279923    1.724    0.420
       194  -8.5408     33.7072     57.6554   8.1706393105e+01   6.3063482531e+01    0.1960334     0.132449  19.49  0.001051361    1.574    0.365
       195 -10.9787     30.2846     52.9611   8.1858805381e+01   6.4445062526e+01    0.5046022    0.2741127 -58.45  0.001468203    1.842    0.457
       196  -9.8336     34.9435     51.2471   7.8998805085e+01   6.4277404484e+01    0.2045142    0.1983648 -26.83 0.0004058284    1.144    0.126
       197 -10.8048    184.7331     54.9349   3.7076638650e+01   3.2191024510e+01    0.6470062    0.2970283 -47.55  0.002170851    2.061    0.515
       198 -11.1129    174.7323     53.8494   3.8269334556e+01   3.4693046709e+01    0.4117458    0.3310043  89.23 0.0004380054    1.230    0.187
       199  -8.8401    106.8826    246.1878   9.2255976375e+01   9.3013227737e+00    0.1871845    0.1420811  52.31 0.0007454758    1.243    0.195
       200 -12.1909    163.4948     42.4674   3.6820730009e+01   3.9029681920e+01    0.5389485    0.3658665 -70.85 8.522356e-05    1.599    0.375
       201 -10.8439    161.0350     56.4337   4.1244202952e+01   3.7564358155e+01    0.3731565    0.3189782 -85.02 0.0006929034    1.146    0.127
       202  -9.4903    162.0001     52.5038   3.9950195346e+01   3.7934829083e+01    0.2522636     0.210337  67.78 0.0006429745    1.173    0.148
       203  -9.8423     86.4994     34.2427   5.1158155558e+01   5.8451302060e+01    0.2467345    0.1683812 -35.18 0.0006590646    1.536    0.349
       204 -12.0973     91.0110     43.1904   5.3265308153e+01   5.6118348879e+01    0.4978178    0.4197448 -46.75  0.001229143    1.274    0.215
       205 -10.3486     79.9191     44.1493   5.7295100830e+01   5.8279705253e+01    0.4999501    0.2801649  32.64   0.00170837    2.041    0.510
       206  -8.4177    116.7083    237.3018   8.9215274215e+01   9.5224262671e+00    0.1236572   0.08555684  57.22 0.0001917861    1.569    0.363
       207 -11.5721     76.7146    219.9190   9.6104292320e+01   1.8409957055e+01    0.9456035    0.4756905  38.90  0.004723663    1.678    0.404
       208 -10.2432     77.9797     55.4004   6.2237873473e+01   5.6675214495e+01    0.2906381    0.1999091 -36.41 0.0001127965    1.477    0.323
       209 -11.1291     83.6911     49.9970   5.8236820137e+01   5.6519034765e+01    0.7106956    0.4914091 -13.99   0.00245509    1.882    0.469
       210 -10.5622     84.6684     38.7465   5.3555588916e+01   5.8166500236e+01    0.5061705    0.3015577 -60.55 0.0001591958    2.712    0.631
       211 -10.6706     73.5758    213.8915   9.6210547173e+01   2.0094952758e+01    0.4785041    0.3927913  10.00  0.001783525    1.525    0.344
       212  -9.0715     91.4772    214.5252   9.2142884101e+01   1.7499024246e+01    0.2646735    0.1159136  34.47 0.0006388153    2.023    0.506
       213  -9.4423    245.9525     55.8634   3.0283825935e+01   1.9151531837e+01    0.1783915    0.1412686 -55.08 0.0003033064    1.009    0.009
       214  -9.2330    239.0893     56.0125   3.0957903844e+01   2.0435871699e+01    0.1943544    0.1518227 -52.69 0.0008061831    1.034    0.033
       215  -9.5121    222.6271     55.3075   3.2472036009e+01   2.3818707651e+01    0.2298701    0.1618711 -59.74  0.000754514    1.263    0.208
       216  -8.3841     69.3350     56.7239   6.5939990579e+01   5.8028944130e+01    0.1350307    0.1122205  77.23 0.0003281041    1.606    0.377
       217 -11.3436    128.5578     53.0523   4.6720773180e+01   4.5929158385e+01    0.8349156    0.4000447  55.56 0.0005722083    1.995    0.499
       218 -11.1391    117.1588     52.1965   4.9175729321e+01   4.8765986622e+01    0.4167435    0.3514005  35.31 0.0008270849    1.260    0.207
       219  -9.5164    123.9662    206.0039   8.3550294278e+01   1.4403326716e+01    0.1874557    0.1698789  37.54            0    1.008    0.008
       220 -10.2029    107.9020     48.6295   5.0359057838e+01   5.1486867149e+01    0.7372645    0.2868983  55.02  0.002391319    2.524    0.604
       221 -11.5047    131.8914     29.4639   3.8197167664e+01   4.8485119846e+01    0.3320766    0.2665647 -25.30   0.00185464    1.397    0.284
       222  -9.0848     90.2564    206.2144   9.1440111001e+01   1.9429361000e+01    0.1941239    0.1427184  62.53  0.001064771    1.373    0.272
       223 -12.9151    137.9355     47.2081   4.2814674413e+01   4.4570582057e+01    0.6047453    0.4650813  83.54  0.000758063    1.377    0.274
       224 -12.4998    140.6148     38.3095   3.9455176774e+01   4.5189182939e+01     0.717215    0.4401454  78.29 0.0005907533    1.795    0.443
       225  -8.2155     51.3247     54.6831   7.2622733240e+01   6.1385326917e+01    0.1309824    0.1092305  76.90 0.0007044132    1.670    0.401
       226  -9.2047     65.0096     52.4910   6.6082690640e+01   5.9603409447e+01    0.2103975    0.1760588 -37.84 0.0004931329    1.181    0.153
       227  -9.7954     44.1125     50.9359   7.4527451035e+01   6.3169468245e+01    0.4545428    0.2900888 -70.60  0.002092537    2.460    0.593
       228  -9.6331     23.7056     50.6721   8.4429802584e+01   6.5599624673e+01    0.3913315    0.1571091 -44.07   0.00172063    2.216    0.549
       229 -10.1230     26.4669     47.8816   8.2095777806e+01   6.5912752430e+01    0.2670809    0.2226091 -13.68  0.001034687    1.142    0.124
       230 -11.4087     18.0338     48.6000   8.6729873410e+01   6.6550844661e+01    0.5637529    0.3268566 -11.58 0.0005343553    2.055    0.513
       231 -10.2407     18.7287     42.8077   8.4481794555e+01   6.7703646395e+01     0.263995    0.2182556  36.80 0.0009697052    1.436    0.304
       232  -9.4805      8.5827     43.3148   9.0262942737e+01   6.8388552546e+01    0.1992306     0.188311  42.32 0.0005616749    1.310    0.237
       233  -9.3994      9.5286     50.0020   9.1648764085e+01   6.6887820628e+01    0.2055015    0.1120957 -65.55 0.0003042379    1.757    0.431
       234 -10.6106      6.2294     47.7383   9.2809752623e+01   6.7588881052e+01    0.6268921    0.2763726 -39.87  0.003042076    2.012    0.503
       235  -8.3064    101.5028     51.4850   5.3172808479e+01   5.2462808590e+01    0.1425525    0.1369847  38.02 0.0008104281    1.019    0.018
       236 -10.8057    211.5760     49.3762   3.2302813349e+01   2.6981312517e+01    0.2969864    0.2268583 -77.98 0.0006511267    1.252    0.201
       237  -9.6619    201.4393     49.6924   3.3550973539e+01   2.9156387922e+01    0.2499189    0.2255966 -86.69  0.001115783    1.113    0.101
       238  -9.2147     55.1733     49.8014   6.9154554278e+01   6.1754861825e+01    0.1912558    0.1824217 -28.56 0.0007491594    1.105    0.095
       239 -11.2134    232.9893     48.2505   2.9859145649e+01   2.2693353248e+01    0.2265949    0.1943157 -84.13 0.0002639917    1.180    0.152
       240  -9.1052    193.7846     49.4006   3.4426465199e+01   3.0919184401e+01    0.3202018    0.1183043  61.93  0.001281881    2.669    0.625
       241  -9.9865    246.5034     47.6375   2.8521052907e+01   2.0154484715e+01    0.2172042    0.1831693 -49.22 0.0006197648    1.145    0.127
       242  -9.9917    177.9305     44.8779   3.5361035124e+01   3.5237053537e+01    0.5749794    0.2804392 -46.73  0.002563651    1.937    0.484
       243  -9.8914     34.0280     44.0644   7.6875188400e+01   6.5839793267e+01    0.3851675     0.243523 -30.38  0.001763415    1.581    0.367
       244  -8.4218     38.8398     44.0282   7.4468437418e+01   6.5239728521e+01    0.4087951    0.1945823 -41.04  0.001887197    1.997    0.499
       245  -9.5964    227.8727     44.2266   2.9454660458e+01   2.4264393747e+01    0.4342231    0.1553973 -35.64  0.001791201    2.439    0.590
       246 -10.3862    230.6716     39.4255   2.8140854551e+01   2.4326453493e+01    0.3660853    0.2314455  81.88 0.0005457569    1.645    0.392
       247  -9.9442    152.2749     45.0673   3.9442491907e+01   4.1389203061e+01    0.2738262    0.1665221 -39.90  0.001300804    1.633    0.388
       248  -9.7326    209.4601     43.6527   3.1175221793e+01   2.8225138041e+01    0.3131257    0.2182707 -44.64   0.00147486    1.277    0.217
       249  -9.8918     73.4804     44.3305   5.9677647212e+01   5.9519061702e+01    0.3448136    0.2416582 -50.39   0.00114632    1.617    0.382
       250  -9.5001     67.0313     44.7100   6.2285708235e+01   6.0663358921e+01    0.2465214    0.2182059 -58.52 0.0008027552    1.329    0.248
       251  -8.7967     70.4613     43.5240   6.0489076142e+01   6.0232245836e+01    0.2078653    0.1232878  33.23 0.0006004212    1.769    0.435
       252 -10.4408    107.5032     43.5278   4.8638675372e+01   5.2377676745e+01    0.5637231    0.2539503  59.03  0.001637695    2.283    0.562
       253  -9.4289     98.8881     41.8565   5.0401786347e+01   5.4593190470e+01    0.4054781    0.2061486  65.42  0.001049554    2.559    0.609
       254  -9.3619     55.6541     42.2168   6.5976405942e+01   6.3082494358e+01    0.4236063    0.2690342 -16.29  0.001862254    2.043    0.511
       255 -11.7770     62.5464     37.4370   6.1102098237e+01   6.2715147850e+01    0.5511109     0.395654  34.66  0.003029693    1.347    0.258
       256 -11.0958      5.6618    204.1162   1.1103382125e+02   2.9807906472e+01    0.4088864    0.1290072  56.46  0.001780752    2.718    0.632
       257  -9.4776     28.4199     41.9179   7.8963212929e+01   6.6914593283e+01    0.2230623    0.1963103 -73.73 0.0008936361    1.452    0.311
       258  -9.0949    217.9900     41.5133   2.9794553211e+01   2.6679284124e+01    0.1972327    0.1519767 -48.91 0.0004868766    1.138    0.121
       259  -9.9402    113.2542     40.1351   4.5946004141e+01   5.1541409805e+01    0.2692622    0.2133131  42.43 0.0007298358    1.266    0.210
       260 -11.2424    246.2807     33.1709   2.5548642482e+01   2.2050803874e+01    0.5197083    0.4012325 -40.99  0.003547653    1.255    0.203
       261 -10.6228    201.9686     37.5634   3.0511693048e+01   3.0688187188e+01    0.2781117     0.228268 -68.34 0.0006435633    1.048    0.046
       262  -8.6501    181.8338     38.1821   3.3039181572e+01   3.5229482571e+01    0.1648558    0.1573096  51.54 0.0005419462    1.257    0.205
       263  -9.8056      3.2645     38.0259   9.1732573517e+01   6.9830203672e+01    0.3866786    0.1817065  18.32  0.001445016    2.263    0.558
       264 -10.2663    194.5745     36.8519   3.1154633819e+01   3.2451216051e+01    0.3570099    0.2037949 -41.74  0.000381588    1.594    0.372
       265  -9.1664    190.7963     35.1183   3.1147113298e+01   3.3543058336e+01    0.3144947        0.195 -14.54  0.001257828    2.412    0.585
       266 -10.3951     39.5165     34.7526   7.0379121709e+01   6.6874480107e+01    0.5026137    0.2769397 -23.45  0.001744149    2.279    0.561
       267  -9.1947     43.0000     30.9895   6.7010648404e+01   6.7022370108e+01    0.2854648    0.1479166 -44.60 0.0008732231    1.972    0.493
       268 -10.0385     47.2741     28.7854   6.3965265764e+01   6.6723263551e+01    0.3325936    0.1803187  38.05 0.0009614104    1.799    0.444
       269  -9.9015     32.9424     37.1891   7.4755205961e+01   6.7295890958e+01    0.1948036    0.1623365 -33.38 0.0002269433    1.117    0.104
       270 -10.0652     73.3582     35.9305   5.6307654150e+01   6.0912710953e+01    0.3944615    0.2555466   6.26  0.001192274    2.293    0.564
       271  -8.9184    185.6059     35.2993   3.1807689350e+01   3.4723743468e+01    0.2438982    0.1128172 -38.41 0.0008714747    1.995    0.499
       272  -9.9291    115.0617     34.1897   4.3378698434e+01   5.1946255417e+01    0.4481831    0.1971667 -38.80  0.001852939    2.336    0.572
       273  -9.8456      1.3518    184.9922   1.1107803510e+02   3.4496470819e+01    0.3669496   0.09788094 -80.03  0.001424225    3.265    0.694
       274  -9.3014     24.9752    173.9298   1.0443034215e+02   3.5058780073e+01     0.191922    0.1650721  77.07 0.0002813295    1.026    0.025
       275  -8.9612      7.0117    168.4606   1.0871012473e+02   3.7970889239e+01    0.1763325    0.1221418  27.15 0.0007297115    1.608    0.378
       276  -9.5843     28.1424    165.8148   1.0286619299e+02   3.6746200423e+01    0.2010714    0.1537175  69.68 0.0004018176    1.181    0.153
       277 -10.7896      9.1978    163.5312   1.0779702914e+02   3.8999440476e+01    0.2725078    0.2137477  17.46 0.0009579431    1.558    0.358
       278 -12.3822     17.8937    158.2180   1.0500675688e+02   3.9591764654e+01    0.7149333    0.4090474  79.99  0.003603937    1.688    0.408
       279 -10.6022     34.1854     19.8425   6.6252132922e+01   7.0111787979e+01    0.3875279    0.2682405  12.37   0.00125795    1.462    0.316
       280 -11.3641     14.6319    151.1873   1.0531648776e+02   4.1629692612e+01    0.3644265    0.2278792 -48.55  0.001417119    1.781    0.439
       281 -10.8389     11.5944    144.8222   1.0563822698e+02   4.3475104017e+01    0.3665285    0.2147789  58.45 -0.000275831    1.683    0.406
       282 -12.3097     34.9713     27.4555   6.9483986527e+01   6.8768025008e+01    0.5510293    0.2927726  27.37 0.0003479103    1.920    0.479
       283  -9.7971    106.9166     34.8407   4.5601001674e+01   5.3777839096e+01    0.2053618    0.1970095   2.29  0.000329341    1.111    0.100
       284 -10.7383     96.9003     33.3835   4.7722558652e+01   5.6279524723e+01    0.3067422    0.2260948  31.22 8.478882e-05    1.460    0.315
       285  -9.3089    144.0748     32.5111   3.6994893209e+01   4.5108021212e+01    0.3292973    0.1766478 -50.80  0.001473093    1.999    0.500
       286 -10.7832    170.2043     32.0620   3.2891690893e+01   3.8791635407e+01    0.4984289    0.3434561 -10.03  0.001787665    2.079    0.519
       287  -9.3906     11.3926     32.7284   8.5132822188e+01   7.0350207455e+01    0.2889911     0.219503 -87.77   0.00172059    1.995    0.499
       288 -11.5550      2.3199    140.9746   1.0804856253e+02   4.5102633789e+01    0.8250543     0.326436 -87.42  0.003386004    2.366    0.577
       289 -11.3471    236.3358     29.2562   2.5480386564e+01   2.4470382145e+01    0.4166918    0.3493041  -9.23   0.00276147    1.728    0.421
       290 -10.1955      4.4524    131.4909   1.0661654621e+02   4.7351947232e+01    0.2792328    0.2197151  40.16  0.001325366    1.373    0.272
       291 -11.0416      2.9306    153.2420   1.0877528026e+02   4.2005395985e+01    0.3878079    0.2880081 -68.87  0.001575744    1.269    0.212
       292 -10.8969      6.5799    148.0774   1.0736544215e+02   4.3030157284e+01    0.4342703    0.2218611  30.18  0.001955702    2.037    0.509
       293  -9.2699     39.1166    154.5124   9.8581957017e+01   3.8452151087e+01    0.1901194    0.1333419  32.22 0.0004048574    1.496    0.331
       294  -9.2987     59.7708     31.5720   5.9708559482e+01   6.4157597040e+01    0.2372805    0.1696279 -30.65 0.0005293347    1.411    0.291
       295  -8.9497     16.9993     32.5105   8.1724061706e+01   6.9912026798e+01    0.1719061    0.1141759  18.50 0.0006187294    1.538    0.350
       296 -10.0143    216.2374     29.7228   2.7246023824e+01   2.8562625956e+01     0.351447     0.222688 -77.51   0.00198867    1.529    0.346
       297  -9.3582    110.2506     29.7872   4.2899482108e+01   5.3670170021e+01    0.3473706    0.2251388  37.73  0.001703876    1.683    0.406
       298  -9.4873     66.0053     30.9432   5.6932509341e+01   6.3101228801e+01    0.1947501    0.1797217  12.98 0.0003372014    1.022    0.022
       299  -8.5726    224.1332     30.6239   2.6762109933e+01   2.6784883761e+01    0.1571985    0.1058232  64.66 0.0007337333    1.633    0.388
       300  -9.4524    179.8893     29.0737   3.0845130454e+01   3.6854520672e+01    0.2601131    0.1948353 -73.25  0.001313688    1.245    0.197
       301  -9.8545    171.2879     48.7403   3.7391764663e+01   3.6264592852e+01     0.435964    0.2315549  65.06  0.001546842    1.857    0.461
       302  -9.5597    206.9048     25.9651   2.7214996938e+01   3.1049378903e+01    0.2533298     0.175109 -26.71 0.0008955156    1.665    0.399
       303  -9.3694    189.1906     26.0873   2.9008003536e+01   3.5041540842e+01    0.3610964    0.1589108  66.63  0.001396107    2.148    0.534
       304  -9.6553    183.3868     25.1643   2.9402007129e+01   3.6505034696e+01    0.2674831    0.1831802 -72.51 0.0008344884    1.394    0.283
       305 -10.4047    179.7155     22.0799   2.8992654679e+01   3.7732353085e+01    0.4401298    0.2735625 -72.61  0.002292654    1.619    0.382
       306 -10.6036      9.3164    138.8771   1.0578657515e+02   4.5148880766e+01    0.3557506    0.2478271  59.41  0.002031121    1.402    0.287
       307  -9.6326     99.3345     23.8088   4.3295328403e+01   5.6972277276e+01    0.3920738    0.2603584 -81.91  0.001829941    2.250    0.556
       308  -8.4270    103.9994     23.9937   4.2202807809e+01   5.5865279643e+01    0.1873368    0.1430503  38.16  0.001025794    1.326    0.246
       309  -9.5145    158.9210     22.9054   3.1784043884e+01   4.2637385358e+01    0.2013222    0.1780276  73.10 0.0008704407    1.109    0.098
       310  -9.5645     29.7075    150.6748   1.0089120244e+02   4.0405074470e+01    0.1978844    0.1776182 -66.75 0.0002363192    1.155    0.134
       311 -10.5574     30.7982    147.0357   1.0016055960e+02   4.1227158019e+01     0.314684    0.2634744  63.24 0.0006308163    1.147    0.128
       312  -9.2726     72.3212    149.2248   8.8081413168e+01   3.5559366216e+01     0.259492    0.2013314 -41.65 0.0008443338    1.446    0.308
       313  -8.6802     60.6962    148.0883   9.1340996874e+01   3.7477086129e+01    0.1964008    0.1702794 -73.37 0.0003133961    1.095    0.087
       314  -9.7013     36.3451    148.1002   9.8629165272e+01   4.0387633472e+01    0.2103419    0.1936028  -0.05 0.0005523147    1.320    0.243
       315 -10.0670    248.5619     22.3242   2.3183362475e+01   2.2925038826e+01    0.2184621    0.1571154 -64.72  0.000479449    1.111    0.100
       316 -11.2166     28.3519    138.6686   9.9922725346e+01   4.3613180637e+01    0.5477447    0.2880105 -68.23  0.001351148    1.673    0.402
       317 -10.6759     23.5835    124.0181   9.9619722139e+01   4.7823657428e+01    0.6114354    0.2834409 -84.42  0.002534458    2.313    0.568
       318 -11.0812     14.6557    115.6038   1.0157576119e+02   5.0697337551e+01     0.529379    0.3201246  40.72  0.002075037    1.763    0.433
       319 -11.8093     48.0101    126.0292   9.1774378906e+01   4.4780679384e+01    0.9012053    0.5506303  -1.87 0.0008684761    2.603    0.616
       320  -9.4122    117.8439     19.3081   3.7381377774e+01   5.3106256168e+01    0.2844146    0.2194753  47.47 0.0009563373    1.265    0.209
       321 -12.0246     21.0536    141.9783   1.0253682989e+02   4.3425923388e+01    0.7197031    0.3953574  53.46  0.001480285    1.855    0.461
       322 -10.9396      2.0852    113.7570   1.0569674561e+02   5.1978605559e+01    0.9139558    0.2428468 -82.63  0.002938733    4.085    0.755
       323 -10.2104      1.5790    103.9976   1.0482139028e+02   5.4460356163e+01    0.4004919      0.12566 -72.51  0.001596997    2.544    0.607
       324 -11.3144      8.7097    122.1264   1.0434169461e+02   4.9449072781e+01    0.7424759    0.4493385  10.75  0.003892367    2.046    0.511
       325 -12.0098     27.2247    131.1022   9.9341028863e+01   4.5670037908e+01    0.7677257    0.4738392  24.85  0.002712748    1.801    0.445
       326 -11.9089     30.9476    125.1011   9.7309780307e+01   4.6869395205e+01    0.8040546    0.4018334  24.46  0.002850826    2.211    0.548
       327 -10.5023     12.9530    134.9777   1.0430317215e+02   4.5870777014e+01    0.3152667    0.2503212 -62.02 0.0004141116    1.212    0.175
       328 -10.8411     17.1936    133.1092   1.0278109829e+02   4.6018294919e+01    0.5000536    0.2676869  66.35  0.001710318    2.057    0.514
       329 -10.7589     12.4490    128.7902   1.0382830419e+02   4.7487307222e+01    0.5092939    0.2177901  29.11  0.001326247    2.417    0.586
       330  -9.6719     36.2213    142.6872   9.7992776186e+01   4.1791870228e+01     0.244184    0.1835192 -71.36   0.00070021    1.210    0.174
       331  -8.5664    206.1514     20.9173   2.6081972867e+01   3.1813653440e+01     0.150256    0.1446593 -88.25 0.0005996902    1.272    0.214
       332  -8.8240    188.2507     21.0525   2.7812690818e+01   3.5853174487e+01    0.1737215    0.1461621 -52.83 0.0003667441    1.146    0.127
       333  -9.9908    192.7465     17.4332   2.6451879085e+01   3.5229199442e+01    0.3568307    0.2080716  49.50  0.001762813    2.132    0.531
       334  -9.2592     57.2451    140.9426   9.1268823145e+01   3.9767541544e+01    0.3002301    0.1824711 -35.07  0.001293709    2.190    0.543
       335  -9.7348     44.4783    141.4806   9.5290292073e+01   4.1195920113e+01    0.2545574    0.2215543  69.27 0.0005503126    1.110    0.099
       336  -9.9515     97.7238    125.9411   7.5981058019e+01   3.7236548351e+01    0.2560949      0.21449  46.17 0.0004760746    1.203    0.169
       337  -8.0477     69.9699    126.0151   8.4591336892e+01   4.1821891496e+01    0.1712778    0.1635675 -86.05            0    1.015    0.015
       338  -8.9030    131.0540     19.7094   3.5058278972e+01   4.9840642735e+01    0.1973103    0.1618214  69.31 0.0007044889    1.104    0.094
       339 -10.1408    229.8036    122.9905   4.6481662012e+01   1.1829061490e+01    0.5574011    0.2728027 -53.27  0.002432478    2.441    0.590
       340  -9.1457    119.6460     26.2973   3.9532535091e+01   5.1858045757e+01    0.2835948    0.1636515  51.98 0.0009694732    1.612    0.380
       341  -9.2184     67.0229    123.9438   8.5132950614e+01   4.2785643275e+01    0.2277001    0.1713981 -29.12 0.0003975692    1.613    0.380
       342  -8.7780     78.1605    122.8896   8.1328534668e+01   4.1343498018e+01      0.20568    0.1705065 -36.61 0.0005246043    1.314    0.239
       343  -8.8849    135.9847    120.3932   6.4157873542e+01   3.1004837342e+01    0.2499884    0.1989294 -48.07 0.0007165425    1.236    0.191
       344  -8.8963     88.3494    120.0553   7.7497852845e+01   4.0345269681e+01    0.2097687    0.1860251 -58.99 0.0005263935    1.097    0.089
       345 -10.0789     83.3467    118.7421   7.8771503848e+01   4.1526681576e+01    0.3649349     0.239033 -39.91 0.0008527752    1.684    0.406
       346  -9.6112     67.6725    118.2541   8.3758526750e+01   4.4137634945e+01    0.2843998    0.2115287  61.73 0.0006324548    1.505    0.336
       347 -11.1037     58.2642    117.0266   8.6671080083e+01   4.5788005869e+01    0.4133878    0.3407611 -43.24 0.0008951371    1.249    0.199
       348 -10.4743     62.6131    111.7524   8.4087382388e+01   4.6521614315e+01    0.2783197    0.2452949  76.81 0.0002841913    1.196    0.164
       349  -9.8408     98.5505    117.4123   7.3760708857e+01   3.9154529483e+01     0.251985    0.2434181  59.94 0.0002885757    1.044    0.042
       350  -8.8516    126.4866     15.0057   3.4237581992e+01   5.1464296064e+01    0.1899545    0.1296611 -33.32  0.001017701    1.576    0.366
       351  -9.8894     46.5634    116.4839   9.0588921982e+01   4.7417002674e+01    0.2749999    0.2322113  75.37 0.0005672014    1.232    0.189
       352  -9.4664     25.1001    116.2558   9.8033108255e+01   4.9690633216e+01    0.2452238    0.1663247  49.89 0.0007470259    1.577    0.366
       353  -8.2483    103.3599    114.2361   7.1554334328e+01   3.9004734365e+01    0.1499157    0.1215253   3.79 0.0004095495    1.586    0.370
       354  -9.1217     84.2084    112.9533   7.7159643148e+01   4.2809410004e+01    0.2169107    0.1950532 -83.05 0.0002411173    1.146    0.127
       355  -9.6989     49.7826    112.0194   8.8617580280e+01   4.8170337782e+01    0.2830506    0.2088127 -82.78  0.000896647    1.432    0.302
       356 -10.0059     46.8419    109.2955   8.9127533240e+01   4.9224583521e+01    0.2728917    0.2278162 -68.22 0.0006280651    1.115    0.103
       357  -9.0091     21.4855    105.0950   9.7653382675e+01   5.2851699335e+01    0.2197043     0.177486  42.93 0.0008887477    1.352    0.261
       358 -10.9681     21.2656    110.2607   9.8515685334e+01   5.1552585025e+01    0.6994658    0.2355156  40.58  0.002682181    3.119    0.679
       359 -10.2722     16.3468    104.0607   9.9402026922e+01   5.3512726770e+01    0.4258486     0.329241 -79.53  0.002063689    1.177    0.150
       360 -10.8255     34.8093    111.1709   9.3792404679e+01   5.0079025696e+01    0.4395532    0.3707336  -9.34  0.002506704    1.392    0.282
       361 -10.5885     34.5672    104.6980   9.2730806719e+01   5.1756809433e+01    0.6227997    0.2906057 -85.39  0.002228716    3.211    0.689
       362  -9.7149     28.4696    109.4954   9.5797223180e+01   5.1122803027e+01    0.3094299    0.2697124 -20.64 0.0008790847    1.301    0.231
       363  -9.3598     25.6432    107.2625   9.6465459804e+01   5.1947758346e+01    0.2435964    0.1784931  51.27 0.0005543724    1.486    0.327
       364  -8.3803    116.8021    112.5866   6.7281802139e+01   3.6725579317e+01    0.2111342     0.145479  54.64  0.000515618    1.555    0.357
       365  -9.5037     30.9046    117.7851   9.6243729401e+01   4.8763345348e+01    0.3344063    0.1710871 -83.11  0.001416737    2.148    0.534
       366 -10.7440      9.2764    108.0304   1.0252350103e+02   5.2993835329e+01    0.4918666    0.3574938 -59.55  0.001337003    1.219    0.180
       367  -8.8340    139.0415    107.7885   6.0227209830e+01   3.3091594552e+01     0.203605    0.1978104  53.86 -0.000430966    1.054    0.052
       368  -9.3806    119.7859    107.5863   6.5172150638e+01   3.7242725719e+01    0.2157847    0.1458245  55.70 0.0004115087    1.600    0.375
       369  -9.7583    127.0236    106.0265   6.2819577593e+01   3.6060569305e+01    0.2276573    0.2196424 -64.35   0.00121515    1.015    0.015
       370 -11.3043    107.9810    103.1475   6.7346103952e+01   4.0671857964e+01    0.3726563    0.2936247  55.24            0    1.327    0.246
