#   1 NUMBER                 Running object number                                     
#   2 MAG_AUTO               Kron-like elliptical aperture magnitude                    [mag]
#   3 X_IMAGE                Object position along x                                    [pixel]
#   4 Y_IMAGE                Object position along y                                    [pixel]
#   5 X_WORLD                Barycenter position along world x axis                     [deg]
#   6 Y_WORLD                Barycenter position along world y axis                     [deg]
#   7 A_WORLD                Profile RMS along major axis (world units)                 [deg]
#   8 B_WORLD                Profile RMS along minor axis (world units)                 [deg]
#   9 THETA_WORLD            Position angle (CCW/world-x)                               [deg]
#  10 FWHM_WORLD             FWHM assuming a gaussian core                              [deg]
#  11 ELONGATION             A_IMAGE/B_IMAGE                                           
#  12 ELLIPTICITY            1 - B_IMAGE/A_IMAGE                                       
         1 -15.7897     79.0329    120.7445   6.0938269175e+01   4.1780019806e+01     3.974466     2.385813  75.38   0.01466577    2.719    0.632
         2 -15.1541    243.3959     66.2915   1.6961308877e+01   2.0700919199e+01     2.271172    0.6050795 -49.26   0.01011352    3.024    0.669
         3 -12.8403     46.7818     48.4715   5.4350581316e+01   6.3870893454e+01     1.090089    0.4872738 -58.74  0.004256899    2.961    0.662
         4 -12.5906     23.9216     33.5174   6.1724194125e+01   7.0177941806e+01    0.6988065    0.4456843 -61.54  0.003440995    1.890    0.471
         5 -14.8598    144.7836     23.7594   1.7785002213e+01   4.5807159686e+01     1.131126    0.7223521 -67.53  0.006188789    1.500    0.333
         6 -14.4708    128.4573     16.8804   1.8068211616e+01   5.0468217434e+01    0.6909498     0.510512 -64.20  0.004111108    1.292    0.226
         7 -13.2884     11.9535     15.2484   6.2468241008e+01   7.4995991505e+01    0.8202294    0.7130367  63.69  0.005420221    1.566    0.362
         8 -13.6063     62.8338      6.3094   2.8782612097e+01   6.7175177015e+01    0.6628864    0.3364795  52.58    0.0033323    1.632    0.387
         9 -12.6918     79.4437     24.4400   3.1443191341e+01   6.1229741751e+01    0.4947334     0.403105 -87.33  0.002371147    1.340    0.254
        10 -12.8532     87.1548     12.1798   2.4326106054e+01   6.0918565633e+01    0.4724493    0.3874505  76.20  0.002739349    1.075    0.070
        11 -12.5284    143.3503    215.8623   5.9719747531e+01   1.0620519640e+01    0.3185817    0.2882917 -42.81  0.002116761    1.261    0.207
        12 -15.3081    104.8298    225.7035   6.9830659636e+01   1.3591117372e+01     3.284583    0.8190761  34.14   0.01191537    3.056    0.673
        13 -12.7139     77.3892    223.8780   7.6391289845e+01   1.7287856410e+01    0.8292488    0.4578764  42.26  0.003274527    1.610    0.379
        14 -12.9522     88.5391    225.4961   7.3771556264e+01   1.5620655249e+01    0.6351762    0.3318877  43.36  0.003004047    1.787    0.440
        15 -13.1056    104.9818    248.2660   7.2233973467e+01   9.3572590144e+00    0.7085853    0.3322847  35.56  0.003370418    1.767    0.434
        16 -14.2719     95.3606    236.2584   7.3238599967e+01   1.2682785823e+01     1.346974    0.5507378  45.80  0.005765022    2.605    0.616
        17 -12.9636     33.4796    248.3242   8.8992241601e+01   1.6969986631e+01    0.7296127    0.2401202  41.75  0.003323253    2.200    0.545
        18  99.0000     35.5484    157.2073   8.1686217855e+01   3.8177520422e+01     1.398905    0.6736718  59.24  0.005475724    2.352    0.575
        19 -14.3498     36.8529    187.4840   8.4121929709e+01   3.0263536064e+01     3.853812     1.797867  78.51   0.01507194    2.763    0.638
        20 -14.6595     15.5848    165.5142   8.8986064855e+01   3.7847456476e+01     3.145134    0.9922336  60.76  0.009801833    3.999    0.750
        21 -14.6047     73.8011    240.4345   7.8794455909e+01   1.4342268855e+01     2.746351     1.127138  47.26   0.01215093    2.418    0.587
        22 -13.2790     51.0919    224.7928   8.3175506607e+01   2.0068373095e+01       1.0567    0.6641104 -72.83  0.005285385    1.817    0.450
        23 -14.1769     61.3132    208.5546   7.9104814603e+01   2.2528803370e+01     1.570461    0.8472865  87.75  0.006317412    2.518    0.603
        24 -14.7514     10.0308    183.7920   9.1804419729e+01   3.3628878333e+01     1.883533    0.9470324  76.85  0.008583871    2.033    0.508
        25 -14.1880      5.7393    218.2378   9.4476909714e+01   2.5804943023e+01     1.671593    0.7544649  65.40  0.008012916    2.105    0.525
        26 -14.3894      6.5354    201.6178   9.3626905086e+01   2.9568801687e+01     1.941958    0.5095789  58.24   0.00658118    3.813    0.738
        27 -14.6999     32.4523    218.0908   8.7549761284e+01   2.3461640083e+01      2.09734    0.9438595  78.91  0.008955049    2.773    0.639
        28 -13.8845     22.2086    197.7375   8.9084563841e+01   2.9172721660e+01    0.8826116    0.4955426  58.99  0.003634712    1.684    0.406
        29 -11.6282     53.7850    249.9893   8.4297065703e+01   1.4625722272e+01    0.4177707    0.1398593  31.46  0.001866273    2.132    0.531
        30 -13.3175      2.5683    248.2966   9.6168283665e+01   1.9706779776e+01    0.4769074    0.2462775  69.06   0.00270695    1.843    0.457
        31 -14.0505    110.3528    207.9160   6.6297973208e+01   1.6463379089e+01    0.9519649    0.5725846  36.31  0.004661121    1.496    0.331
        32 -13.0470    102.2914    204.7998   6.7903843451e+01   1.8189728873e+01    0.7437434    0.4568651  56.16  0.003531201    2.003    0.501
        33 -12.6503    248.9614    206.7246   3.9681661046e+01   3.3522512691e-01    0.3569688    0.1446784 -45.00  0.002027727    2.449    0.592
        34 -12.4628     74.1259    201.6664   7.4927275481e+01   2.2548389525e+01    0.7287804    0.4165833 -74.82  0.003394092    2.097    0.523
        35 -12.8458    133.5087    200.3110   5.9701286201e+01   1.4865765058e+01    0.4915551    0.3196775 -21.94  0.002477423    1.868    0.465
        36 -14.5797    112.4066    187.0907   6.2858551860e+01   2.0601741476e+01     1.134312     1.044419  75.71  0.005944413    1.232    0.188
        37 -10.8703     56.3685    190.8394   7.8736001479e+01   2.7271155756e+01    0.2606554    0.1715472  39.52  0.000931139    1.338    0.253
        38 -11.3405     66.8098    187.9930   7.5420500713e+01   2.6680129517e+01    0.4222685    0.2012959  55.35  0.001644929    2.482    0.597
        39 -10.6068     45.9770    160.3162   7.8576473205e+01   3.6208129575e+01    0.1988068     0.173802  26.24  0.000456734    1.137    0.120
        40 -13.6571    102.0819    130.3099   5.5663784058e+01   3.5404164358e+01    0.9694577    0.7303945  30.84  0.004516223    1.369    0.269
        41 -14.3374     82.5886    151.2136   6.5513364925e+01   3.3563663212e+01     1.600797     1.321359  71.15  0.007867134    1.307    0.235
        42 -14.8676     95.2822    142.2350   6.0045920841e+01   3.3726355429e+01     1.303496    0.9237407  68.99  0.005250836    1.741    0.426
        43 -14.4295    116.4318    239.5988   6.8716932646e+01   9.5922978708e+00    0.7372003    0.6541769  58.08   0.00299022    1.384    0.277
        44 -13.5747     44.2342    146.1677   7.7413349415e+01   4.0146170943e+01    0.8560728    0.5881597 -79.19  0.002836632    1.518    0.341
        45 -11.5818     37.3089    141.2914   7.9238921197e+01   4.2229573316e+01      0.47115    0.2801101 -87.89   0.00205336    1.872    0.466
        46 -11.1911      6.7333    133.9258   8.9738544946e+01   4.6867657325e+01    0.4806981    0.3890519   8.54  0.002314473    1.325    0.245
        47 -11.9170     13.4973    127.0603   8.6564422424e+01   4.8243973221e+01     1.135942    0.4615183 -88.20  0.004173322    2.774    0.639
        48 -12.7469     18.1905    143.9060   8.6389240350e+01   4.3351201052e+01    0.7794836    0.3975892 -88.26  0.003271295    2.064    0.515
        49 -12.6694     14.4181    138.0415   8.7233160224e+01   4.5223175185e+01    0.6456209    0.3278888  55.72  0.002367991    2.024    0.506
        50 -11.5904     74.0415    133.7894   6.5188013184e+01   3.9300640426e+01    0.2547613    0.2185349 -53.00 0.0003578915    1.219    0.180
        51 -13.7510     28.2082    119.0247   7.9771697877e+01   4.9151548967e+01     2.024019    0.9918522  80.13  0.007414643    2.830    0.647
        52 -11.8335     15.0775    109.7333   8.4031646532e+01   5.2771234903e+01    0.6282378    0.4999471 -85.15  0.003199077    1.251    0.200
        53 -12.7971      5.0550     72.2640   8.3691574763e+01   6.3102228000e+01    0.5845357    0.3631872   1.89  0.002369297    1.665    0.400
        54 -13.4565      5.7564     63.2690   8.1750805538e+01   6.5258900155e+01    0.9488739    0.7456378  14.72  0.004767023    1.265    0.210
        55 -12.7584      8.6688     94.8799   8.5061036025e+01   5.7130378180e+01    0.8727112    0.5071899  68.98  0.003787625    1.999    0.500
        56 -13.7188      7.0119     80.9100   8.3969571656e+01   6.0824010006e+01     1.085948    0.7824519 -81.94  0.005704897    1.428    0.300
        57 -14.3826    241.9522    108.0604   2.4598289040e+01   1.5117172021e+01     1.291617    0.9009997 -21.59  0.008502838    1.778    0.437
        58 -11.1202      3.4693    117.0868   8.9654305470e+01   5.1565963968e+01    0.5127743    0.2014619  54.76   0.00191432    2.830    0.647
        59  99.0000     20.9140    241.4875   9.1652791427e+01   1.9515782938e+01     1.391293     0.958708  73.68  0.008642143    1.474    0.321
        60 -11.3342      4.4464    105.0529   8.8131508549e+01   5.4706709332e+01    0.2698869    0.2115115  12.78  0.001141488    1.326    0.246
        61 -13.2213     93.4040     97.7610   5.0835850417e+01   4.4625623579e+01    0.8168177    0.6384592 -84.52   0.00331477    1.504    0.335
        62 -11.8832     33.4072     87.1696   7.2006046932e+01   5.6931655405e+01    0.5060282     0.257742 -61.61  0.001977442    1.932    0.482
        63 -12.0736     29.9607     78.8390   7.1852989875e+01   5.9392152621e+01    0.6922429    0.4046928  55.58  0.003038901    2.100    0.524
        64 -12.2703     45.7127    245.1524   8.5905803409e+01   1.6398765594e+01    0.5808214     0.255535  60.14  0.002517572    2.595    0.615
        65 -10.9250     24.9471    150.2000   8.4594987587e+01   4.1080463884e+01     0.250451    0.2048006 -83.83 0.0008783989    1.210    0.174
        66 -13.8278     55.1626     80.2085   6.0425551357e+01   5.5621841304e+01     1.222851     0.743037 -57.52  0.004544884    1.722    0.419
        67 -11.4696     19.0538     76.3193   7.6895493770e+01   6.1095660623e+01    0.3555298    0.2821736  61.20  0.001913939    1.408    0.290
        68 -14.9068    224.1978     70.7308   1.9542856614e+01   2.3222509949e+01    0.8709434     0.463145  80.98  0.004754934    2.491    0.599
        69 -13.8569    212.7129     60.1824   1.8597086824e+01   2.6708767950e+01    0.6126764    0.3055628 -53.04  0.003373723    1.701    0.412
        70 -14.0477    190.3433     66.2982   2.2405603967e+01   3.0062275962e+01    0.9921635    0.5265985 -59.95  0.005000507    1.910    0.476
        71 -11.8911     18.7744     68.2204   7.5335955314e+01   6.3099302847e+01    0.4464511    0.3245586  57.21  0.002164238    1.594    0.373
        72 -13.2444    173.3509    239.8239   5.6836508595e+01   3.1548170770e+00    0.4192651    0.2501656  33.98  0.002576058    1.707    0.414
        73 -11.3577     18.0767     52.4277   7.1807918357e+01   6.6844193529e+01    0.2776441    0.2464192  18.33  0.001206405    1.093    0.085
        74 -12.2629     32.1925     49.8951   6.2651830971e+01   6.5778561012e+01    0.4893503    0.3838504  60.21  0.002696831    1.543    0.352
        75 -11.1259     11.6943     46.9069   7.4334293123e+01   6.8642758274e+01    0.3116072    0.1748969  -5.89  0.001476198    2.018    0.504
        76 -11.0735      4.1561     46.9840   7.9369604500e+01   6.9158261770e+01     0.236166    0.1816453   4.14  0.001405294    1.245    0.197
        77 -13.1539     85.2930     39.6636   3.5505254770e+01   5.7688932070e+01    0.8667668    0.5382456 -52.19   0.00422785    1.834    0.455
        78 -11.6358     66.2884     42.4252   4.3285144374e+01   6.1343073724e+01    0.2854534    0.1227704  43.61  0.001149175    2.151    0.535
        79 -11.6728     56.8928     35.6445   4.4538128375e+01   6.4378403559e+01    0.3202628    0.2645808 -83.43  0.001802844    1.553    0.356
        80 -12.9582     30.7909     36.2489   5.8474281907e+01   6.8728172063e+01     1.033587    0.5191307  26.26  0.004736196    1.985    0.496
        81 -13.1180      4.3571    234.7111   9.5363617803e+01   2.2341106445e+01    0.6250839    0.2870963  67.06  0.002205859    2.072    0.517
        82 -11.4019      1.3836    227.2414   9.5858208969e+01   2.4169913875e+01    0.2863966    0.1073263  87.38   0.00126776    2.849    0.649
        83 -13.7718    244.7036    226.1405   4.3033132102e+01  -1.7870550778e+00    0.4278495    0.3442385   7.40  0.003680845    1.332    0.249
        84 -11.7513     97.1336     19.0653   2.4625794131e+01   5.7752762453e+01    0.3237438    0.2364819 -40.96  0.001846041    1.527    0.345
        85 -12.5703    159.5123    220.9739   5.7018583777e+01   7.7342756441e+00    0.3420883    0.3001131  60.89  0.002270572    1.625    0.385
        86 -13.4627    241.5776     47.5216   1.3682637965e+01   2.3402625961e+01    0.3563913    0.3235244 -19.04  0.001945238    1.630    0.386
        87 -15.4773    130.7833    246.0294   6.6283402084e+01   6.8303760354e+00     2.070734    0.9173626  28.17   0.00926727    1.853    0.460
        88 -13.6471     87.6527    212.7913   7.2608100567e+01   1.8382370577e+01    0.9485928    0.6898744  55.19  0.005198555    1.469    0.319
