#   1 NUMBER                 Running object number                                     
#   2 MAG_AUTO               Kron-like elliptical aperture magnitude                    [mag]
#   3 X_IMAGE                Object position along x                                    [pixel]
#   4 Y_IMAGE                Object position along y                                    [pixel]
#   5 X_WORLD                Barycenter position along world x axis                     [deg]
#   6 Y_WORLD                Barycenter position along world y axis                     [deg]
#   7 A_WORLD                Profile RMS along major axis (world units)                 [deg]
#   8 B_WORLD                Profile RMS along minor axis (world units)                 [deg]
#   9 THETA_WORLD            Position angle (CCW/world-x)                               [deg]
#  10 FWHM_WORLD             FWHM assuming a gaussian core                              [deg]
#  11 ELONGATION             A_IMAGE/B_IMAGE                                           
#  12 ELLIPTICITY            1 - B_IMAGE/A_IMAGE                                       
         1 -19.3631    240.3747    136.7918   1.1222178754e+01   1.0665630482e+01     6.784585     1.528776 -39.88   0.02619833    3.367    0.703
         2 -15.4187    118.2798    109.4175   2.7836713299e+01   3.7032279675e+01     7.330774     3.231572 -48.01   0.02710268    2.196    0.545
         3 -15.4948    137.6608    130.5865   2.8047578224e+01   2.8575724415e+01     4.589973     2.216058 -58.28   0.01684749    2.633    0.620
         4 -16.3249    244.4957     18.5745   3.4737341393e+02   2.5817836251e+01     4.136237     2.388813 -58.54   0.02110887    1.336    0.252
         5  -9.1251    227.6032    203.1459   2.4665260660e+01   2.5517035043e+00   0.09069002   0.07097712  29.39 0.0006440283    1.619    0.382
         6 -15.3641    226.8691    242.2608   3.0654042010e+01  -2.4665294668e+00      3.33167     1.140128  23.47   0.01796954    2.861    0.650
         7  -9.8458    242.2809    207.0939   2.3088547387e+01   5.5136013155e-01    0.3420029    0.2061955  49.64  0.001849843    4.140    0.758
         8 -10.5166    185.6778    208.5546   3.2666194613e+01   6.4370220441e+00     0.193072    0.1805222  -3.63 0.0007314245    1.329    0.248
         9  -9.1792      1.4146    245.4691   7.7368538652e+01   2.0058593224e+01    0.1155164   0.08718394  49.27 1.146394e-05    1.015    0.015
        10 -12.1527    192.0293    193.8257   2.9096054177e+01   8.0176717589e+00    0.6804127    0.3693669 -59.45   0.00282007    4.045    0.753
        11  -9.1794    172.0585    200.3535   3.3959430588e+01   9.4609998768e+00    0.1682625    0.1449279  -2.25 0.0006904702    1.055    0.052
        12  -9.6900    122.1960    199.5851   4.4668766735e+01   1.6270131733e+01    0.2045991    0.1855649 -70.36 0.0006491257    1.322    0.244
        13 -10.2205    154.0141    195.2801   3.6832488127e+01   1.2746239412e+01    0.2707525    0.1775792 -55.54  0.001028735    1.836    0.455
        14  -9.0400    160.5578    195.4660   3.5487108267e+01   1.1826930336e+01    0.1287285    0.1117032  -6.51 5.804134e-05    1.006    0.006
        15  -9.0631    180.1685    193.7426   3.1290677127e+01   9.5379630806e+00     0.174706    0.1374247  78.37  0.000928863    2.651    0.623
        16  -9.9058    232.5777    192.7303   2.2213161154e+01   3.4756192629e+00    0.1340427    0.1285079 -37.20 0.0009870949    1.652    0.395
        17 -10.1915    185.2643    126.1125   1.7267335324e+01   2.0807226617e+01      1.55055    0.9280357 -61.03  0.007077751    2.299    0.565
        18 -10.7620    175.1846    222.4016   3.6760059607e+01   5.4889167886e+00    0.2775259    0.2170063  65.48  0.001618545    2.593    0.614
        19 -13.4364    162.0271    128.9696   2.2289762356e+01   2.4400976916e+01     1.593987     1.303072  88.57  0.008482985    1.636    0.389
        20 -13.7030    166.4905    116.2216   1.8479147297e+01   2.6047366056e+01     1.814273     1.411597  79.54  0.008404925    1.705    0.414
        21 -14.0258    203.9181    167.9391   2.2443544857e+01   1.0695231904e+01    0.6012051    0.4407881 -24.76  0.002701527    1.163    0.140
        22 -13.9227    160.7574    164.5856   2.9956965595e+01   1.7598643531e+01    0.9624872    0.6077249  19.18  0.002137725    1.873    0.466
        23 -14.5593    174.4966    161.0525   2.6483941189e+01   1.6143713544e+01     1.435869     1.038089  60.39  0.003930099    2.073    0.518
        24 -10.3604    164.2362    188.6336   3.3582151664e+01   1.2562013017e+01    0.4439049    0.2294022  34.46  0.002182749    1.941    0.485
        25 -12.1985    148.9905    187.5123   3.6627904154e+01   1.4909358601e+01    0.5127814    0.3745877 -54.49  0.001871987    1.558    0.358
        26 -11.8375    144.5637    182.6549   3.6781170979e+01   1.6496417856e+01    0.3649157    0.2893396 -43.98  0.001085274    1.274    0.215
        27  -8.9869    220.6209    188.5336   2.3352360450e+01   5.4054476928e+00    0.1153073   0.08897968 -22.21 -1.807714e-05    1.056    0.053
        28 -11.6296    128.7229    184.0762   4.0688776790e+01   1.8530543769e+01    0.4269152    0.2273135  18.37  0.001803832    2.297    0.565
        29  -9.0811    222.9747    178.8734   2.1328024807e+01   6.5653440515e+00    0.2474569    0.1651254 -58.64  0.001367451    2.606    0.616
        30 -11.5272    154.9909    178.0541   3.3679189100e+01   1.5862964962e+01    0.3148166    0.2899224 -84.72  0.001577785    1.440    0.306
        31 -12.3373    216.7007    170.3304   2.0796509985e+01   8.6393892422e+00    0.2533044    0.2093918 -52.93 0.0005999146    1.583    0.368
        32  -9.5619    175.9973    189.0574   3.1300499136e+01   1.0888578726e+01    0.2296529    0.1928909 -16.80  0.001476081    1.033    0.032
        33 -10.5275    172.8300    185.3122   3.1275547409e+01   1.1975318005e+01     0.417107    0.2753404  12.09  0.002274929    1.647    0.393
        34 -10.6693    215.3072    164.4289   1.9943733463e+01   9.7438098364e+00    0.2242451     0.178213 -60.18  0.001011853    1.792    0.442
        35  -9.3595    202.9232    152.9894   1.9785705669e+01   1.3314539701e+01    0.1911427    0.1430252 -57.34  0.001113429    1.676    0.403
        36  -8.9396    199.3969    152.4860   2.0277067864e+01   1.3914649890e+01    0.1296476    0.1046821 -25.61 8.444133e-05    1.060    0.057
        37  -9.8753    181.5278    148.6089   2.2673161914e+01   1.7336222999e+01    0.2889656    0.2502554  57.16  0.001747129    1.463    0.316
        38 -12.2289     68.2110    144.3868   5.0802318938e+01   3.7090858686e+01    0.8429455    0.5248972  60.49  0.002649003    1.906    0.475
        39  99.0000    214.4459    181.9235   2.3207143272e+01   7.1289596029e+00     0.947669    0.6891744 -22.17  0.006316507    1.117    0.105
        40  -9.6527    175.7951    133.9173   2.0677185748e+01   2.1008130071e+01    0.2003029    0.1678524 -23.69 0.0003407799    1.159    0.137
        41  -8.8226    195.2282    130.0492   1.6421612440e+01   1.8430876392e+01    0.1780319    0.1428171 -29.72 0.0003999029    1.116    0.104
        42 -14.4033     62.1678    103.9535   4.4768080510e+01   4.8745460439e+01     2.146276      1.38114  40.52  0.005614721    1.570    0.363
        43 -14.4208    133.9763    148.6516   3.2852581659e+01   2.5301400739e+01      2.87176    0.7921786 -53.95  0.005087006    4.522    0.779
        44 -12.9201     49.7468    101.8053   4.9211774803e+01   5.1140553713e+01    0.5660011     0.548085  15.83  0.001160903    1.084    0.077
        45 -12.6465      6.2113    104.6011   6.8379796167e+01   5.4620184918e+01    0.6453709    0.3663586 -89.39  0.002937866    1.728    0.421
        46 -13.9203     23.9453     99.2618   5.9810310680e+01   5.4787978627e+01    0.9907847    0.9780448 -20.10  0.003786755    1.078    0.073
        47  -9.1564    190.0316    100.5793   1.0741322283e+01   2.4435338008e+01    0.1785627    0.1335315  58.42 0.0007264361    1.560    0.359
        48 -11.1730    154.9695     94.2124   1.5303758150e+01   3.2537802713e+01    0.4434845    0.3658638  26.88  0.001285463    1.501    0.334
        49  -8.9770    155.2989    238.3205   4.2871948680e+01   5.2594338278e+00    0.1209149    0.0772416  -8.88 0.0003292109    1.621    0.383
        50  -9.1761    186.6716     91.1048   9.0314365663e+00   2.6673801488e+01    0.1829832    0.1129353 -31.85 0.0001342288    1.606    0.377
        51 -14.0577    187.8249    167.9535   2.5272875258e+01   1.2929245356e+01     1.132448    0.7069833   4.46  0.004772012    2.174    0.540
        52  -8.3623    248.6895    212.1179   2.2946424316e+01  -6.9134649640e-01    0.2617121      0.13377  23.75  0.001736055    2.075    0.518
        53 -14.3683    196.2626    172.6544   2.4625533289e+01   1.0951477180e+01    0.4955049    0.3389577 -40.53  0.001967397    1.352    0.260
        54 -10.7921    183.7628     78.4122   6.3811452123e+00   2.9339151158e+01    0.2472835    0.2080792 -22.18 0.0007693699    1.355    0.262
        55  -8.7466    191.6114     76.6810   4.8651823719e+00   2.8046860705e+01    0.1282616    0.1024525  11.52 0.0007011475    1.848    0.459
        56  -9.8006    169.4140     70.6460   6.5489717357e+00   3.3590687190e+01    0.3196613    0.1999009 -57.17  0.001571163    1.595    0.373
        57  -9.0787    201.7872     70.4045   2.0901918941e+00   2.7022175436e+01    0.1824711    0.1453933  22.77  0.000846893    1.862    0.463
        58  -8.8397    204.2598     67.6752   1.1665119079e+00   2.6949933450e+01    0.1376299    0.1199756  67.06 0.0005359923    1.351    0.260
        59  -8.8770    195.8834     58.6067   3.5996665619e+02   2.9901942709e+01    0.1473792    0.1098929 -77.51 0.0002338754    1.370    0.270
        60 -11.9771    154.3188     26.6847   3.5625797589e+02   4.3276002903e+01    0.4297306    0.3059324  50.15  0.001973086    1.654    0.395
        61  -9.7997    164.7490    203.9434   3.5997023613e+01   9.7813450097e+00    0.1966821    0.1696049 -54.16 0.0006061359    1.491    0.329
