#   1 NUMBER                 Running object number                                     
#   2 MAG_AUTO               Kron-like elliptical aperture magnitude                    [mag]
#   3 X_IMAGE                Object position along x                                    [pixel]
#   4 Y_IMAGE                Object position along y                                    [pixel]
#   5 X_WORLD                Barycenter position along world x axis                     [deg]
#   6 Y_WORLD                Barycenter position along world y axis                     [deg]
#   7 A_WORLD                Profile RMS along major axis (world units)                 [deg]
#   8 B_WORLD                Profile RMS along minor axis (world units)                 [deg]
#   9 THETA_WORLD            Position angle (CCW/world-x)                               [deg]
#  10 FWHM_WORLD             FWHM assuming a gaussian core                              [deg]
#  11 ELONGATION             A_IMAGE/B_IMAGE                                           
#  12 ELLIPTICITY            1 - B_IMAGE/A_IMAGE                                       
         1 -14.2059      4.2175     22.8681   1.3502248647e+02   7.1563481122e+01     12.23046          nan -67.14   0.02358802   13.252    0.925
         2 -14.5237     18.3112    168.3511   1.4763866637e+02   3.7955314884e+01     4.549884     1.419402  78.62   0.01811439    4.149    0.759
         3 -13.2498    189.8204     26.3093   7.4041739733e+01   3.3944183661e+01     1.339252     1.206849  56.68  0.006141102    1.127    0.113
         4 -13.5532    203.1442      7.8223   6.6941029644e+01   3.2444023543e+01     1.638792     1.076764  42.09  0.008201347    1.711    0.415
         5 -14.4254      6.7897    213.0516   1.5173478029e+02   3.0753988997e+01      3.80309    0.7074856 -77.58   0.01722522    4.823    0.793
         6  -9.4310     33.0000      4.4582   1.0907370960e+02   7.2696540571e+01    0.4141641   0.06287713 -44.24   0.00115003    5.872    0.830
         7  -9.1517     47.0591    249.3145   1.4615540607e+02   2.1242579894e+01    0.1415863   0.08723543  49.13 0.0006066969    1.109    0.099
         8  -8.8883    249.6742    250.3116   1.1291831354e+02  -4.2048720092e+00    0.0841563   0.06694622  31.46 0.0004289053    1.661    0.398
         9 -11.6359    139.5303    249.4823   1.3042047552e+02   1.0088562665e+01    0.3847892    0.2402818  41.14  0.002814279    1.162    0.139
        10 -11.2531    124.4762    250.1241   1.3304792505e+02   1.1978099425e+01    0.4496785    0.1167329  38.85  0.002155236    2.675    0.626
        11  -8.7559     89.7204    250.3795   1.3901442358e+02   1.6294172561e+01    0.1377942   0.07508034  34.57 0.0005530362    1.533    0.348
        12 -10.5181     66.3444    250.3074   1.4297692881e+02   1.9018268681e+01    0.3369543    0.1213988  34.87  0.001798334    2.258    0.557
        13 -10.6268     33.2343    248.7350   1.4841282311e+02   2.2725537893e+01    0.2272784    0.1491242 -66.51  0.001864598    2.041    0.510
        14 -10.6458     33.4903    244.4824   1.4820815774e+02   2.3322136808e+01    0.1861823    0.1416009  76.28  0.001658784    1.292    0.226
        15 -10.5109     36.8014    243.3982   1.4761205412e+02   2.3153263576e+01    0.2113271    0.1633799  55.16  0.001143475    1.159    0.137
        16 -10.9244      3.7907    249.0388   1.5314225394e+02   2.5385654885e+01    0.4068529    0.1660862  43.34  0.003011463    1.601    0.376
        17  -9.5606     77.3255    245.8514   1.4083823919e+02   1.8388292560e+01    0.1862375   0.09641249  46.83  0.001010278    1.362    0.266
        18  -9.6388     66.9337    243.3456   1.4247657985e+02   1.9941931211e+01    0.1853756    0.1087036  68.80  0.001110021    1.665    0.399
        19 -10.0335     95.5208    241.4817   1.3736114474e+02   1.6804708820e+01    0.2044867    0.1285713  78.82   0.00141324    2.024    0.506
        20  -9.3499    174.4751    248.9824   1.2449573510e+02   5.4911693161e+00    0.1157467   0.09094451  85.83  0.000728659    2.582    0.613
        21 -10.0926    155.6925    228.4384   1.2537166889e+02   1.0453298288e+01    0.2265182   0.08177298  41.45  0.001144907    2.111    0.526
        22  -9.8503     99.0197    248.9808   1.3732120805e+02   1.5348962369e+01    0.1442436    0.1144554  15.07 0.0007053905    1.682    0.405
        23 -12.5243     42.7854    236.0772   1.4627098007e+02   2.3644318798e+01    0.2483163    0.2259625  56.53 0.0007788091    1.384    0.277
        24 -13.6594     48.4020    227.7198   1.4486197773e+02   2.4350174571e+01    0.7944927    0.4982303  62.34  0.003611301    1.280    0.219
        25 -10.8254    172.7807    222.5705   1.2162271125e+02   8.7197008302e+00    0.3639568    0.1512908  36.86  0.001953045    1.854    0.461
        26 -11.0630     11.1090    239.0844   1.5172925542e+02   2.6225164726e+01    0.3301717    0.1167016  55.36  0.002187195    1.876    0.467
        27  -8.8308    152.5314    213.0078   1.2406801464e+02   1.2934703161e+01     0.134944    0.1166748 -40.84 5.387968e-05    1.469    0.319
        28 -10.8969    185.5992    238.3841   1.2140737421e+02   5.1118143609e+00    0.2996522    0.2225205 -69.77  0.001733278    3.006    0.667
        29 -12.2334     26.7020    203.3154   1.4766745383e+02   3.0632835374e+01    0.4761969    0.1511998  49.42  0.001841878    2.221    0.550
        30 -11.2315     67.2405    200.8512   1.3950052951e+02   2.6683691416e+01    0.2571074      0.20674 -50.39  0.001243376    1.685    0.407
        31  -9.9454    194.8006    198.0168   1.1422742413e+02   8.4130053979e+00    0.3999636    0.2231373 -58.28  0.001650452    5.151    0.806
        32 -11.5913     72.7530    192.5803   1.3766754144e+02   2.7475262507e+01    0.2226577    0.2130399 -88.50 0.0006575696    1.287    0.223
        33 -14.1430     56.1383    213.9722   1.4262290294e+02   2.5733163064e+01     7.588897          nan  41.26   0.02277094    6.861    0.854
        34  -8.4123    106.3523    181.7996   1.2935817100e+02   2.4814163273e+01    0.1351685    0.1150722 -54.12 0.0002622594    1.388    0.280
        35 -13.0263     69.2647    177.6864   1.3702167890e+02   3.0685839077e+01     0.425568    0.2668141 -42.66  0.001868221    2.341    0.573
        36 -10.6956     81.9300    179.5422   1.3441584754e+02   2.8686778977e+01      0.21195    0.1811435  58.08 0.0003522276    1.033    0.032
        37 -11.6049     88.5208    170.0071   1.3184558858e+02   2.9597324480e+01    0.5260767    0.4937121 -66.20  0.003662451    1.239    0.193
        38  -8.6840    250.6839    171.6849   1.0046297341e+02   2.8169345364e+00     0.123204   0.07279339  10.92 0.0003055983    1.647    0.393
        39  -8.6381    196.1926    159.7748   1.0736437138e+02   1.3251416057e+01    0.1899174    0.1451918  88.82 0.0009392034    2.722    0.633
        40 -11.7073     32.7192    132.3311   1.4148765875e+02   4.4259434920e+01    0.8908425    0.1271657 -74.64  0.002218589    8.230    0.878
        41 -10.5090     27.4748    144.5287   1.4391845440e+02   4.2075514424e+01    0.2331916     0.130904 -75.27  0.001358672    1.615    0.381
        42 -12.0988     27.6904    138.9133   1.4340692344e+02   4.3273161857e+01    0.6080858     0.162457  45.99  0.002394439    3.146    0.682
        43  -8.8143    103.0413    149.0362   1.2548526813e+02   3.1568139413e+01    0.1918648     0.158601 -14.50 0.0004242358    1.634    0.388
        44 -11.7738     89.3643    152.9373   1.2940022250e+02   3.2871398695e+01    0.2473068    0.2349806   9.07   0.00055023    1.271    0.213
        45 -12.3132     66.8274    143.5453   1.3376826232e+02   3.7966819888e+01    0.7515888    0.4176051  60.07  0.003773515    1.903    0.474
        46 -11.3051     57.1277    131.3775   1.3475003775e+02   4.1850172515e+01     0.591305    0.3040325 -79.49  0.002819957    2.102    0.524
        47 -10.4606     98.6347    135.5399   1.2434146235e+02   3.5060403886e+01    0.2414105    0.2262426 -18.03 0.0008136977    1.262    0.208
        48  -9.4850    110.9663    137.9646   1.2165443424e+02   3.2509807706e+01      0.33513    0.2285427 -19.69   0.00135136    2.397    0.583
        49  -9.7465    100.5573    153.4806   1.2677446662e+02   3.1066189671e+01    0.2609069    0.2338392 -20.54 0.0009415947    1.399    0.285
        50  -8.8589    107.9933    124.6054   1.1987265476e+02   3.5795228291e+01     0.188997    0.1572823  44.65 0.0003701711    1.155    0.134
        51  -8.2959     71.5162    125.0228   1.2984812401e+02   4.1420460746e+01    0.1778735    0.1064099  82.85 0.0005116892    2.220    0.549
        52  -9.5260     34.3765    229.4896   1.4744008414e+02   2.5520761038e+01    0.2159164    0.1101783  51.93  0.001529082    1.383    0.277
        53 -12.3579     32.7526    154.0376   1.4336819103e+02   3.9558286539e+01    0.7625371    0.2145649 -67.12  0.003331968    3.112    0.679
        54  -9.4493    203.2077    111.8045   9.5760059040e+01   1.8921780977e+01       0.2006    0.1544586  10.01 0.0005494067    1.358    0.264
        55  -9.9497    168.1185    113.1503   1.0291138795e+02   2.6125404434e+01    0.3300054    0.2743708 -83.24  0.001016114    1.637    0.389
        56  -9.5791    175.3665    138.6013   1.0715598055e+02   2.0355355865e+01     0.393212    0.2739118  84.32 0.0008167591    3.039    0.671
        57  -8.4639    125.8829     99.3826   1.0941097021e+02   3.7644903471e+01    0.2017627    0.1254685  67.29   0.00079659    2.368    0.578
        58  -8.5405    184.6559     77.6599   9.0265771141e+01   2.8260077634e+01    0.1596761    0.1111507  18.32 0.0007048163    1.780    0.438
        59  -9.8230    177.9952    227.7144   1.2136930894e+02   7.3604866346e+00    0.1869277     0.144267  89.90   0.00117962    2.774    0.640
        60 -11.0825      8.9672     54.1663   1.3956150615e+02   6.4222985934e+01    0.2754636    0.2002111   1.83 0.0009866172    1.705    0.414
        61 -10.3503     81.5237    249.1288   1.4032974161e+02   1.7439583772e+01    0.1937558    0.1100864  42.08  0.001173462    1.257    0.204
        62  -9.5229    237.6011    246.8049   1.1423844564e+02  -2.4750841510e+00    0.1133005    0.0872314 -19.59 0.0007544691    1.668    0.401
        63  -9.5808    170.9858    247.0173   1.2485646829e+02   6.1686912782e+00    0.1344007   0.09104245  33.34 0.0004951501    1.049    0.047
        64 -10.1012     32.6546     25.3407   1.1963374017e+02   6.8792821290e+01    0.3585368    0.1100522 -55.23  0.001351584    3.034    0.670
