#   1 NUMBER                 Running object number                                     
#   2 MAG_AUTO               Kron-like elliptical aperture magnitude                    [mag]
#   3 X_IMAGE                Object position along x                                    [pixel]
#   4 Y_IMAGE                Object position along y                                    [pixel]
#   5 X_WORLD                Barycenter position along world x axis                     [deg]
#   6 Y_WORLD                Barycenter position along world y axis                     [deg]
#   7 A_WORLD                Profile RMS along major axis (world units)                 [deg]
#   8 B_WORLD                Profile RMS along minor axis (world units)                 [deg]
#   9 THETA_WORLD            Position angle (CCW/world-x)                               [deg]
#  10 FWHM_WORLD             FWHM assuming a gaussian core                              [deg]
#  11 ELONGATION             A_IMAGE/B_IMAGE                                           
#  12 ELLIPTICITY            1 - B_IMAGE/A_IMAGE                                       
         1 -14.4646    157.2829     49.8544   8.6563200054e+01   3.9744244690e+01     1.803076     1.230002   8.21  0.005908104    1.827    0.453
         2 -14.2815    168.7269     33.6435   7.9017477052e+01   3.9028985538e+01     1.022353    0.8489075 -17.43  0.003250832    1.177    0.150
         3 -13.2845    183.9413      2.8306   6.6837152015e+01   3.8263332577e+01    0.8261347    0.3717809  72.33  0.003511828    2.213    0.548
         4 -11.3739    141.3056    197.6644   1.2466728171e+02   1.7408595249e+01    0.2276811    0.1851205  74.14   0.00113054    1.703    0.413
         5 -19.2948     69.0835    242.7542   1.4281890933e+02   1.9693853731e+01      5.75358     3.500698  39.55   0.04184004    1.249    0.199
         6 -10.9795    176.9565    195.9194   1.1751006708e+02   1.2375290852e+01    0.2528215    0.1753895 -60.82  0.001417882    2.598    0.615
         7 -12.4433    180.2474    193.9692   1.1658920413e+02   1.2145327694e+01    0.4336713     0.326763 -67.10  0.002508039    2.554    0.608
         8 -11.9133    135.2247    195.7804   1.2562969645e+02   1.8583782158e+01    0.2654595    0.2097567  71.65  0.000895755    1.696    0.411
         9 -12.3647    188.7299    186.4705   1.1378985680e+02   1.1863264751e+01    0.4048427    0.3446363 -25.47  0.001494959    1.342    0.255
        10 -10.6530      6.7752    224.6016   1.5293133329e+02   2.8351089144e+01    0.1948896    0.1013743  16.56  0.001230774    2.825    0.646
        11 -11.4629     18.0834    231.2344   1.5117645756e+02   2.6362560192e+01    0.1416651    0.1126166  56.04 0.0004402752    1.133    0.118
        12 -19.1598     56.6044     94.3328   1.2912391284e+02   5.0523548993e+01     17.91901     1.060101 -61.48   0.02699522   16.809    0.941
        13 -10.1239     13.6226    189.8382   1.5044383874e+02   3.3822891832e+01    0.1223067   0.07800148  73.86 0.0001407875    1.308    0.236
        14 -10.7472    203.5022    188.4516   1.1145511054e+02   9.3602464656e+00     0.187774    0.1395066  -4.24 0.0001283988    1.243    0.196
        15 -12.3874    207.6367    185.3944   1.1020294132e+02   9.1186610934e+00    0.3447432    0.2467589   5.92  0.001124128    1.242    0.195
        16 -12.4429    212.0785    181.5528   1.0875525177e+02   8.9219130493e+00    0.3081821    0.2211901  -0.90  0.001137987    1.254    0.203
        17 -10.8606    157.8615    185.1267   1.1950774366e+02   1.6837140182e+01    0.1830328    0.1584215  50.12 0.0008750006    1.332    0.249
        18 -11.7398      2.1668    227.8648   1.5380949727e+02   2.8192282930e+01    0.1322519    0.1244219  56.85  0.001262571    1.425    0.298
        19 -10.8988    223.8887    184.1471   1.0720736719e+02   6.8479927386e+00    0.1656148     0.110958  10.38  0.001038897    1.289    0.224
        20 -11.1665    165.2770    208.1781   1.2150684008e+02   1.2429134063e+01    0.2171812    0.1754392  20.81 0.0006366061    1.042    0.041
        21 -10.6201     17.4801    180.6386   1.4922337041e+02   3.5249508224e+01    0.1275281    0.1172966  -4.41  0.000457311    1.518    0.341
        22 -12.0176    198.9135    178.3516   1.1052001991e+02   1.1362648611e+01     0.294738    0.2576355 -30.65 0.0008754464    1.424    0.298
        23 -10.9426     28.2371    179.6462   1.4686514122e+02   3.4521837105e+01    0.3351111    0.1879023   4.29  0.001729002    3.336    0.700
        24  -9.7764      1.6997    179.1976   1.5247002407e+02   3.6734597249e+01    0.1010695   0.05566541  53.23            0    1.443    0.307
        25 -10.4320    145.4500    178.2186   1.2094461475e+02   1.9860030963e+01    0.1522193    0.1243945 -61.50 0.0004188734    1.571    0.364
        26 -11.8175    178.9441    175.0254   1.1366827023e+02   1.5004945230e+01    0.2528965    0.1793335 -18.90  0.001492495    1.487    0.327
        27 -11.8373    145.0194    169.0747   1.1953772203e+02   2.1447845698e+01    0.3902238    0.2893474  47.98  0.001717748    1.382    0.276
        28 -11.2883    130.4285    205.9750   1.2791011859e+02   1.7686673515e+01    0.1999049     0.188111  59.87 0.0006539368    1.230    0.187
        29 -11.4104    138.0951    171.6890   1.2145444029e+02   2.2109649587e+01    0.4083218    0.2496444  68.19  0.001750615    3.268    0.694
        30 -10.7985    225.4548    166.5299   1.0370922965e+02   8.7091145694e+00    0.1245838   0.09831657   5.83 3.278019e-05    1.010    0.010
        31 -10.6748     25.2186    165.3535   1.4664416433e+02   3.7634132508e+01    0.2184723    0.1474236  22.88  0.001302175    1.712    0.416
        32 -11.7163    104.4600    161.7420   1.2747431935e+02   2.9094271621e+01    0.2252654    0.2073836  29.51 0.0003936579    1.087    0.080
        33 -11.7884     38.3975    161.5072   1.4327480543e+02   3.7229919759e+01    0.2684445    0.1000825  31.32  0.001171028    2.510    0.602
        34 -11.5979     23.1913    156.2023   1.4651020347e+02   3.9702195882e+01    0.4416317    0.1959137  55.93  0.002146591    2.086    0.521
        35 -11.9230     27.6737    156.6636   1.4546568946e+02   3.9224073239e+01    0.2242301    0.1542792  85.54  0.001444557    1.297    0.229
        36 -12.1688    133.8631    145.1755   1.1771600913e+02   2.7582444508e+01    0.9616109    0.2679637 -53.67  0.002721882    5.607    0.822
        37 -13.1613    108.3312    154.2238   1.2538185005e+02   2.9986813311e+01    0.6249728    0.4120571 -28.21  0.003145554    2.079    0.519
        38 -10.7869    174.6598    149.0919   1.0960277966e+02   1.9696963658e+01     0.230946    0.1772558  44.38 0.0007286783    1.366    0.268
        39 -14.0936    196.3400    195.7399   1.1393692669e+02   9.5148721761e+00    0.6405619    0.5643635  28.37  0.002278224    1.322    0.244
        40 -11.9083     33.8392    141.4124   1.4264997756e+02   4.1966814121e+01    0.4068689    0.2038918  17.43   0.00202393    2.610    0.617
        41 -12.2582    115.4599    139.5310   1.2106461418e+02   3.1788362376e+01    0.4142926    0.2586917 -38.75  0.002032444    1.787    0.440
        42 -12.6158    105.2958    139.8190   1.2366844389e+02   3.3368114350e+01    0.2808279    0.2490446  49.34 0.0005117221    1.101    0.091
        43 -11.9360    105.8103    130.6365   1.2181639038e+02   3.5200344265e+01    0.4361531    0.3538308  80.62  0.002153695    1.488    0.328
        44 -11.4472    108.7250    126.3451   1.2019538196e+02   3.5622501606e+01    0.2680551    0.2279169 -31.98  0.001393888    1.254    0.203
        45 -11.6022    119.8499    130.2415   1.1813186140e+02   3.2924133990e+01    0.2808142    0.2506231 -11.79  0.000730562    1.202    0.168
        46 -11.6590    160.2003    127.9873   1.0811259287e+02   2.5920112374e+01    0.2920414    0.2451728 -37.03  0.001630186    1.236    0.191
        47 -10.3442    143.9536    128.4590   1.1189287354e+02   2.8916480152e+01    0.2007801    0.1839248 -27.03 0.0002891812    1.103    0.093
        48 -11.9383    135.5447    122.9871   1.1266655810e+02   3.1534787415e+01    0.4835111    0.1738997 -48.21  0.001703348    3.001    0.667
        49 -11.5814    125.5871    127.2189   1.1605607656e+02   3.2522948491e+01    0.4657031    0.2865127  67.74     0.001855    2.889    0.654
        50 -11.2450     24.3949    127.3033   1.4388523613e+02   4.5945480998e+01    0.2896012     0.170393 -55.98  0.001331457    1.709    0.415
        51 -12.4163     33.5074    126.2199   1.4120524402e+02   4.5419222437e+01    0.2912796    0.2208448  83.94  0.001009187    1.208    0.172
        52 -10.9435    113.9093    119.0365   1.1727078710e+02   3.6267115518e+01    0.2087401    0.2047662   6.61 0.0003866801    1.006    0.006
        53  -9.8612    173.1705    118.4091   1.0309836429e+02   2.5026768850e+01    0.1861408    0.1357281  55.06    0.0004301    1.611    0.379
        54 -11.2408     96.2112    110.8110   1.2032011626e+02   4.1043059486e+01    0.1945851    0.1640071 -22.02 0.0004710086    1.337    0.252
        55 -11.7162     33.3065    110.8595   1.3944100251e+02   4.9015027609e+01    0.2132802    0.1611136  46.76 0.0007920762    1.370    0.270
        56 -11.0648      8.8006    111.4181   1.4699716375e+02   5.0709584862e+01    0.2389253    0.1167413  -0.20  0.001142055    3.229    0.690
        57 -10.8683    205.4446    110.1494   9.4924165773e+01   1.9865132826e+01    0.3026172    0.1881205  35.45  0.001010954    1.633    0.388
        58 -10.8299    134.5007    102.9572   1.0804100071e+02   3.5649939231e+01    0.2276323    0.1428572 -41.83  0.001029648    1.582    0.368
        59 -12.4839    250.0311     77.3570   8.0324828028e+01   1.5439834327e+01    0.7296382     0.195546 -26.82  0.002656447    3.070    0.674
        60 -13.0577    231.3690     72.9012   8.1532246679e+01   1.9636048973e+01    0.9953952    0.4491289 -29.54  0.004085154    1.890    0.471
        61 -12.3999    231.4221     56.5650   7.7283429787e+01   2.1585044339e+01    0.7586231    0.2078045 -39.03  0.002637902    3.279    0.695
        62 -10.6933     13.8846     59.5221   1.3858244025e+02   6.2791567002e+01    0.2499774    0.1324195 -54.81 0.0009049564    1.538    0.350
        63 -10.5341      2.2082    246.1006   1.5422107004e+02   2.5403845277e+01    0.1099762   0.09338589  75.04  0.000952421    1.340    0.253
        64 -11.3735    203.1291    244.9055   1.1983602107e+02   3.1248614339e+00    0.1490713    0.1156308  26.00  0.000700973    1.255    0.203
        65 -11.3329    248.9024     55.5773   7.5105453378e+01   1.8130567094e+01    0.2901654    0.1295545 -38.31  0.001344957    1.978    0.494
        66 -11.4965    249.8510     40.9686   7.1378114758e+01   1.9504854675e+01    0.3124464    0.2113575 -29.40  0.001809861    1.237    0.192
        67 -13.1800    172.4153     26.0158   7.5879245135e+01   3.8973378210e+01    0.5170922    0.4092134   5.76  0.001324747    1.352    0.261
        68 -11.5959    189.5071     14.9952   7.0129930540e+01   3.5795907573e+01    0.2097807    0.1916144  76.56 0.0006194256    1.130    0.115
