#   1 NUMBER                 Running object number                                     
#   2 MAG_AUTO               Kron-like elliptical aperture magnitude                    [mag]
#   3 X_IMAGE                Object position along x                                    [pixel]
#   4 Y_IMAGE                Object position along y                                    [pixel]
#   5 X_WORLD                Barycenter position along world x axis                     [deg]
#   6 Y_WORLD                Barycenter position along world y axis                     [deg]
#   7 A_WORLD                Profile RMS along major axis (world units)                 [deg]
#   8 B_WORLD                Profile RMS along minor axis (world units)                 [deg]
#   9 THETA_WORLD            Position angle (CCW/world-x)                               [deg]
#  10 FWHM_WORLD             FWHM assuming a gaussian core                              [deg]
#  11 ELONGATION             A_IMAGE/B_IMAGE                                           
#  12 ELLIPTICITY            1 - B_IMAGE/A_IMAGE                                       
         1 -11.3230     24.3255     31.7988   1.2160318610e+02   6.6222690006e+01     2.392084    0.1557774 -50.06  0.007495409    4.618    0.783
         2 -10.2084      4.5377     41.8858   1.3269275669e+02   6.5155682295e+01    0.7904639    0.3016875 -74.37  0.002298433    2.297    0.565
         3  -9.3836      2.1329     14.5302   1.2722259320e+02   7.1117049646e+01     0.463595    0.1944181 -74.99  0.002141172    2.888    0.654
         4 -10.3958      5.1215      4.5923   1.2212226902e+02   7.2995174523e+01    0.4913839    0.3783877 -25.04  0.001392473    1.249    0.199
         5  -9.8715     19.4066      9.5322   1.1602167115e+02   7.1120134038e+01     0.669399    0.3251377  33.33   0.00323197    2.642    0.621
         6  -9.7084     18.0474      3.9805   1.1431022737e+02   7.2282366337e+01    0.4030182    0.3317568  42.48  0.001765766    1.798    0.444
         7 -10.2617     10.0149     18.9996   1.2450261406e+02   6.9816696844e+01     1.211719    0.3086902 -32.51  0.003657764    6.834    0.854
         8  -8.4142    104.8159     14.7820   8.2458780004e+01   5.7120287562e+01    0.3948805    0.1926899  19.86  0.001262825    3.254    0.693
         9  -9.5290    100.8680     32.7362   9.1554889269e+01   5.5316563578e+01    0.7338043    0.2381921 -33.68  0.001930778    2.925    0.658
        10  -9.1193    103.0138     21.4362   8.6016236485e+01   5.6606064528e+01    0.5575842    0.2333724 -30.15  0.001824183    2.247    0.555
        11  -9.5420     63.2254     21.3639   1.0026522343e+02   6.3947295807e+01    0.4389994    0.3532557 -62.54  0.001186019    1.822    0.451
        12 -10.2772     64.3576     13.5753   9.6094295621e+01   6.5079349498e+01    0.5366985    0.3087743 -28.57  0.002308465    1.536    0.349
        13 -10.2877     75.9183     31.6129   9.9721348818e+01   6.0120913013e+01    0.6218553    0.4415257 -73.53  0.001234241    2.885    0.653
        14 -10.1417     79.3873     24.0920   9.5172890972e+01   6.0835441089e+01     0.785017    0.3684528  26.08  0.002445246    3.091    0.676
        15  -9.9740     51.8597     13.8141   1.0165082270e+02   6.6887267381e+01    0.6643775    0.3817329   4.38  0.003076416    2.500    0.600
        16 -10.1810     46.2194     29.6681   1.1104992952e+02   6.4627416037e+01     0.604422    0.3060008 -61.80  0.002257689    2.724    0.633
        17  -9.3678    110.1334     32.1976   8.8490927168e+01   5.3453548654e+01    0.7901437    0.2356344 -35.17   0.00254093    3.114    0.679
        18  -8.4733    111.5681     21.5600   8.3556636678e+01   5.4702300578e+01    0.5130892    0.1899341 -31.50  0.001863359    2.532    0.605
        19  -9.1557     96.1436     15.4479   8.5409535082e+01   5.8904200312e+01    0.6528119    0.2414428 -22.38  0.002102029    3.032    0.670
        20  -8.8102    128.2920     24.9703   8.0552937253e+01   5.0319853163e+01    0.5909157    0.3257027  -9.61   0.00191289    2.136    0.532
        21  -9.4207    132.6323     17.5712   7.6456204412e+01   5.0181859034e+01      0.56708    0.3488865  77.48  0.002311485    2.365    0.577
        22  -9.3776    118.8687     21.5365   8.1541777875e+01   5.3024091820e+01    0.4225739    0.2270689 -26.82 0.0005647632    1.791    0.442
        23  -8.8556    119.5067     16.9859   7.9409738692e+01   5.3458812067e+01    0.4944964    0.2487804  18.62  0.001727404    2.963    0.663
        24  -8.2783     71.9728      8.6068   9.0509198071e+01   6.4551134268e+01    0.2831377    0.1715947 -20.40 0.0008810555    1.515    0.340
        25  -9.9489     73.5451     17.7789   9.4459260938e+01   6.2883536373e+01    0.9177664    0.2310186 -34.72  0.002944079    3.695    0.729
        26  -8.4537     76.8205      6.7846   8.7726428265e+01   6.3920988979e+01    0.3085872    0.1833182 -25.56 0.0009962927    1.520    0.342
        27  -8.8239     78.6986      3.1127   8.5106850237e+01   6.4042161943e+01    0.2930887    0.2494131 -15.77 0.0007553453    1.166    0.143
        28 -10.6884     37.2067      9.4542   1.0656561377e+02   6.9466761694e+01    0.9628675    0.3427212 -51.12  0.002752326    3.178    0.685
        29  -8.8942    110.5566      5.3842   7.6487102308e+01   5.6920698346e+01    0.7331539    0.2701136  -9.26  0.002198924    4.135    0.758
        30  -9.2994    113.9831      9.9072   7.7687830705e+01   5.5612954066e+01    0.5293842    0.2675848  32.74 0.0003266301    2.096    0.523
        31  -8.8770    115.1834      4.4170   7.4861041673e+01   5.5922880081e+01    0.3824686    0.2079744 -31.12  0.001436841    1.873    0.466
        32  -9.4637     85.2249     13.0193   8.7867951323e+01   6.1453306186e+01    0.4407897     0.266628 -50.57  0.001429925    2.483    0.597
        33  -8.5264     85.0212      5.1762   8.3991734949e+01   6.2535652359e+01    0.4998382    0.2524212 -12.75  0.002128181    2.165    0.538
        34  -8.4072     88.8753      2.6534   8.1417144294e+01   6.2048031545e+01    0.3554832    0.1694352 -26.39  0.001524981    1.954    0.488
        35  -9.8065    133.1923     10.8243   7.3508448930e+01   5.0799563147e+01    0.5478811    0.2789512 -40.47  0.001888948    2.259    0.557
        36  -8.5824    125.0332     13.0673   7.6332405008e+01   5.2589637357e+01    0.3782017    0.1983245 -29.96 0.0005595582    1.883    0.469
        37  -9.1600    126.6117      9.1975   7.4283712093e+01   5.2626185343e+01    0.2981842    0.2307489  34.26 0.0006293352    1.185    0.156
        38  -8.8118    125.5363      4.9463   7.2665688663e+01   5.3330874488e+01    0.3365028     0.211094   0.34  0.001037963    1.672    0.402
        39  -8.0350     80.3391     12.5809   8.9385636315e+01   6.2451696434e+01    0.2472876     0.146338 -38.61  0.001188113    1.753    0.429
        40  -7.9988    141.5259     12.0659   7.2264728367e+01   4.8532094602e+01    0.2245842    0.1436643 -19.70  0.001017569    1.555    0.357
        41  -9.1951    101.9896      7.9665   8.0072109549e+01   5.8592434382e+01    0.3770424     0.258614 -49.25 0.0007119654    1.975    0.494
        42  -8.3208    104.0577      2.2934   7.6740616123e+01   5.8756235866e+01     0.394615    0.2052238   9.61  0.001352025    2.417    0.586
        43  -9.1221    120.6906      5.8080   7.4163929549e+01   5.4443218167e+01    0.4659556    0.3503599 -83.07  0.002208397    1.958    0.489
        44  -9.6024    235.0888      4.6953   5.7133468650e+01   2.4696318796e+01     0.409243    0.2492575 -19.93  0.001903798    1.577    0.366
        45  -9.2716     96.4572      4.7627   8.0135207435e+01   6.0185199577e+01    0.4722265    0.3055285 -29.95  0.001971255    1.550    0.355
        46  -9.7231     63.7182      2.9744   9.0811639913e+01   6.6775415027e+01    0.3788131    0.2608752 -49.09  0.001909084    2.083    0.520
        47  -8.0888    135.5312      1.6074   6.9126250708e+01   5.1102105233e+01    0.3762927     0.110093  58.17  0.001259412    2.830    0.647
        48 -10.1591     78.0680    113.0276   1.2186235047e+02   4.2615042320e+01    0.5225442    0.3159389 -88.91  0.001833008    2.389    0.581
        49 -10.6398    200.1377    249.2498   1.1692775283e+02   2.3943978538e+00    0.5141863    0.1967719  35.63  0.002959281    1.880    0.468
        50  -9.6377    191.4329    248.7083   1.1824246110e+02   3.6656948313e+00    0.2544426    0.1585542 -22.96  0.001838086    2.177    0.541
        51 -10.3318    184.9436    247.1102   1.1909242939e+02   4.7354110023e+00    0.3444916    0.2187874  16.24  0.002417464    1.733    0.423
        52  -9.1998     56.6525    250.1503   1.3962932446e+02   2.0717190636e+01    0.1559742   0.09648574  47.67  0.000384102    1.197    0.164
        53  -7.9571     77.4961    105.9845   1.2070771990e+02   4.4230668223e+01    0.3114605    0.1480617 -41.13  0.001315391    2.561    0.610
        54  -8.0935      1.3070    115.5758   1.4221261437e+02   4.9199892577e+01    0.1897865   0.07635533 -78.67   0.00101267    1.924    0.480
        55  -9.9855     91.8502    113.0147   1.1816163828e+02   4.0659613153e+01      0.54013     0.365787  82.12  0.001653785    2.090    0.522
        56  -8.4939     92.0863    104.1341   1.1627464334e+02   4.2533948464e+01     0.466668    0.2928384 -11.53   0.00186288    3.249    0.692
        57  -7.4870    181.9950    114.0474   9.6578145289e+01   2.3287675959e+01    0.1732217    0.1560852  11.50            0    1.012    0.012
        58  -7.3280    167.0124    113.9703   9.9788843917e+01   2.6506308589e+01    0.1774023    0.1608898 -13.64 0.0004022774    1.097    0.089
        59  -8.8186     68.7504    102.9849   1.2260135996e+02   4.6027634620e+01     0.315754    0.2398911 -32.90  0.001818995    1.549    0.355
        60 -10.5438     62.8126     95.7250   1.2295083520e+02   4.8365377140e+01    0.7350789     0.371263 -78.07  0.001547556    2.742    0.635
        61  -9.0050     64.2473     86.0571   1.2055138187e+02   5.0356737878e+01    0.5307138    0.3082634  -7.05  0.002108109    3.718    0.731
        62 -10.2574     65.8538    111.1105   1.2484220020e+02   4.4588968881e+01    0.6984193    0.4227141  87.53  0.001405711    2.179    0.541
        63  -9.0255     59.1081    109.4155   1.2641136294e+02   4.5748420105e+01    0.4841646    0.2406131 -80.91   0.00154985    2.593    0.614
        64 -10.9744     45.1026    102.8312   1.2929290647e+02   4.8675515503e+01    0.9840818    0.4328903  64.65  0.003724335    4.147    0.759
        65  -9.2757     39.8278    107.0792   1.3136817735e+02   4.8227838915e+01    0.2903748    0.1661551 -75.53  0.001031276    1.558    0.358
        66  -9.1016     36.4890    104.9526   1.3200367539e+02   4.8995832672e+01    0.2570491    0.1304777 -70.04 0.0009631835    1.665    0.399
        67  -9.6466     14.0062    111.1934   1.3869962108e+02   4.9349376717e+01    0.4150973    0.1840326  80.10  0.001470556    2.456    0.593
        68  -8.9216     14.1640    105.1121   1.3809081243e+02   5.0652082405e+01     0.212976    0.1165479 -60.92 0.0007099868    1.590    0.371
        69  -8.9672    158.7747    111.3389   1.0099500274e+02   2.8710532999e+01    0.3933345    0.1884993 -40.27  0.001578993    2.150    0.535
        70  -9.2474    238.8370    110.1587   8.5036984991e+01   1.1735670302e+01    0.2720674    0.2380756 -33.94  0.001323088    1.369    0.269
        71  -8.5199    149.8697    110.1340   1.0276811136e+02   3.0783493971e+01    0.2843072    0.1899381 -41.97 0.0008431196    1.548    0.354
        72  -8.9554     35.6696    111.1709   1.3302139822e+02   4.7697942591e+01    0.1582781    0.1326988  72.09 0.0004964256    1.165    0.141
        73  -9.9598    139.2559    103.5378   1.0368680783e+02   3.4201117997e+01    0.8727472    0.3618632 -48.82   0.00121046    2.732    0.634
        74  -9.1749    140.4740     82.3068   9.7580230963e+01   3.7993529334e+01    0.5664468    0.2917898 -34.50  0.001366027    1.969    0.492
        75  -8.8994    139.9364     75.4622   9.5661933715e+01   3.9381065464e+01    0.4941769    0.2631789 -37.89  0.001490722    1.847    0.459
        76  -9.2098    138.6607     92.6153   1.0096112518e+02   3.6425408218e+01    0.3715057    0.3226701 -63.67  0.001318428    1.363    0.266
        77  -8.1176    139.5188     87.4943   9.9318773251e+01   3.7221428826e+01    0.3421245    0.2195803  26.62  0.001354734    1.836    0.455
        78 -10.7960     20.2801    100.0902   1.3590336290e+02   5.1339483488e+01      1.04231    0.4322537  79.84  0.004386942    3.476    0.712
        79 -10.3773     31.8267     64.1603   1.2670957769e+02   5.8547117199e+01     0.982136    0.3518765 -46.61  0.003527895    2.507    0.601
        80  -9.9383     20.2229     84.3324   1.3396872705e+02   5.4844319974e+01    0.7066839    0.2231249 -65.94  0.002998488    2.321    0.569
        81  -9.9602     34.4721     90.7364   1.3056175968e+02   5.2340554421e+01    0.5954193    0.2384985 -81.53  0.001861923    3.230    0.690
        82 -10.2007     36.1759     81.4246   1.2851542897e+02   5.4295687916e+01    0.7654268     0.374565 -22.67  0.003075855    4.176    0.761
        83 -10.4176     25.6165     78.1977   1.3136836881e+02   5.5850391998e+01    0.6313899    0.3517816  73.74  0.001970542    2.354    0.575
        84  -9.5035    149.4406    103.3611   1.0116370058e+02   3.2133372866e+01    0.4021215    0.2727481 -51.77  0.001052494    1.711    0.416
        85  -8.3047    165.9243    103.8250   9.7464633945e+01   2.8513392495e+01    0.2490392    0.2087196 -28.51 0.0004008879    1.203    0.168
        86  -7.9699     73.9494    102.2598   1.2098527867e+02   4.5522575316e+01    0.3311062    0.1651555 -60.52  0.001109001    1.878    0.467
        87  -8.9067    159.1430    101.3890   9.8369781640e+01   3.0421899876e+01    0.2930573    0.2327836 -56.93 0.0005963949    1.550    0.355
        88  -8.6884    245.3770    101.2492   8.1810103002e+01   1.1518074824e+01    0.2669286    0.1559239  35.11  0.001280057    1.684    0.406
        89  -9.4313     94.4118     97.3424   1.1411310450e+02   4.3637651380e+01    0.3145489    0.2561103  88.27 0.0006227559    1.480    0.324
        90  -8.7522     95.7228     91.0884   1.1224627712e+02   4.4773274368e+01    0.4612856    0.2890297 -13.58  0.001852623    2.922    0.658
        91  -8.6629    150.2995     96.8421   9.9241503570e+01   3.3161267625e+01    0.3066018    0.1873261  22.29  0.001231591    2.184    0.542
        92  -9.4862    242.6559     94.7274   8.0599041903e+01   1.2896065418e+01      0.47055    0.2577385  -2.23  0.001984166    2.194    0.544
        93  -8.3956    164.3739     93.9537   9.5168479426e+01   3.0585119018e+01    0.3505039    0.2059515 -28.71  0.001425981    1.773    0.436
        94 -10.1213      4.3706     89.6784   1.3929455879e+02   5.4588594315e+01    0.5502431    0.2355844  80.92   0.00182892    2.584    0.613
        95  -9.4341      5.6177     78.9269   1.3779166749e+02   5.6893579307e+01    0.5196617    0.1987375 -40.19  0.002465201    3.221    0.690
        96  -8.9428    157.3954     90.8981   9.5925830605e+01   3.2688160118e+01    0.2768845    0.1893355 -27.37  0.001109311    1.500    0.333
        97  -9.0018    109.9947     90.4743   1.0802449244e+02   4.2456474027e+01      0.42584    0.2307468  27.57   0.00172261    2.411    0.585
        98  -8.4307    113.3103     88.3432   1.0653429913e+02   4.2290996590e+01    0.2981384    0.1770743 -42.26  0.001084957    1.638    0.390
        99  -8.6813    150.3666     88.6429   9.6960856103e+01   3.4655590113e+01    0.3997207    0.2368536 -29.15  0.001400582    1.784    0.440
       100 -10.4387     48.0551     83.4777   1.2511084606e+02   5.2732631614e+01    0.9806721    0.3596927 -60.53   0.00245189    2.237    0.553
       101 -10.6620     54.8980     70.9093   1.2016055976e+02   5.4836533555e+01    0.7459409    0.4759935  77.44  0.001208836    2.548    0.608
       102 -10.1823     61.8994     60.9421   1.1513112103e+02   5.6211501295e+01    0.6889004    0.3030383  27.43  0.001072639    2.795    0.642
       103  -8.1778    170.9875     96.0029   9.4253570632e+01   2.8742240014e+01    0.1871769    0.1662938 -15.26  0.000322098    1.099    0.090
       104 -10.2355     85.1377     86.6264   1.1427826127e+02   4.7393039082e+01    0.5048458    0.3514012  66.28 0.0009344663    1.963    0.491
       105  -9.5337     87.9856     78.4651   1.1131599466e+02   4.8724706737e+01    0.5417048    0.3432288  15.90  0.001767538    2.238    0.553
       106  -7.9599    173.6928     88.6802   9.1629166808e+01   2.9360589135e+01    0.1609508    0.1141182  13.10 0.0002630525    1.637    0.389
       107  -8.8702    163.5234     86.3937   9.3233538122e+01   3.2094005539e+01    0.3579296    0.2048069 -24.01 0.0008443224    1.936    0.483
       108  -9.5470      5.9825    103.7537   1.4013142252e+02   5.1444104359e+01    0.3710049     0.224568  57.31  0.001652294    1.677    0.404
       109 -10.1862    103.9304     82.7401   1.0768679732e+02   4.5152849504e+01    0.4604327    0.2927601 -58.13 0.0007885474    1.764    0.433
       110  -8.9576    157.7490     82.9712   9.3570165722e+01   3.4014194538e+01    0.6112403    0.2478296 -30.68  0.001424997    2.682    0.627
       111  -8.6071    156.8868     76.5571   9.1856357966e+01   3.5332191630e+01    0.2694809     0.199274 -39.87 0.0006001923    1.398    0.284
       112  -7.9793    170.2217     83.2185   9.0818366815e+01   3.1081823998e+01    0.2103208    0.1836737 -58.13 0.0008896309    1.398    0.285
       113  -8.9091     55.7153     63.0045   1.1789353999e+02   5.6499514338e+01    0.3959132    0.2434233  12.06  0.001324637    2.218    0.549
       114  -8.6545    149.9173     80.0593   9.4572310026e+01   3.6312908875e+01    0.4639682    0.2143692 -35.94  0.001318512    2.147    0.534
       115  -8.8440    118.9597     80.4288   1.0274920227e+02   4.2818330047e+01    0.3188042    0.2280924 -49.91 0.0006071857    1.454    0.312
       116  -7.8899    119.7194     76.0191   1.0123475729e+02   4.3542968951e+01     0.231676    0.1956165  -3.84 0.0005335788    1.263    0.208
       117  -9.0445     74.1235     80.0428   1.1606462904e+02   5.0418586899e+01    0.4050588    0.2241355 -65.51  0.001336936    2.038    0.509
       118  -8.2493     68.6834     79.3787   1.1763489698e+02   5.1289605253e+01    0.3010742    0.1400637 -50.95 0.0009779587    1.880    0.468
       119  -8.5967    166.1895     78.6910   9.0374902560e+01   3.2788411879e+01    0.2630045    0.2031654 -38.06 0.0005619318    1.339    0.253
       120  -8.3841    184.0662     77.9865   8.6366652183e+01   2.8638749966e+01    0.2416985    0.2170438  10.74  0.000580136    1.032    0.031
       121  -9.5626    127.5748     73.9476   9.8442960086e+01   4.2333278680e+01    0.7838716    0.3586555 -36.13  0.001705774    2.190    0.543
       122  -8.4409    130.5549     64.2818   9.4556475235e+01   4.3497003879e+01    0.4779104    0.2027612 -41.43  0.001733387    2.353    0.575
       123  -9.8119     15.8146     70.9702   1.3346518031e+02   5.8116166660e+01    0.5193633    0.2415422 -55.11   0.00125182    1.729    0.421
       124  -9.6504     17.3568     61.0191   1.3129899942e+02   6.0256424701e+01    0.6407313    0.3085927 -66.73  0.002915279    1.604    0.377
       125 -10.8443     21.6672     53.7329   1.2828897145e+02   6.1616011474e+01    0.7750173    0.4080011  89.54  0.002701171    2.749    0.636
       126  -9.8602     14.8810     44.4291   1.2897368827e+02   6.4090367251e+01    0.4696058    0.2291498 -46.59  0.001280101    1.692    0.409
       127  -8.0227    249.0102    250.0000   1.0949702775e+02  -4.3405835421e+00    0.1728942   0.04127347  40.15 0.0008111682    3.003    0.667
       128  -9.4916      8.7939     47.2574   1.3200224580e+02   6.3781449509e+01    0.4949148    0.2402085  19.71  0.002118824    2.585    0.613
       129 -10.2192    172.2303    248.5036   1.2128805181e+02   6.3802051831e+00    0.3069434    0.1623539  31.03    0.0020194    1.581    0.368
       130 -10.1735    166.0146    248.7585   1.2231362938e+02   7.2207035708e+00    0.3843403    0.1489399  50.14  0.002015192    2.648    0.622
       131  -9.2505    226.1410    246.8366   1.1255633526e+02  -1.0112839493e+00    0.1534364    0.1110592  33.23 0.0008792647    1.256    0.204
       132  -7.4699     81.6135    247.1977   1.3565082405e+02   1.8351891788e+01    0.1040465   0.08592119 -64.04 0.0005440239    1.672    0.402
       133  -8.5740    155.5009    249.5063   1.2407975538e+02   8.5945681613e+00    0.1050644   0.07382251  40.66 -1.529151e-05    1.025    0.025
       134  -9.4734      6.5308     32.5124   1.2985084708e+02   6.7114394052e+01    0.2209026    0.1962255 -20.83 0.0009008619    1.323    0.244
       135 -10.1760      7.1742     28.4371   1.2856492142e+02   6.7962998968e+01    0.3403452    0.2873372  73.29   0.00103396    1.525    0.344
       136  -9.1525    115.1756     71.9378   1.0127823338e+02   4.5250835127e+01    0.5763943    0.2393492 -37.30  0.001469629    2.442    0.591
       137  -9.4620    105.7648     70.9012   1.0371551086e+02   4.7259714440e+01    0.6757484    0.5181194  -3.17  0.003365612    1.570    0.363
       138  -9.9113     81.5410     72.3097   1.1166983637e+02   5.1041161390e+01    0.4519757    0.2846308 -67.45  0.001132373    2.019    0.505
       139  -9.0163     83.5852     64.2018   1.0864398336e+02   5.2453022609e+01      0.44754    0.2929621 -14.45   0.00203193    2.152    0.535
       140  -7.9408    162.8419     73.0919   8.9427340715e+01   3.4519701821e+01    0.2312716    0.2059293 -54.04 0.0007573583    1.316    0.240
       141  -8.8838    169.3656     70.1806   8.7085534355e+01   3.3429332296e+01    0.4023593    0.1816425 -28.72 0.0009356188    2.247    0.555
       142  -9.3096    146.9078     69.3267   9.1998412134e+01   3.8906234304e+01    0.3762366    0.2803717 -51.82  0.001172719    1.586    0.369
       143  -8.4595    156.4868     69.6998   8.9826640957e+01   3.6599604610e+01    0.3060789    0.1500699 -32.69 0.0007742653    2.013    0.503
       144  -9.6372     94.6709     68.2748   1.0631288518e+02   4.9779888285e+01    0.3942129    0.2484017 -52.74 0.0008583541    1.623    0.384
       145  -8.6694    190.2074     66.3660   8.1690459483e+01   2.8894371263e+01    0.2458687    0.2035037  14.18 0.0004656779    1.189    0.159
       146  -9.0476    138.0412     66.4638   9.3305824357e+01   4.1436979865e+01    0.3419249     0.203741 -46.44 0.0007451753    1.855    0.461
       147  -8.9693    121.1350     65.9541   9.7689529233e+01   4.5201730001e+01    0.3645296    0.2623979 -51.33 0.0005955823    1.557    0.358
       148  -8.1938    122.0167     61.4918   9.5968001263e+01   4.5852440802e+01    0.3022124    0.2187925  10.00   0.00118171    1.678    0.404
       149  -7.1420     75.6678     66.3202   1.1190901164e+02   5.3195507458e+01    0.1344745    0.1079109  86.58 0.0007049038    1.696    0.410
       150  -9.2797    109.7139     63.8304   1.0030178263e+02   4.7914095968e+01    0.3691279    0.2580204 -52.03 0.0007272071    1.577    0.366
       151  -8.8009    110.8442     58.1183   9.8055206967e+01   4.8788502287e+01     0.349135    0.2739262   5.14 0.0009566672    1.421    0.296
       152  -8.2002    157.6400     63.2240   8.7486737795e+01   3.7399880757e+01    0.2741871    0.1739059 -40.06 0.0008638116    1.636    0.389
       153  -8.2206    152.2188     60.2029   8.7751583691e+01   3.9202472852e+01    0.2414919    0.2087671   9.65  0.001217343    1.133    0.117
       154  -8.2933     95.2942     61.3219   1.0393042288e+02   5.1092854123e+01    0.2573281    0.1983319 -24.24 0.0006252244    1.306    0.234
       155  -8.7020     98.2028     57.4099   1.0170653353e+02   5.1349412066e+01    0.5290789    0.5024732 -42.41  0.003068772    1.142    0.124
       156 -10.1013     73.5871     57.1492   1.0986485562e+02   5.5447119345e+01       1.1428    0.3269639 -42.81  0.002835652    3.334    0.700
       157  -9.7681    187.8911    233.9047   1.1702231416e+02   5.6627786188e+00    0.1963926    0.1777659  19.11  0.001216503    1.315    0.240
       158  -8.6825    146.8746     58.9576   8.8611368345e+01   4.0686514050e+01    0.3161042    0.2520983 -73.63  0.000919097    1.783    0.439
       159  -8.4875    147.5070     53.9878   8.6765531311e+01   4.1348997012e+01    0.4813378    0.2435637 -24.46  0.001813482    2.105    0.525
       160  -9.1244    129.8109     56.2962   9.2053618408e+01   4.5087879937e+01    0.6861653    0.2313174 -39.45  0.001569958    2.895    0.655
       161  -8.5827     87.4038     58.4936   1.0557732988e+02   5.3018038014e+01    0.2662243    0.2242286 -69.36 0.0005792924    1.463    0.316
       162 -10.4601     85.1243     48.1735   1.0281293577e+02   5.5462661965e+01    0.4272671    0.3156689 -64.32 0.0009907752    1.832    0.454
       163 -10.3277     89.5957     38.2799   9.7532142201e+01   5.6539758944e+01     0.923736     0.405702  28.36  0.003179325    3.498    0.714
       164  -9.8371     50.1322     54.5851   1.1764153659e+02   5.8968573218e+01    0.4264638    0.2781825 -67.91   0.00149142    1.649    0.394
       165  -8.3740     48.4930     48.5095   1.1650406435e+02   6.0461618846e+01    0.2248627    0.2027001 -43.04 0.0008663676    1.090    0.083
       166  -8.0738     23.0340     69.2497   1.3074679929e+02   5.8045860035e+01    0.1783389    0.1675488 -48.24  0.000325605    1.206    0.171
       167 -10.1481    245.6187     53.5507   6.9384492516e+01   1.7227784249e+01    0.3669347    0.2660639 -19.54  0.001938672    1.245    0.197
       168  -9.3448    249.6103     49.2697   6.7753261243e+01   1.6811541426e+01    0.3692046    0.2590416  22.99  0.001055964    1.544    0.352
       169 -10.0718    163.5480     54.0102   8.3130697809e+01   3.7395827795e+01    0.6401469    0.3662504 -41.43  0.002541333    1.877    0.467
       170  -9.4366    138.8150     55.6920   8.9495813570e+01   4.3131665567e+01    0.6147321    0.2078719 -34.36  0.001991355    2.853    0.650
       171  -9.4008    118.2230     54.7615   9.4730801660e+01   4.7889112122e+01      0.52964    0.3239607 -43.40  0.001141453    1.673    0.402
       172  -9.2230    121.1477     46.9894   9.1092882276e+01   4.8621767935e+01    0.4114199    0.2290004 -36.15 0.0005166216    1.734    0.423
       173  -8.3357    122.3381     41.6434   8.8749558352e+01   4.9244808707e+01    0.5044914    0.2735026   3.48  0.001554331    3.899    0.744
       174  -9.6078     44.4270     53.1889   1.1941853978e+02   5.9866925707e+01    0.3960736    0.1609984 -45.32   0.00122897    2.123    0.529
       175  -8.9161    105.2210     52.1131   9.7661777564e+01   5.1033395067e+01    0.5360782    0.2268211 -41.13  0.001697775    2.247    0.555
       176  -7.5525    152.5429     53.5431   8.5428282112e+01   4.0195244909e+01    0.1551477    0.1468919   1.12 6.305212e-05    1.049    0.046
       177  -9.3976    157.2746     47.6370   8.2320658587e+01   3.9924546735e+01    0.4280472    0.2150338 -28.92  0.001662581    1.947    0.486
       178  -8.9617    141.9629     48.6636   8.6239506971e+01   4.3535869496e+01    0.2772802    0.2145371 -34.25 0.0003522417    1.300    0.231
       179  -8.9849    139.4192     39.6543   8.3565599984e+01   4.5537876274e+01    0.5224167    0.3325916 -29.03  0.001669499    1.531    0.347
       180  -9.2140    130.3024     47.2400   8.8692174775e+01   4.6513717349e+01    0.5622982    0.2388325 -33.42  0.001556557    2.268    0.559
       181  -9.1304    132.7471     37.1421   8.4267073647e+01   4.7524459640e+01    0.6758492    0.2853014 -28.56  0.002050752    2.325    0.570
       182 -10.0882    133.9414     31.0649   8.1604879917e+01   4.8114154729e+01    0.2963942    0.2510689  23.76   0.00152904    1.115    0.103
       183  -8.3036    136.0048     26.9892   7.9495309209e+01   4.8160409255e+01    0.2329118    0.2141572   7.01  0.000454462    1.031    0.030
       184  -8.3339    149.8533     48.0988   8.4158041551e+01   4.1702152294e+01    0.2321546    0.2080998 -50.96 0.0004789853    1.289    0.224
       185 -10.1850    152.5668     41.5688   8.1213999172e+01   4.1995648345e+01    0.8817872    0.4249219  42.33  0.002202151    2.079    0.519
       186 -10.0564    141.1489     31.0978   7.9901459913e+01   4.6328774778e+01    0.3470767    0.2431464 -26.43 0.0002838571    1.401    0.286
       187  -8.4059    111.9600     46.8851   9.3708581641e+01   5.0615169403e+01    0.2686007    0.2031053 -39.27 0.0004534036    1.321    0.243
       188  -7.7735    112.9688     42.5073   9.1754413887e+01   5.1159230666e+01    0.2916598    0.1841309   5.59  0.001181693    2.236    0.553
       189  -8.5711     39.8332     34.6549   1.1563854821e+02   6.4287873403e+01    0.2947024    0.2496915 -84.07  0.001638383    1.568    0.362
       190 -10.0809     37.7864     42.0087   1.1886082372e+02   6.2929237597e+01    0.5333291    0.3270591 -80.67  0.002531541    2.515    0.602
       191 -10.1802     35.7791     37.9861   1.1847270561e+02   6.3971345571e+01    0.2806033    0.1932341 -44.11  0.000344802    1.173    0.148
       192  -8.9720    144.1490     36.6292   8.1309765514e+01   4.4811685121e+01     0.468005    0.2755829 -53.49 0.0005220789    2.440    0.590
       193 -10.1293     69.0385     40.3088   1.0575912875e+02   5.9547266465e+01    0.8046275    0.3496124 -46.55  0.002561469    2.076    0.518
       194  -7.5686    239.7103     43.6413   6.7420143585e+01   1.9704694206e+01    0.1498798    0.1003405  18.82 0.0007026562    1.687    0.407
       195  -9.0918    104.8650     41.0752   9.3652131115e+01   5.3095052371e+01     0.394623    0.2545729 -53.10  0.001092771    2.021    0.505
       196  -8.2872    106.0168     36.4788   9.1476830620e+01   5.3638166585e+01    0.3120279    0.2193789  16.20  0.001269966    1.598    0.374
       197  -9.6668     56.1446     43.2442   1.1181104684e+02   6.0692794960e+01    0.8419815    0.4221509 -19.00  0.002962087    4.172    0.760
       198  -8.7089     53.3308     38.5822   1.1132507104e+02   6.1995968058e+01    0.5499795    0.1481944 -41.55  0.001852266    3.542    0.718
       199  -9.1451    160.3631     38.4709   7.8433055775e+01   4.0442410724e+01     0.374634    0.1941386 -18.53   0.00122341    2.066    0.516
       200  -8.4891     34.5814    228.2638   1.4196457221e+02   2.6037448684e+01    0.1467508    0.1185337  56.50 0.0003361027    1.250    0.200
       201  -7.3662    250.4769    228.5292   1.0621907082e+02  -2.8873469481e+00    0.1111957   0.07432503  21.54 6.819054e-05    1.001    0.001
       202  -7.0992     32.2744    215.2937   1.4173554637e+02   2.8237313804e+01   0.07548061   0.07033474 -80.78 0.0002185286    1.522    0.343
       203  -7.6334    229.9983     36.0000   6.6467146240e+01   2.2863443195e+01    0.2328576   0.08202714  64.79 0.0008131117    3.017    0.669
       204  -8.1778    153.3803     34.7479   7.8554673721e+01   4.2738769310e+01    0.2117739     0.144157 -10.84  0.000482956    1.534    0.348
       205  -9.3688     60.0229     33.1368   1.0656421410e+02   6.2225602247e+01    0.5392615    0.2261358 -49.00  0.001568662    2.237    0.553
       206  -8.4262     63.0068     26.6081   1.0266900182e+02   6.3039493962e+01    0.7585118    0.2175577  36.25  0.002676138    3.959    0.747
       207 -10.0158     10.1916    207.5107   1.4499354993e+02   3.1434703696e+01    0.3703424    0.1976508  28.44  0.002686166    2.294    0.564
       208  -7.6934     53.9622    205.5060   1.3751101341e+02   2.7615689852e+01    0.1402311   0.08301108  41.77 0.0003619721    1.470    0.320
       209 -10.0269    178.9280    199.9244   1.1393351146e+02   1.1008608450e+01     0.193534    0.1657289  24.02 0.0003165838    1.111    0.100
       210  -8.8000    191.8064    194.0760   1.1069309094e+02   9.6350712858e+00    0.5162198    0.2977706 -61.61  0.001986267    5.719    0.825
       211  -8.8179     84.5276     21.9460   9.2338787693e+01   6.0249613169e+01    0.2984413    0.1962607 -30.18 0.0007531207    1.384    0.278
       212  -8.0356     45.1781     15.8304   1.0570034183e+02   6.7390489410e+01    0.2096058    0.1299167 -20.36 0.0009729757    1.635    0.388
       213  -8.8481     46.7200     19.8401   1.0679055988e+02   6.6466036650e+01    0.4022193    0.2073388 -29.65  0.001943944    1.912    0.477
       214  -6.9787    179.6363    185.2598   1.1152010548e+02   1.2835318229e+01    0.1197706   0.08938532  57.14 0.0002280484    1.635    0.388
       215  -8.4609    224.2197    179.1788   1.0235871859e+02   5.9591743942e+00    0.2275231    0.1124638  13.68 0.0009641613    2.909    0.656
       216  -8.6100     42.0397     28.0327   1.1227792866e+02   6.5413019142e+01    0.2472439    0.1499041 -39.75  0.001365969    1.350    0.259
       217  -7.7871      8.4794    171.5128   1.4382179175e+02   3.7727106417e+01   0.09989977   0.07394698  74.92 0.0003370356    1.007    0.007
       218  -7.9355      7.5674    154.4696   1.4315773419e+02   4.0977192841e+01    0.1015067   0.07790408  83.02 7.319389e-05    1.050    0.048
       219  -8.7787    118.7665     34.9707   8.7133734832e+01   5.1110002258e+01    0.3767174    0.2020266 -28.47  0.001260499    1.804    0.446
       220  -9.3567    152.6010     27.6953   7.6095955124e+01   4.3855708535e+01    0.4038823    0.1979159 -18.57  0.001535693    2.150    0.535
       221  -7.5147    194.2091    148.9762   1.0201571947e+02   1.5349102559e+01    0.1668245    0.1076529 -31.04 0.0004277978    1.653    0.395
       222  -9.0735     91.3302     26.3800   9.1967194477e+01   5.8246385636e+01    0.3822939    0.2307075 -43.15  0.001138549    1.791    0.442
       223  -8.7150     92.0449     20.9763   8.9307633435e+01   5.8947329268e+01    0.3631042    0.2001592  27.08  0.001043132    2.129    0.530
       224  -8.3249    144.1349     25.5063   7.7061189563e+01   4.6306005872e+01     0.281082    0.2100729 -17.04 0.0005799194    1.316    0.240
       225  -8.2065    134.0000    148.9524   1.1465348072e+02   2.6572125376e+01    0.2897696    0.1646781 -63.28  0.001315039    2.462    0.594
       226  -8.1161    133.3714    144.2322   1.1393724393e+02   2.7547938463e+01    0.2558472    0.1870205 -67.46  0.001361537    1.714    0.416
       227  -9.6020     67.4774    144.5669   1.2924203136e+02   3.7285928437e+01    0.4868175    0.2738634  64.42  0.002589816    1.998    0.500
       228  -8.9367    124.6645    145.6646   1.1616806883e+02   2.8777612428e+01    0.2080564    0.1946288  50.69 0.0004027032    1.018    0.017
       229  -8.0233    139.8562     22.3800   7.6775147816e+01   4.7782385891e+01    0.2088344    0.1845857 -26.58 0.0005226827    1.183    0.154
       230  -8.4000    189.8863    136.3999   1.0018555888e+02   1.8086675611e+01    0.2385036     0.190049  -9.30 0.0003810071    1.266    0.210
       231  -8.1872    112.1773    133.9723   1.1698899983e+02   3.3120058376e+01    0.2420547    0.1718614  65.07 0.0009218801    1.653    0.395
       232  -9.2919    135.0195    132.0245   1.1119325550e+02   2.9540451312e+01    0.3739398    0.3230421   5.06  0.002144629    1.289    0.224
       233  -9.9428    108.5481    114.4825   1.1406653167e+02   3.7695813923e+01    0.5215595    0.3440484 -82.95  0.001431872    2.384    0.581
       234  -8.9397     40.9070     20.6757   1.0984950386e+02   6.6977783243e+01     0.216965    0.1479257 -40.63 0.0003664572    1.190    0.160
       235 -10.5981    108.5609    101.0592   1.1105614563e+02   4.0498272225e+01    0.9395452    0.6765292 -72.86  0.004609272    1.781    0.438
       236  -8.6115    139.0128     18.4623   7.5388750290e+01   4.8466609292e+01    0.3593821    0.2018417  23.00  0.001422716    2.119    0.528
       237  -8.6434    126.0249     83.7674   1.0177918100e+02   4.0746627412e+01    0.4836126    0.2916128   5.21  0.001642658    3.502    0.714
       238  -8.5895    112.2599     15.5742   8.0713306743e+01   5.5333897390e+01    0.2747289    0.2171726 -50.94 0.0006047434    1.618    0.382
       239 -10.5531    131.8398    119.9093   1.0938620361e+02   3.2460695682e+01    0.8302158    0.5345848  77.63  0.002290145    3.088    0.676
       240  -9.9224    128.5076    100.7493   1.0569566229e+02   3.6883186667e+01    0.9016562    0.4840248 -27.82  0.002564699    2.567    0.610
       241  -7.1827    189.2804     15.6650   6.5532730871e+01   3.5454094580e+01    0.1529489    0.1081268 -52.49 0.0002778658    1.614    0.380
       242 -11.1187    120.9692    110.3062   1.0994018621e+02   3.6380712400e+01     1.169206    0.6091082 -51.24  0.004019404    1.998    0.499
       243 -10.4412    123.1803     92.8394   1.0504365578e+02   3.9502656696e+01     1.134495    0.4363762 -39.96  0.002669211    2.688    0.628
       244  -8.3960    121.9818    130.6620   1.1400778389e+02   3.2125688876e+01    0.2154388    0.1893636 -56.93 0.0004029875    1.191    0.161
       245  -9.7222    117.3723    125.7151   1.1414810991e+02   3.3902981090e+01    0.6022503    0.4070233  85.50  0.001660616    2.420    0.587
       246 -10.4869    235.5786    128.7428   8.9974262588e+01   1.0024594690e+01    0.2920839    0.2428749  19.66 0.0003066101    1.091    0.084
       247 -10.2597     70.2575    126.1978   1.2607150304e+02   4.0781452544e+01    0.5026816    0.4779671  39.08  0.001653065    1.191    0.160
       248 -10.0291     58.3175    124.7426   1.2889135284e+02   4.2497336563e+01    0.5898712    0.3011064  71.27  0.002460916    2.850    0.649
       249  -7.6719    160.4922    128.0090   1.0452563741e+02   2.5388547711e+01    0.1949766    0.1258775 -64.43 0.0008103699    2.589    0.614
       250 -10.8773    133.5719    109.5916   1.0658897542e+02   3.4150699508e+01     0.824589    0.4311416 -49.98  0.002529658    2.067    0.516
       251  -9.5623     27.2404    122.8216   1.3646339406e+02   4.5888269258e+01    0.4833978    0.2104033  69.45  0.002037753    2.869    0.651
       252  -9.1925     41.1878    121.6157   1.3284277569e+02   4.4928834123e+01     0.432606    0.1813656 -80.73  0.001794114    2.576    0.612
       253  -9.5350     98.7389    128.9416   1.1936501617e+02   3.6265112475e+01    0.5596833     0.310595  65.54  0.002361732    2.798    0.643
       254  -9.9526    140.6881    118.5653   1.0695193182e+02   3.1033007344e+01     0.407876     0.322306 -74.76  0.001137637    1.701    0.412
       255  -8.7074    153.0848    115.4805   1.0331308648e+02   2.9137058787e+01    0.2272172    0.2045483 -66.30 0.0007220207    1.335    0.251
       256  -9.4851     81.5215     99.5779   1.1828103079e+02   4.5081391517e+01    0.6822121    0.2441526 -55.20 0.0009576495    2.564    0.610
