#   1 NUMBER                 Running object number                                     
#   2 MAG_AUTO               Kron-like elliptical aperture magnitude                    [mag]
#   3 X_IMAGE                Object position along x                                    [pixel]
#   4 Y_IMAGE                Object position along y                                    [pixel]
#   5 X_WORLD                Barycenter position along world x axis                     [deg]
#   6 Y_WORLD                Barycenter position along world y axis                     [deg]
#   7 A_WORLD                Profile RMS along major axis (world units)                 [deg]
#   8 B_WORLD                Profile RMS along minor axis (world units)                 [deg]
#   9 THETA_WORLD            Position angle (CCW/world-x)                               [deg]
#  10 FWHM_WORLD             FWHM assuming a gaussian core                              [deg]
#  11 ELONGATION             A_IMAGE/B_IMAGE                                           
#  12 ELLIPTICITY            1 - B_IMAGE/A_IMAGE                                       
         1 -11.1429    216.1886     37.6706   3.3855079193e+01   2.7344537335e+01    0.8497186    0.5462176 -44.31  0.004980575    1.360    0.265
         2 -11.0347    238.6653     18.8288   2.8056610931e+01   2.5061194656e+01    0.6379589    0.4455758 -63.17  0.003089416    1.135    0.119
         3  -7.5575     29.7226     17.9530   7.1247093375e+01   7.0485384052e+01    0.1682177    0.1343331 -14.02 0.0003034617    1.127    0.113
         4 -12.2960     40.5076    249.4967   1.1293785954e+02   1.6355872096e+01     2.633976    0.4885913  33.08   0.00992511    3.778    0.735
         5 -12.6536      5.8783    209.0559   1.1785876047e+02   2.8254706685e+01     2.412341    0.7608947  55.65    0.0102935    2.883    0.653
         6 -12.4815      4.3986    247.9547   1.1994835299e+02   2.0314369442e+01     1.562611     1.025194 -17.51   0.00883052    3.234    0.691
         7 -13.1107      2.7627    222.0461   1.1916840646e+02   2.5702979416e+01     1.314708    0.5019479  44.99  0.006832302    2.054    0.513
         8 -11.4664      1.8615    230.7144   1.1973563044e+02   2.3972420988e+01    0.2641792    0.1721734  84.50 0.0008884215    1.331    0.249
         9 -12.2123     13.9887    245.3397   1.1798946810e+02   1.9917315827e+01     0.687423    0.2753636  66.80  0.002485777    2.403    0.584
        10 -12.8439      3.4999    238.3265   1.1973110061e+02   2.2284335617e+01    0.5278997    0.3377187  84.65   0.00239256    1.377    0.274
        11 -13.1721      9.4053    235.4285   1.1843303797e+02   2.2326626341e+01     1.207378    0.5372906  65.77  0.006468337    2.018    0.504
        12  -7.3248    182.3115    245.6987   8.2933742085e+01  -1.5213104779e+00     0.108893   0.09113473  44.81 0.0004034841    1.607    0.378
        13  -9.7651     56.4917    240.5269   1.0896432962e+02   1.6272210302e+01    0.4085976    0.1986005  53.45 0.0008164465    1.892    0.472
        14  -8.5292     92.7059    241.0726   1.0117308130e+02   1.1554097165e+01    0.1630754    0.1529873  50.12 0.0003835511    1.108    0.097
        15  -9.3553    201.8859    239.5151   7.8225490884e+01  -3.1325558738e+00    0.2129148    0.1722715   2.60 0.0003529157    1.070    0.066
        16  -8.0008    169.0234    239.0040   8.4594671241e+01   1.2890945803e+00    0.1775757    0.1454749  52.40 0.0004855988    1.660    0.398
        17  -8.6720     37.7303    238.2382   1.1277123864e+02   1.8881912595e+01    0.2277568    0.1628724 -70.96  0.001356854    1.509    0.337
        18  -8.9087     32.1557    225.1400   1.1307441980e+02   2.2204292851e+01    0.3435529    0.2229584 -61.79  0.002039999    1.701    0.412
        19  -8.5330     36.0419    227.0103   1.1235692077e+02   2.1389400299e+01    0.2220539    0.1820683 -78.61 0.0007372068    1.274    0.215
        20  -9.7405     35.5611    233.2972   1.1289684549e+02   2.0127520835e+01     0.489562    0.2372494  30.37  0.001636479    1.959    0.490
        21 -10.3751     37.4160    223.2223   1.1177930197e+02   2.2047488465e+01    0.6804767    0.3507552  51.85  0.003595806    1.694    0.410
        22  -8.7570     29.6769    218.3378   1.1314916808e+02   2.3933856660e+01    0.2751005    0.1712195  64.98   0.00105982    1.453    0.312
        23  -8.3969     32.6117    217.2084   1.1241003004e+02   2.3872769191e+01    0.2500793    0.1866547  62.51 0.0002420118    1.149    0.129
        24  -9.2751     63.5989    236.7031   1.0710852458e+02   1.6173984903e+01    0.3516996    0.2015562 -66.08  0.001938376    1.904    0.475
        25  -8.9204     48.9082    236.0374   1.1023718371e+02   1.8067749823e+01    0.3099895    0.1949352 -16.92  0.001448558    3.326    0.699
        26  -8.0226     74.7289    236.4615   1.0464675487e+02   1.4819093164e+01    0.1690677    0.1135924  22.22 0.0009084101    1.598    0.374
        27  -9.5952     99.2393    234.4057   9.8992638401e+01   1.1946399944e+01    0.3263292    0.1845651  18.66  0.001192431    2.119    0.528
        28  -7.7909    170.2085    234.5832   8.3688157335e+01   1.8366077542e+00    0.1764515    0.1051217  20.25 0.0003889985    1.578    0.366
        29  -8.1066    130.6778    233.6694   9.1944475849e+01   7.6289057695e+00    0.1318192   0.09478847  -4.92 0.0007049514    1.697    0.411
        30  -8.6914    121.4406    232.7577   9.3854689476e+01   9.1256524097e+00    0.1663716    0.1203982 -37.40  0.000920126    1.592    0.372
        31  -9.0807     83.7236    231.6932   1.0216293816e+02   1.4595026073e+01    0.2954065    0.2390716 -23.12  0.001774822    1.610    0.379
        32  -7.7768     57.2802    233.6109   1.0822318137e+02   1.7573000363e+01    0.1650003    0.1111575  24.70 0.0009393157    1.577    0.366
        33  -8.6591    111.2863    224.3937   9.5038622114e+01   1.2205238259e+01    0.2731298    0.1969629  12.55  0.001252174    1.562    0.360
        34 -10.4429    112.0036    230.8486   9.5709265957e+01   1.0839887388e+01    0.4183721    0.2334243  45.61  0.001406757    1.708    0.415
        35  -9.7749    107.4127    226.9731   9.6253406687e+01   1.2252985823e+01    0.3896441    0.2167338  40.77  0.001950516    1.588    0.370
        36  -8.8611     90.2005    230.0054   1.0051910739e+02   1.4059300026e+01    0.2209337     0.166727  35.47 0.0003973115    1.171    0.146
        37  -9.0566     29.5410    231.9950   1.1409009553e+02   2.1038927945e+01    0.4795683    0.2992455 -10.30  0.002313854    3.361    0.702
        38  -7.7344     55.4249    225.4197   1.0792773152e+02   1.9504858784e+01    0.1931477    0.1241512  57.97 2.486762e-05    1.439    0.305
        39  -7.9580     52.8116    222.5476   1.0826647731e+02   2.0431585622e+01    0.2360556    0.1355685  59.58  0.001030142    1.697    0.411
        40  -9.7982    137.8956    222.5651   8.8776502170e+01   8.6245420096e+00    0.3398573    0.2759574  30.14   0.00110455    1.101    0.091
        41  -7.8018    116.4189    224.2290   9.3847372412e+01   1.1489103781e+01    0.1636229    0.1306045 -77.94 0.0003922177    1.569    0.363
        42  -8.3853     61.3274    222.1434   1.0628564253e+02   1.9481289023e+01     0.275839    0.2396278 -23.35 0.0009113032    1.497    0.332
        43  -6.8714     72.3166    222.3285   1.0377454098e+02   1.8041263998e+01    0.1247966    0.0999065 -21.41 0.0002542772    1.679    0.404
        44  -8.5265     89.8534    217.0874   9.9086558845e+01   1.6779020097e+01    0.2204056    0.1918277 -43.90 0.0009203951    1.308    0.236
        45  -7.7516     55.9971    216.9853   1.0702914858e+02   2.1256322494e+01    0.1584101    0.1192575  39.87 0.0009301094    1.216    0.178
        46  -7.6259     52.7233    217.3445   1.0782224529e+02   2.1572333561e+01    0.2133676   0.09914194  39.70 0.0005532237    1.842    0.457
        47  -7.1419     96.2409    215.9862   9.7441986615e+01   1.6105206360e+01    0.1598188    0.1147776 -62.92 0.0005495295    1.532    0.347
        48  -9.3441     25.3072    213.2323   1.1377574437e+02   2.5507601018e+01    0.3639795    0.2656577  62.07  0.001877181    1.169    0.144
        49  -9.9884     32.7547    209.6233   1.1180540789e+02   2.5547661625e+01    0.4035006    0.3670578 -29.81  0.001912466    1.433    0.302
        50 -10.5587     23.4012    204.9765   1.1363404739e+02   2.7558508321e+01    0.3148491    0.3023266 -80.67  0.000712447    1.237    0.191
        51 -10.1239     27.0392    182.5139   1.1094665156e+02   3.2518002190e+01    0.5224666    0.3603815 -31.95  0.002468741    1.980    0.495
        52 -10.1102     22.9387    199.0484   1.1331131703e+02   2.8970813984e+01    0.3090968     0.224867 -56.23 0.0003943955    1.535    0.349
        53 -12.3552     32.7082    195.7095   1.1067834171e+02   2.8769187677e+01     1.210571      1.10321 -82.32  0.007919726    1.143    0.125
        54  -7.4348     75.6197    212.7239   1.0195180447e+02   1.9681199617e+01    0.1304336    0.1027611 -11.25 0.0007002704    1.707    0.414
        55  -7.6391     95.4690    211.5097   9.7046536686e+01   1.7171789040e+01    0.1346044    0.1247609  35.73 5.869694e-05    1.046    0.044
        56  -7.9554     63.8426    208.6400   1.0433132343e+02   2.2135940439e+01    0.1962675    0.1653025   9.86  0.001153032    1.425    0.298
        57  -7.8056    118.0568    208.4889   9.1233368595e+01   1.4432519715e+01    0.2022878    0.1271585  32.07 0.0003570061    1.471    0.320
        58  -8.8181     46.6769    206.9843   1.0829674162e+02   2.4604692212e+01    0.3244075    0.2174178 -33.40  0.001322467    2.161    0.537
        59  -7.2151    158.6889    206.7029   8.1642050197e+01   8.4267707593e+00    0.1391621   0.09929731  -4.02 0.0002341436    1.598    0.374
        60  -7.6566     76.6436    205.2302   1.0082329110e+02   2.1214143341e+01     0.183085    0.1197398 -54.29 0.0006044863    1.639    0.390
        61  -7.6379     63.5431    204.9559   1.0400543009e+02   2.3011035153e+01    0.1807317   0.09963284 -43.22 0.0004105739    2.357    0.576
        62  -7.2916    115.9765    203.0902   9.0914082087e+01   1.5894905868e+01    0.1581652    0.1562977  19.12 0.0004409024    1.068    0.064
        63  -8.4226     78.7899    198.9516   9.9507321681e+01   2.2351404098e+01    0.3655749    0.2230977 -63.21  0.001145001    1.696    0.410
        64  -8.4853     83.1373    197.3643   9.8205166671e+01   2.2104220320e+01    0.2938623    0.2045438  53.73  0.001107208    1.435    0.303
        65  -8.0934    113.5843    199.9016   9.1003400284e+01   1.6955777310e+01    0.2848994    0.1929629  16.44  0.001367608    1.699    0.412
        66  -8.7844     47.5943    199.5921   1.0736901202e+02   2.6207273536e+01    0.3644997    0.2297336   8.57   0.00109039    2.272    0.560
        67  -7.9100    108.9498    198.1868   9.1875466941e+01   1.8054849970e+01    0.2115081    0.1785534  57.29 0.0005008116    1.234    0.190
        68  -8.1784     88.7110    197.4046   9.6806531015e+01   2.1290428057e+01    0.3175992    0.2233542   7.75 0.0008409546    1.858    0.462
        69  -7.4894     48.7813    213.3758   1.0838107835e+02   2.2917017237e+01    0.1635278    0.1186566  23.47 0.0004665511    1.522    0.343
        70  -7.8997     57.8086    193.3294   1.0414126207e+02   2.6452787532e+01    0.2304339    0.1715749  88.68  0.000544786    1.361    0.265
        71  -8.1241     84.6487    211.5159   9.9644120955e+01   1.8709658075e+01    0.2633916    0.1887693   6.82  0.001032315    1.819    0.450
        72  -8.4186     72.2883    191.5108   1.0020248023e+02   2.4990853006e+01    0.3467867    0.2083954  14.27  0.001167347    2.235    0.553
        73  -8.2103     64.8511    189.1923   1.0183462532e+02   2.6540928992e+01    0.3460244    0.1731301 -53.85  0.001351695    2.058    0.514
        74  -9.3314     20.4494    189.0523   1.1315655488e+02   3.1567204181e+01    0.2915352     0.229004  89.16   0.00139771    1.122    0.109
        75  -8.6620    120.9303    188.2984   8.7309780651e+01   1.8324330274e+01    0.2207898    0.2002605 -53.29 0.0003640785    1.163    0.140
        76  -7.7379     80.6846    187.9862   9.7547844202e+01   2.4653200378e+01    0.1886409    0.1747269 -82.84 0.0003467407    1.085    0.079
        77  -7.1370     87.6757    185.3184   9.5332532904e+01   2.4264583253e+01    0.1514443    0.1049622  64.95 0.0004825778    1.673    0.402
        78  -7.4654    169.1739    184.4721   7.5320094819e+01   1.0996866889e+01    0.1955642    0.1336044  31.45 0.0004592053    1.438    0.305
        79  -7.9275     11.0388    183.5276   1.1508005100e+02   3.3728015187e+01    0.2842054    0.1643418  45.86  0.001340386    1.612    0.380
        80  -9.2593      7.3626    180.9089   1.1581290622e+02   3.4660566110e+01    0.3463257    0.2208925  28.61 0.0007964863    1.690    0.408
        81  -7.8534     47.2726    180.3175   1.0540855462e+02   3.0889959273e+01    0.1478737     0.122339  69.68 0.0002003328    1.138    0.121
        82  -8.7536     49.2179    182.9511   1.0519182621e+02   3.0012171328e+01     0.203359     0.173566  65.97 0.0005256236    1.090    0.083
        83  -9.7479     53.4213    178.5591   1.0354951893e+02   3.0591951043e+01    0.4300335    0.3060108 -36.23  0.001729549    1.745    0.427
        84  -8.0494     78.0278    182.0361   9.7400171790e+01   2.6463898699e+01    0.2031662    0.2011109 -63.38 0.0003199781    1.085    0.079
        85  -8.5156     81.0025    179.4644   9.6225546224e+01   2.6658705710e+01    0.2525809    0.2060762 -62.72  1.58818e-05    1.235    0.190
        86  -8.8201     43.1701    179.8834   1.0645398797e+02   3.1467435497e+01    0.2504472    0.1718432  41.37  0.000459585    1.410    0.291
        87  -9.4822     37.4329    178.8787   1.0787346117e+02   3.2347079300e+01     0.366079    0.3268981  13.53  0.001813049    1.329    0.247
        88  -7.7537    116.7874    177.9869   8.6549536184e+01   2.1342067081e+01    0.1985354    0.1894291 -46.34 0.0004164382    1.077    0.072
        89  -8.0271     23.0865    177.5982   1.1153577915e+02   3.4103684845e+01    0.2037661    0.1361201  52.66  0.001117095    1.422    0.297
        90  -8.2619     64.5757    177.0954   1.0033332141e+02   2.9533666115e+01    0.2270583    0.1778277  47.86 0.0003952314    1.237    0.192
        91  -8.9348      2.0602    175.7603   1.1679793987e+02   3.6313796469e+01    0.3341572    0.1547907  89.36  0.001252695    1.986    0.497
        92  -7.5932     76.7721    176.2424   9.6887161192e+01   2.8060073373e+01     0.186447    0.1639437 -27.75 0.0003550517    1.305    0.234
        93  -9.6083     60.0667    172.8834   1.0099895349e+02   3.1174922978e+01    0.3405379    0.2883494 -48.21 0.0004809578    1.265    0.210
        94  -8.6537     29.2978    170.4178   1.0919385958e+02   3.5296946416e+01    0.4947139    0.1955015  68.44  0.001609157    4.128    0.758
        95  -9.1320     23.9994    170.6931   1.1066040257e+02   3.5734845547e+01    0.3473863     0.280128 -27.65  0.001962341    1.572    0.364
        96  -9.1363     17.9992    173.8608   1.1254693476e+02   3.5489072155e+01    0.4379598    0.2332092  70.44  0.002093211    1.950    0.487
        97  -8.0040     17.6638    170.3371   1.1233220391e+02   3.6393743457e+01    0.2780846    0.1247913  24.57   0.00116931    2.417    0.586
        98  -9.2658    175.3164    172.3661   7.1608901259e+01   1.2317232408e+01    0.2883402    0.2593835  -8.82 0.0007208623    1.020    0.020
        99  -7.6234     91.0000    180.9500   9.3786116876e+01   2.4804550996e+01    0.2350703   0.08225475 -59.49 0.0008002485    2.927    0.658
       100  -7.4546     42.9665    168.7870   1.0523503133e+02   3.4272263839e+01    0.1802535     0.132691   7.53            0    1.723    0.420
       101  -8.3131     40.1595    166.5919   1.0575990377e+02   3.5140141633e+01    0.2888061    0.1968573 -46.06  0.001004597    1.615    0.381
       102 -10.1340     26.5438    163.7379   1.0926830434e+02   3.7251278701e+01    0.4056134    0.2524415 -63.13 5.679599e-05    1.480    0.324
       103  -8.3214     22.3159    149.2253   1.0892138976e+02   4.1355516254e+01    0.4783015    0.2163055 -44.04  0.001783423    2.564    0.610
       104  -9.6497     23.9377    156.4519   1.0923929465e+02   3.9352096680e+01     0.420946    0.2692395  21.49  0.002184208    1.787    0.440
       105  -9.6796     19.1741    153.1898   1.1027664362e+02   4.0604626628e+01    0.8322662     0.196015  48.39  0.002410249    5.334    0.813
       106  -7.2044     88.7148    165.2963   9.1820064096e+01   2.8975665289e+01     0.149154    0.1125675  69.82 0.0006965114    1.546    0.353
       107  -7.6691     91.9045    163.8420   9.0673300864e+01   2.8830742631e+01    0.2065837    0.1691678  62.24 0.0003692976    1.310    0.236
       108  -8.9676     71.1337    163.2562   9.6459572081e+01   3.2111859780e+01    0.2535001    0.2245735  75.07 0.0003940378    1.133    0.118
       109  -7.9508    153.1539    162.9150   7.4621591166e+01   1.8234807831e+01    0.2042108    0.1983257 -71.94 0.0002667228    1.165    0.142
       110  -9.5155     57.4740    160.0039   9.9912722206e+01   3.4780746467e+01    0.6518306    0.3110066 -42.67  0.002385038    2.556    0.609
       111  -8.4282     35.2242    162.3752   1.0666173280e+02   3.6740573871e+01    0.3766455    0.2113344  16.05  0.001501833    2.221    0.550
       112  -8.2035     33.5342    159.0557   1.0675758118e+02   3.7764678386e+01    0.2801123    0.2225146 -47.53  0.001570801    1.347    0.257
       113  -9.7369     13.1456    160.7736   1.1272051093e+02   3.9169978074e+01    0.3431403    0.2474185 -33.94  0.001301113    1.721    0.419
       114  -9.9695     78.9958    156.7533   9.3098646473e+01   3.2614856663e+01    0.5480829    0.4148985 -12.35  0.001595436    1.733    0.423
       115  -8.0957    170.6220    157.3672   6.9493826135e+01   1.6159118937e+01    0.3017361    0.2230836 -68.01  0.001410708    1.888    0.470
       116  -7.8676    122.2108    157.8210   8.1258163336e+01   2.5080030681e+01    0.2182305    0.2023084  62.15 0.0007308144    1.156    0.135
       117  -8.2713     52.8573    155.4417   1.0059946362e+02   3.6535279550e+01    0.3663834    0.2189734 -23.74  0.000935957    2.622    0.619
       118  -7.6452    113.5389    151.9830   8.2372965408e+01   2.8036895794e+01     0.229851    0.2028844  37.59 0.0005052055    1.135    0.119
       119  -7.3421      8.7969    154.8551   1.1341584125e+02   4.1000299083e+01    0.1768352    0.1315671  63.57 0.0005506619    1.302    0.232
       120  -7.9166     50.5516    150.9242   1.0061910597e+02   3.7987424664e+01    0.2206629    0.1332258 -67.33 0.0006327611    1.555    0.357
       121  -7.1323     30.6217    151.2601   1.0667764440e+02   4.0065091496e+01    0.1449264   0.09231329  58.63 0.0006976536    1.667    0.400
       122  -7.8887    248.7598    148.3833   5.3579844776e+01   4.5890964315e+00    0.1608449    0.1135533  24.85 0.0009590791    1.708    0.414
       123  -7.2738    235.6742    147.2822   5.5310189084e+01   6.7486193879e+00     0.119661   0.09688086 -61.59 0.0004591124    1.598    0.374
       124 -10.6570     68.6087    144.6384   9.4044228606e+01   3.7245749019e+01    0.7247261    0.4308752  54.82  0.002484302    1.982    0.495
       125  -7.3707    115.7284    148.3299   8.1000733104e+01   2.8512487548e+01    0.1528509    0.1227483  84.31 0.0003863135    1.587    0.370
       126  -8.7881     94.3491    142.8227   8.5904677231e+01   3.3664103570e+01    0.2499194    0.2111189  40.11 0.0008172408    1.200    0.167
       127  -8.7652     81.8928    142.0025   8.9469906142e+01   3.5922040795e+01    0.3145781    0.2125602 -58.26 0.0003155379    1.440    0.305
       128  -8.0921     72.9001    136.8669   9.1230381651e+01   3.8623183463e+01    0.2255744    0.1958645 -35.93 0.0002626229    1.200    0.167
       129  -9.8990      9.9115    132.9691   1.1092903020e+02   4.6520986922e+01    0.3853727    0.2228097 -87.59 0.0004863754    1.656    0.396
       130  -9.1699    243.8493    130.2872   5.0647339360e+01   8.2284604281e+00    0.2768241    0.1180921 -46.07   0.00124174    2.174    0.540
       131  -8.4792     67.6756    129.8748   9.1495625176e+01   4.1193742460e+01    0.2422702    0.2132737   4.71 0.0007848177    1.263    0.209
       132  -7.4985    228.0000    129.0316   5.2697133408e+01   1.1055112629e+01    0.2259107   0.06544179 -38.84  0.000502616    2.919    0.657
       133  -8.4555     65.8404    124.8259   9.1052443111e+01   4.2757359755e+01    0.2191683    0.1929376 -34.94 0.0003538234    1.158    0.137
       134  -9.1240     28.7792    133.4551   1.0490964424e+02   4.4877470466e+01    0.2890331    0.2110345 -74.03 0.0004126319    1.239    0.193
       135  -7.8766     22.1345    121.8776   1.0546540304e+02   4.8474250586e+01    0.1909259    0.1427678 -43.31 0.0004090265    1.331    0.249
       136  -8.6690     63.5650    118.2632   9.0406852832e+01   4.4762277390e+01    0.3348971    0.2419996 -40.21  0.001374347    1.396    0.284
       137  -8.0020    107.0818    132.1978   7.9822873837e+01   3.4002485248e+01     0.334754    0.1862205 -28.89   0.00117088    2.681    0.627
       138  -8.0357     36.9896    117.7184   9.9592234916e+01   4.8177334139e+01    0.2108476    0.1753911 -31.70  0.000629626    1.260    0.206
       139  -8.8735    249.1221    116.3601   4.7101331460e+01   9.5957268281e+00    0.2377645    0.1490367  36.64  0.001318599    2.120    0.528
       140  -8.5902     33.0340    115.5240   1.0060732534e+02   4.9143086975e+01    0.2576144    0.1892156 -64.55 0.0003531037    1.220    0.181
       141  -8.9603     59.2572    110.1706   9.0087976909e+01   4.7419162166e+01    0.2543896    0.2286664 -71.19 0.0002373604    1.141    0.124
       142  -7.1843     42.3135    111.3258   9.6456581890e+01   4.9251473434e+01    0.1531691   0.09946257 -34.41 0.0007042196    1.665    0.399
       143  -7.8667    129.3414    109.0305   6.7767850501e+01   3.4865769715e+01    0.2134821    0.1933055 -46.92 0.0003950609    1.091    0.083
       144  -8.9105    248.2847    107.2816   4.5350511560e+01   1.1151028453e+01    0.2376308    0.1662776  29.03  0.001361104    2.034    0.508
       145  -8.8057     10.7642    106.8180   1.0729784062e+02   5.3180310955e+01    0.4468647    0.1278382  26.13  0.001691634    3.495    0.714
       146  -7.4871     88.5037    105.4583   7.8850985777e+01   4.3868347506e+01     0.154001    0.1469387 -23.30 -5.052912e-05    1.029    0.028
       147  -8.9584     58.6921    102.5317   8.8469914308e+01   4.9403281320e+01    0.2415533    0.2345576  89.47  0.000374145    1.121    0.108
       148  -7.5859     16.8039     98.4431   1.0364639114e+02   5.4887674776e+01    0.1719609    0.1243693 -14.35 0.0003822554    1.563    0.360
       149  -7.4983    154.0090     97.5270   5.8681360236e+01   3.1794144516e+01    0.2089567    0.1499872  50.08 0.0003407136    1.433    0.302
       150  -7.4449     41.5063     96.4420   9.3525400984e+01   5.3094619119e+01    0.1437461    0.1278737 -40.82 1.272967e-05    1.032    0.031
       151  -8.0712      3.6810     94.3544   1.0812524998e+02   5.6728069655e+01    0.1328577   0.09122118  67.26 0.0007046415    1.750    0.428
       152  -7.5583     42.2050     92.3383   9.2267714715e+01   5.4022503233e+01    0.1809135    0.1276474  35.31 0.0001954978    1.544    0.352
       153  -7.2982     87.5931     91.4202   7.5195792774e+01   4.7267229296e+01    0.1496076    0.1431482 -20.07 0.0001018724    1.006    0.006
       154  -7.3546     51.7243     89.3364   8.7723501065e+01   5.3558696162e+01    0.1393836    0.1136616  81.09 0.0002970994    1.608    0.378
       155  -7.8370     38.9482     77.4974   8.9725261860e+01   5.7925764120e+01    0.2051672    0.1658787 -46.65 0.0003069894    1.125    0.111
       156  -8.4298     19.1657     75.1795   9.7840849636e+01   6.0388555568e+01     0.164007    0.1532874  61.50  0.000356599    1.301    0.232
       157  -7.3659    106.0344     72.2112   6.3338931247e+01   4.7476835976e+01    0.1942935    0.1183465  46.21 0.0008424685    1.616    0.381
       158  -7.4939      6.6705     68.3331   1.0200233651e+02   6.2840412071e+01    0.1236884   0.09508577  65.49  0.000705198    1.722    0.419
       159  -7.4059     53.4343     63.9726   7.9275121429e+01   5.8974332090e+01    0.1949017     0.130647 -46.22 0.0002722773    1.450    0.310
       160  -7.5308    147.8159     54.1314   4.7528783141e+01   4.0768587278e+01    0.1851621    0.1637732  31.65 0.0002683723    1.269    0.212
       161 -11.0164    209.6037     43.5050   3.5849018406e+01   2.7988928789e+01    0.4766617    0.4007759 -28.43  0.003018799    1.365    0.267
       162  -9.4564     70.4801    246.4708   1.0648426098e+02   1.3403350790e+01    0.6710496    0.1605349  42.02  0.002600242    3.088    0.676
       163 -10.4904    223.9547     31.8168   3.1866042191e+01   2.6463372911e+01    0.4910894     0.370188   9.96   0.00252725    2.322    0.569
       164  -7.8336     14.2890     25.9944   8.4141113008e+01   7.1035115624e+01    0.1706833    0.1304612 -24.88 0.0003405589    1.087    0.080
       165 -10.0399     71.5280    243.4892   1.0599663643e+02   1.3845678061e+01    0.7575276    0.1645229  37.98  0.002846382    3.196    0.687
       166  -7.7927     43.8731     22.5193   6.6399237048e+01   6.7690265286e+01    0.1862508    0.1137487  36.85  0.000585468    1.530    0.347
