#   1 NUMBER                 Running object number                                     
#   2 MAG_AUTO               Kron-like elliptical aperture magnitude                    [mag]
#   3 X_IMAGE                Object position along x                                    [pixel]
#   4 Y_IMAGE                Object position along y                                    [pixel]
#   5 X_WORLD                Barycenter position along world x axis                     [deg]
#   6 Y_WORLD                Barycenter position along world y axis                     [deg]
#   7 A_WORLD                Profile RMS along major axis (world units)                 [deg]
#   8 B_WORLD                Profile RMS along minor axis (world units)                 [deg]
#   9 THETA_WORLD            Position angle (CCW/world-x)                               [deg]
#  10 FWHM_WORLD             FWHM assuming a gaussian core                              [deg]
#  11 ELONGATION             A_IMAGE/B_IMAGE                                           
#  12 ELLIPTICITY            1 - B_IMAGE/A_IMAGE                                       
         1 -12.7600    174.1669     64.1670   7.6779572814e+01   3.3377324844e+01     1.982886     1.047523 -57.37  0.007957073    2.372    0.578
         2 -12.4817     76.4241     51.2167   9.7225851700e+01   5.6531455814e+01     2.212903     1.214669  11.40  0.008944478    3.143    0.682
         3 -12.2385     94.5463     52.1811   9.1882942489e+01   5.3140846010e+01     1.241023    0.5695454 -41.12 0.0009676876    2.314    0.568
         4 -11.0273    218.5519     32.5724   6.2612834042e+01   2.7320523748e+01     1.005771    0.3958163 -62.47  0.003653667    3.617    0.724
         5 -11.6969    130.0053     12.0123   6.9967209271e+01   5.0427516363e+01    0.5749857    0.3094414 -28.06  0.001368421    2.122    0.529
         6  -9.7081    142.0872     12.6487   6.8017700102e+01   4.7601106791e+01    0.2142071    0.2028641 -12.04 0.0005108213    1.244    0.196
         7  -7.8299     80.4789     12.4964   8.1678546472e+01   6.0685431472e+01    0.1841741    0.1040478 -35.87  0.001013588    2.105    0.525
         8  -8.6926    143.6546      2.1583   6.4728610109e+01   4.8154942295e+01    0.2115314    0.1637182  -2.11  0.001327039    1.643    0.391
         9  -8.4238    184.1752      1.5919   5.9340817603e+01   3.8764477701e+01    0.3032575    0.1283188  84.16  0.001305575    2.551    0.608
        10  -9.3697    117.5578    221.8026   1.2481091343e+02   1.1883903042e+01    0.3294006    0.1368704 -60.98  0.001313417    2.739    0.635
        11 -11.3352    112.6199    245.8561   1.2900469697e+02   7.9177492546e+00    0.7193161    0.5253228 -61.19  0.002588622    1.541    0.351
        12  -9.8256    113.8099    237.5038   1.2772104926e+02   9.3362780132e+00    0.3528897    0.2280948  50.09  0.001500608    1.338    0.253
        13 -11.2393     74.5209    249.0689   1.3672820317e+02   1.3203135194e+01     1.140938    0.3087039  38.67  0.004375866    3.484    0.713
        14 -11.4064    194.7535    161.9084   9.6698238270e+01   9.6032077623e+00     1.035573    0.6304569  33.18  0.004436123    1.886    0.470
        15  -7.9407    235.8827    145.8837   8.5394083869e+01   4.4770983665e+00    0.2128082    0.1802754 -18.03 0.0005503271    1.245    0.197
        16  -9.2402     68.4406    144.9142   1.2420990307e+02   3.7869971621e+01    0.4611939    0.2665171  80.22  0.001788766    2.881    0.653
        17  -7.7363    234.2281    132.5364   8.2774909478e+01   7.2943499589e+00    0.1734645     0.136959  32.48 0.0004078297    1.507    0.337
        18  -8.7145    203.4904    111.6169   8.3375052157e+01   1.7885879522e+01    0.2867841    0.2615452   7.71 0.0007025637    1.323    0.244
        19  -7.2228    239.2910     96.7232   7.4117587595e+01   1.2767584426e+01    0.1387135   0.09787577 -69.97 0.0006935667    1.521    0.343
        20 -12.8447    160.5301     78.6206   8.3395894580e+01   3.4248778948e+01     1.244471    0.6355906  57.49  0.005022849    1.958    0.489
        21 -12.0285    143.6088     79.3823   8.7384073405e+01   3.8112187101e+01    0.8773569    0.4931774  34.68  0.003487678    2.231    0.552
        22 -10.3473    183.7905     86.7177   8.0888351578e+01   2.7200287176e+01    0.3671738    0.2876953  40.61  0.001820523    1.435    0.303
        23 -12.5371    149.0999     82.4775   8.6987274947e+01   3.6267473364e+01     1.000229    0.6697018 -65.40  0.004332117    1.950    0.487
        24 -11.1637    132.9490     80.1569   9.0189004391e+01   4.0407788270e+01    0.6663707    0.3123804 -41.06  0.002611394    2.170    0.539
        25 -11.0727    184.5646     77.7526   7.8440135353e+01   2.8600764853e+01     0.837672    0.3878185  44.63  0.001536954    2.513    0.602
        26  -8.6729     92.3116    217.6623   1.2964969731e+02   1.6979337248e+01    0.1446188   0.09231549  72.04 0.0004379515    1.689    0.408
        27  -7.5511    206.9804     82.5215   7.5776144430e+01   2.2439831110e+01    0.2050317    0.1397915  62.70 0.0004161443    1.476    0.323
        28  -9.4449    123.0738     83.0327   9.3568417274e+01   4.2046148995e+01    0.2224006    0.2148721  12.82  0.000365927    1.029    0.028
        29 -10.8962    100.9515     71.0928   9.6121257292e+01   4.8777808039e+01     0.562144    0.3406184 -19.25  0.001876176    2.215    0.549
        30 -10.0478    131.8021     92.6440   9.4052520085e+01   3.8275748470e+01    0.5142853     0.208376 -44.11  0.001822179    2.483    0.597
        31 -10.0320    110.5608     69.4666   9.2872604681e+01   4.7145890228e+01    0.3344994    0.2328031 -30.88  0.001663194    1.494    0.330
        32 -11.7904    163.3138     51.9510   7.5460689463e+01   3.7869289151e+01     1.553998    0.8436576  88.84  0.005460444    3.468    0.712
        33 -10.7440    123.6940     67.1790   8.8660643853e+01   4.4745437572e+01    0.3824611    0.3741328 -49.56 0.0007263455    1.090    0.083
        34 -10.0130    134.9976     67.2989   8.5898572634e+01   4.2193592232e+01    0.3221291    0.2094708 -25.36  0.001476325    1.801    0.445
        35  -9.3056     10.8182    207.1431   1.4522399314e+02   2.9879114648e+01    0.3976405    0.2248313  24.28  0.002257295    2.618    0.618
        36 -10.3990    138.8812     40.4589   7.6936301589e+01   4.5262811054e+01    0.5083686    0.4655632  36.54  0.001693534    1.101    0.091
        37 -11.0055    250.2003    187.0718   9.1431915639e+01  -5.3770137789e+00    0.7448279     0.336345 -41.19  0.003386311    2.044    0.511
        38 -10.5177    128.3320     47.7643   8.1510306057e+01   4.6701317405e+01    0.3195929    0.2770196  25.11   0.00184843    1.183    0.155
        39  -9.8806     97.9892     38.5146   8.6212596478e+01   5.4405071389e+01    0.3329393    0.1702659  34.69  0.001530502    2.024    0.506
        40  -7.9505    190.3244     36.7319   6.7101137475e+01   3.3411539638e+01    0.1673502    0.1278689 -26.82 0.0006121487    1.591    0.371
        41  -9.2917    106.9952     36.5948   8.3125375532e+01   5.2820427085e+01    0.3108869    0.1313336  43.27   0.00132679    2.183    0.542
        42  -8.1403    180.7131    242.9338   1.1493156536e+02  -3.0981699800e+00    0.1657135    0.1510824  22.82 0.0002890322    1.065    0.061
        43  -9.8138    136.3524     61.2466   8.3769584109e+01   4.2864312937e+01    0.4024386    0.2987803 -48.00  0.002055391    1.462    0.316
        44  -8.5029    139.6743     28.8378   7.3269043295e+01   4.6488836547e+01    0.2160048     0.156073  52.49 0.0003755202    1.223    0.182
        45  -8.7876     78.9795     22.7311   8.6039473341e+01   5.9905899876e+01    0.2043162    0.1707583 -13.98 0.0005531451    1.230    0.187
        46  -8.2811     84.8925     21.1817   8.3698464405e+01   5.8988007787e+01    0.1694023    0.1582863  42.58 0.0005103081    1.253    0.202
        47  -9.2992    188.5197    233.3475   1.1181340787e+02  -2.8275460149e+00    0.2537354    0.2250889 -39.90  0.001062263    1.273    0.214
        48 -10.0257     74.8068     17.3457   8.5250706747e+01   6.1229412443e+01    0.2032067    0.1787874  13.77 0.0003144786    1.120    0.107
        49  -8.4357    189.9182     15.4940   6.1991530188e+01   3.6026630000e+01    0.2256971    0.1546611 -59.20 0.0006272373    1.465    0.318
        50 -10.5656     14.2073     43.9028   1.1834106109e+02   6.5256114967e+01    0.5298234    0.1955332 -35.04  0.002597818    2.413    0.586
        51  -9.9085     95.3918    234.0181   1.3103690151e+02   1.3036262784e+01    0.2224024    0.1716422  40.85  0.001314394    1.325    0.245
        52  -9.6414     89.1461    228.9996   1.3171464476e+02   1.5058843286e+01    0.3114479    0.1294639  37.01  0.001322099    2.454    0.592
        53  -7.3605      5.3320    228.7384   1.4767054834e+02   2.5867214047e+01    0.1164362   0.06058618  66.72 0.0003508943    1.573    0.364
