#   1 NUMBER                 Running object number                                     
#   2 MAG_AUTO               Kron-like elliptical aperture magnitude                    [mag]
#   3 X_IMAGE                Object position along x                                    [pixel]
#   4 Y_IMAGE                Object position along y                                    [pixel]
#   5 X_WORLD                Barycenter position along world x axis                     [deg]
#   6 Y_WORLD                Barycenter position along world y axis                     [deg]
#   7 A_WORLD                Profile RMS along major axis (world units)                 [deg]
#   8 B_WORLD                Profile RMS along minor axis (world units)                 [deg]
#   9 THETA_WORLD            Position angle (CCW/world-x)                               [deg]
#  10 FWHM_WORLD             FWHM assuming a gaussian core                              [deg]
#  11 ELONGATION             A_IMAGE/B_IMAGE                                           
#  12 ELLIPTICITY            1 - B_IMAGE/A_IMAGE                                       
         1 -12.5406    178.7851     59.9270   1.4985533710e+01   3.1912278757e+01     1.717652    0.9991837  32.47  0.005085138    2.655    0.623
         2 -12.9569    194.8066     47.0252   9.3535231551e+00   2.9948197250e+01    0.9892219    0.9243878 -43.14  0.003771072    1.139    0.122
         3 -13.2793    221.4759     18.7447   3.5997049427e+02   2.7408936913e+01     1.052707      0.86298 -31.11  0.004998821    1.348    0.258
         4 -10.9308    119.2494     10.1234   9.1948409110e+00   5.3135579006e+01    0.6615227     0.378061  46.96  0.003191452    1.682    0.406
         5  -8.1084    109.3725     11.8558   1.1763012693e+01   5.5494672375e+01    0.1716037     0.131182   3.57 0.0003653626    1.574    0.365
         6 -11.3706      7.8696      8.3870   5.5487452854e+01   7.5665732812e+01      0.40944    0.2887699  40.69  0.002501794    1.943    0.485
         7 -10.2376      2.1006      6.0198   5.8993608280e+01   7.6554883476e+01    0.4167517     0.148675 -52.17  0.001961931    2.609    0.617
         8 -11.3086    234.4538      3.4749   3.5585486370e+02   2.6307362144e+01    0.4419226    0.2376854  63.89  0.002598087    2.058    0.514
         9  -8.9388    192.6674      2.3047   3.5822706920e+02   3.5483182095e+01    0.1359971   0.07569959 -63.61  0.000342104    1.661    0.398
        10  -8.9318     53.3342      2.6777   2.3938635977e+01   6.9457991353e+01    0.1185245    0.1025607 -77.88 0.0004177633    1.706    0.414
        11  -8.7261    167.3291    224.0635   5.3100039712e+01   5.3086252055e+00    0.1702051    0.1497145  -1.52   0.00061322    1.166    0.142
        12 -11.3276    250.2826    225.7230   3.8159020683e+01  -5.5711819170e+00    0.3789668    0.1683916 -25.49  0.002193555    1.998    0.500
        13 -12.2778    246.9499    246.1369   4.1838152793e+01  -7.4918044849e+00    0.7902825    0.5316288  -9.72  0.006010327    1.167    0.143
        14  -9.3651     49.7663    181.5819   7.5845192154e+01   3.0806807488e+01     3.230227     1.245608  69.39  0.008895062    6.067    0.835
        15 -15.8907     67.9852    141.6045   6.5140253718e+01   3.8231052677e+01     14.52182     6.910526  67.42   0.04112007    4.908    0.796
        16 -12.9412      7.9655    177.3947   8.6592695111e+01   3.5901192462e+01     1.849632    0.7433636  88.86  0.008284074    2.472    0.595
        17 -10.1342     34.2745    192.0481   8.0833822362e+01   3.0116549391e+01    0.2179317    0.1856449  67.63 0.0005720388    1.043    0.041
        18 -10.2311     70.7953    191.4626   7.1352209576e+01   2.5875173594e+01    0.2448582    0.2167822 -74.88 0.0004481513    1.218    0.179
        19 -10.9308     42.1775    249.7040   8.2825945501e+01   1.7551506802e+01    0.2041824    0.1715591   3.97 0.0007920586    1.611    0.379
        20  -8.2154     87.2414    205.5594   6.8845049530e+01   2.0552611781e+01    0.3299216    0.1518937  48.22  0.001432983    2.107    0.525
        21  -9.6010     85.4959    186.9972   6.6945620990e+01   2.4808235726e+01    0.4016082     0.235055  74.04  0.001678235    2.581    0.613
        22 -10.0459     81.9006    183.0576   6.7368493986e+01   2.6219507205e+01    0.4526079     0.239196  35.69  0.001142622    1.680    0.405
        23 -10.8017    144.8530    182.8134   5.1325002380e+01   1.6079808410e+01    0.4252021    0.2957259  58.14  0.001270825    1.895    0.472
        24  -8.0704     58.5894    217.7086   7.6989584347e+01   2.1804518197e+01    0.2686888     0.125027 -60.22  0.001311752    2.400    0.583
        25  -9.4578    181.6902    180.9905   4.2829421526e+01   1.0179648069e+01    0.3982601    0.1852935 -37.04  0.001752371    2.196    0.545
        26  -9.7058    180.5873    175.7539   4.2064109036e+01   1.1272129064e+01    0.3093075    0.1711463 -45.58  0.001443426    1.986    0.497
        27  -9.4722      2.3892    182.8030   8.8279534106e+01   3.5090381608e+01    0.1773174    0.1517922  30.54 0.0008115036    1.291    0.225
        28 -10.0055     73.0411    205.1160   7.2300749724e+01   2.2594829052e+01    0.2154064     0.178103  84.06  0.000484761    1.293    0.226
        29 -10.6924    230.4318    170.4632   3.1761630134e+01   4.2057707006e+00    0.2902137    0.1740074  10.36  0.001510076    2.024    0.506
        30  -8.9462    188.1754    170.9570   3.9580523184e+01   1.0820045988e+01    0.2350718    0.1576444 -44.76 0.0008657465    1.636    0.389
        31 -10.3808    143.7094    167.2218   4.8703123620e+01   1.9390779039e+01    0.5059459    0.3341186 -75.88  0.001710561    2.812    0.644
        32  -9.3689    179.1923    169.3098   4.1101182404e+01   1.2649792488e+01    0.2281287    0.1639209  17.16  0.000748105    1.422    0.297
        33  -9.5550     41.5244    205.7790   8.0092769855e+01   2.6299414404e+01    0.2174475    0.1900551  49.00  0.001325647    1.086    0.079
        34  -9.7006    237.1405    249.6921   4.3965616128e+01  -6.8452800684e+00    0.1985214     0.123846 -13.45 0.0005854426    1.343    0.255
        35  -9.3259    123.8177    156.8102   5.1694266450e+01   2.5238107359e+01    0.2214793    0.2029815  10.34 0.0008960292    1.097    0.088
        36  -8.2164    147.2984    156.6065   4.5712283881e+01   2.0895617034e+01    0.1484141    0.1195276  85.06 0.0007007848    1.800    0.444
        37 -10.2393    118.5083    150.0308   5.1757650372e+01   2.7731694584e+01    0.3218346     0.266198 -74.92  0.001149228    1.446    0.308
        38  -9.8314    114.6519    145.6727   5.1923972387e+01   2.9439793358e+01    0.3902146     0.262418  76.47  0.001307168    2.437    0.590
        39  -9.9559    112.6359    155.9114   5.4529026107e+01   2.7466248508e+01    0.2618548    0.2030506  50.04  0.001290453    1.305    0.234
        40 -11.7516    111.2197    150.6035   5.3882439614e+01   2.8936518292e+01    0.8966805    0.5156212  62.25  0.002140908    2.700    0.630
        41 -11.3627    133.8725    145.7590   4.6778904319e+01   2.5755727293e+01     1.392984    0.3620861 -53.85  0.003259531    6.255    0.840
        42 -10.4376    138.9503    145.4932   4.5423627257e+01   2.4822805669e+01    0.5200534    0.3438143  87.66  0.001843955    3.376    0.704
        43 -10.5141    115.8774    141.6470   5.0733799470e+01   3.0132261402e+01    0.4249629    0.2458748  61.22  0.001562667    2.591    0.614
        44  -9.6963    124.9302    141.0092   4.8108651502e+01   2.8538900200e+01    0.2303038    0.2211169  27.17 0.0003891765    1.008    0.008
        45 -10.1565    121.5181    136.5379   4.8050243033e+01   3.0207839400e+01    0.4665259    0.2898248 -41.40 0.0008980521    1.704    0.413
        46 -11.4853    106.2827    135.7669   5.2213515806e+01   3.3300325044e+01    0.6829581    0.4665318 -33.47   0.00216973    1.711    0.415
        47 -10.9674     99.9751    132.8351   5.3453515625e+01   3.5158455286e+01    0.7162252    0.4135597  70.97  0.002295116    3.648    0.726
        48 -10.4187    135.7476    129.0700   4.2516629257e+01   2.8989187132e+01    0.5390813    0.2502531 -44.98  0.002016488    2.207    0.547
        49 -10.0949    101.2918    124.3725   5.1152034384e+01   3.6929267360e+01    0.5097255    0.2809773 -47.11 0.0006767123    1.859    0.462
        50  -9.6908    120.8368    122.1284   4.4871187798e+01   3.3589003714e+01    0.4140244    0.2481853 -30.03  0.001618263    2.145    0.534
        51  -7.7055    232.6570    120.3014   2.1313900458e+01   1.1406241609e+01    0.1246262   0.09529393 -62.61 0.0005905904    1.677    0.404
        52 -10.2138    113.7797    128.0419   4.8293054378e+01   3.3663398677e+01     0.373304    0.3027762  15.08 0.0008866069    1.382    0.276
        53  -8.7623    109.4721    117.9778   4.7143119051e+01   3.6835464285e+01    0.2261394    0.2057912  35.26 0.0003714589    1.072    0.067
        54  -9.2804    101.5938    114.4012   4.8657985113e+01   3.9221231068e+01    0.4677225     0.285972 -74.00   0.00170584    2.675    0.626
        55  -8.3807    173.1627    119.1997   3.1392180184e+01   2.3091962813e+01    0.1889876    0.1713738 -89.89            0    1.305    0.233
        56  -9.0339     38.8010    201.8530   8.0456629168e+01   2.7451130718e+01    0.3473115     0.233153  34.99  0.002017681    1.345    0.256
        57 -11.0511    119.2914    103.4426   4.0482594111e+01   3.8041669791e+01    0.6097933     0.362051 -60.22   0.00236648    2.185    0.542
        58 -10.7067    118.1119    109.6988   4.2496096921e+01   3.6925902984e+01    0.3878017    0.3446091 -86.30  0.001553849    1.302    0.232
        59  -8.9756     90.2313    202.3612   6.7717460113e+01   2.0794144482e+01    0.2234916    0.1885459 -62.98  0.001115483    1.345    0.257
        60  -8.2834    100.3756    107.7559   4.7344209926e+01   4.1006544614e+01     0.210569    0.1453573 -39.21 0.0003048017    1.533    0.348
        61  -9.7356    192.6688    194.6624   4.3111581728e+01   6.1771600434e+00    0.5886473    0.3387749 -61.47  0.002157814    4.909    0.796
        62  -9.9363     63.8255     99.9862   5.8078411062e+01   4.9315877256e+01    0.4034034    0.2004163  37.50  0.001628215    1.998    0.500
        63  -8.4700     74.1001     90.2888   5.1658450332e+01   4.9985303941e+01    0.2064354    0.1855474  32.70 0.0003407864    1.108    0.097
        64  -9.0761     75.3254    249.6025   7.5891977118e+01   1.3706429597e+01    0.1326138    0.1067358 -54.55 0.0009041447    1.601    0.375
        65  -9.4664    248.1691    196.8340   3.3691160889e+01  -1.8000675562e+00    0.1650587    0.1080706  -4.38 0.0003231977    1.341    0.254
        66  -9.6633     58.9772    197.0906   7.4999019748e+01   2.6151235919e+01    0.1944216    0.1621098  55.12 0.0004779331    1.056    0.053
        67  -5.7156     31.4203    204.0566   8.2404848990e+01   2.7750971238e+01    0.2729663    0.1319279 -70.68 0.0006218429    2.112    0.527
        68  -8.3011    156.9464     85.0145   2.5939632877e+01   3.3040792849e+01    0.1827161    0.1752704  62.40 0.0004741601    1.036    0.035
        69  -8.2368     29.6167    195.1476   8.2231991013e+01   2.9897136377e+01    0.1272072   0.06710431  43.16 0.0004462414    1.597    0.374
        70 -18.2581     15.7124    229.6148   8.7337557262e+01   2.4024474744e+01     4.904484     3.917206  78.94   0.02019202    1.210    0.173
        71  -8.1716     68.3600    248.4991   7.7280984365e+01   1.4751464255e+01    0.1134097    0.0954055  39.20 0.0004067442    1.117    0.105
        72 -10.2502     45.6512    242.9025   8.1702625831e+01   1.8406043744e+01    0.1609419    0.1052327 -76.70 0.0008064634    1.745    0.427
        73 -11.9714    200.2997     41.4893   7.3086829185e+00   2.9405893612e+01    0.5040612     0.461809 -79.34  0.001561002    1.068    0.064
        74 -10.1052    165.4011     60.3934   1.7327916195e+01   3.5078941817e+01    0.2763983    0.2426371  33.63 0.0004724521    1.287    0.223
        75  -8.8332    141.8148     42.1728   1.6120043080e+01   4.3637136255e+01     0.202822    0.1636866  38.55 0.0004416531    1.344    0.256
        76  -9.5462     38.2895    210.7766   8.1232337797e+01   2.5585109097e+01    0.3157608    0.1881844  12.15  0.001614974    2.239    0.553
        77 -10.2719    205.8204     32.8432   4.5994543439e+00   2.9222233930e+01    0.2086064     0.191322 -74.74 0.0004239912    1.096    0.087
        78  -9.1196    189.9917     15.7454   1.8440681222e+00   3.4786540290e+01    0.2171971    0.1775444 -47.45 0.0007246229    1.193    0.162
        79 -10.0049     67.4978    242.2082   7.6981079298e+01   1.5983220783e+01     0.146923    0.1166937 -85.11 0.0009889739    1.463    0.317
        80  -8.5464     93.0613     12.7665   1.5917168341e+01   5.9470276800e+01    0.1912791    0.1565648  51.72  0.000196105    1.060    0.057
        81  -8.7933     58.1879    239.3516   7.8781104665e+01   1.7626605414e+01    0.1463328    0.1211149  60.43 0.0003116495    1.137    0.120
        82 -11.3289     62.3581    238.0022   7.7772625878e+01   1.7380835086e+01    0.2514039    0.1798282  76.67 0.0008452327    1.507    0.336
        83  99.0000     50.2759    237.6863   8.0378152857e+01   1.8857590766e+01      1.06483    0.4324178  76.07  0.004288964    4.067    0.754
        84  -9.1987     58.1465    233.8381   7.8381897855e+01   1.8670114863e+01    0.1699389    0.1311183 -42.32 0.0006305577    1.757    0.431
        85  -8.8214     70.7335    232.8344   7.5500226791e+01   1.7322850730e+01    0.1327344    0.1037346  85.64 0.0003678324    1.438    0.305
