#   1 NUMBER                 Running object number                                     
#   2 MAG_AUTO               Kron-like elliptical aperture magnitude                    [mag]
#   3 X_IMAGE                Object position along x                                    [pixel]
#   4 Y_IMAGE                Object position along y                                    [pixel]
#   5 X_WORLD                Barycenter position along world x axis                     [deg]
#   6 Y_WORLD                Barycenter position along world y axis                     [deg]
#   7 A_WORLD                Profile RMS along major axis (world units)                 [deg]
#   8 B_WORLD                Profile RMS along minor axis (world units)                 [deg]
#   9 THETA_WORLD            Position angle (CCW/world-x)                               [deg]
#  10 FWHM_WORLD             FWHM assuming a gaussian core                              [deg]
#  11 ELONGATION             A_IMAGE/B_IMAGE                                           
#  12 ELLIPTICITY            1 - B_IMAGE/A_IMAGE                                       
         1 -11.0912     23.6899     32.6122   1.0729577031e+02   6.6496481760e+01     1.141923    0.4596938 -31.42  0.003124564    2.376    0.579
         2 -10.3922     10.2103     18.9504   1.0827234870e+02   6.9688561744e+01     1.192275    0.4745114 -12.19  0.004074589    6.435    0.845
         3 -10.2406      4.9544     41.8344   1.1875708778e+02   6.6515818697e+01    0.6628202    0.2961948 -55.75  0.003591241    2.234    0.552
         4 -10.1677      7.2194     28.4426   1.1328026492e+02   6.8535631079e+01    0.2959999     0.236555  25.13  0.001128364    1.618    0.382
         5  -9.1234     78.2442      4.0349   7.5827365780e+01   6.1763026516e+01    0.4264107    0.2306622   1.72  0.001475381    2.360    0.576
         6 -10.1482     73.4566     15.7472   8.1706236378e+01   6.1590072048e+01      1.21224    0.2521288 -29.01  0.004316188    5.065    0.803
         7 -10.1887     69.7185     39.8830   9.1957652314e+01   5.9372781582e+01     1.235964     0.351303 -34.09  0.004598089    3.757    0.734
         8  -9.9115     60.8701     31.5158   9.1952364070e+01   6.1908775003e+01    0.7964039    0.3517644 -24.59  0.003065673    2.626    0.619
         9 -10.3850     51.0530     14.9786   8.8997086975e+01   6.5359478326e+01     1.019435    0.4944608  13.05  0.004634168    3.133    0.681
        10  -9.9833     63.2653      3.6664   8.0119131097e+01   6.4474056105e+01    0.5541582    0.3492535   5.03   0.00316789    1.646    0.392
        11  -9.7918     63.0946     20.8630   8.7063335345e+01   6.2828881907e+01    0.4321652    0.2387945 -42.52  0.001525672    2.457    0.593
        12  -9.7024     64.5989     13.3837   8.3601993252e+01   6.3361409053e+01    0.2818053    0.2331914  -2.59 0.0002274177    1.194    0.163
        13 -10.1620     46.3131     29.7838   9.6752244490e+01   6.4257264357e+01    0.3927239    0.2617867 -45.76 0.0009957179    2.002    0.500
        14  -8.8016    119.9955     16.6845   7.0301975377e+01   5.2139708692e+01    0.3469169    0.2002833  16.65  0.001403374    2.579    0.612
        15  -8.0062    136.2415      1.5681   6.2872893058e+01   4.9835783326e+01    0.2595264   0.07724492  58.83 0.0009403514    2.427    0.588
        16  -9.1844    132.0783      5.6795   6.4729086811e+01   5.0435254246e+01    0.3843124    0.2136174  45.04  0.001641115    1.692    0.409
        17  -9.9136    131.6646     17.1120   6.8166402571e+01   4.9502806478e+01    0.4465977    0.2456487  66.71  0.002302731    1.656    0.396
        18  -9.2602    102.9450     22.1960   7.5921794051e+01   5.5239167842e+01    0.4328865    0.2238537 -20.70  0.001723486    2.310    0.567
        19  -8.8132    112.2301     15.6527   7.1606152373e+01   5.3921301282e+01    0.2819815    0.1892566 -39.21  0.001162479    1.775    0.436
        20  -9.3101    114.1561     10.1739   6.9433480012e+01   5.3998771665e+01     0.355954    0.1810985  37.24  0.001019281    2.025    0.506
        21 -10.7293     37.1087      9.5198   9.2141112960e+01   6.7916452356e+01    0.7394826    0.3281747 -38.13  0.002514574    2.716    0.632
        22 -10.2905     27.2286     11.5775   9.7264625874e+01   6.8921929189e+01      0.81259    0.2836104  38.80  0.003450013    3.057    0.673
        23  -9.4202     18.8587      9.0755   9.9994082998e+01   7.0141659792e+01     0.356038     0.188013   7.60  0.001556001    1.943    0.485
        24  -9.8256     18.2518      3.9057   9.7961098685e+01   7.0796328017e+01    0.3487683    0.2656739  30.84  0.002510782    1.647    0.393
        25 -10.1481      6.3589      5.1687   1.0437574084e+02   7.1810124837e+01    0.3905986    0.2477354  -5.07  0.001669418    1.239    0.193
        26  -9.5380      2.5477      3.4990   1.0559116892e+02   7.2335747993e+01    0.2699203    0.1407102 -27.69  0.001847819    1.558    0.358
        27  -9.9313    134.0279     12.6423   6.6425630882e+01   4.9390263641e+01    0.3951253     0.187923 -48.69  0.001847114    2.735    0.634
        28  -9.0010     95.7414     16.4301   7.5732306511e+01   5.7280816551e+01    0.3085259    0.1662401 -27.80  0.001114561    2.083    0.520
        29  -8.0245     97.6481     11.6761   7.3605408401e+01   5.7330914432e+01    0.2234965    0.1383266  28.78  0.001143908    1.645    0.392
        30  -9.8566      2.2833     14.3000   1.1031861648e+02   7.0954997031e+01    0.5377618    0.2004675 -49.84  0.002708758    3.351    0.702
        31  -8.4346    104.7238     14.9322   7.3048014483e+01   5.5577506502e+01    0.2964073    0.1739981  14.10  0.001510278    2.304    0.566
        32  -9.4386     85.2970     13.1548   7.7300788665e+01   5.9641980815e+01    0.3458939     0.246265 -61.55   0.00171355    2.398    0.583
        33  -7.5846     80.6619     12.2315   7.8245944095e+01   6.0606103638e+01    0.2235085    0.1456002 -42.45  0.001116247    2.064    0.516
        34  -8.4895    125.0910     13.0994   6.8191052649e+01   5.1348506385e+01    0.1895071    0.1831982 -21.12 0.0007424058    1.224    0.183
        35  -8.6879    126.7948      9.1834   6.6689209034e+01   5.1316898588e+01    0.2230553    0.1411254  45.49 0.0004609653    1.433    0.302
        36  -9.3081    125.5144      5.4637   6.5800066693e+01   5.1912497788e+01    0.3316267    0.1679635  45.87  0.001708406    1.776    0.437
        37  -8.2003    141.7798     11.8000   6.4877045058e+01   4.7708868507e+01    0.2306263     0.161944 -44.44 0.0008126145    1.637    0.389
        38  -7.9632    137.6166      9.2619   6.4840096909e+01   4.8882911109e+01    0.1481006    0.1190118   3.86 0.0002952103    1.578    0.366
        39  -8.7008    102.0291      8.2861   7.1419879425e+01   5.6722374696e+01    0.1902857    0.1752506 -28.55 0.0005429855    1.313    0.238
        40  -7.6681     67.8648      9.1331   8.0863567957e+01   6.3203347001e+01      0.16278    0.1081763  27.65 0.0003983333    1.282    0.220
        41  -8.4412    143.8391      5.9328   6.2921417232e+01   4.7760964330e+01    0.4385421    0.1989691 -64.98  0.001634848    4.400    0.773
        42  -8.4984    110.0000      7.9991   6.9591095566e+01   5.5072596901e+01    0.2060851    0.1444212  -5.26  0.001107754    1.727    0.421
        43  -8.6797    110.3023      3.8038   6.8164658770e+01   5.5345865064e+01    0.2827402    0.2067595 -85.40  0.001710999    1.791    0.442
        44  -8.0909     97.6736      5.7098   7.1531915399e+01   5.7828059884e+01    0.2389209    0.1529972  31.15 0.0009491771    1.509    0.337
        45  -8.3531     95.7804      2.9880   7.1023129032e+01   5.8425961942e+01    0.1782609    0.1618885 -39.20 0.0004196656    1.391    0.281
        46  -7.9263     85.2208      6.4629   7.4863117494e+01   6.0240396836e+01    0.2784982     0.112996  33.53  0.001257381    2.671    0.626
        47  -8.8588    115.3170      3.9864   6.7233493389e+01   5.4257556429e+01    0.2735494    0.1856981 -38.30 0.0009751731    1.782    0.439
        48  -8.5355     89.0647      2.7662   7.2541814302e+01   5.9784667411e+01    0.1744887    0.1536325 -21.34 0.0007376081    1.365    0.267
        49  -7.3645    151.6471      2.3056   6.0815897891e+01   4.6291810901e+01     0.125937   0.08233566 -77.33 0.0007041605    1.711    0.416
        50  -7.9979    104.6788      1.9888   6.8725662913e+01   5.6670319991e+01    0.2348726    0.1230735  43.11  0.000922735    1.637    0.389
        51  -9.8163     27.2351    122.7880   1.2908779112e+02   4.8080479344e+01    0.5332206    0.3041616  76.02  0.002036096    2.766    0.638
        52 -12.0233    235.9323    247.9927   1.0124558974e+02  -1.2535381298e+01    0.2560451    0.2106417   1.18 0.0004041731    1.045    0.043
        53 -11.1210    189.1606    246.2201   1.0997739604e+02  -5.3806222172e+00    0.5908968     0.430563 -47.65  0.003446005    1.608    0.378
        54  -9.6330    205.5281    247.5047   1.0693858273e+02  -8.1190024062e+00    0.2297209    0.2072786  46.20 0.0007994632    1.388    0.279
        55  -7.0978     23.2783    125.6503   1.3074355542e+02   4.7739383133e+01    0.1283272   0.09114684  80.90 0.0003936807    1.642    0.391
        56  -8.5114    157.9433    122.1361   9.1701788431e+01   2.6350384820e+01    0.2469303    0.2127089 -84.56 0.0007176996    1.277    0.217
        57  -7.2665    250.3045    119.3065   7.3928899770e+01   7.2936419144e+00    0.1259959    0.1035796 -12.51 0.0002520699    1.603    0.376
        58 -10.1546     92.1646    113.1876   1.0700287098e+02   4.1864567267e+01    0.6178381     0.474621 -87.81  0.001802343    1.763    0.433
        59  -8.8566     92.4191    103.5991   1.0444316145e+02   4.3968840646e+01    0.5375434    0.3750526   0.28  0.002367635    2.063    0.515
        60  -7.3884    185.5307    116.9583   8.4446474214e+01   2.1213184694e+01    0.2201885    0.1460028 -43.61 0.0003440731    1.460    0.315
        61  -8.1276      1.3562    116.5475   1.3585341466e+02   5.1405217569e+01     0.288836    0.1009897 -74.00  0.001199436    2.669    0.625
        62  -9.6620     81.5678     99.3018   1.0665843022e+02   4.6754029222e+01    0.7957494    0.3154603 -48.43  0.001883487    2.380    0.580
        63 -10.2718     78.1220    112.9543   1.1122415769e+02   4.4241660042e+01    0.5540054    0.3398598 -74.36  0.001658598    2.432    0.589
        64  -8.3066     77.7831    105.7920   1.0954636929e+02   4.5926427930e+01    0.3424461    0.2080281 -21.59  0.001407713    2.393    0.582
        65  -9.5046     19.6041    115.9414   1.3025178562e+02   5.0321258217e+01    0.2763414    0.1718749  -0.69   0.00148753    2.144    0.534
        66  -8.9711    246.7947    115.3798   7.3624923300e+01   8.6555008176e+00    0.2112953    0.1708559  44.77   0.00066836    1.506    0.336
        67  -7.7047    167.2412    114.4090   8.7673347364e+01   2.5890643888e+01    0.2174077    0.1465409  64.11 0.0005119748    1.679    0.404
        68  -8.6591     68.5824     79.8819   1.0548057514e+02   5.2809493712e+01    0.2917649    0.1574496 -50.13 0.0008440732    1.873    0.466
        69 -10.5908     62.9062     95.7687   1.1178706784e+02   5.0327851441e+01    0.9479455    0.5618863 -77.00  0.001550416    3.347    0.701
        70  -8.9389     64.8866     86.0450   1.0850037884e+02   5.2106982074e+01    0.6824753    0.4307227 -35.41  0.003441801    1.532    0.347
        71 -10.2304     65.8404    110.8641   1.1457415924e+02   4.6538927780e+01    0.7989109    0.5858819 -79.20  0.002097535    1.732    0.423
        72  -9.1193     59.2726    109.6301   1.1638266126e+02   4.7708218026e+01    0.3327891    0.2256326 -83.26 0.0009723624    2.115    0.527
        73  -9.7651     14.2036    111.3824   1.3115722319e+02   5.1774546977e+01    0.4038469    0.2426457  83.22  0.001484614    2.301    0.565
        74  -9.2059     14.2927    105.0042   1.3002731527e+02   5.3222062755e+01    0.2950062    0.1356631 -39.06  0.001046139    2.142    0.533
        75  -9.2964    158.8816    111.1133   8.8717591408e+01   2.8484871177e+01    0.4924239    0.2077642 -46.60  0.001734874    2.365    0.577
        76  -9.5298     36.2706    111.6472   1.2421706094e+02   4.9861643347e+01    0.2731704    0.2069255  75.15  0.001368206    1.706    0.414
        77 -10.8996     44.6774    102.3930   1.1949286417e+02   5.1108817739e+01     0.850124    0.5307264  79.07  0.002753967    3.193    0.687
        78 -10.4611     48.0881     83.5842   1.1366448142e+02   5.4793490605e+01     1.071973    0.4403804 -46.55  0.002744872    2.104    0.525
        79 -10.9098     20.9073    101.0100   1.2711992502e+02   5.3637048844e+01     1.038927    0.5515592  85.88  0.003556478    4.178    0.761
        80 -10.5919     32.6403     64.0915   1.1394123509e+02   6.0299564373e+01     1.222815    0.5244091 -25.63  0.004760066    3.358    0.702
        81 -10.6389     25.1192     78.1321   1.2059509855e+02   5.8222579029e+01    0.6421415    0.5240467  62.97  0.001894178    1.767    0.434
        82 -10.6082     55.4657     71.0334   1.0744341437e+02   5.6362868292e+01      0.66786    0.4020407  49.77  0.001547909    2.383    0.580
        83 -10.4119     61.0300     61.2595   1.0237782106e+02   5.7372679106e+01     1.209015    0.3491572  30.36    0.0020015    4.539    0.780
        84 -10.0055     34.5113     90.6747   1.2024789654e+02   5.4740139533e+01    0.5078281    0.2789331 -73.06  0.001792166    2.579    0.612
        85 -10.1136     36.8799     81.1604   1.1704968978e+02   5.6515113784e+01     1.108477    0.5111191 -11.09  0.003505485    5.657    0.823
        86  -9.0723     40.0109    106.6104   1.2196406676e+02   5.0647170204e+01    0.2478323    0.1712015 -74.77 0.0007073754    1.632    0.387
        87 -10.1260    139.6448    103.7374   9.1385262551e+01   3.4367239196e+01    0.6942006    0.3594077 -42.44  0.001696267    1.948    0.487
        88  -9.6151      6.3997    103.9495   1.3237543733e+02   5.3969670242e+01    0.3721493    0.2657511  84.15   0.00145119    1.685    0.407
        89  -7.7943     36.6181    105.3029   1.2279967786e+02   5.1287604421e+01    0.1297793   0.09805467  69.27 0.0001136112    1.780    0.438
        90  -8.7933    165.9856    103.9111   8.5302007851e+01   2.8325031564e+01    0.2602485    0.2144307 -49.37 0.0005734814    1.198    0.165
        91  -8.2931     73.7491    102.7292   1.1004409992e+02   4.7232772505e+01    0.2505331    0.1600467 -48.20 0.0006229416    1.453    0.312
        92  -8.5973    159.0948    101.2730   8.6140793028e+01   3.0445424116e+01    0.2814306    0.2103817 -55.36 0.0004822963    1.376    0.273
        93 -10.3998    243.7603     97.3551   7.0320478988e+01   1.2433249863e+01    0.3805317    0.2873715 -52.62  0.002193618    1.132    0.117
        94  -8.8921     96.1548     90.9006   9.9812106600e+01   4.5981817505e+01    0.5047193    0.3211605  -6.54  0.001990785    2.703    0.630
        95  -8.8759    164.5076     94.6390   8.3236087646e+01   3.0487271073e+01    0.2860005    0.2277765 -68.50 0.0006831189    1.359    0.264
        96  -8.3919    171.1700     93.8070   8.1629888515e+01   2.9088751686e+01    0.2041986    0.1842826   9.61 0.0005757236    1.359    0.264
        97  -9.5157     94.3323     97.2166   1.0213404263e+02   4.5002494050e+01    0.3514307    0.2799733 -64.16 0.0006383529    1.449    0.310
        98  -8.8491    157.9153     90.5451   8.3588331900e+01   3.2805717254e+01    0.4353369    0.2061093 -35.20  0.001627137    2.391    0.582
        99  -9.3694    150.2410     89.8560   8.5123021465e+01   3.4718491227e+01    0.4342072    0.2647388 -30.14   0.00166864    1.963    0.490
       100 -10.3970      4.7307     86.5114   1.2980059242e+02   5.7882897880e+01     1.280115    0.2883783 -59.76  0.003895142    2.948    0.661
       101 -10.4233     16.0440     67.0529   1.2124046061e+02   6.1147911425e+01     1.421472    0.1908364 -50.17  0.004140787    3.897    0.743
       102  -8.5096    247.7981    248.6887   9.9214071822e+01  -1.4184658779e+01    0.1685819    0.1235522 -10.62 0.0008217356    1.153    0.133
       103  -9.4291    221.4792    249.2513   1.0415529291e+02  -1.0721120989e+01    0.2850769    0.1334338  37.42  0.001427118    2.023    0.506
       104 -10.8201     21.9236     53.5807   1.1509548940e+02   6.3206459543e+01    0.7094759    0.4471519 -76.24  0.002740935    3.680    0.728
       105 -10.2414     12.7574     45.5926   1.1650484887e+02   6.5335752968e+01    0.8029331    0.3685683  -0.97  0.003236986    2.849    0.649
       106 -10.5289    167.7478    247.7655   1.1457884063e+02  -2.1876544037e+00    0.6147091    0.2728082  24.47  0.002262148    3.381    0.704
       107  -9.5564      6.7340     32.4525   1.1490897255e+02   6.7944484704e+01    0.2758042    0.1726038  -9.32  0.000948384    1.433    0.302
       108  -8.0204     13.2494    246.2345   1.4515003119e+02   2.0825138668e+01    0.1677288   0.09763239  70.52 0.0008477387    1.360    0.265
       109  -9.5210    112.3884     89.6195   9.4703599752e+01   4.3078800474e+01    0.6438621    0.2745196  39.56  0.002372459    2.460    0.594
       110 -10.1261     85.2877     86.5724   1.0193957249e+02   4.8795444870e+01    0.4172609     0.331814 -82.99 0.0008941139    1.833    0.454
       111  -9.6235     87.0896     79.0298   9.9147426574e+01   4.9960232898e+01    0.7059599    0.4095021  18.64  0.002598928    2.453    0.592
       112  -9.7484    227.5685     86.0182   7.0149230594e+01   1.7718570491e+01     0.239197    0.2251274 -84.91 0.0004191322    1.157    0.135
       113  -8.5728    163.4315     86.6377   8.1374806167e+01   3.2242698286e+01    0.3681646    0.1835875 -39.09  0.001225459    2.073    0.518
       114  -8.1909    116.6026     85.1605   9.2252069263e+01   4.3076373699e+01    0.2981014    0.1432126 -38.48  0.001171339    2.174    0.540
       115  -8.9587    118.9975     80.4924   9.0245088653e+01   4.3449046240e+01    0.3120187    0.2492639 -62.09 0.0005731214    1.469    0.319
       116  -8.2456    119.9813     75.9937   8.8660330652e+01   4.4055843230e+01    0.2987319    0.2212159   8.16 0.0007976795    1.794    0.442
       117 -10.3486    104.0454     82.6211   9.5062711386e+01   4.6111949759e+01    0.5320675    0.3224955 -54.06  0.001136238    1.946    0.486
       118  -9.6746    105.1355     71.5057   9.1403914860e+01   4.7933151012e+01    0.7628894    0.5316478 -19.99  0.003740383    1.686    0.407
       119  -8.8837    157.5034     83.1593   8.1709718891e+01   3.4268708233e+01    0.3999648    0.2585542 -41.83  0.001499416    1.580    0.367
       120  -8.4862    170.3515     82.7842   7.8960071313e+01   3.1310862179e+01    0.2660148    0.1973967 -31.56   0.00129761    1.518    0.341
       121  -8.9963    149.9525     80.8358   8.2734849709e+01   3.6451439674e+01    0.3244201    0.2077365 -44.49 0.0009057705    1.601    0.375
       122  -9.2670     74.2185     79.1311   1.0336111198e+02   5.2090879157e+01    0.6242313    0.2505417 -46.06  0.002337847    2.405    0.584
       123  -8.7724    240.6588     79.4998   6.7031184299e+01   1.6081828623e+01    0.2367584     0.110423 -42.34  0.001080378    1.928    0.481
       124  -8.0957    184.2029     78.2332   7.5203540308e+01   2.8842468767e+01    0.2377978    0.1953018 -33.55 0.0006879661    1.359    0.264
       125  -9.1487    232.3649     81.7607   6.8578447608e+01   1.7426013315e+01     0.251376    0.2268729  37.56 0.0006315434    1.485    0.326
       126  -8.8020    166.0383     78.9255   7.8813588609e+01   3.3011596281e+01    0.2232466    0.2095117  75.31 0.0006010241    1.026    0.025
       127  -8.9637    156.9320     76.0211   7.9909821234e+01   3.5665261825e+01    0.4095932    0.2319414 -45.20 0.0009770404    1.815    0.449
       128  -9.4062    127.3989     75.2582   8.6523003331e+01   4.2571629888e+01      0.38207    0.2669374 -62.45 0.0008356383    1.833    0.454
       129  -9.3810    130.2425     66.6302   8.3287311999e+01   4.3404986582e+01     0.697592    0.4164779 -17.68  0.002891153    2.509    0.602
       130  -7.7497    229.7920     75.5679   6.7600215314e+01   1.8996713346e+01    0.1816322    0.1214266  81.19 0.0004833039    1.584    0.369
       131  -8.7093    169.4810     71.0382   7.6075880918e+01   3.3539139958e+01    0.2572458    0.1848138 -26.32 0.0004604363    1.692    0.409
       132  -8.7073    170.8257     66.4712   7.4634900560e+01   3.3964363347e+01    0.3207205    0.2265535 -43.50  0.001126486    1.453    0.312
       133  -9.9536     81.6106     72.4221   9.8888870346e+01   5.2144324071e+01    0.4073196    0.3112823 -68.11 0.0009874746    1.893    0.472
       134  -9.1162     83.3559     64.5671   9.5846204145e+01   5.3234567109e+01    0.4839396    0.3085334  -7.24  0.002228228    2.193    0.544
       135  -9.1173    162.6386     72.5468   7.7806577911e+01   3.4909691080e+01    0.3954458    0.1977007 -48.81   0.00118626    2.141    0.533
       136  -9.3596    115.3121     72.1569   8.8766207508e+01   4.5725098044e+01    0.5233142    0.2672673 -36.29  0.001313369    2.070    0.517
       137  -9.3235    146.9716     69.2362   8.0179950358e+01   3.9146119703e+01    0.3716725    0.2556902 -67.23 0.0008884891    1.868    0.465
       138  -8.1373    156.5018     69.9665   7.8357191658e+01   3.6790198636e+01    0.2101056    0.1429961 -40.53 0.0004743189    1.531    0.347
       139  -9.8266     94.8827     68.3608   9.3451445528e+01   5.0479902269e+01    0.4046351    0.2504096 -44.55 0.0008411344    1.710    0.415
       140  -9.4659     96.9027     59.2326   8.9940364739e+01   5.1612245206e+01     0.747337    0.4736113 -17.61  0.003575412    1.961    0.490
       141 -10.0767     20.3423     85.0988   1.2398023003e+02   5.7152961845e+01     0.779413    0.2149729 -53.84  0.002438023    2.604    0.616
       142  -8.7784    139.4383     39.6416   7.3295167756e+01   4.5218557091e+01    0.5536309    0.1999724 -41.55  0.001739861    3.039    0.671
       143  -8.9013    138.0818     66.2198   8.1316589126e+01   4.1694792284e+01    0.3175485    0.2306126 -59.80 0.0005705142    1.625    0.385
       144  -8.4049    138.6328     61.6868   7.9881324553e+01   4.2290166403e+01    0.3264361    0.2490907  53.95  0.001247885    1.224    0.183
       145  -9.0762    139.0572     57.0225   7.8434923955e+01   4.2906144225e+01    0.3831327    0.2929521 -52.61  0.001133421    1.446    0.308
       146  -9.7817    140.9999     49.8168   7.5928592615e+01   4.3501846402e+01    0.6140488    0.3630095  27.09   0.00110059    2.572    0.611
       147  -8.2563    142.4770     44.5119   7.4093131177e+01   4.3883787400e+01    0.2551956    0.1394925  38.64  0.001007216    2.125    0.529
       148  -9.1594    121.3306     66.0256   8.5330779817e+01   4.5472818740e+01    0.3548484    0.2756039 -63.42 0.0007418091    1.597    0.374
       149  -8.2552    122.2405     61.5376   8.3741459513e+01   4.5997013197e+01    0.2791713    0.2112262  19.77 0.0007257681    1.559    0.359
       150  -9.4665    109.8314     63.9477   8.7749496382e+01   4.8256235318e+01    0.3371489    0.2774001 -51.89 0.0006034229    1.386    0.279
       151  -9.1828    110.7814     58.2336   8.5703861735e+01   4.8967782076e+01    0.4206989    0.2732223  23.09  0.001180644    1.917    0.478
       152  -7.6129    163.3493     63.3232   7.5207686466e+01   3.6239823293e+01    0.1902072     0.153017 -13.96 0.0008006303    1.605    0.377
       153  -8.2898    164.7148     60.3786   7.4166336975e+01   3.6372499262e+01    0.2281897    0.1639379 -59.76 0.0006695606    1.506    0.336
       154  -8.7951    157.3756     63.0814   7.6306350629e+01   3.7693338999e+01    0.2295613    0.1890505  50.72 0.0007235406    1.191    0.160
       155  -7.9776    147.7979     63.3791   7.8358450820e+01   3.9899514347e+01    0.2440598    0.1812885  21.20  0.001186415    1.793    0.442
       156  -8.4371    146.8117     59.1218   7.7367910679e+01   4.0789848712e+01    0.2876581    0.1890241 -58.52 0.0008665068    1.828    0.453
       157  -8.7654    147.3016     53.9523   7.5805676444e+01   4.1444859920e+01    0.4438459    0.2687603 -12.88  0.001878463    2.687    0.628
       158  -8.4676     10.4490     61.1477   1.2191763660e+02   6.2672629511e+01     0.295257     0.210387  80.47  0.001674399    2.694    0.629
       159  -9.3934     87.6163     57.2741   9.2120904027e+01   5.3675471475e+01    0.6874459     0.283449 -32.87  0.002777251    2.683    0.627
       160 -10.1586     73.2789     57.4970   9.6860705953e+01   5.6125774738e+01     0.916341    0.3150259 -37.32  0.002642408    2.977    0.664
       161  -8.9309     79.9646     46.8482   9.1024973008e+01   5.6637002255e+01    0.5301225    0.2465963 -24.38  0.001737984    2.759    0.638
       162 -10.2809     85.1421     48.0495   8.9796572950e+01   5.5532818960e+01     0.401667    0.3121567 -63.31  0.001018116    1.945    0.486
       163 -10.2979     89.7691     38.3174   8.5035279027e+01   5.6004770032e+01    0.9040063    0.2892279  37.13  0.003108016    3.776    0.735
       164  -7.7508    152.4493     59.9327   7.6430719282e+01   3.9343804491e+01    0.2047928    0.1102979 -58.70  0.000808114    2.553    0.608
       165  -9.7345    130.6913     45.8780   7.6993382415e+01   4.6403273564e+01    0.8408153    0.3808963 -23.62  0.002150186    3.098    0.677
       166  -8.7178    130.1030     57.9019   8.0732230856e+01   4.4813358114e+01    0.2853771    0.2138116 -57.31 0.0005285706    1.575    0.365
       167  -8.9888    128.1563     53.6774   7.9922596137e+01   4.5879281054e+01    0.2959776    0.2398729  64.18 0.0004426296    1.240    0.193
       168 -10.1957     49.9847     54.1679   1.0411963831e+02   6.0094325140e+01    0.5807337    0.3525947 -57.14  0.001474717    2.416    0.586
       169  -9.6953     55.9510     43.6913   9.8243757699e+01   6.0948068863e+01    0.8075817    0.4018135   6.52  0.002808559    4.774    0.791
       170  -9.3733    118.1812     54.5362   8.2616065994e+01   4.7952146588e+01    0.4653389     0.269066 -41.78  0.001067366    1.883    0.469
       171  -7.1667    157.6745     55.7125   7.4241652382e+01   3.8744901614e+01    0.1399419    0.1048392  32.90 0.0003516835    1.608    0.378
       172  -9.6184    162.5491     53.0294   7.2607318984e+01   3.7981604007e+01    0.3922309    0.2657153 -32.04  0.001301206    1.671    0.402
       173  -7.9385    152.6481     53.8262   7.4698404975e+01   4.0208095372e+01    0.1901192    0.1234822 -48.26 0.0003307495    1.660    0.398
       174  -9.2918    105.5761     51.8375   8.5078313370e+01   5.1009634488e+01    0.5706146    0.2978533 -27.59  0.002065995    2.212    0.548
       175  -8.6787    111.9806     46.8561   8.1775236779e+01   5.0379951670e+01     0.221226    0.2190516 -71.55 0.0005322626    1.152    0.132
       176  -9.2559     43.8807     53.7188   1.0631551957e+02   6.0931343539e+01    0.2588651    0.2018343 -56.89  0.000676357    1.708    0.414
       177  -8.0379     40.3115     49.6826   1.0636950006e+02   6.2030086584e+01    0.1984154    0.1836946  49.04 0.0007636336    1.577    0.366
       178  -8.7469    157.2903     48.6458   7.2389554428e+01   3.9848535649e+01    0.3118359    0.1751471 -32.60   0.00145877    2.003    0.501
       179  -8.8467    149.9391     47.7534   7.3535921246e+01   4.1703752403e+01    0.2441206    0.1943478 -50.65   0.00044136    1.353    0.261
       180  -9.1026    121.1188     47.0660   7.9570080604e+01   4.8377030137e+01    0.2944391    0.2037789 -33.40 0.0006162682    1.573    0.364
       181  -8.4072    122.7471     41.0536   7.7319038652e+01   4.8816112017e+01    0.3621558    0.2183097  23.06  0.001639547    2.351    0.575
       182  -7.9806    162.4090     46.2896   7.0832489543e+01   3.8961245189e+01    0.1831421    0.1230517 -49.84 0.0009378791    1.584    0.369
       183  -6.9089     96.3236     45.3395   8.5530137793e+01   5.3794498089e+01    0.1397341   0.09500337  16.22 0.0007050988    1.723    0.420
       184 -11.0456    201.8609    249.9028   1.0804996600e+02  -7.9400883011e+00    0.9907469    0.2134763  37.09  0.003262394    4.209    0.762
       185  -9.8177    187.8899    233.4607   1.0812372287e+02  -2.9999128166e+00    0.2830707    0.2460788 -79.65  0.001237538    1.604    0.377
       186  -7.4835    112.8528    232.7941   1.2402735870e+02   9.8882138140e+00    0.1870543    0.1463185  71.11 0.0008126259    1.297    0.229
       187  -9.9420     76.2580     31.9870   8.6920301954e+01   5.9287851875e+01    0.3999012    0.2933218  57.99   0.00112944    1.730    0.422
       188  -9.7327     79.4546     24.0123   8.2987926237e+01   5.9642906713e+01    0.5285252    0.2340763  31.71   0.00185008    2.499    0.600
       189  -9.0938     84.7101     21.9463   8.0679492810e+01   5.8886393467e+01    0.2352884    0.2006621   3.52  0.000711283    1.166    0.142
       190  -9.9486     37.9632     42.2595   1.0474477633e+02   6.3497874100e+01     0.340453    0.2965586 -74.50  0.001346304    2.015    0.504
       191 -10.5578     35.9193     37.9472   1.0403290583e+02   6.4395936320e+01    0.6103966    0.3238546  -0.99 0.0003720247    2.594    0.614
       192  -9.2173    144.4478     36.6743   7.1460720908e+01   4.4428729711e+01    0.4165943    0.2632929 -82.02 0.0006869614    2.286    0.563
       193  -8.4972    113.5142     41.9677   7.9821235757e+01   5.0708703215e+01    0.2836908    0.1358061  28.60  0.001029758    3.448    0.710
       194  -8.1976     97.3155     32.2291   8.0798589633e+01   5.5279516650e+01    0.3234473    0.1941924  -7.56  0.000975802    2.220    0.550
       195  -9.1713    101.2186     32.2039   7.9749226853e+01   5.4492478431e+01    0.2954486     0.209438 -36.31 0.0007434188    1.597    0.374
       196  -8.9569    104.9223     41.1903   8.1775573473e+01   5.2617477174e+01    0.2943241    0.2121956 -53.66 0.0008766559    1.815    0.449
       197  -8.6654    106.0009     36.0843   7.9805596931e+01   5.3039967466e+01    0.2810189    0.2421483  37.83 0.0008466858    1.020    0.020
       198  -8.5943     53.1813     39.1713   9.7643512543e+01   6.2006635441e+01    0.3065089    0.1638553 -26.48  0.001527574    1.893    0.472
       199  -8.7431     54.5133     35.5329   9.5793609457e+01   6.2329676391e+01    0.3947353    0.1825585 -20.03  0.001716341    2.998    0.666
       200  -9.7914    153.0448     41.3192   7.1161434601e+01   4.1832816212e+01    0.3624053    0.3163103 -73.47  0.001389537    1.198    0.165
       201  -9.5515    222.6929     37.6035   6.0430587603e+01   2.6202841392e+01    0.3269567    0.2259577 -44.13 0.0008556348    1.465    0.317
       202  -7.6250    159.9697     38.8684   6.9270896940e+01   4.0515745707e+01    0.1775764    0.1478014   0.20 0.0007953849    1.591    0.372
       203  -8.5708    132.8678     36.0854   7.3588331367e+01   4.7164165004e+01    0.2498629    0.1900611 -46.98 0.0005696474    1.489    0.328
       204 -10.6983    134.1185     30.8158   7.1764791073e+01   4.7501125606e+01    0.3260325     0.255354   8.18  0.001886506    1.597    0.374
       205  -8.8202    118.9035     34.6261   7.6192529925e+01   5.0458509033e+01    0.3125423    0.1740329 -38.38 0.0007330907    2.009    0.502
       206  -8.2913    153.6961     34.9400   6.9290214254e+01   4.2480695290e+01    0.1768662     0.165861 -78.96 0.0004116949    1.119    0.107
       207 -10.0262    147.9594    224.6909   1.1514968187e+02   5.5252621647e+00    0.2443169    0.2076134 -47.94 0.0006129039    1.278    0.218
       208  -7.3263     20.7275    217.6243   1.4177421810e+02   2.6112794824e+01    0.1162705   0.08153506 -56.45 0.0006999534    1.688    0.408
       209  -6.9994     56.0043    217.0000   1.3441869516e+02   2.2016500617e+01     0.187644   0.07023756  35.69 0.0007666588    2.700    0.630
       210  -7.6235    149.8331    209.9485   1.1225969789e+02   8.2473444536e+00    0.1914303    0.1625608  68.76 0.0003669092    1.297    0.229
       211 -10.1323     11.2893    207.1255   1.4284422733e+02   2.9428373864e+01    0.5717102    0.2865315  24.45   0.00296339    2.773    0.639
       212  -9.3172    192.4618    195.1795   1.0016891129e+02   3.4187050889e+00     1.067039    0.5060534 -64.32   0.00248271    8.109    0.877
       213  -8.7064     42.0363     28.0279   9.7772864700e+01   6.5057189961e+01    0.2533672    0.1450623 -25.17 0.0003013476    1.649    0.394
       214  -9.1656    110.2392     33.0879   7.7755738974e+01   5.2509030915e+01     0.301694    0.2225605 -46.06 0.0009759873    1.628    0.386
       215  -8.1728    107.6518     91.6708   9.6635533809e+01   4.3621476694e+01    0.2815318    0.1461816  37.16 0.0009832557    2.030    0.507
       216  -8.1819    151.5955     30.5644   6.8452884883e+01   4.3492302901e+01    0.2613494    0.1672808  27.92  0.001042658    2.197    0.545
       217  -6.8513    196.4338     30.4969   6.1899577415e+01   3.3018887872e+01    0.1296293    0.1082703 -88.20 0.0001618329    1.009    0.009
       218  -9.2496    156.6080     27.7886   6.6857937265e+01   4.2638534288e+01    0.4172338    0.2710046 -88.44  0.001931487    1.777    0.437
       219  -8.9899     91.4857     26.3393   8.0345198700e+01   5.7107762552e+01    0.3024616    0.2209228 -55.73  0.001235129    2.010    0.503
       220  -8.7534     91.9331     21.2129   7.8409587883e+01   5.7566407245e+01    0.3127002    0.1689012  32.50 0.0009851675    1.863    0.463
       221  -9.6018    118.9939     21.5026   7.2025582214e+01   5.1886446356e+01    0.2660444    0.2405369 -43.39 0.0008180541    1.296    0.229
       222  -7.8608     25.0271    176.0263   1.3697435995e+02   3.5370514050e+01    0.1898779    0.1375594 -44.43 0.0005190081    1.645    0.392
       223  -9.0959    144.1458     25.6627   6.8386588493e+01   4.5774614676e+01    0.2052818    0.1717319 -59.16  0.001266099    1.330    0.248
       224  -9.2647    241.8234    170.7003   8.5762010207e+01  -6.2202587791e-01    0.2607636    0.2368898  62.87 0.0008441746    1.370    0.270
       225  -7.6334      8.9837    170.4800   1.4017138051e+02   3.8156694425e+01    0.1712786   0.07762576  55.15 0.0007987877    2.427    0.588
       226  -8.2856    128.2153     25.7697   7.1434217850e+01   4.9395971628e+01    0.2310477    0.1872393 -85.68 0.0007601847    1.439    0.305
       227  -8.8411    130.2350     21.5861   6.9771941436e+01   4.9380207668e+01    0.3249729    0.1362544  41.01  0.001361958    2.654    0.623
       228  -7.5874    230.4704    167.4783   8.7104556877e+01   1.9325066575e+00     0.139554    0.1253124 -37.02 -2.883517e-05    1.043    0.041
       229  -7.9308    110.4949     26.3521   7.5489844832e+01   5.3215458697e+01    0.2266405    0.1067299  55.38  0.001067435    1.856    0.461
       230  -9.3502    242.5625    165.8053   8.4649446017e+01   1.4961550917e-01    0.2638449    0.2291931  19.45  0.001589521    1.279    0.218
       231  -8.7666    155.0000     23.9429   6.6083104100e+01   4.3441109590e+01    0.3651734    0.1771976 -18.05  0.001578038    3.171    0.685
       232  -8.0277    111.6379     21.5806   7.3666091654e+01   5.3471237513e+01    0.2745633    0.1281408 -24.81  0.001305084    2.511    0.602
       233  -9.0020     97.6348    165.3955   1.1688132604e+02   2.8218196201e+01     0.248363     0.225946 -53.16 0.0002856646    1.121    0.108
       234  -8.5156    163.9435    162.9012   9.9785651075e+01   1.5923023761e+01    0.2236418    0.2196406 -40.23 0.0003267307    1.021    0.020
       235  -9.0359     40.9591     20.6230   9.5247349831e+01   6.6140136329e+01    0.2047273    0.1442585 -17.56 0.0002280871    1.281    0.219
       236  -9.0284    242.5975    161.0047   8.3670952645e+01   1.0267930452e+00    0.2234634    0.2010956  38.04  0.000436379    1.265    0.210
       237 -10.2995    210.6522    158.8356   8.8983674694e+01   7.3091793109e+00    0.2737269    0.2566746 -55.06  0.000377745    1.088    0.081
       238  -8.5216     96.5027    150.0787   1.1417217140e+02   3.2230195191e+01    0.2054152    0.1993132  75.78 0.0003028549    1.054    0.051
       239  -8.6665    237.4818    149.4803   8.2163192917e+01   4.0793117318e+00    0.1398684    0.1230144 -41.74 0.0008100688    1.008    0.008
       240  -8.6542    133.8986    146.6457   1.0347151077e+02   2.5940307812e+01    0.6935424    0.2097505 -56.51  0.001704011    4.853    0.794
       241  -9.5322     66.8562    144.3643   1.2133921861e+02   3.8301799848e+01    0.7910243    0.4102508 -74.62  0.003097863    2.424    0.587
       242  -7.3909    168.7225     20.7068   6.3183275086e+01   4.0588813506e+01    0.1214258   0.08967139  43.99 0.0006942008    1.527    0.345
       243 -10.5269     70.5668    126.1136   1.1656533652e+02   4.2263403424e+01    0.7165021    0.6105324 -43.99  0.001370905    1.119    0.107
       244 -10.2857     58.4068    124.7466   1.1996413814e+02   4.4251906060e+01     1.005246     0.563125  81.78  0.002395735    4.301    0.768
       245  -8.8509    230.0268    141.1537   8.1674174526e+01   7.0508277791e+00    0.2203214     0.183299 -43.98 0.0002559959    1.072    0.067
       246  -7.3922    215.6587    140.3046   8.4024958608e+01   1.0034099597e+01     0.148125    0.1126243 -78.69 0.0007040722    1.681    0.405
       247  -8.6882    112.1875    133.9662   1.0630294068e+02   3.3302264857e+01    0.3530179    0.2594749 -82.57 0.0008260349    1.771    0.435
       248  -7.4412    189.0364     15.7640   5.9415142421e+01   3.6420678889e+01    0.1670208   0.08955729  72.45 0.0008704154    1.589    0.371
       249  -7.4090     86.9625    134.0000   1.1344421014e+02   3.7810171836e+01    0.2389201   0.08641496  35.98 0.0008015397    2.936    0.659
       250  -9.6876    133.6965    131.2463   9.9910021436e+01   2.9597217772e+01    0.6013754    0.4987696  46.98    0.0023321    1.223    0.182
       251  -9.6997     98.5373    128.6834   1.0890009917e+02   3.7105780110e+01    0.6344379    0.4041794  77.82  0.002231634    2.820    0.645
       252  -8.1850     82.0790    130.3641   1.1406798326e+02   3.9486038966e+01    0.3136592    0.1863751 -81.03  0.001167922    2.765    0.638
       253  -8.3399    160.2835    128.5784   9.2737694258e+01   2.4420586130e+01    0.3827203    0.2488767 -59.54  0.001604287    1.717    0.418
       254 -10.6043    149.5283    103.2408   8.8855661406e+01   3.2242709548e+01     1.528308    0.3965074 -47.75  0.004101103    4.258    0.765
       255  -9.9456    117.1612    125.6385   1.0293998068e+02   3.4294258153e+01    0.6737381    0.4883684 -87.11  0.001528666    1.957    0.489
       256  -9.9588    140.5284     79.8970   8.4640387433e+01   3.8794051135e+01     1.105687    0.3284185 -39.24  0.003468642    3.511    0.715
       257 -10.5456    132.3187    120.1191   9.7511440962e+01   3.2425130488e+01     1.095021    0.6121111  66.97  0.003663259    3.110    0.678
       258 -11.1840    140.6978    117.9105   9.4810530445e+01   3.1103520258e+01     1.053555    0.9389635  40.05    0.0011984    1.156    0.135
       259 -10.9245    133.4942    109.9073   9.4574911885e+01   3.4416715969e+01    0.9585822    0.6629383 -44.88  0.002815951    1.440    0.306
       260  -9.9708    138.8905     91.6348   8.8297844607e+01   3.6968921372e+01    0.7264749    0.4582734 -51.86  0.001923038    1.702    0.412
       261 -11.1197    121.3409    109.1632   9.7596780084e+01   3.7161557602e+01     1.437071    0.7057881 -45.25  0.005132565    2.017    0.504
       262 -10.6222    129.1964     99.6845   9.2957609468e+01   3.7502270732e+01     1.147699    0.6662804 -19.36  0.003939444    3.218    0.689
       263 -10.7171    123.9995     90.3576   9.1741264301e+01   4.0499957644e+01     1.145071    0.6910499 -30.14  0.003080263    1.959    0.489
       264 -10.2601    108.5881    114.4772   1.0253249619e+02   3.8543050465e+01    0.8908066    0.5067919 -65.56  0.002322308    2.499    0.600
       265 -10.7689    108.4505     99.7462   9.8660358192e+01   4.1795281440e+01     1.061524     0.767706 -78.94  0.003293986    2.056    0.514
       266  -9.5709     41.4950    122.2571   1.2464864584e+02   4.6828143885e+01    0.5412897    0.2644118 -77.37  0.001755361    2.847    0.649
