#   1 NUMBER                 Running object number                                     
#   2 MAG_AUTO               Kron-like elliptical aperture magnitude                    [mag]
#   3 X_IMAGE                Object position along x                                    [pixel]
#   4 Y_IMAGE                Object position along y                                    [pixel]
#   5 X_WORLD                Barycenter position along world x axis                     [deg]
#   6 Y_WORLD                Barycenter position along world y axis                     [deg]
#   7 A_WORLD                Profile RMS along major axis (world units)                 [deg]
#   8 B_WORLD                Profile RMS along minor axis (world units)                 [deg]
#   9 THETA_WORLD            Position angle (CCW/world-x)                               [deg]
#  10 FWHM_WORLD             FWHM assuming a gaussian core                              [deg]
#  11 ELONGATION             A_IMAGE/B_IMAGE                                           
#  12 ELLIPTICITY            1 - B_IMAGE/A_IMAGE                                       
         1  -9.7017     10.3176     18.6455   8.6710182798e+01   7.1267961197e+01    0.6288574    0.2625681 -12.98  0.002485345    4.070    0.754
         2 -11.1371     23.8554     32.1195   8.5013750602e+01   6.7810831985e+01     1.544603    0.5101598 -33.14  0.004162394    3.316    0.698
         3  -9.9569      7.3635     27.8049   9.2139196029e+01   6.9981996622e+01    0.3206309    0.2700994  58.62  0.001020795    2.099    0.524
         4  -9.5501     56.1530     43.4117   7.4624279243e+01   6.1793860892e+01    0.8854274    0.4478517   6.29  0.002906327    4.706    0.788
         5  -9.2731     77.9584      3.8846   5.0250810146e+01   6.2663605662e+01    0.3930063    0.2485184   6.95  0.002240113    1.782    0.439
         6 -10.0656     73.6533     17.4700   5.7350307210e+01   6.2237209794e+01    0.9913719    0.2351132 -27.72  0.003253404    4.671    0.786
         7  -8.4163     72.1416      8.1285   5.3819230929e+01   6.3462282074e+01    0.1852705    0.1541003  30.57 0.0003657581    1.032    0.031
         8  -9.4471     60.8471     31.7398   6.8023490931e+01   6.2809516182e+01    0.8720317    0.3719953 -24.88   0.00328851    2.894    0.654
         9  -9.4924     63.2993     21.0821   6.2534201978e+01   6.3765400827e+01    0.5203218    0.2733983 -46.84  0.002380623    3.018    0.669
        10  -9.8896     64.7008     13.1754   5.8534816137e+01   6.4392812376e+01    0.3818246    0.2860293 -22.01 0.0002181266    1.431    0.301
        11 -10.3075     45.7643     28.8975   7.3131471691e+01   6.5592621565e+01    0.4754895    0.4050618 -45.18  0.001986051    1.608    0.378
        12  -8.5490     46.8394     20.1466   6.8769151476e+01   6.6631065838e+01    0.4161667    0.2117059  -2.87  0.001717005    3.353    0.702
        13  -9.8321     52.8061     13.5282   6.3196667460e+01   6.6463231600e+01    0.5673231     0.257434  34.87  0.002220309    1.977    0.494
        14  -9.1673    102.8824     21.6576   5.0646891188e+01   5.5682652528e+01    0.4176444     0.258441 -17.76  0.001804403    1.869    0.465
        15 -10.5978     37.3106      9.3259   6.7920588958e+01   6.9387693561e+01    0.7858035    0.2604986 -37.88  0.001765692    3.466    0.711
        16  -8.9924    132.4506     18.1403   4.3190609204e+01   4.9240242114e+01    0.3776767    0.2447273   8.19  0.001909848    2.191    0.544
        17  -8.9771     96.2288     14.9087   4.9788010482e+01   5.7824529251e+01    0.4869259    0.2219361 -15.26  0.002147888    2.855    0.650
        18  -8.7864    112.2646     15.0948   4.6126060244e+01   5.4227100879e+01    0.2542455    0.2031737 -45.23 0.0008460509    1.474    0.322
        19  -9.0504      2.6922     14.6542   8.9476048676e+01   7.2500863579e+01    0.3164941    0.2147571 -61.14  0.001654565    2.353    0.575
        20 -10.1254      5.9183      5.4679   8.3137970124e+01   7.3610538655e+01    0.5923994    0.3128715   6.03   0.00183877    1.821    0.451
        21  -9.1009      5.5121      1.5025   8.1334615297e+01   7.4188637103e+01    0.3246253    0.1217035  26.03  0.001728012    2.495    0.599
        22  -9.5400     85.2214     12.5011   5.1771787732e+01   6.0401846619e+01     0.419226    0.2668965 -52.78  0.001731789    2.412    0.585
        23  -7.9454     80.2690     11.9108   5.2952884767e+01   6.1480071079e+01    0.1690081    0.1489035  13.92 0.0005558375    1.128    0.113
        24  -9.1554    133.7596     11.7695   4.0962612430e+01   4.9537960766e+01    0.3333431    0.1595665 -50.96  0.001486843    2.688    0.628
        25  -8.5717    125.5377      4.9569   4.0177215657e+01   5.2050402520e+01    0.2669037    0.1847367  31.97 0.0009655409    1.594    0.373
        26  -8.3679    125.0791     12.8193   4.2815817304e+01   5.1478178780e+01     0.253679    0.1927648  -8.47    0.0011357    1.585    0.369
        27  -8.8471    127.0273      8.4933   4.1064560380e+01   5.1407314574e+01    0.2719188     0.114349  50.45  0.001040978    2.049    0.512
        28 -10.1329     24.6769     11.0092   7.5096294531e+01   7.0880299106e+01    0.7371644    0.3060739  26.29  0.003710651    2.326    0.570
        29  -8.4446     19.5349      8.5050   7.6636916069e+01   7.1815066304e+01    0.2802339    0.1559693   5.19  0.001603418    1.841    0.457
        30  -9.6630     18.2325      3.6695   7.4854259476e+01   7.2580571916e+01     0.315815    0.2982503  63.04  0.001556227    2.169    0.539
        31  -7.7442    141.5132     11.5622   3.9657145136e+01   4.7726874343e+01    0.2209797    0.1542186  80.20 0.0007042683    1.367    0.268
        32  -7.6296    138.2975      9.6168   3.9568511619e+01   4.8662184129e+01    0.1322616   0.08843835 -66.33 0.0007019478    1.769    0.435
        33  -8.7837    114.5333      9.5321   4.3722636044e+01   5.4211891342e+01    0.3128615    0.1726556  46.78 0.0002116258    1.594    0.373
        34  -8.7609    102.0519      7.6265   4.5666020445e+01   5.7196572368e+01    0.2417847    0.1672901 -35.68 0.0009703928    1.700    0.412
        35  -9.0165    105.5196      2.0529   4.2890164429e+01   5.6865718093e+01    0.5192065    0.1325236  52.89  0.002053042    2.752    0.637
        36  -8.7618    110.6247      5.9890   4.3265412203e+01   5.5402038308e+01    0.3232977    0.1616127 -12.66  0.001557987    2.573    0.611
        37  -9.8730     63.1849      2.9830   5.4431115069e+01   6.5647032968e+01    0.4121856    0.3034763  41.38  0.001777911    1.159    0.137
        38  -7.5812    165.4468      6.5570   3.5030999387e+01   4.2545331049e+01    0.1246923    0.1052071  80.01 0.0001034907    1.022    0.022
        39  -7.8685    120.0827      5.9455   4.1454238356e+01   5.3235702595e+01    0.2159733    0.1243097  40.85  0.001132867    1.715    0.417
        40  -8.5780     97.7571      5.6433   4.5895277324e+01   5.8311159860e+01    0.1877464    0.1608697  25.37 0.0002405184    1.163    0.140
        41  -8.6645     95.8221      2.6149   4.5185248137e+01   5.8975620262e+01     0.219782    0.1726036  58.39 0.0007252747    1.138    0.121
        42  -7.8350    136.5031      1.4442   3.7359732007e+01   4.9768914632e+01    0.1981301   0.09117617  57.01 5.942734e-05    1.781    0.438
        43  -8.7450    134.3736      4.1971   3.8517386835e+01   5.0047217812e+01    0.1746263    0.1644559  86.45 0.0009803002    1.130    0.115
        44  -7.3469    143.3155      4.6361   3.7337071246e+01   4.7910167612e+01    0.1315652   0.08563974 -67.81 0.0007040506    1.766    0.434
        45  -8.5810    115.4245      3.8494   4.1598937735e+01   5.4476990256e+01    0.2166296    0.1780892 -78.88 0.0006521083    1.402    0.287
        46  -8.4551     89.2859      2.9804   4.6877582594e+01   6.0363482545e+01    0.2621858    0.1706311 -43.28 0.0009739124    1.991    0.498
        47  -7.1305     85.3199      2.3197   4.7610085842e+01   6.1258812668e+01    0.1332084    0.0755189  33.58 0.0007043072    1.666    0.400
        48  -7.4424    151.4895      1.5079   3.5353511327e+01   4.6249931059e+01    0.1253298    0.1047242  80.75 5.402706e-05    1.033    0.032
        49  -8.8294    110.9750     89.7277   7.1250921720e+01   4.3184197402e+01    0.8315035    0.3273801  33.35  0.002547391    3.519    0.716
        50  -9.8986    202.7475    246.9943   8.2997728343e+01  -5.5073012292e+00    0.2834421    0.1840804  16.89    0.0016903    1.343    0.256
        51 -10.1592    193.6912    249.2949   8.5128621286e+01  -4.6253616201e+00    0.3900318    0.1941292  31.11  0.002041619    1.742    0.426
        52  -9.9530    173.1056    247.8503   8.9044760456e+01  -1.5227972638e+00    0.3882812    0.2165075 -58.21  0.001856714    2.926    0.658
        53 -10.0945    109.1089    114.7200   7.8736122619e+01   3.8074986327e+01    0.7625543    0.5192716 -88.86  0.002041014    2.672    0.626
        54 -10.7363    108.9686    101.1050   7.5111920837e+01   4.1172496092e+01     1.049205    0.8140838 -78.69  0.004814295    1.768    0.434
        55 -10.2943    123.0981     92.4320   6.8589869623e+01   4.0069942890e+01     1.002368    0.4783571 -34.20   0.00273713    2.405    0.584
        56  -9.1444    130.3670     96.6607   6.7834163815e+01   3.7627223197e+01    0.5017999    0.2967543  22.39  0.001823003    2.678    0.627
        57 -11.1246    121.1300    110.1616   7.4068843612e+01   3.6702722504e+01     1.275216    0.6382654 -45.53  0.004028095    1.972    0.493
        58  -9.7176    127.9671    102.3521   7.0062294262e+01   3.6959600864e+01    0.5165898    0.3362375 -43.15  0.001308848    1.526    0.345
        59  -9.8464     42.0245    122.3602   1.0204667907e+02   4.6350026691e+01    0.6700168    0.3465911 -85.87  0.002510966    3.012    0.668
        60  -9.8077     27.5279    122.7195   1.0687576111e+02   4.7632677948e+01    0.5654069    0.3099362  72.50  0.002298977    2.750    0.636
        61  -7.5689    235.7269    118.3258   5.2124313913e+01   1.1191911364e+01     0.133735   0.09459502 -60.62 0.0002089057    1.581    0.367
        62 -10.1550     92.0326    112.8547   8.3477949275e+01   4.1670846308e+01    0.6369217    0.5031391 -86.79  0.001541831    1.685    0.407
        63  -8.8393     92.3909    103.5438   8.0917052229e+01   4.3775022645e+01    0.6427847    0.3410627  19.60  0.002245182    2.954    0.662
        64  -8.4146      1.4397    115.9164   1.1438153068e+02   5.1094243331e+01    0.3632977    0.1098002 -74.91  0.001379069    2.930    0.659
        65  -7.8413    152.7566    115.0453   6.7151198494e+01   2.8885121838e+01    0.2028789     0.129325 -44.05 0.0003935741    1.537    0.349
        66  -9.5430     81.5771     99.2371   8.3298309245e+01   4.6635013406e+01    0.7149079    0.2853005 -50.28  0.002367749    2.413    0.586
        67 -10.1687     78.3578    112.7503   8.7865092896e+01   4.3977013176e+01    0.5900539    0.4094279 -79.49  0.001796552    2.017    0.504
        68  -8.1025     78.8127    104.7543   8.5695822613e+01   4.5809275693e+01    0.4035207    0.2216698 -13.79  0.001207532    4.359    0.771
        69  -7.7558     63.6164     81.7734   8.4715566579e+01   5.3341612643e+01    0.1843389    0.1725951  85.28 0.0004558735    1.353    0.261
        70  -9.6438     66.1936    103.6243   8.9723729759e+01   4.7994482650e+01    0.6686341     0.467579  24.11  0.003289349    1.537    0.349
        71 -10.3873     63.0660     95.2808   8.8687747980e+01   5.0395048310e+01    0.6555768    0.4057515 -74.99  0.001732268    2.527    0.604
        72  -8.7699     64.0936     85.9671   8.5754947326e+01   5.2355266095e+01    0.6639355    0.3706558  -2.95  0.002369731    3.390    0.705
        73  -9.6395     14.4119    111.3940   1.0947124477e+02   5.1442874597e+01    0.4475005    0.2618246  78.34  0.001721441    2.260    0.558
        74  -8.3253     13.6667    105.6603   1.0882699338e+02   5.2895167766e+01    0.2194376    0.1166117 -42.39  0.001092373    1.741    0.426
        75  -7.9144    158.7824    111.7273   6.4886957553e+01   2.8254459673e+01    0.2050387      0.17722 -72.12 0.0004356299    1.302    0.232
        76 -10.5913    131.5027    119.3867   7.3645519200e+01   3.2490286619e+01    0.9350795    0.6115401  75.47  0.002038616    2.741    0.635
        77  -8.9289     35.6698    110.8849   1.0205406443e+02   4.9854720016e+01    0.3306121    0.1247128 -53.16  0.001239557    2.156    0.536
        78 -10.7611     21.1196    100.7409   1.0531876833e+02   5.3573519396e+01     1.315887    0.7015355  79.58  0.003228745    3.453    0.710
        79  -9.9077     20.8495     83.7119   1.0198443820e+02   5.7619251232e+01    0.9747145    0.1425054 -53.06  0.003204149    3.658    0.727
        80 -10.3816     25.7345     77.8154   9.8629125390e+01   5.8574920213e+01    0.7479305    0.4578811 -89.46  0.003308169    2.937    0.660
        81 -10.5301     32.0403     64.3899   9.2308309931e+01   6.0910035662e+01     1.033246    0.4246019 -27.03   0.00374471    3.586    0.721
        82  -9.6371     41.2233     56.6824   8.5842953738e+01   6.1459108696e+01    0.7058345    0.3620262 -17.34  0.002918152    2.820    0.645
        83  -9.7828     37.3003     80.3816   9.4572953449e+01   5.6925002144e+01    0.6895065    0.3467982 -11.94  0.002585754    3.211    0.689
        84  -7.7449    150.0000    109.9599   6.6492265858e+01   3.0554150275e+01    0.2576323   0.08715763 -42.75 0.0007066533    2.906    0.656
        85 -10.8366     45.0875    102.2195   9.6900716790e+01   5.1006196084e+01    0.9178672     0.513316  69.14  0.003206054    4.063    0.754
        86  -8.8199     40.0838    106.7772   9.9680018254e+01   5.0429641802e+01    0.2468628    0.1786536 -56.17 0.0006789604    1.216    0.178
        87  -9.3444    149.5842    103.0197   6.4752695192e+01   3.2073435429e+01    0.4165833    0.2891622 -60.26  0.001040903    1.701    0.412
        88  -8.7613    165.8685    103.6197   6.1211590130e+01   2.8308845057e+01    0.2857207    0.2325866 -59.40 0.0006569704    1.300    0.231
        89  -9.3773      6.8174    103.8099   1.1093117876e+02   5.3753520364e+01    0.3806872    0.2424444  78.25  0.001333204    1.932    0.483
        90  -8.0026     73.7482    102.4426   8.6811696260e+01   4.7150603244e+01    0.2630877    0.1763055 -61.82  0.000529465    1.636    0.389
        91  -9.1605    184.9727    100.7414   5.6602755271e+01   2.4610610542e+01    0.3726885    0.2693147 -26.75   0.00126541    1.531    0.347
        92  -8.7339    158.9976    100.9872   6.2034541988e+01   3.0368508240e+01    0.3370394    0.2088039 -49.30 0.0005281939    1.654    0.396
        93  -9.3282     94.3971     97.0626   7.8480912641e+01   4.4867609328e+01    0.3340202    0.2878295 -71.26 0.0006565028    1.379    0.275
        94  -8.8981     96.6410     90.2325   7.5793282004e+01   4.5928064329e+01    0.6563311    0.3860376  -6.46  0.002091821    3.887    0.743
        95  -9.5706    243.0395     96.4799   4.6478573856e+01   1.3504559643e+01    0.2222218    0.1779135  -1.77  0.001285001    1.750    0.429
        96  -8.2042    150.1882     96.4956   6.2846823043e+01   3.3241166884e+01    0.3569123    0.2118856  13.77  0.001077689    4.207    0.762
        97  -8.5558    164.4049     94.1767   5.9048817475e+01   3.0457613530e+01    0.2821984    0.2131077 -67.57 0.0007215649    1.568    0.362
        98  -8.9638    157.5306     92.2248   6.0014796863e+01   3.2395795325e+01    0.4750113    0.2180126 -36.24  0.001383079    2.282    0.562
        99  -9.4346    138.8831     92.7550   6.4544359795e+01   3.6526828686e+01    0.4439172    0.3726028 -78.60  0.001252897    1.432    0.302
       100  -9.4664    140.7721     81.7546   6.0942582133e+01   3.8199371930e+01    0.6633593    0.2725264 -36.95  0.001530825    2.548    0.608
       101  -8.8039    139.3882     74.7419   5.9225652147e+01   3.9782054415e+01    0.3615023    0.2584805 -89.30  0.001056453    2.043    0.511
       102 -10.0807      4.6979     89.6733   1.0943428256e+02   5.7234223912e+01    0.6104149      0.35031  80.97  0.002041774    2.483    0.597
       103 -10.0956     65.9734    110.7165   9.1523302661e+01   4.6318744576e+01    0.5301676     0.400088  54.37  0.002209834    1.592    0.372
       104  -8.9195    149.9951     89.0024   6.0829668195e+01   3.4730949764e+01    0.2981392    0.2757893  84.50 0.0009653899    1.146    0.127
       105 -10.0108     85.4473     86.2943   7.8295065331e+01   4.8827132060e+01    0.4581419    0.3581575 -84.93 0.0007946519    1.935    0.483
       106  -9.4348     87.6215     78.5960   7.5206042750e+01   5.0028265620e+01    0.6425601    0.3653326  22.52  0.002550252    2.276    0.561
       107  -7.2865    174.4811     87.5377   5.5253965449e+01   2.9379236627e+01    0.1443292    0.1416683 -59.05 7.140139e-05    1.039    0.038
       108  -8.5392    163.6559     87.0057   5.7289873778e+01   3.1959979421e+01    0.2142854    0.1854294 -46.33 0.0006606473    1.140    0.123
       109 -10.1513     48.3825     82.5705   9.0769000658e+01   5.5200350381e+01     0.946507    0.4781975 -49.22  0.002453613    1.756    0.431
       110  -8.4089    237.5336     85.4901   4.4855701072e+01   1.6299647809e+01    0.1320362    0.1100227 -54.58 0.0001070892    1.031    0.030
       111 -10.0957    104.0593     82.4831   7.1147532135e+01   4.6066740241e+01    0.4950691    0.3174888 -54.52 0.0008367893    1.833    0.454
       112  -8.8986    157.9195     83.5349   5.7557088510e+01   3.3915293645e+01    0.2832642     0.208459 -50.19  0.000576918    1.390    0.281
       113  -7.6073    170.5231     83.4441   5.4949122489e+01   3.1015734716e+01    0.1452465    0.1401094 -76.96 0.0002392179    1.006    0.006
       114  -8.7870    150.1271     80.6743   5.8465404129e+01   3.6237958251e+01    0.3284549    0.2195368 -60.77 0.0008435476    1.836    0.455
       115  -8.4612    126.6196     83.4267   6.5003502277e+01   4.1080132319e+01     0.560742     0.296245  23.14  0.001706375    4.018    0.751
       116  -8.6284    119.1323     80.2037   6.6064075741e+01   4.3340070590e+01    0.3219105     0.241528 -57.26 0.0004637786    1.553    0.356
       117  -8.6304    119.9180     75.5936   6.4437682939e+01   4.4030778489e+01    0.2707803    0.2310357  -7.53 0.0006971192    1.285    0.222
       118  -8.8222     74.2739     80.1342   8.0318682328e+01   5.2036685686e+01    0.3386529    0.2512482 -63.48 0.0009496876    1.708    0.414
       119  -9.3688      6.5283     78.4197   1.0664171452e+02   5.9740516452e+01    0.6958734    0.1974766 -34.41  0.002452678    4.046    0.753
       120  -8.8891    156.9622     75.9009   5.5643029260e+01   3.5486288913e+01    0.3758934    0.1895844 -45.57 0.0006344687    2.035    0.509
       121  -8.9103     59.6674    109.3617   9.3370444893e+01   4.7507019422e+01    0.5249532     0.270129 -66.45   0.00189744    2.254    0.556
       122  -8.3268    184.4374     77.7622   5.0902881986e+01   2.8798561642e+01    0.2471663    0.1944964  62.11 0.0005971495    1.289    0.224
       123  -7.3730    174.2971     78.6492   5.2958319467e+01   3.0977098107e+01    0.1525853    0.1087971 -69.95 0.0007034743    1.686    0.407
       124  -8.1399    166.2837     78.4068   5.4434892138e+01   3.2877645833e+01    0.1976602    0.1394549  69.24 0.0004837663    1.557    0.358
       125  -9.2673    127.5557     75.0561   6.2246514901e+01   4.2428044464e+01    0.3878049    0.2781952 -61.69 0.0008817351    1.755    0.430
       126  -8.3385    129.1885     69.1877   6.0039209373e+01   4.3091840495e+01    0.3651626    0.2153342  23.88  0.001389076    2.663    0.624
       127  -8.6706    130.9059     64.0196   5.8023469106e+01   4.3566982727e+01     0.525476     0.277538 -51.71  0.001699448    2.362    0.577
       128  -8.0768     18.3532     76.2916   1.0131752245e+02   5.9488712056e+01    0.1392879   0.07846916 -32.41 0.0007028867    1.679    0.404
       129  -8.8367    104.4990     72.9722   6.8037968629e+01   4.7811870631e+01     0.598783    0.3675102  -3.39  0.002197077    3.038    0.671
       130  -8.1270    105.6572     68.9789   6.6406234896e+01   4.8301661983e+01    0.4242164    0.3078661 -86.82   0.00183303    2.416    0.586
       131  -9.6909     81.6740     72.1479   7.5179143413e+01   5.2385871420e+01    0.3835925    0.3022811 -71.73 0.0008923336    1.836    0.455
       132  -8.7050     83.6935     64.3520   7.1889543556e+01   5.3491228761e+01    0.5537602    0.3796043   9.78  0.002626213    1.790    0.441
       133 -10.5137     55.2969     70.7768   8.4573970997e+01   5.6841698410e+01    0.6616264    0.3842853  47.06  0.001375435    2.277    0.561
       134  -8.8440     56.0428     62.6243   8.1628231424e+01   5.8367866598e+01     0.465871    0.2485641  10.62   0.00172094    2.781    0.640
       135  -9.9656     62.8358     60.4928   7.8207233715e+01   5.7763164845e+01    0.7862639    0.2723057  34.60   0.00119699    2.933    0.659
       136  -8.1714    162.8465     72.8084   5.3587758882e+01   3.4633191250e+01    0.2802033    0.1732438 -61.12 0.0009124295    2.031    0.508
       137  -8.8569    115.1125     72.6083   6.4836777984e+01   4.5626369033e+01    0.3050978    0.2505642 -48.81 0.0006192432    1.313    0.239
       138  -7.4363    116.3275     68.3407   6.3150536198e+01   4.6121708929e+01    0.1546621    0.1132871  11.69 0.0007051467    1.736    0.424
       139  -8.5257    232.0220    248.6847   7.7779054201e+01  -9.4580614818e+00    0.1650163    0.1223038   4.66 0.0005525724    1.050    0.048
       140 -10.2359    161.1319    248.4114   9.1593281596e+01   1.1479747277e-01    0.3435369    0.2409594   9.27  0.001979127    1.475    0.322
       141 -10.1064     16.1513     69.8970   1.0071879263e+02   6.1061300608e+01    0.4866922     0.239071 -62.21  0.001194204    1.896    0.473
       142  -9.8126     16.8796     61.6290   9.8259440613e+01   6.2785960999e+01    0.6616391    0.5217699  10.07  0.004260879    1.362    0.266
       143 -10.8508     21.9101     53.2198   9.3480548308e+01   6.4112236431e+01    0.8151788    0.5512824 -82.84  0.002807485    2.810    0.644
       144 -10.0731     12.0023     45.5301   9.5851169916e+01   6.6392032057e+01    0.8142623    0.3460993   1.46  0.002757247    3.013    0.668
       145 -10.1644      4.9232     41.5947   9.8200190373e+01   6.7610429379e+01     0.640775    0.2888503 -59.52  0.002447998    2.184    0.542
       146  -9.4866      6.9309     32.2765   9.4029968249e+01   6.9221566036e+01    0.3008404    0.1841275  -9.56 0.0004019892    1.518    0.341
       147 -10.2693    150.8458    247.3651   9.3592343394e+01   1.7945976345e+00    0.5152084    0.2749081  21.86  0.002478639    1.993    0.498
       148  -8.5330    169.5223     69.8497   5.1502151043e+01   3.3556392407e+01    0.3504266    0.1339342 -38.94  0.001294627    2.553    0.608
       149  -8.5788    156.6739     69.3939   5.3876379043e+01   3.6652101441e+01     0.326737    0.1738476 -35.86  0.001366699    1.939    0.484
       150  -9.1983    147.0070     69.1308   5.5844317436e+01   3.8969727119e+01    0.3517091    0.2548228 -60.77 0.0009565191    1.612    0.380
       151  -9.5361     94.8815     68.1073   6.9442720973e+01   5.0658991527e+01    0.7629007     0.261817 -42.94 0.0008342843    2.997    0.666
       152  -8.1807     95.2830     61.0456   6.6945537971e+01   5.1833393315e+01    0.3144116    0.1837111 -20.98  0.001120203    2.194    0.544
       153  -8.5704     98.0249     57.2089   6.4778705796e+01   5.1920622434e+01    0.5459095    0.3619435  13.97  0.002489707    1.976    0.494
       154  -9.0249    138.2090     65.9548   5.6883961589e+01   4.1555249269e+01    0.3299695    0.2245792 -47.15 0.0007372337    1.564    0.360
       155  -8.1224    138.6655     61.6796   5.5489239822e+01   4.2141684619e+01    0.2299829    0.2043632  18.59  0.000983141    1.232    0.189
       156  -8.7870    121.2126     65.7586   6.1017638509e+01   4.5482046164e+01    0.3095387    0.2431498 -56.54 0.0007691481    1.479    0.324
       157  -7.8879    122.4795     61.0096   5.9179241877e+01   4.5984826584e+01    0.3174621    0.2110669  26.94 0.0008010422    1.821    0.451
       158  -8.0469    170.6252     64.8377   4.9949945330e+01   3.4099043927e+01    0.2031651    0.1241087 -47.54 0.0007389963    1.654    0.395
       159  -9.1085    109.6264     63.4479   6.3446145775e+01   4.8425387471e+01    0.3358241    0.2659412 -59.10 0.0008932876    1.549    0.355
       160  -8.2060    110.8941     58.1479   6.1338847648e+01   4.9029437447e+01    0.3360704    0.2487934  -7.48  0.001084838    1.632    0.387
       161  -8.0946    157.8266     63.0206   5.1846876642e+01   3.7406344005e+01    0.2236861    0.1841483 -72.56 0.0006761674    1.324    0.245
       162  -9.7344     73.2476     59.0329   7.3756435717e+01   5.6323482298e+01    0.4432721    0.2420734 -47.82 0.0008352114    2.055    0.513
       163  -9.0807     75.4596     50.5608   6.9902435960e+01   5.7390258277e+01      0.71132    0.3586613  22.30  0.002751657    2.885    0.653
       164  -7.8914    164.5553     59.9460   4.9714598755e+01   3.6288216845e+01    0.2034539    0.1382932 -36.54 0.0004518655    1.516    0.340
       165  -7.4427    152.4775     59.9938   5.2043744726e+01   3.9145834789e+01    0.2045718     0.140778 -37.51  0.000594041    1.502    0.334
       166  -9.0762    146.6598     58.2366   5.2721945410e+01   4.0795139252e+01    0.4105825    0.2354397 -20.52  0.001410645    2.364    0.577
       167  -8.2839     87.6738     58.2597   6.8446280570e+01   5.3814851183e+01    0.2564048     0.222992 -79.33 0.0006908309    1.610    0.379
       168  -8.8312    130.0957     56.9175   5.6005191245e+01   4.4886488197e+01    0.4367564    0.2048117 -33.49  0.001463079    2.282    0.562
       169  -9.9188     50.0509     54.1757   8.1181172681e+01   6.0803861834e+01    0.5266345    0.3257713 -52.88  0.001627167    1.913    0.477
       170  -9.1899    191.1441    244.6755   8.4915138430e+01  -3.5753180493e+00     0.196873     0.144527  36.93  0.001198412    1.431    0.301
       171  -8.2334    142.0312     48.1195   5.0650473438e+01   4.3376733474e+01    0.2194842    0.1982685 -40.17  0.000429219    1.177    0.151
       172  -8.8033    138.8511     56.4514   5.3860257173e+01   4.2911684045e+01    0.4027812    0.1884389 -40.64 0.0007873993    2.217    0.549
       173  -8.0798    139.3365     51.3443   5.2196225316e+01   4.3555458425e+01     0.278409    0.1256586  52.28  0.001133895    2.032    0.508
       174  -9.2224    118.2149     54.8899   5.8297893460e+01   4.7918081158e+01    0.3787142    0.2480659 -48.81 0.0007438245    1.764    0.433
       175  -7.4995    157.5036     55.5526   4.9792617007e+01   3.8622732375e+01    0.1419116     0.130657  87.99 0.0001390211    1.061    0.058
       176  -8.1515    162.7572     53.9565   4.8378834616e+01   3.7607314876e+01    0.2583324    0.1273151 -35.65 0.0006669584    2.086    0.521
       177  -8.4510    105.4555     52.8533   6.1082917539e+01   5.1049300670e+01    0.2632259    0.2117388 -55.90  0.000686968    1.520    0.342
       178  -8.0237    106.0101     48.5003   5.9426378296e+01   5.1589384777e+01    0.2792957    0.1885183  30.02  0.001373317    1.566    0.361
       179  -7.6280    152.5587     53.5416   5.0160389158e+01   4.0095792753e+01    0.1404105    0.1312337  83.53 0.0001331457    1.042    0.040
       180 -10.1840     34.4372     90.0755   9.8098688604e+01   5.4988382589e+01    0.6949235    0.3396932 -75.97  0.002066494    3.281    0.695
       181  -8.2916     91.0494     52.2994   6.5243393635e+01   5.4136510916e+01    0.2015153     0.174949  34.12 0.0007799144    1.094    0.086
       182 -10.0731     85.2104     47.7563   6.5500840600e+01   5.6006135056e+01    0.3735599    0.3014446 -68.24  0.001161766    1.850    0.459
       183  -8.9124    130.2469     47.8984   5.3119996137e+01   4.6185876095e+01    0.2856072    0.2268801 -46.61 0.0005183986    1.371    0.271
       184  -8.8437    121.0754     46.9232   5.4958160276e+01   4.8447418504e+01    0.3129462    0.2066738 -32.60  0.000694157    1.620    0.383
       185  -7.7336    157.4895     48.5174   4.7793870137e+01   3.9637024065e+01    0.1393068     0.128516  83.18 0.0008101497    1.031    0.030
       186  -9.3128    149.8195     46.7423   4.8701384548e+01   4.1713512220e+01    0.4530408    0.1777824 -36.17  0.001303449    2.597    0.615
       187  -8.6195    111.9996     46.5946   5.7146788083e+01   5.0547355795e+01    0.2765677    0.1973115 -40.97 0.0006606726    1.534    0.348
       188  -8.0874    162.4703     45.9820   4.6206220005e+01   3.8798146170e+01    0.1895632    0.1033472 -57.43 0.0004218797    2.257    0.557
       189  -8.5527     14.4680    242.4842   1.2135793653e+02   2.0610098521e+01    0.1152258   0.08670689  67.52 6.414131e-05    1.018    0.017
       190  -8.8491     70.4304     26.1751   6.2116831254e+01   6.1841697104e+01    0.2817833    0.1549616  45.16  0.001110185    1.674    0.402
       191  -8.5752      3.4584    238.0943   1.2320298313e+02   2.2537934193e+01    0.1649185    0.0918204 -84.95  0.001027098    1.584    0.369
       192 -10.5748    190.9973    235.4301   8.3467907598e+01  -2.1028790668e+00    0.4774626    0.3438207  55.09  0.002596882    2.163    0.538
       193  -9.5812     69.4145     41.9524   6.8855775980e+01   5.9834218253e+01    0.4943552    0.2752676 -51.92  0.001298897    2.756    0.637
       194  -9.8578     75.4082     32.4048   6.2924983366e+01   6.0103666934e+01    0.7240391    0.3868002  33.21  0.001590154    1.823    0.452
       195  -9.5217     79.4897     23.8096   5.8090653714e+01   6.0381233048e+01    0.5418785    0.2408416  31.60   0.00170037    2.636    0.621
       196  -8.8132     84.5169     21.0801   5.5432867448e+01   5.9672943394e+01     0.255689    0.2204431 -28.55 0.0007120296    1.331    0.249
       197  -9.8078     37.9735     41.9585   8.2009863004e+01   6.4552173438e+01    0.3610334    0.3039993  58.50  0.001581396    1.926    0.481
       198 -10.2221     35.9426     37.7575   8.1323093133e+01   6.5515722801e+01    0.5153137    0.2800709 -12.69 0.0003864702    2.326    0.570
       199  -7.6259    222.7941     43.3667   3.7471328336e+01   2.5455735430e+01    0.1646836    0.1077599  61.68 0.0004895315    1.612    0.380
       200  -8.3625    131.8199     41.8265   5.0843127469e+01   4.6648649211e+01    0.4104673    0.2482544   9.28  0.001661884    2.940    0.660
       201  -8.2814    122.7041     40.6757   5.2509153024e+01   4.8927323458e+01    0.4007875     0.205568  25.70  0.001428693    3.503    0.715
       202  -8.8903    110.4813     33.1217   5.2873556880e+01   5.2678138762e+01    0.3004005    0.2350902 -48.14 0.0008699198    1.506    0.336
       203  -8.9133    104.8740     40.4787   5.6929143364e+01   5.2974920623e+01    0.3999134    0.2488398 -45.57  0.001289058    1.910    0.476
       204  -7.9857    106.4908     35.5674   5.4754331513e+01   5.3263899805e+01    0.2458465    0.1817837  41.91 0.0007315085    1.223    0.182
       205  -8.4660    153.4741     40.7813   4.6291013731e+01   4.1637191732e+01    0.2378884    0.1268268 -38.92 0.0004868734    1.942    0.485
       206  -8.7088    139.4355     39.7183   4.8607822706e+01   4.5123410246e+01    0.3408729    0.2154106 -50.13  0.001667802    1.800    0.444
       207  -9.9921     90.5169     37.7309   6.0076517780e+01   5.6398711878e+01    0.7602115    0.2792533  38.65  0.002738853    2.885    0.653
       208  -8.8791     53.4742     38.2138   7.3681455141e+01   6.3036084598e+01    0.2774633    0.1790231 -46.42    0.0010196    1.879    0.468
       209  -8.5191    144.3578     36.4123   4.6655105156e+01   4.4369681137e+01    0.2597839    0.2006203 -64.13 0.0005713637    1.455    0.313
       210  -8.5194    226.3828     35.5201   3.5427954300e+01   2.5721806801e+01     0.199497    0.1708211 -76.09 0.0002668825    1.068    0.064
       211  -8.0652    135.8690     26.3470   4.5146290912e+01   4.7570784553e+01    0.2477469    0.1912629 -12.37   0.00140541    1.555    0.357
       212  -8.7791    133.0101     35.4957   4.8584622321e+01   4.7177814324e+01    0.2414643    0.2032247 -27.73  0.000557653    1.312    0.238
       213 -10.4474    134.1154     30.7849   4.6874112502e+01   4.7481847380e+01    0.2529913    0.2205085  48.75 0.0002400602    1.086    0.079
       214  -8.5402    118.9688     34.5001   5.1313432863e+01   5.0576970748e+01     0.244554    0.1959165 -30.68 0.0006108577    1.367    0.268
       215 -10.5161    212.2373    230.1894   7.8404534789e+01  -4.2644414537e+00    0.2261571    0.1902172 -13.02 0.0002058265    1.150    0.130
       216  -9.3009    180.3776    230.1625   8.4781616424e+01   3.2290993565e-01    0.3050217    0.1839889  34.75            0    1.525    0.344
       217  -9.1327    181.5370    225.4879   8.3766724767e+01   9.4675782585e-01    0.2658974    0.1971726   4.43  0.001509039    1.327    0.247
       218  -7.2196    175.3118     72.2868   5.1094090199e+01   3.1807196545e+01    0.1392276    0.1123881  23.36 0.0005932478    1.579    0.367
       219  -9.0384    101.2507     31.8934   5.4821575824e+01   5.4874312858e+01    0.3374932    0.2151373 -45.11  0.001078126    1.906    0.475
       220  -8.1553    238.8560     30.7000   3.3318676065e+01   2.3789599792e+01    0.1631761    0.1247136 -77.57 0.0005050675    1.124    0.110
       221  -7.0298     71.4849    225.4844   1.0824001221e+02   1.7563597772e+01    0.1295609    0.1132884  59.94 3.530214e-05    1.008    0.008
       222  -7.4814    102.3312    222.8932   1.0094286827e+02   1.3749939116e+01    0.1833195    0.1176579 -48.46 0.0007398361    1.751    0.429
       223  -7.6009    250.4469    222.5217   7.0127453124e+01  -8.0649494278e+00    0.1210827   0.09135997  -9.89  8.25737e-05    1.005    0.005
       224  -8.2287    152.5343     29.7618   4.3261327353e+01   4.3214642287e+01    0.1809574    0.1188233 -47.04 0.0008165499    1.628    0.386
       225  -8.8208      1.5612     28.7124   9.5718957101e+01   7.0203552650e+01    0.2742378    0.1093524 -51.36 0.0008317583    2.089    0.521
       226  -9.0969     91.3489     25.7537   5.5269038969e+01   5.7727118418e+01      0.35061    0.2297148 -42.29  0.001231603    1.851    0.460
       227  -8.0135     92.4981     20.5356   5.2932627358e+01   5.8060354372e+01    0.2363833    0.1486754  27.19 0.0008075395    1.670    0.401
       228  -8.1374    144.3256     25.4057   4.3351990382e+01   4.5664302814e+01    0.2324224    0.1621252 -36.11 0.0006149674    1.563    0.360
       229  -8.5701    128.5035     25.5352   4.6301811378e+01   4.9398472077e+01    0.2563798    0.2154019 -78.06 0.0007096538    1.346    0.257
       230  -7.8314    110.3431     26.3156   5.0511799619e+01   5.3506404968e+01    0.1433188   0.09035983  31.39 0.0007048119    1.712    0.416
       231  -7.1941    192.2702    221.6941   8.0906945423e+01  -2.4288320016e-02    0.1132564    0.1064636  65.86 0.0002630915    1.537    0.350
       232  -8.8346    118.7508     21.1922   4.6853688670e+01   5.2133929628e+01    0.2476476    0.2050414  77.69 0.0003737013    1.266    0.210
       233  -8.0041    111.5780     21.7716   4.8622882739e+01   5.3718277265e+01    0.1718256    0.1201582 -41.32 0.0004532054    1.656    0.396
       234  -8.9690     40.9000     19.7727   7.1264442950e+01   6.7566866001e+01    0.2579329    0.1585496 -30.14  0.000707163    1.597    0.374
       235  -8.3772    182.0767    221.0552   8.2904760557e+01   1.6341381202e+00    0.2012862    0.1716736  11.41 0.0004477537    1.025    0.025
       236  -7.2775    209.3763    218.1887   7.6876895777e+01  -1.9608801440e+00    0.1594138    0.1163719 -41.90  0.000431614    1.531    0.347
       237  -7.6492    140.0000     17.9730   4.1835611138e+01   4.7471134131e+01    0.1870773   0.07569662 -26.16  0.000326496    2.830    0.647
       238  -7.3732    155.4904     17.4998   3.9304788774e+01   4.3840237645e+01    0.1306477    0.1122848  85.98 0.0006927657    1.067    0.063
       239 -10.3340    149.0475    214.6765   8.9025897946e+01   8.0742645643e+00    0.2468121    0.2295233 -36.21 0.0006358821    1.165    0.142
       240  -8.4964    100.9710    210.0069   9.9525767916e+01   1.6729602812e+01    0.1977326     0.184925  53.71            0    1.015    0.015
       241  -8.6810     45.6257     15.4251   6.7108179667e+01   6.7408123756e+01    0.2086294    0.1570711  -3.84 0.0006056556    1.180    0.153
       242  -9.5177     10.1672    207.4247   1.2018434982e+02   2.8445620440e+01     0.413312    0.2574991  17.35  0.002388231    2.147    0.534
       243  -8.7048    171.9222    200.3614   8.1415224072e+01   7.0920685373e+00    0.2245263    0.1895011 -27.27 0.0002341196    1.168    0.144
       244  -8.9843    192.1528    194.0082   7.5889023693e+01   4.9278211580e+00    0.7904463    0.4158659 -63.53  0.002316587    5.938    0.832
       245  -7.3033    189.4710     15.4702   3.4607962403e+01   3.6123340654e+01     0.124425    0.1057169 -88.45 0.0001212511    1.024    0.023
       246  -9.2427     33.2381    197.0598   1.1422000814e+02   2.8591890205e+01    0.1945005    0.1870395  78.21 0.0003468386    1.190    0.160
       247  -7.3870    157.4616    197.4447   8.4123657007e+01   1.0129789515e+01    0.1415745    0.1337982  30.53  3.16543e-05    1.106    0.096
       248  -7.9078     80.6407    186.8576   1.0126980899e+02   2.5132059861e+01    0.2284959    0.1943366  18.29 0.0005986618    1.327    0.246
       249  -7.4941     99.4083    186.5132   9.6388693206e+01   2.2363395159e+01    0.1406609    0.1393155 -39.97 0.0001016048    1.068    0.063
       250  -7.5615    104.6520    183.1982   9.4493697739e+01   2.2306683286e+01    0.1948401    0.1312848 -47.18 0.0001881892    1.542    0.352
       251  -8.6786     35.5844    181.4129   1.1212700962e+02   3.2099445742e+01    0.2096854    0.1872896 -84.81 0.0001820613    1.063    0.059
       252 -10.4830    101.0016    175.9978   9.4215372649e+01   2.4629545449e+01    0.2068748    0.2015287  68.43  0.001159846    1.006    0.006
       253  -8.0911    230.4657    168.2454   6.3400273968e+01   3.3424154013e+00     0.349672    0.1156054 -43.01  0.001312595    2.779    0.640
       254  -7.0775    131.4334    169.4234   8.5055808441e+01   2.0902291805e+01    0.1491666    0.1461509  13.97 0.0001088807    1.009    0.009
       255  -9.4314    178.8803    147.3976   6.8997911035e+01   1.6605604418e+01    0.2563002    0.2283856 -31.79 0.0002695513    1.063    0.059
       256  -8.3749    133.8656    146.7159   7.9602821787e+01   2.5734880793e+01    0.4508358    0.1092559 -52.25  0.001093156    4.901    0.796
       257  -9.4373     66.8903    144.1740   9.8177170409e+01   3.7784664440e+01    0.5521402    0.3201933  60.04  0.002079891    2.314    0.568
       258  -8.4250    122.0761    144.4954   8.2243209476e+01   2.8537728004e+01     0.214096    0.2038064 -39.52 0.0003506221    1.034    0.033
       259  -7.7878    184.6055    144.2475   6.7063641962e+01   1.6119313108e+01    0.1952641    0.1864708  24.88  0.000949026    1.096    0.087
       260  -8.4463    248.2030    142.6017   5.5302415614e+01   4.9168107709e+00    0.1648037    0.1206979  26.15 0.0006568246    1.662    0.398
       261  -8.6479    112.3094    133.7131   8.2490760806e+01   3.2973981615e+01    0.4245179    0.2786473  67.91  0.001332862    2.323    0.569
       262  -8.4464     86.4883    134.0000   9.0187486164e+01   3.7441961133e+01    0.3999713    0.2228004  29.69  0.001643503    1.951    0.487
       263  -8.8231     82.6875    131.0400   9.0710783561e+01   3.8790031666e+01     0.466673    0.2656984 -75.48  0.001719741    2.635    0.620
       264  -9.8101    140.5548    118.1486   7.0963626861e+01   3.0853667664e+01    0.4350576    0.3564372 -76.81  0.001239053    1.503    0.335
       265  -9.6456    134.2401    131.0655   7.5836355455e+01   2.9278955362e+01    0.5795043    0.5502488  26.25   0.00257614    1.065    0.061
       266 -10.1452    139.4305    103.2739   6.7316882214e+01   3.4273040218e+01    0.7221224     0.411163 -42.93  0.001701213    1.741    0.426
       267  -9.5234     33.4493     13.4736   7.1823960952e+01   6.9429963808e+01    0.1849931    0.1387286  24.99 0.0001013493    1.262    0.208
       268 -10.5476    133.6961    109.1531   7.0383228904e+01   3.4275994477e+01    0.8744548    0.3841918 -47.58  0.002330737    2.314    0.568
       269 -10.8805     70.3333    126.3595   9.3592969869e+01   4.1827044838e+01     0.801395    0.6143523 -25.15  0.001614432    1.469    0.319
       270 -10.0773     58.3692    124.1897   9.7017268943e+01   4.3992904545e+01    0.6582305     0.406545  79.23  0.002154897    2.661    0.624
       271  -9.8159     98.7440    128.4178   8.5216716142e+01   3.6740638298e+01    0.7119389    0.4361532  67.59  0.002388339    2.821    0.646
       272  -9.9665    117.4546    125.3060   7.9004694972e+01   3.3980815476e+01    0.6923502    0.4644485 -84.53    0.0013489    2.640    0.621
