#   1 NUMBER                 Running object number                                     
#   2 MAG_AUTO               Kron-like elliptical aperture magnitude                    [mag]
#   3 X_IMAGE                Object position along x                                    [pixel]
#   4 Y_IMAGE                Object position along y                                    [pixel]
#   5 X_WORLD                Barycenter position along world x axis                     [deg]
#   6 Y_WORLD                Barycenter position along world y axis                     [deg]
#   7 A_WORLD                Profile RMS along major axis (world units)                 [deg]
#   8 B_WORLD                Profile RMS along minor axis (world units)                 [deg]
#   9 THETA_WORLD            Position angle (CCW/world-x)                               [deg]
#  10 FWHM_WORLD             FWHM assuming a gaussian core                              [deg]
#  11 ELONGATION             A_IMAGE/B_IMAGE                                           
#  12 ELLIPTICITY            1 - B_IMAGE/A_IMAGE                                       
         1 -12.4641    150.9955     51.7694   8.9487967003e+01   4.1038390741e+01     1.153012     1.068163   4.38  0.003816569    1.088    0.081
         2 -12.6436    160.5293     22.0661   7.7474397574e+01   4.2615924078e+01      1.08557     1.014237  45.35  0.005743528    1.024    0.024
         3 -10.5065    146.5571     19.5833   7.9114139350e+01   4.6469959942e+01    0.2853145    0.2611945   0.90 0.0002095415    1.108    0.097
         4  -9.5623    120.1800      8.9328   8.0372006366e+01   5.4017535056e+01    0.3765737    0.3117934  18.69  0.001135029    1.147    0.128
         5  -7.5811    193.3790     25.8560   7.3638102812e+01   3.3578711978e+01    0.1836915     0.139169  -5.45 0.0003843137    1.531    0.347
         6 -10.3458    248.6910    246.3986   1.1513935172e+02  -8.8034721452e+00     0.288061    0.2222621 -31.56  0.002181732    1.790    0.441
         7  -9.6284    156.7912    248.5364   1.3035771345e+02   5.1024867366e+00    0.2603101    0.1867686 -38.76 0.0008755799    1.912    0.477
         8 -18.7210     89.5703    218.4563   1.3870001960e+02   1.9940465316e+01     4.936377     3.852365  62.74   0.01912293    1.037    0.035
         9  -8.7801    193.5069    172.0186   1.1194659604e+02   9.8618964617e+00    0.2444273    0.2100806 -82.89  0.001113695    1.578    0.366
        10 -10.8786    193.4650    166.7208   1.1090482360e+02   1.0731680699e+01     0.596239    0.3716516 -47.66  0.001662822    1.865    0.464
        11  -9.7347    204.0459    174.8111   1.1050443524e+02   7.3654656624e+00    0.3076538    0.2930412  25.41  0.001093338    1.124    0.110
        12  -8.4881    208.4920    173.4310   1.0940976276e+02   6.7160788720e+00    0.2236584    0.1237074 -47.85   0.00101627    2.299    0.565
        13  -9.8877    221.6628    177.3955   1.0780595645e+02   3.6293656007e+00    0.3338344    0.2534082 -47.58  0.001162251    1.679    0.404
        14  -7.3842      8.2758    233.2654   1.5299036877e+02   2.7032476342e+01   0.07729396   0.06383974  89.86   0.00021212    1.477    0.323
        15  -8.4846    230.3035    166.6369   1.0411933084e+02   3.5321855749e+00    0.1253337    0.1080553 -69.18 0.0007036991    1.732    0.423
        16  -9.0614    204.0299    162.7036   1.0807251438e+02   9.2646941652e+00     0.428045    0.2139613 -46.67  0.001819381    2.408    0.585
        17 -10.3050    176.8378    217.5755   1.2284342048e+02   6.0094292653e+00    0.3384129    0.2378284 -32.66  0.001103641    1.769    0.435
        18  -9.2202    200.2868    168.0408   1.0986779025e+02   9.1602637903e+00     0.322076     0.240401 -43.30  0.001344274    1.499    0.333
        19 -10.4568    249.2174    228.0173   1.1219262307e+02  -7.1193436424e+00    0.4278758      0.13267 -27.92   0.00192611    3.727    0.732
        20  -8.8062     17.2039    193.5284   1.4953699316e+02   3.3225815885e+01    0.3482233    0.1077552 -75.51  0.001792326    2.680    0.627
        21  -8.3085    172.8262    150.7168   1.1171872775e+02   1.7740175481e+01     0.250186     0.185701 -75.63 0.0007483038    1.923    0.480
        22 -10.5196    170.2891    193.4861   1.2028505203e+02   1.0821534594e+01    0.3011717    0.2767272 -13.18  0.000910299    1.241    0.194
        23  -8.8936     27.9354    146.4812   1.4367581582e+02   4.1768978820e+01    0.2515341    0.1419882 -76.64  0.001223153    1.433    0.302
        24  -8.8900    176.5455    227.8397   1.2436531697e+02   4.6416741869e+00    0.3354965    0.1789096  42.93  0.001308131    1.498    0.332
        25 -11.9951    134.3066    117.4309   1.1275887198e+02   3.2418941081e+01     1.225667    0.5370592 -49.88  0.004334015    2.331    0.571
        26  -9.3893    205.6607    192.0263   1.1343882646e+02   4.5117553397e+00    0.3301059    0.2591897  77.19  0.001475846    2.000    0.500
        27 -10.2989     95.3497    136.5282   1.2638407407e+02   3.5440225203e+01    0.4065602    0.3135041  17.47  0.002073345    1.819    0.450
        28  -9.1413    165.1265    188.3714   1.2042404536e+02   1.2616725734e+01    0.2264851    0.1949838 -58.44 0.0007126179    1.342    0.255
        29  -8.8473    159.9840    135.0730   1.1101139377e+02   2.3423546255e+01    0.2224289    0.2149464  82.57 0.0004451546    1.066    0.062
        30  -9.0641      9.3286    128.3198   1.4609533503e+02   4.7254170807e+01    0.2494579    0.1114085 -55.41  0.000936478    2.140    0.533
        31  -9.7569    160.8194    129.0511   1.0943408139e+02   2.4424024803e+01    0.3500943    0.3281145  27.52  0.001896656    1.088    0.081
        32 -10.8737    136.9642    136.1346   1.1641951898e+02   2.7973476740e+01    0.9150233    0.2629123 -51.67 0.0009791967    3.956    0.747
        33  -8.5722      9.3997    213.3986   1.5192604173e+02   3.0322578268e+01    0.1701641    0.1093141  89.92 0.0005782472    1.237    0.192
        34  -8.0619    197.3530    187.6269   1.1416507910e+02   6.6944814864e+00    0.1754228     0.149111  75.12  0.000371187    1.569    0.363
        35  -8.2450    201.0420    123.0215   9.9678380693e+01   1.6556882173e+01    0.2152528    0.1992743   5.92            0    1.059    0.056
        36 -11.1157     12.2986    207.1900   1.5114491532e+02   3.1160235576e+01     0.535153    0.3306862  42.82  0.003704916    1.695    0.410
        37  -9.2299    142.9062    122.1884   1.1186475396e+02   2.9640358728e+01    0.2367465    0.2021305 -89.57  0.001213194    1.337    0.252
        38  -9.5830    181.2531    185.2868   1.1677620551e+02   1.0092894707e+01    0.4114285      0.16141 -47.60  0.001646502    3.099    0.677
        39 -10.3993    246.6646    113.7105   8.9507102652e+01   8.0475742961e+00    0.2887065    0.2428879  42.10 0.0004517775    1.257    0.204
        40  -8.6564     47.0060    112.7428   1.3454730201e+02   4.7345319883e+01    0.2180819    0.1741509   1.57  0.001340761    1.790    0.441
        41 -11.9550     65.6054    108.6929   1.2872738747e+02   4.6053422008e+01    0.8089482    0.7262961  -7.01  0.003952908    1.413    0.292
        42  -9.6921     22.9536    184.3544   1.4789931670e+02   3.4438981624e+01    0.1964953     0.140112  86.33 0.0003544244    1.070    0.065
        43  -7.8856    192.4135    100.8192   9.5657630255e+01   2.2451575485e+01    0.2421848    0.1727368  46.58 0.0005846065    1.410    0.291
        44 -10.1892     71.8083    103.7085   1.2596375423e+02   4.6346995109e+01    0.3358248    0.2689753  54.87  0.001040483    1.381    0.276
        45  -9.6797    113.1327     99.9292   1.1369330796e+02   4.0355088939e+01    0.5282446    0.2046345  50.16  0.001805228    2.982    0.665
        46  -9.2674     19.9838    181.0008   1.4821355853e+02   3.5384763270e+01    0.2688067     0.162958  81.45 0.0004501627    1.303    0.233
        47  -8.6810    249.7018     95.1596   8.4549756826e+01   1.0142439257e+01    0.3438647    0.1787816 -51.34  0.001398673    2.425    0.588
        48 -11.0244    165.5219    181.3804   1.1914325571e+02   1.3727182877e+01    0.7865407    0.3610637  54.08  0.001213652    2.397    0.583
        49  -8.3897      1.3110    204.7605   1.5281421626e+02   3.2600768684e+01    0.1695058   0.06871337 -86.16 0.0005389514    1.974    0.493
        50  -8.7423    139.7263     82.9860   1.0209311407e+02   3.8244991253e+01    0.2224501    0.1926829 -38.23 0.0005776408    1.128    0.113
        51  -7.8121    101.0251     79.5391   1.1134870983e+02   4.6921327776e+01    0.2056711    0.1438102  42.54 0.0006178347    1.536    0.349
        52  -7.7076    216.1626     73.6358   8.4037124741e+01   2.1150675058e+01    0.2051054    0.1334784  47.02 0.0002955077    1.603    0.376
        53 -11.9254    143.4207     65.8900   9.5872545395e+01   4.0538927699e+01    0.9944031    0.9639026  31.98  0.003056302    1.040    0.039
        54  -8.8506    168.2107    243.4922   1.2784893112e+02   3.9467572860e+00    0.3514744    0.2015765  22.82  0.001871303    2.520    0.603
        55  -8.2911     14.7096    178.3987   1.4901550066e+02   3.6388920516e+01    0.1636163   0.09870715 -65.72  0.000733206    1.659    0.397
        56  -9.3336    161.0480     57.7961   8.9335380685e+01   3.7577493813e+01    0.2256654    0.2083941 -75.48 0.0003543242    1.185    0.156
        57  -8.4850    198.1560     52.4786   8.0895262632e+01   2.8850078457e+01    0.2283831    0.1969455 -11.73 0.0003397214    1.235    0.190
        58  -9.3264    138.0722     43.7737   8.9616002246e+01   4.5416516838e+01     0.253514    0.2083535 -18.31 0.0002278701    1.225    0.184
        59 -11.3657    154.6022     42.3407   8.5537748177e+01   4.1540469617e+01    0.5741006    0.5448413  26.40 0.0008101203    1.032    0.031
        60  -8.4543    188.7435    159.7674   1.1040658285e+02   1.2848269932e+01    0.4429666    0.2256887  44.70 0.0009477731    1.835    0.455
        61  -9.2473    170.0760    237.8547   1.2682155956e+02   4.3767385334e+00    0.1850572    0.1671529 -16.21   0.00103089    1.400    0.286
        62  -8.2435    189.6804     15.3095   7.0929481171e+01   3.5722096342e+01    0.1503738    0.1018186 -62.86 0.0005920261    1.642    0.391
        63  -9.8900    196.3785    176.0423   1.1218107750e+02   8.6601694820e+00    0.4135715    0.2818725  49.96  0.001314628    1.448    0.310
