#   1 NUMBER                 Running object number                                     
#   2 MAG_AUTO               Kron-like elliptical aperture magnitude                    [mag]
#   3 X_IMAGE                Object position along x                                    [pixel]
#   4 Y_IMAGE                Object position along y                                    [pixel]
#   5 X_WORLD                Barycenter position along world x axis                     [deg]
#   6 Y_WORLD                Barycenter position along world y axis                     [deg]
#   7 A_WORLD                Profile RMS along major axis (world units)                 [deg]
#   8 B_WORLD                Profile RMS along minor axis (world units)                 [deg]
#   9 THETA_WORLD            Position angle (CCW/world-x)                               [deg]
#  10 FWHM_WORLD             FWHM assuming a gaussian core                              [deg]
#  11 ELONGATION             A_IMAGE/B_IMAGE                                           
#  12 ELLIPTICITY            1 - B_IMAGE/A_IMAGE                                       
         1 -14.4510    223.0727      5.2666   3.7133933730e+01   2.8488706223e+01     2.369528     1.419631  48.09   0.00783329    2.043    0.511
         2 -14.1175    180.7777     49.6108   5.4266556907e+01   3.3524403719e+01       1.9498      1.44043  18.42 0.0008384436    1.776    0.437
         3 -14.0955    192.8871     39.4661   4.9427237283e+01   3.1859612546e+01     1.231207     1.023822 -55.26  0.003386587    1.185    0.156
         4 -14.3845    200.3551     31.2295   4.6126105560e+01   3.1046269245e+01     1.252685     1.114996  25.42  0.001352246    1.345    0.257
         5 -10.9499    189.6156     14.5202   4.2868437674e+01   3.5678751399e+01    0.2489105    0.2317805  52.23 0.0007733857    1.170    0.145
         6 -11.1210     74.8974     13.1371   6.6186482345e+01   6.3047493304e+01    0.4213255    0.2288035  61.64   0.00179098    2.839    0.648
         7 -12.3278     62.9661      2.2471   6.5106279629e+01   6.6391073123e+01    0.5938685    0.1749205  50.48  0.002338963    3.373    0.704
         8 -11.6237    154.7932     57.4509   6.1679503709e+01   3.8939747619e+01    0.4193278    0.3075271 -83.42  0.001014003    1.842    0.457
         9 -16.7778     71.0628    147.5401   1.0803620238e+02   3.5984461580e+01     13.51633     6.571199  74.42   0.01897835    5.007    0.800
        10 -18.0540     20.0402    242.1783   1.2780333664e+02   2.1792959441e+01     6.459678      4.17312  45.34   0.04785119    1.458    0.314
        11 -10.5557     96.4792    202.0502   1.0980751057e+02   1.9830574844e+01    0.4884244    0.3031792 -31.20  0.002182072    3.018    0.669
        12 -11.8840    194.2841    197.0110   8.8124503697e+01   3.7099734072e+00     1.157885     0.638352 -63.11  0.003823007    5.197    0.808
        13 -12.4358    203.3901    198.0860   8.6513520222e+01   1.9184689102e+00    0.5490022    0.4170064  -0.37   0.00309502    1.347    0.258
        14  -9.7020     55.9472    223.7731   1.2028081028e+02   2.1119431954e+01    0.1362328   0.09555764  67.05 0.0002831579    1.153    0.133
        15 -11.8799     49.1460    218.6439   1.2116426768e+02   2.2962658079e+01    0.3473823    0.1745487  67.43  0.001885718    1.907    0.476
        16 -10.2033     38.2839    199.0211   1.2172602699e+02   2.8250838767e+01    0.1751834    0.1227257  66.70 0.0002504287    1.190    0.159
        17 -19.0438      3.1802    107.8955   1.2125682738e+02   5.2135645638e+01     16.16238    0.7450229 -72.64   0.02745434   16.115    0.938
        18  -8.8860     70.5047    199.9812   1.1513095454e+02   2.4050027952e+01    0.3514683    0.1913648  69.96  0.001721009    2.056    0.514
        19  -9.2151     77.4696    226.5832   1.1640412996e+02   1.7737809381e+01    0.1226055   0.09499747  62.75 0.0001216474    1.040    0.038
        20 -10.9062    151.8828    195.4913   9.6737846054e+01   1.1709857630e+01    0.3736233    0.1262567  40.81  0.001348691    2.673    0.626
        21 -10.3713     81.8100    194.8067   1.1209705842e+02   2.3562263316e+01    0.2268399    0.1876755  83.73 0.0005305801    1.107    0.097
        22 -10.4916     58.1536    192.3783   1.1696858474e+02   2.7311760512e+01    0.2270398    0.1383182  55.74 0.0006022849    1.490    0.329
        23 -13.5085     63.5069    187.1806   1.1524054981e+02   2.7763250179e+01     0.777562    0.6586887 -54.12  0.003583454    1.409    0.290
        24  -8.9508     42.6051    193.7572   1.2039326786e+02   2.8887028228e+01    0.1047061   0.09347717 -30.24 0.0006931777    1.669    0.401
        25  -9.3455     38.4658    193.3182   1.2121428277e+02   2.9448144416e+01    0.1638725   0.09728682  89.14 0.0006499494    1.514    0.339
        26 -10.7303     95.5691    188.9468   1.0826789265e+02   2.2749716037e+01    0.4441343    0.2775548  78.17   0.00144493    2.013    0.503
        27  -9.4772     55.7927    217.0056   1.1975150716e+02   2.2469853346e+01    0.3098449    0.1333477  75.11  0.001312989    3.222    0.690
        28 -10.1602     42.7645    188.6117   1.1989536930e+02   2.9987475459e+01    0.2200658    0.1321239  39.32 0.0009968426    1.690    0.408
        29 -11.3197     98.9377    181.6404   1.0644491055e+02   2.3816643444e+01    0.4701698    0.2805744 -46.63   0.00151708    1.937    0.484
        30  -9.8383     37.9193    186.0593   1.2069564103e+02   3.1089181164e+01    0.1852509    0.1273377  69.16 0.0004730089    1.266    0.210
        31 -12.0659    140.9072    173.9009   9.5331658904e+01   1.8094015694e+01    0.6951959    0.4906072 -77.35  0.001906174    1.956    0.489
        32 -10.4265    188.1940    173.7921   8.4830820745e+01   8.9155131928e+00    0.3529065    0.2288028 -55.14  0.001606821    1.999    0.500
        33 -10.0828    189.3212    178.6533   8.5584683774e+01   7.8124359874e+00     0.285285    0.2274053 -81.34  0.001170059    1.987    0.497
        34 -11.7023    145.4021    181.1305   9.5639430195e+01   1.5745303848e+01    0.3110495    0.2952154  18.88 0.0008807087    1.084    0.078
        35  -9.9066    204.1689    174.9080   8.1789786471e+01   5.6500019645e+00     0.207463    0.1998829 -48.66  0.001027789    1.274    0.215
        36 -10.0653    196.2723    174.0591   8.3212123104e+01   7.3048857227e+00    0.3462845    0.2600213 -63.48  0.001691217    1.931    0.482
        37 -10.6191     55.6618    174.5844   1.1557993240e+02   3.1603945972e+01    0.3208483    0.1852403  55.43  0.001675145    1.685    0.407
        38 -11.1381     45.8098    172.7390   1.1764232633e+02   3.3199663284e+01    0.3884279    0.3026205  39.91  0.001762579    1.412    0.292
        39 -11.6767     65.8095    205.2844   1.1666521922e+02   2.3567178972e+01     0.701703    0.2479198 -51.25  0.001206857    3.867    0.741
        40 -10.1846    187.0768    165.8860   8.3411924627e+01   1.0608017009e+01    0.3576401     0.200911 -50.38  0.001391992    2.096    0.523
        41 -10.5500     59.0337    166.1063   1.1375400592e+02   3.3146882451e+01    0.3351087    0.2111038 -71.59  0.001788632    1.444    0.307
        42 -10.0584    230.3072    166.3065   7.4971971539e+01   2.2479865753e+00    0.1425094   0.09867117   2.80 0.0002908866    1.609    0.378
        43 -11.4866     56.7282    209.6255   1.1892428417e+02   2.3844384918e+01    0.4304415    0.2588695 -73.09   0.00183776    1.600    0.375
        44 -12.3568     93.5778    152.9508   1.0307895610e+02   3.1292951867e+01    0.6922384    0.5102779 -24.86  0.003331312    1.909    0.476
        45 -10.4921    188.3523    152.4851   8.0203739115e+01   1.2905990650e+01    0.3297046    0.2285698 -74.45  0.001325978    2.599    0.615
        46 -11.5503    133.8827    145.4492   9.1252910712e+01   2.5703383816e+01     1.304323    0.3470505 -55.18  0.003027148    5.953    0.832
        47  -9.7385    139.0289    150.5110   9.1076468844e+01   2.3538908239e+01    0.2277107    0.1476211  44.19 0.0005373417    1.519    0.342
        48 -13.5592     53.7366    199.8555   1.1863699521e+02   2.6256688362e+01     0.410073    0.3597294 -69.40   0.00141211    1.324    0.245
        49 -10.8856    174.3954    148.4582   8.2323343080e+01   1.6631695559e+01    0.3704498    0.2966772 -59.97  0.001146402    1.462    0.316
        50  -9.7822    109.1522    147.5097   9.8009540758e+01   2.9924140000e+01      0.23333    0.1932288 -75.24 0.0003340674    1.255    0.203
        51 -10.8233    143.7805    146.2525   8.8981369655e+01   2.3518676617e+01    0.3829535    0.2132457 -62.48  0.001419895    2.464    0.594
        52  -9.7258     28.1871    214.8139   1.2483165285e+02   2.6107196949e+01    0.2085779    0.1475027  43.15 0.0006874682    1.460    0.315
        53 -11.3535    105.9369    138.4344   9.6998095654e+01   3.2647812223e+01     0.557096    0.3428849 -33.01  0.002307704    2.137    0.532
        54 -12.4837     93.6316    138.5605   1.0034933271e+02   3.4733691550e+01    0.2752577    0.2582609 -39.21  0.000462661    1.149    0.129
        55 -11.4940    135.7347    127.5706   8.6639405824e+01   2.9369514793e+01    0.9726786    0.2035418 -49.20  0.002286257    5.243    0.809
        56 -11.0796    105.8810    130.7033   9.5340714785e+01   3.4498920154e+01    0.3888899    0.3206497 -65.15  0.001307376    1.216    0.177
        57 -10.8545    113.8057    129.5730   9.2921479352e+01   3.3297945652e+01    0.3659436    0.3128836   9.65  0.000781499    1.386    0.279
        58 -11.8141    119.7246    124.0426   9.0009331960e+01   3.3444773242e+01    0.7991014    0.4323717 -31.87  0.002893592    2.537    0.606
        59 -10.2015    160.8068    127.6969   8.0481538589e+01   2.3904417803e+01    0.3338791    0.2215389 -53.55   0.00136286    1.653    0.395
        60 -11.1853    101.2622    125.5295   9.5461050978e+01   3.6560765788e+01    0.2903601    0.2420488 -20.22 0.0006135341    1.421    0.296
        61 -10.2659    109.3399    118.7191   9.1580622507e+01   3.6696706700e+01     0.255227    0.2440879 -20.86 0.0002827304    1.090    0.082
        62 -10.1367    167.7051    112.5494   7.4968742279e+01   2.5496930828e+01    0.4066344    0.2782615 -74.30  0.001286342    2.325    0.570
        63 -10.6736    134.6274    105.9338   8.1305638907e+01   3.4424325947e+01    0.6864907    0.1460076 -45.27  0.001672159    4.679    0.786
        64 -11.9720    118.3560    110.0897   8.6852746544e+01   3.6931545092e+01    0.6406761    0.4893919  64.35  0.002509819    1.574    0.365
        65 -10.3253    205.3850    110.1021   6.6495627232e+01   1.7245777339e+01    0.3229772    0.2288728  43.37  0.001008741    1.483    0.326
        66  -9.9798     64.1909     99.9500   1.0071949127e+02   4.8479218934e+01    0.2311865    0.2139404  20.88 0.0009483763    1.211    0.175
        67 -11.8722     51.8868     90.5197   1.0257393524e+02   5.2227494429e+01    0.3149819    0.2564099  29.90  0.001838543    1.406    0.289
        68 -11.7885     35.1799    228.8921   1.2446734380e+02   2.2603092531e+01    0.1974711    0.1264493  57.52  0.001348552    1.229    0.186
        69  -8.8315     42.3780    209.6782   1.2176514318e+02   2.5568245323e+01    0.3881265    0.1835999 -86.68  0.002021568    2.118    0.528
        70  -9.7484    156.0174     81.6568   6.8922479239e+01   3.4402290922e+01    0.2241564    0.2019523  46.82 0.0005263728    1.113    0.102
        71  -9.7300    184.1544     77.1176   6.1646873369e+01   2.8262177503e+01    0.2369276    0.2118434  14.65 0.0007626323    1.245    0.197
        72  -9.8408     65.0140     70.1273   9.2334664922e+01   5.5127752571e+01    0.2057743     0.187926 -25.04 0.0004696414    1.055    0.052
        73 -11.1581    248.6441    248.5823   8.6994085028e+01  -1.1705289662e+01    0.2430253    0.1653004  10.20  0.001693862    1.132    0.116
        74 -10.8549     28.7576    209.7653   1.2438915310e+02   2.7061399236e+01    0.1517388    0.1143373  70.40 0.0004109954    1.047    0.045
        75 -10.2827     70.2365    247.9833   1.1958015052e+02   1.4824745014e+01      0.15301    0.1150667  72.32 0.0004794351    1.138    0.121
        76 -10.8149    158.1007    236.2560   1.0173276586e+02   3.5740968621e+00    0.2447192    0.1734556 -49.52  0.001484367    1.737    0.424
        77 -10.0214     23.3369     47.3167   1.0184762347e+02   6.4446974391e+01    0.1332585   0.07322259 -30.63 0.0007048264    1.699    0.411
        78 -12.1282     30.2682     25.6788   9.0707553813e+01   6.7864504070e+01    0.3199463    0.1706282 -26.07   0.00172166    1.747    0.428
        79 -10.3488     50.1916    224.3542   1.2140902726e+02   2.1717629499e+01    0.2068867    0.1103074  79.94 0.0008027584    1.871    0.466
        80  -9.4581    168.7950    235.0531   9.9487012652e+01   2.0159399507e+00    0.1605878    0.1442646  22.38  0.000414297    1.115    0.103
        81 -10.8985     42.4931     14.5037   7.9789959668e+01   6.8145189059e+01    0.1243388   0.09759311  -6.33 0.0008106282    1.010    0.009
        82 -11.5212     59.9972    232.0456   1.2018446509e+02   1.9029696380e+01    0.1770201    0.1304386  69.40 0.0003389029    1.086    0.079
