#   1 NUMBER                 Running object number                                     
#   2 MAG_AUTO               Kron-like elliptical aperture magnitude                    [mag]
#   3 X_IMAGE                Object position along x                                    [pixel]
#   4 Y_IMAGE                Object position along y                                    [pixel]
#   5 X_WORLD                Barycenter position along world x axis                     [deg]
#   6 Y_WORLD                Barycenter position along world y axis                     [deg]
#   7 A_WORLD                Profile RMS along major axis (world units)                 [deg]
#   8 B_WORLD                Profile RMS along minor axis (world units)                 [deg]
#   9 THETA_WORLD            Position angle (CCW/world-x)                               [deg]
#  10 FWHM_WORLD             FWHM assuming a gaussian core                              [deg]
#  11 ELONGATION             A_IMAGE/B_IMAGE                                           
#  12 ELLIPTICITY            1 - B_IMAGE/A_IMAGE                                       
         1 -12.8933     67.7111    144.0204   1.3206823252e+02   3.7392224618e+01     2.956479     1.337232 -86.42  0.004041877    5.833    0.829
         2 -12.1855    206.2731      2.2063   6.3225462545e+01   3.2501756765e+01     1.245944    0.6808659  72.37  0.003030896    1.708    0.415
         3 -13.1612    183.9549     24.9886   7.2464026373e+01   3.5797994517e+01     1.703818     1.154266 -11.89  0.005874895    1.691    0.409
         4 -13.1274    191.3715     17.7820   6.9299992541e+01   3.4701041769e+01     1.757161     1.028538 -30.63  0.006645254    1.726    0.421
         5 -12.2300    197.9337     10.0431   6.6276908380e+01   3.3833850036e+01    0.6501793    0.6375755 -69.49  0.001220492    1.067    0.062
         6 -10.9099     41.6672      6.1268   1.0169208196e+02   6.8256554683e+01    0.4249468    0.1757715 -21.36  0.001857991    2.866    0.651
         7  -8.2207    181.6032    192.2222   1.1526880296e+02   8.8183181330e+00     0.164847    0.1230309 -21.83 0.0003943181    1.536    0.349
         8 -10.0126    248.4540    249.5484   1.1287424789e+02  -9.1060803790e+00    0.3447129    0.1324854  33.15  0.001867026    2.046    0.511
         9  -9.8305    163.0518    249.9737   1.2718586298e+02   3.5976190747e+00    0.3882813    0.1131241  50.57   0.00141998    4.304    0.768
        10 -10.7735    139.3711    248.5013   1.3106951352e+02   7.4047492061e+00    0.3031439    0.2351791 -66.68  0.002202803    1.656    0.396
        11 -10.6825    110.8183    247.8490   1.3586171743e+02   1.1695545079e+01    0.3059575    0.1489205  42.54  0.001452632    1.645    0.392
        12 -11.9694     99.9329    247.2067   1.3763262165e+02   1.3322510308e+01    0.4939633    0.4331878  49.97  0.002566416    1.251    0.200
        13 -10.6897    105.8379    245.8821   1.3651651452e+02   1.2697409917e+01    0.2768805    0.1942431  63.24 0.0006410497    1.257    0.204
        14 -15.5038     58.0330    214.6220   1.4205745175e+02   2.4264751068e+01     6.384997     3.175446  56.58   0.03809068    1.732    0.423
        15  -9.8153    125.8427    174.1226   1.2359275561e+02   2.2093029419e+01    0.3556705    0.2376054  41.28  0.001880711    1.419    0.295
        16 -12.6145     75.8538    171.4807   1.3405612977e+02   3.0399604820e+01    0.4423952    0.2696626 -42.59  0.001495338    2.206    0.547
        17 -12.1794     92.2846    166.1354   1.2970073669e+02   2.9166401341e+01     2.613616    0.6597984  49.78  0.001527275    5.243    0.809
        18  -9.1904    229.2284    206.4082   1.0901733728e+02  -1.4895195390e+00    0.2162489    0.1870534 -42.59 0.0006485713    1.617    0.382
        19  -9.7460    133.8497    172.9972   1.2167888792e+02   2.0906686330e+01    0.2606399    0.1889482  43.55  0.001413068    1.287    0.223
        20  -9.6121    139.0822    171.6794   1.2032470046e+02   2.0220429849e+01    0.2387026    0.1923451 -66.07  0.001338435    1.392    0.282
        21 -14.6033     15.9918    245.2136   1.5079973301e+02   2.3623442615e+01     1.850185    0.7826175 -67.09   0.01238326    2.526    0.604
        22  -9.3406     39.6571    161.9436   1.4077171027e+02   3.6761173415e+01    0.2455597    0.1819569  87.23  0.001344756    1.151    0.131
        23  -9.0061     51.7564    157.3390   1.3759433398e+02   3.6422526529e+01    0.2137725    0.1611892  72.20  0.001126865    1.245    0.197
        24  -8.3860     49.4770    151.4575   1.3739067175e+02   3.7953568323e+01    0.1214327    0.1030482 -84.50 0.0001021023    1.028    0.027
        25  -9.4831    104.8199    148.9492   1.2399116482e+02   3.0839924971e+01    0.3117212    0.2763964 -28.56 0.0009450591    1.331    0.248
        26  -8.6959    107.0171    145.2564   1.2278966179e+02   3.1267513698e+01    0.2766496    0.1745125 -30.21  0.001229338    2.317    0.568
        27 -11.4683     93.7472    148.8146   1.2659638620e+02   3.2638741615e+01    0.2604587    0.2539898  -0.29 0.0005882721    1.208    0.172
        28  -9.2758    133.7661    143.7019   1.1615531136e+02   2.6793169834e+01    0.4364029    0.1281218 -51.79   0.00133435    3.859    0.741
        29 -10.7504     57.0075    145.3860   1.3483236806e+02   3.8416819010e+01    0.4092668     0.284473  47.00   0.00244745    1.489    0.328
        30  -9.3457    113.8684    135.3034   1.1917085709e+02   3.2229801167e+01    0.3035822    0.2186571 -33.34  0.001020157    1.624    0.384
        31 -10.1264    101.5857    132.2899   1.2160628452e+02   3.4994566037e+01    0.3013488    0.2326453 -30.23 0.0009729896    1.552    0.356
        32 -10.5574     45.0615    129.3241   1.3548059861e+02   4.3327353573e+01    0.2926194    0.1415973 -53.34  0.001469598    1.902    0.474
        33  -8.6520    244.2949    128.3183   9.0383469088e+01   6.7107973297e+00    0.1421662    0.0996271   6.55   0.00029283    1.608    0.378
        34  -8.8899    161.1280    128.1174   1.0639003853e+02   2.4391866820e+01     0.304344    0.2158252  80.83  0.001279951    2.270    0.559
        35 -10.6222     87.8234    174.2840   1.3184250524e+02   2.8136083725e+01    0.2337356    0.2243714  84.96 0.0003647768    1.161    0.138
        36  -9.8804     41.4685    125.6843   1.3586697064e+02   4.4512813861e+01    0.2303382    0.1612362  88.73  0.001253905    1.435    0.303
        37  -8.9801    109.7971    122.8312   1.1751904126e+02   3.5654509607e+01    0.2011735     0.186702 -23.41 0.0004266904    1.160    0.138
        38 -10.0714    168.2296    112.9744   1.0105638229e+02   2.5754547764e+01    0.3639306    0.3084257 -76.09 0.0009075976    1.477    0.323
        39  -8.8579    204.9182    110.7100   9.3004972750e+01   1.7861148438e+01    0.3989758    0.1522175  38.56  0.001278283    3.285    0.696
        40  -8.2140    135.0000    120.0492   1.1055938797e+02   3.1460222194e+01    0.2434377   0.08365086 -45.27 0.0006672494    2.889    0.654
        41  -9.2535     33.0000    109.9453   1.3573983241e+02   4.8851817306e+01    0.2108047   0.05841128 -65.56 0.0008052182    2.962    0.662
        42 -10.7968    164.1206    225.2497   1.2377538435e+02   6.8146170917e+00    0.3421021    0.1940838  51.03  0.001880922    1.683    0.406
        43  -8.1682     59.5665     97.4922   1.2578588502e+02   4.8859166057e+01    0.1321234    0.1143328 -58.26 6.788282e-05    1.021    0.021
        44  -8.5872    234.6472     86.3170   8.1777043820e+01   1.5066653854e+01    0.1477181    0.1074079 -63.49 0.0007046702    1.740    0.425
        45 -10.3366    193.2512    195.0246   1.1353216175e+02   6.2829754648e+00    0.7809772    0.4332527 -64.05   0.00256143    5.971    0.833
        46 -11.1078     75.8996    192.6266   1.3657524292e+02   2.6126006903e+01    0.3722065     0.238372 -47.97   0.00181952    1.996    0.499
        47 -11.0613     80.0780    185.9589   1.3496492633e+02   2.6871229669e+01    0.2890385     0.218747 -54.04 0.0008027094    1.505    0.335
        48 -17.2482      2.6573    129.0827   1.4582006499e+02   4.6961771068e+01     16.65261       0.5232 -73.32   0.03183547   15.205    0.934
        49 -10.2722     32.6446     31.9779   1.1676667556e+02   6.5226983444e+01    0.2949491   0.09448534 -48.12   0.00127222    2.601    0.615
        50  -9.7231    184.1099    214.8195   1.1855216191e+02   4.9741226019e+00    0.3679472    0.1322601 -48.64  0.001475207    3.964    0.748
