#   1 NUMBER                 Running object number                                     
#   2 MAG_AUTO               Kron-like elliptical aperture magnitude                    [mag]
#   3 X_IMAGE                Object position along x                                    [pixel]
#   4 Y_IMAGE                Object position along y                                    [pixel]
#   5 X_WORLD                Barycenter position along world x axis                     [deg]
#   6 Y_WORLD                Barycenter position along world y axis                     [deg]
#   7 A_WORLD                Profile RMS along major axis (world units)                 [deg]
#   8 B_WORLD                Profile RMS along minor axis (world units)                 [deg]
#   9 THETA_WORLD            Position angle (CCW/world-x)                               [deg]
#  10 FWHM_WORLD             FWHM assuming a gaussian core                              [deg]
#  11 ELONGATION             A_IMAGE/B_IMAGE                                           
#  12 ELLIPTICITY            1 - B_IMAGE/A_IMAGE                                       
         1 -13.9505    187.2048     21.0797   7.1945134276e+01   3.5453120201e+01     2.389773     1.238309  -8.78  0.007474142    2.337    0.572
         2 -14.3123    194.2623     16.0135   6.9358047440e+01   3.4130962811e+01     2.036974     1.714144  43.66  0.007209712    1.213    0.175
         3 -13.8207    199.7884      8.5585   6.6309362130e+01   3.3418311763e+01     1.642991    0.7703694  50.21   0.00160064    2.146    0.534
         4 -12.5724     31.2762      5.7163   1.0741972416e+02   7.0759510732e+01    0.5982101    0.4016578 -56.96  0.003610162    1.742    0.426
         5 -11.2676     94.5527    240.9672   1.3395129625e+02   1.8497031969e+01    0.1948604    0.1274543 -78.84  0.001183703    1.799    0.444
         6 -11.2557    162.9140    249.3381   1.2443321117e+02   8.2498096992e+00    0.2543495    0.1309537  48.62  0.001629551    1.447    0.309
         7 -12.4331    139.5846    248.1450   1.2777366630e+02   1.1628728505e+01    0.4637215    0.3039187  73.48  0.003466955    1.929    0.482
         8 -12.5750    126.7377    244.6021   1.2938286369e+02   1.3798275450e+01     0.378489    0.2023633  43.69  0.002699288    1.395    0.283
         9 -12.3351    108.0284    249.2067   1.3254585833e+02   1.5726490189e+01    0.4392225    0.2040846  52.63  0.003042725    1.570    0.363
        10 -11.6298     98.8680    250.2683   1.3397320650e+02   1.6767033027e+01    0.5176432    0.2122292  56.89  0.002419651    2.045    0.511
        11 -11.1591    102.0044    247.0185   1.3327619323e+02   1.6772684276e+01    0.2721019    0.1331308  58.80  0.001019893    1.715    0.417
        12 -10.1461     74.3356    250.2164   1.3755022078e+02   1.9767769246e+01    0.2213988    0.1927902   2.40  0.001651268    2.393    0.582
        13 -12.0765     83.2192    244.3027   1.3587979457e+02   1.9472795695e+01    0.5474812    0.2392929  69.69  0.003266997    2.800    0.643
        14 -11.2604     81.4691    248.4688   1.3640515635e+02   1.9143624551e+01    0.3748251    0.1730108  61.33  0.001837196    1.828    0.453
        15 -10.8366     76.9849    244.8380   1.3683757915e+02   2.0155972531e+01    0.2159697    0.1134014  51.27 0.0008690135    1.317    0.241
        16 -10.4019     60.3915    246.7600   1.3937656998e+02   2.1828659362e+01    0.2092132     0.073029 -65.90  0.001348341    3.340    0.701
        17 -11.7228     66.8015    243.4337   1.3825577899e+02   2.1542120513e+01     0.365873     0.169603  50.18 0.0007052863    1.485    0.327
        18 -11.0222     67.1865    250.0293   1.3857247097e+02   2.0623394517e+01    0.2258862    0.1724913  65.27  0.001115797    1.190    0.159
        19 -10.2367     63.5049    250.5788   1.3913169017e+02   2.0971895637e+01    0.2103392   0.08272946  41.93 0.0008856026    2.022    0.505
        20 -13.5837     32.8017    246.2998   1.4329956042e+02   2.4844123441e+01     1.288253    0.3671251  43.13  0.008197319    2.421    0.587
        21 -16.4416     11.9582    236.7374   1.4589780945e+02   2.8198763605e+01     15.19817     1.507311 -79.50   0.04293072   10.639    0.906
        22 -13.8208     10.3053    206.9570   1.4509407063e+02   3.2834995746e+01    0.7801596    0.4843888  50.28  0.002563263    1.362    0.266
        23 -11.7079    173.7913    222.0145   1.1977791083e+02   9.6167436505e+00    0.3959122    0.1212997  44.59  0.001923686    2.461    0.594
        24 -12.0246    162.2057    226.4555   1.2211663358e+02   1.0861280740e+01    0.4022252    0.1643807  45.51  0.002302057    1.830    0.453
        25  -9.0842    152.6787    212.9826   1.2208498025e+02   1.3952605100e+01    0.1397491    0.1185609  52.48 0.0003498013    1.111    0.100
        26  -9.6317    229.7186    230.1683   1.1238593769e+02   4.1726194434e-01      0.13042    0.1221799  27.05 0.0006248787    1.470    0.320
        27 -10.0892     41.4291    206.4882   1.4005993252e+02   2.9835656851e+01    0.1860686    0.1200103  67.71 0.0007696912    1.132    0.117
        28 -11.8139     35.1249    206.3719   1.4108585267e+02   3.0519406103e+01    0.5613212    0.1376155  50.05  0.003025369    2.722    0.633
        29 -10.9797    193.0653    195.2340   1.1307057600e+02   9.6478326069e+00    0.6188594    0.3262428 -61.71  0.002305191    6.503    0.846
        30  -8.4754     59.6504    199.2722   1.3652276985e+02   2.8952824129e+01    0.1100637   0.05671108  63.07  0.000302195    1.629    0.386
        31 -11.8574     73.5558    195.7874   1.3383024882e+02   2.7824421949e+01    0.2963554    0.2284501 -56.25  0.001974087    1.757    0.431
        32 -11.8770     77.9696    188.7224   1.3241765204e+02   2.8431296843e+01    0.2377303    0.2098564 -56.76 0.0007819622    1.573    0.364
        33  -9.0323    112.8310    193.4075   1.2663343004e+02   2.2802480022e+01    0.1585014   0.09361411  36.10  0.000940241    1.797    0.444
        34  -9.6990    119.7636    188.5296   1.2482528258e+02   2.2521938352e+01    0.2469975    0.1483969  30.47  0.001025443    2.143    0.533
        35  -9.5964    125.5173    186.3874   1.2352209750e+02   2.1966565018e+01    0.3939027    0.1485444  35.83  0.001651217    3.317    0.698
        36 -11.1881     85.9566    176.6149   1.2972881545e+02   2.9438034570e+01    0.2022974    0.1708551  72.49 0.0003835723    1.082    0.076
        37 -13.3681     73.9525    174.1602   1.3176199314e+02   3.1477378092e+01    0.3625492    0.2498534 -45.19  0.001564722    2.189    0.543
        38 -13.5646     43.4569    129.0081   1.3333989298e+02   4.3873289329e+01    0.8834975    0.4196972 -89.43  0.004438765    2.343    0.573
        39 -13.3970     57.6519    131.0194   1.3030412779e+02   4.1840535386e+01     1.688601    0.5535497 -77.22  0.005596729    5.153    0.806
        40 -13.2017     89.9782    166.7928   1.2783835198e+02   3.0618836839e+01     2.917797    0.4941228  49.00  0.002426602    5.891    0.830
        41 -13.3947     67.7710    144.8558   1.2977421024e+02   3.7790777838e+01     1.137629    0.6036755 -87.31  0.005924217    2.181    0.542
        42 -10.4487    138.1268    172.1088   1.1925927447e+02   2.2179094239e+01    0.1839639    0.1608352  35.03  0.001251762    1.228    0.186
        43 -12.5820     47.6262    150.0256   1.3463897654e+02   3.9195190272e+01    0.6378016    0.2749502 -84.11  0.003203834    2.513    0.602
        44 -10.2811    103.5019    151.1504   1.2302499919e+02   3.1471861931e+01    0.2521298    0.2217323 -69.50 0.0007956424    1.209    0.173
        45  -9.3263    105.8408    147.0258   1.2191832646e+02   3.1874629176e+01    0.2663243    0.1872213 -27.53  0.001396165    2.452    0.592
        46 -12.2369     92.4963    150.6201   1.2525045424e+02   3.3246291930e+01    0.2301617    0.2209924  55.75 0.0004542008    1.275    0.216
        47  -9.9747    134.3140    147.3510   1.1607353765e+02   2.7001773862e+01    0.4670671    0.1181399 -52.23  0.001531822    4.703    0.787
        48 -12.3552     55.4886    144.8781   1.3243131228e+02   3.9303349783e+01    0.4858047    0.2640036  58.19  0.002842652    1.718    0.418
        49  -8.7506    192.0336    144.2400   1.0442749939e+02   1.6548432474e+01    0.1631178    0.1010317  45.48 0.0002800332    1.465    0.317
        50 -10.1565    113.0351    136.4767   1.1866522333e+02   3.2694372078e+01    0.2796476    0.2378441  -6.68 0.0009915553    1.720    0.419
        51 -10.7482    100.6894    133.8187   1.2092955247e+02   3.5234546337e+01    0.2250187    0.2122614 -33.00 0.0008093974    1.349    0.259
        52 -11.6336     33.1240    127.3841   1.3555612089e+02   4.5269403697e+01    0.2682339     0.134907 -71.15  0.001569556    1.676    0.403
        53 -13.4339     51.7370    230.6205   1.3979004986e+02   2.5038249105e+01    0.6657225    0.3197291  86.54  0.001416106    2.155    0.536
        54  -9.7146    109.0843    123.7611   1.1725816829e+02   3.5834685262e+01    0.1984279    0.1759825 -70.62 0.0003641839    1.106    0.096
        55 -11.0453    168.2837    113.4896   1.0229243645e+02   2.6239207422e+01    0.3859734    0.3030001 -81.07  0.001362921    1.701    0.412
        56 -11.6848     50.3254    130.0512   1.3187401250e+02   4.2898424380e+01    0.4068609    0.2282397  66.44  0.001347916    1.820    0.450
        57 -10.3339     44.1289    172.5832   1.3730360886e+02   3.5331611846e+01    0.2214445     0.127123  51.12  0.001497621    1.472    0.320
        58  -8.9401    204.9344    110.3732   9.4731499568e+01   1.8798331568e+01    0.2464387   0.08789928  35.67 0.0007031978    4.536    0.780
        59 -15.4905     59.3920    216.6379   1.3776178879e+02   2.6242391857e+01     6.070635          nan  44.61   0.01664145    5.560    0.820
        60  -9.5275    249.6793    249.6811   1.1213712615e+02  -3.8400540219e+00    0.1015372    0.0522036  23.25  0.000704308    1.666    0.400
        61 -10.7046     38.0158    231.6518   1.4190827826e+02   2.6366026737e+01     0.178286    0.1080289  56.89 0.0006637852    1.144    0.126
        62 -11.1848    145.1254    244.6871   1.2662707294e+02   1.1249408255e+01    0.1536197    0.1233423  70.32  0.000663091    1.381    0.276
