#   1 NUMBER                 Running object number                                     
#   2 MAG_AUTO               Kron-like elliptical aperture magnitude                    [mag]
#   3 X_IMAGE                Object position along x                                    [pixel]
#   4 Y_IMAGE                Object position along y                                    [pixel]
#   5 X_WORLD                Barycenter position along world x axis                     [deg]
#   6 Y_WORLD                Barycenter position along world y axis                     [deg]
#   7 A_WORLD                Profile RMS along major axis (world units)                 [deg]
#   8 B_WORLD                Profile RMS along minor axis (world units)                 [deg]
#   9 THETA_WORLD            Position angle (CCW/world-x)                               [deg]
#  10 FWHM_WORLD             FWHM assuming a gaussian core                              [deg]
#  11 ELONGATION             A_IMAGE/B_IMAGE                                           
#  12 ELLIPTICITY            1 - B_IMAGE/A_IMAGE                                       
         1 -13.5181    166.8924     56.7731   6.6007856749e+01   3.5880439079e+01     2.374629     1.399783  20.44   0.00743288    2.564    0.610
         2 -11.4318    189.8396     14.7487   4.8743026534e+01   3.5242886393e+01    0.3655408    0.3452168  67.56  0.001244853    1.100    0.091
         3 -13.8009    201.9976      9.7314   4.5957368560e+01   3.2633519524e+01     1.125994     1.028125  -1.80  0.003807407    1.145    0.126
         4 -12.7360    229.5976      3.5379   4.2028375454e+01   2.6552288972e+01      1.48631    0.4096383  75.46  0.005304195    3.892    0.743
         5 -10.5054     19.9415    214.3531   1.2818560076e+02   2.9090898347e+01     0.173659   0.08177811  57.48  0.001152331    1.573    0.364
         6 -13.1923    248.0412    245.1236   9.1774106113e+01  -2.7939001976e+00    0.9535626    0.6923115  -0.30  0.008329264    1.300    0.231
         7 -19.4460     41.6123    153.2925   1.2002108701e+02   3.8589521644e+01     17.28913     4.863256 -76.85   0.06582184    3.852    0.740
         8 -12.1800    151.1585    195.9071   1.0109127034e+02   1.5736864044e+01    0.3966847    0.3198934  27.56  0.002722663    1.083    0.077
         9 -11.8467     69.5488    194.9537   1.1739423407e+02   2.7255729503e+01    0.4122692    0.2467255 -46.25  0.001872249    2.401    0.584
        10 -11.2961     66.4853    195.4408   1.1806253461e+02   2.7534322904e+01    0.2481952    0.1604931  61.26 0.0008450861    1.365    0.267
        11 -10.3276     82.0358    195.4321   1.1487541057e+02   2.5626690225e+01    0.2892692    0.2675243   7.76   0.00217381    1.411    0.291
        12  99.0000     62.4440    192.4724   1.1865301666e+02   2.8541384514e+01    0.2810166    0.1923221  26.47  0.001255262    1.654    0.395
        13  -8.5055    164.6835    187.3042   9.7234911861e+01   1.4885547058e+01    0.1142931   0.09074102  60.77 0.0003967156    1.624    0.384
        14  -9.4826    238.3451    185.3079   8.4108774964e+01   3.8268978926e+00     0.122695   0.06995799  12.36 0.0003438593    1.698    0.411
        15 -10.7099    153.2178    184.0625   9.8960843342e+01   1.7180368648e+01    0.2371729    0.1700257 -55.79  0.001426081    1.809    0.447
        16 -10.1727    189.2036    178.3356   9.1187407856e+01   1.2204176647e+01    0.3405637    0.2966376  79.42  0.001308375    1.866    0.464
        17  -9.9473    188.0988    173.8426   9.0608823180e+01   1.2993952933e+01    0.2189706    0.2026754 -72.96  0.001244711    1.614    0.381
        18 -10.5515      1.0508    177.4414   1.3055343214e+02   3.7293785323e+01   0.09558487   0.03659187 -80.65 0.0003934781    2.335    0.572
        19  -8.9951    195.4181    172.7505   8.9082035845e+01   1.1938022867e+01    0.1671661       0.1096 -16.90 0.0009502703    1.641    0.391
        20 -12.3323     72.1553    210.5089   1.1813172978e+02   2.4277310757e+01    0.3591217    0.2038535  28.08  0.001032567    1.887    0.470
        21  -9.3922    186.7548    165.1653   8.9295199630e+01   1.4431444263e+01    0.2081548    0.1531591 -33.88 0.0007900173    1.478    0.323
        22 -11.1521     96.6411    157.0108   1.0714288425e+02   3.0819060805e+01    0.2424115    0.2304445  87.07 0.0003721171    1.100    0.091
        23 -12.2293    101.1772    150.8559   1.0514129774e+02   3.1365050558e+01    0.5574477    0.4336419 -24.53  0.001557426    1.741    0.426
        24 -10.9583    133.9594    145.8375   9.6587477575e+01   2.6897754199e+01     1.076853    0.2941396 -54.49  0.002975186    6.034    0.834
        25  -8.6601    191.6405    151.3327   8.5722820411e+01   1.5569045103e+01    0.1229196    0.1070992  87.21 0.0007040869    1.802    0.445
        26  -9.6890    174.6822    149.0677   8.8533807298e+01   1.8974964639e+01    0.2288426     0.175735  46.96 0.0007315708    1.347    0.258
        27 -10.3021    143.5750    146.7196   9.4599577160e+01   2.5024624631e+01    0.3896527    0.1703779 -53.20  0.001557582    2.881    0.653
        28 -11.5293     15.7936    206.4062   1.2865883166e+02   3.0809736311e+01    0.1638027    0.1391921  45.28  0.001004547    1.328    0.247
        29  -9.0495    101.3399    143.2662   1.0388029526e+02   3.2886649150e+01    0.1265416    0.1046308  -1.12 0.0003360306    1.597    0.374
        30 -11.2053     11.3458    205.4822   1.2945506430e+02   3.1354425503e+01    0.2659214    0.1595236  50.08  0.001225383    1.239    0.193
        31 -10.4878    113.4758    151.5341   1.0233083655e+02   2.9281757501e+01    0.3616077    0.2146706  77.10  0.001459224    3.242    0.692
        32 -11.4544    111.2587    137.3224   1.0038856706e+02   3.2490106132e+01    0.4593709    0.3399485 -29.22  0.002412454    1.712    0.416
        33  -9.1594    158.9721    146.0038   9.1137619786e+01   2.2352836398e+01    0.2057185    0.1670437  79.69 0.0007091194    1.759    0.431
        34 -11.8348    100.1329    136.5016   1.0302780614e+02   3.4488003087e+01    0.2576433    0.2403805  37.58 0.0004538967    1.112    0.101
        35 -11.1385    105.9708    130.8452   1.0050875063e+02   3.4722613851e+01    0.3624218    0.3048001 -76.12  0.001194881    1.266    0.210
        36 -10.2202    135.7468    128.5813   9.2717975444e+01   2.9854542418e+01    0.3649386    0.1198566 -51.12  0.001193152    3.636    0.725
        37 -10.2219    117.0621    128.5774   9.7257848751e+01   3.3280050251e+01    0.2636955    0.2309614  -1.34   0.00074104    1.344    0.256
        38 -10.3969    105.2643    124.2080   9.9398591126e+01   3.6249777924e+01     0.267965    0.2222572 -32.35 0.0008682841    1.382    0.276
        39  -8.9476    121.2864    123.3264   9.5106701031e+01   3.3593712551e+01    0.1394403    0.1113987  -8.90 0.0004785797    1.608    0.378
        40 -10.2983    160.6546    127.9538   8.6969356536e+01   2.5156284505e+01    0.3146177    0.2494459 -41.30  0.001624641    1.324    0.245
        41  -9.5827    111.9331    117.9774   9.6350012156e+01   3.6407774028e+01     0.209698     0.201729  46.73 0.0003826085    1.036    0.034
        42  -9.9683    231.2821    113.6741   7.0717257989e+01   1.3442003769e+01    0.2451005    0.1962844   8.89 0.0007312137    1.146    0.127
        43  -9.9987    167.9176    113.0140   8.1915044546e+01   2.6288508270e+01    0.3143376    0.2602277  88.77    0.0013597    1.696    0.411
        44 -10.3048    134.4997    104.4966   8.7386479592e+01   3.4829820570e+01    0.5277208    0.1430127 -44.76  0.001575011    3.720    0.731
        45 -10.8839    119.1835    110.2615   9.2701305161e+01   3.6688977506e+01    0.5338299    0.2635269  52.36  0.002111825    2.308    0.567
        46  -9.7881    205.6126    110.1203   7.4018069250e+01   1.8938895034e+01    0.2581742    0.1934123  33.41 0.0006710264    1.322    0.243
        47 -11.0388    193.2850    195.3880   9.3259299303e+01   9.3738816646e+00    0.6867319    0.3798026 -57.31  0.002845884    5.199    0.808
        48 -10.0412     76.3346    205.6819   1.1692997459e+02   2.4579764572e+01    0.1961545    0.1343172  82.15 0.0006418793    1.571    0.364
        49  -9.0387    127.6066     95.1986   8.6682519046e+01   3.8114310376e+01    0.2115057    0.1391901 -32.68 0.0007518305    1.639    0.390
        50  -9.2901    151.1899     81.7884   7.7116530381e+01   3.5503390647e+01    0.2125383    0.1768597  12.44  0.000595974    1.327    0.246
        51 -10.2746     78.5337     75.0466   9.5610299572e+01   5.1795588427e+01    0.2456886     0.194143  58.90 0.0003106395    1.436    0.304
        52  -9.3609    167.7723    229.1144   1.0239118805e+02   8.9950112255e+00    0.1484694    0.1206271  36.98 0.0004461854    1.197    0.164
        53 -13.1098    180.7612     41.5082   5.8657611736e+01   3.4521306174e+01    0.8690515     0.824367 -76.18  0.002593226    1.126    0.112
        54 -12.6871    185.6531     34.5592   5.5686906200e+01   3.4144075253e+01    0.6515528     0.512376  39.74  0.001494984    1.349    0.259
        55  -9.5056     13.6254     59.9961   1.1748616241e+02   6.2885438381e+01     0.185439    0.1588406  76.70 0.0004907618    1.228    0.186
        56 -11.1317      6.1799    224.9803   1.3094007191e+02   2.8555579548e+01    0.1421344    0.0992424  22.57  0.001130872    1.868    0.465
        57 -12.0493    198.2721     22.9570   5.0424418791e+01   3.2257571138e+01    0.4613262    0.3308029 -13.82  0.001755242    1.402    0.287
        58  -9.3201     73.4952    218.5228   1.1847988224e+02   2.2821440463e+01    0.1244344   0.09821877 -60.05  0.000668683    1.628    0.386
