#   1 NUMBER                 Running object number                                     
#   2 MAG_AUTO               Kron-like elliptical aperture magnitude                    [mag]
#   3 X_IMAGE                Object position along x                                    [pixel]
#   4 Y_IMAGE                Object position along y                                    [pixel]
#   5 X_WORLD                Barycenter position along world x axis                     [deg]
#   6 Y_WORLD                Barycenter position along world y axis                     [deg]
#   7 A_WORLD                Profile RMS along major axis (world units)                 [deg]
#   8 B_WORLD                Profile RMS along minor axis (world units)                 [deg]
#   9 THETA_WORLD            Position angle (CCW/world-x)                               [deg]
#  10 FWHM_WORLD             FWHM assuming a gaussian core                              [deg]
#  11 ELONGATION             A_IMAGE/B_IMAGE                                           
#  12 ELLIPTICITY            1 - B_IMAGE/A_IMAGE                                       
         1 -11.7115    229.4453     31.7693   2.8989715295e+01   2.5083620068e+01    0.9896425    0.7587134 -39.97  0.002972122    1.240    0.194
         2 -11.4108    206.8453     18.1270   2.7728831031e+01   3.1621869728e+01    0.9495574     0.387582 -33.96   0.00420883    2.233    0.552
         3 -11.2983    189.4754     45.4171   3.6571458103e+01   3.2194317630e+01     2.498126    0.5152667 -42.33  0.007782824    3.920    0.745
         4 -12.8303    249.7533     30.8553   2.7197725512e+01   2.1114449869e+01     1.395843    0.4277324 -30.84  0.003262356    3.217    0.689
         5 -14.7287    225.1525     82.0595   4.0979412305e+01   1.8902599800e+01     8.259442     2.025394 -45.47   0.02665753    3.787    0.736
         6 -14.3271    241.7155     58.5915   3.3829942214e+01   1.9064590184e+01     3.129666      1.78872  62.68  0.008743752    1.981    0.495
         7 -13.9647    181.0638     77.7168   4.6443625835e+01   2.9159824051e+01     6.574069     2.287332 -45.30  0.001468025    2.775    0.640
         8 -12.3308    220.3280     36.2125   3.0829002037e+01   2.6458668763e+01     2.101325    0.5519544 -45.14  0.007936056    3.040    0.671
         9 -10.0304    134.3542     19.8469   3.7099187305e+01   4.8930244586e+01    0.5041641     0.227675 -22.87  0.001689214    2.602    0.616
        10 -10.8718    237.1724     16.2773   2.4985902629e+01   2.5325301572e+01    0.5033978    0.2339251 -23.47  0.002229376    2.744    0.636
        11 -11.4322    212.9559     25.7066   2.9020113615e+01   2.9372495096e+01    0.9938508    0.5740775  -8.62  0.004388284    3.191    0.687
        12  -8.5780    225.4482     18.1308   2.6228537991e+01   2.7551142269e+01    0.3484541    0.2310434  15.50  0.001714813    3.116    0.679
        13  -9.5300    245.7467     14.2566   2.4005354967e+01   2.3836599313e+01    0.2022733    0.1652231 -38.36   0.00058593    1.305    0.234
        14  -9.3066     92.2861     11.1600   4.2481391883e+01   5.9955862814e+01    0.3532234    0.2022035 -29.42  0.001406676    1.859    0.462
        15  -8.6726    232.9696     11.7922   2.4294822193e+01   2.6686690727e+01    0.2170245    0.1505907   4.43  0.001178426    2.665    0.625
        16  -8.9611    128.6755     10.4031   3.4770362421e+01   5.1320070865e+01    0.2312983    0.2138876  50.35 0.0005005178    1.118    0.106
        17 -10.0688    120.1497      9.4323   3.5874997206e+01   5.3507510540e+01    0.3170622     0.306594 -24.41  0.001031838    1.149    0.130
        18  -9.7369    107.9052      7.9962   3.7644023298e+01   5.6606265880e+01     0.258239    0.2086514 -61.88  0.001513628    1.394    0.282
        19  -8.1541     79.5556      7.5230   4.4262202607e+01   6.3165133213e+01    0.2170191    0.1062653 -37.62  0.000988356    2.270    0.559
        20  -8.0803    188.1743      7.1073   2.6583719019e+01   3.7107701353e+01    0.1769096    0.1238745 -63.56 0.0003871788    1.277    0.217
        21 -11.1074    250.0597      2.4274   2.1345328620e+01   2.4274753695e+01    0.2337055    0.1753954 -22.85   0.00159026    1.680    0.405
        22  -9.4134    217.1930      3.7882   2.3550832133e+01   3.0879711607e+01    0.2390774    0.1658329 -20.58  0.001019726    1.789    0.441
        23  -8.5823    236.0590      3.1044   2.2240212767e+01   2.6982240348e+01    0.1859031    0.1366073 -66.25 0.0008040813    1.073    0.068
        24  -8.7361    181.9702      3.3243   2.6132829101e+01   3.8945845796e+01    0.1894025     0.149812  89.87   0.00117235    1.110    0.099
        25  -9.3391    114.6715      3.1941   3.4500624855e+01   5.5407139916e+01    0.1895038    0.1565773  78.56  0.001141056    1.144    0.126
        26  -7.9567    171.4436      2.2010   2.6792933896e+01   4.1571016041e+01    0.1768911    0.1014883 -46.29 0.0004155528    1.654    0.395
        27  -8.0987    137.2729      1.4191   3.0408338051e+01   5.0016768293e+01    0.1732719    0.1140416  85.33 0.0002267462    1.446    0.308
        28  -7.9797    188.6548    170.2865   6.6443870012e+01   1.0577167699e+01    0.1280754    0.1098725  81.76 0.0007020696    1.649    0.394
        29  -9.3195    175.7601    248.6794   8.1745185666e+01  -6.8978117248e-02    0.2402865    0.2122175  76.04  0.001072475    1.785    0.440
        30  -9.2927    136.3900    249.6901   8.9407982695e+01   5.1516941737e+00    0.3413466    0.1308893  44.93  0.001573173    2.452    0.592
        31 -10.3294    197.0925    243.0820   7.7065342657e+01  -2.1193922643e+00    0.1964468    0.1602985   5.06  0.001426871    1.072    0.067
        32  -8.6827    115.0545    244.5403   9.3070864172e+01   8.9394631222e+00    0.1752647   0.07718287  50.78 0.0008070506    2.397    0.583
        33 -12.4692    202.4112     81.4413   4.3984745962e+01   2.3757929127e+01     1.305827     1.183177  87.13  0.007763454    1.151    0.131
        34  -9.3158    163.7516    242.4347   8.3184326510e+01   2.4612191028e+00     0.273028     0.174098  41.59 0.0009197283    1.476    0.323
        35 -12.5545    184.0464     90.8671   4.9344453273e+01   2.6199032598e+01     2.948664     1.087525  40.94  0.009027022    4.242    0.764
        36  -9.1743    165.1039    237.8421   8.2303923760e+01   2.9603169284e+00    0.1900322    0.1613617 -14.07 0.0003374842    1.247    0.198
        37  -8.3449    131.4678    237.4431   8.8932798361e+01   7.8174725229e+00    0.2714865    0.1247136  54.43  0.001145141    3.103    0.678
        38 -10.8200    194.0560    157.4607   6.2836727445e+01   1.1934667335e+01    0.6494802    0.3989596 -51.94  0.002419011    1.863    0.463
        39  -9.6425    165.6539    159.9713   6.9108340438e+01   1.6652145531e+01     0.241022    0.2253501  23.13 0.0003182165    1.053    0.050
        40 -13.3601    238.5691     68.6195   3.6362125787e+01   1.8259176417e+01     1.079287    0.9893835  79.43  0.003779626    1.245    0.197
        41 -12.7399     29.5949    153.0530   1.0337037744e+02   3.9822815601e+01     1.427796     0.665952  28.80  0.001625581    2.261    0.558
        42 -12.4531     41.0373    148.5208   9.9592450883e+01   3.9748557773e+01    0.9519053    0.8434185 -72.37  0.002698427    1.114    0.102
        43  -8.2245    109.0899    154.1641   8.1478953009e+01   2.8360551485e+01    0.1985724    0.1917688 -25.48  0.000325439    1.131    0.116
        44  -9.2855    204.2444    152.1549   5.9851902209e+01   1.1065142777e+01    0.2977896    0.1832578  43.27  0.001493443    1.737    0.424
        45  -9.5737    172.8268    149.9853   6.5512883759e+01   1.7269160076e+01    0.3499632    0.1960322  26.28  0.001410494    2.425    0.588
        46  -9.2001    134.3897    148.3528   7.3892656932e+01   2.5021761400e+01    0.5876455     0.146779 -53.74  0.001490434    5.142    0.806
        47 -10.4339    162.2588    145.8135   6.6879487105e+01   2.0145764895e+01    0.7362266     0.434702 -72.54  0.002443638    3.706    0.730
        48  -9.2657    223.4807    145.5191   5.5173902091e+01   8.8541228126e+00    0.3281291    0.2545354  80.93 0.0009854536    2.077    0.519
        49 -10.9061    217.0310    143.2624   5.5770261085e+01   1.0342780254e+01    0.5922282    0.3829277 -59.47  0.002165748    2.150    0.535
        50  -9.8684    211.5357    139.4532   5.5895756848e+01   1.1971148618e+01    0.2860514    0.2453198 -34.27 0.0005912333    1.064    0.061
        51 -10.8193     68.1624    144.0865   9.1043165893e+01   3.7414272503e+01    0.8231245    0.4470048  52.68  0.003543738    1.992    0.498
        52 -10.8488     56.5901    142.7939   9.4240855347e+01   3.9317426578e+01    0.8974108    0.6091271  84.44  0.004402009    1.608    0.378
        53 -10.9084    192.8538    140.8178   5.9550824353e+01   1.5192443618e+01    0.7073098     0.355228 -47.56  0.002201427    2.031    0.508
        54  -9.6817    191.1227    132.2008   5.7973406824e+01   1.7120959029e+01    0.3288596    0.2534829 -62.73  0.001480709    1.537    0.349
        55  -7.9194    166.9590    143.4776   6.5352330500e+01   1.9697195442e+01    0.2107574    0.1434714  43.97 0.0006107973    1.501    0.334
        56 -10.4145    144.2079    138.7026   6.9437907394e+01   2.5214119347e+01    0.6303459     0.349571 -67.31   0.00154954    3.034    0.670
        57  -9.6409    174.9270    140.6139   6.3046307266e+01   1.8699250420e+01    0.2789005    0.2044943 -47.80 0.0007364893    1.359    0.264
        58  -9.1847    158.9969    132.5983   6.4650490159e+01   2.3512238685e+01    0.3212748    0.2137416 -46.61  0.000367585    1.477    0.323
        59  -8.7161    160.7582    128.5814   6.3329115399e+01   2.3976710346e+01    0.2909118    0.2527967 -50.93  0.001168907    1.140    0.123
        60  -8.9465    223.2508    128.9835   5.1730351162e+01   1.1637236500e+01    0.2276779     0.191009  25.84  0.000520495    1.340    0.254
        61  -9.0261    136.3339    128.3781   6.8991506714e+01   2.9062625036e+01    0.3776547    0.1401023 -51.21  0.001235399    2.844    0.648
        62  -7.5082    116.0000    128.9649   7.4394874018e+01   3.2987887873e+01    0.2311233   0.08598728 -50.95            0    2.662    0.624
        63  -9.4414    201.9581    125.7987   5.4563561766e+01   1.6170564804e+01    0.2420811     0.184147 -39.76 0.0004732072    1.204    0.170
        64 -10.2130    172.6728    124.5975   5.9856716639e+01   2.2305431017e+01    0.5190606    0.3810083 -68.06  0.002451409    1.717    0.418
        65  -8.3565     57.6493    237.3297   1.0411758547e+02   1.7803903199e+01    0.1321349   0.06812569  58.66 0.0007047983    1.769    0.435
        66  -8.9728    165.0897    119.1967   6.0154130421e+01   2.4972348363e+01    0.2923415    0.2199851 -56.62  0.001417841    1.398    0.285
        67  -8.4116     59.6905    119.9448   8.9336294595e+01   4.4700304366e+01    0.1964698    0.1687545 -73.18   0.00020852    1.092    0.084
        68 -11.3038     11.4496    161.5626   1.0905017087e+02   3.9388737135e+01    0.4333453    0.2883471  46.16  0.002559768    1.442    0.307
        69  -9.4715    222.2978    117.8353   4.9454172647e+01   1.3668647934e+01    0.2920609    0.1933668 -57.19  0.001135053    1.737    0.424
        70  -9.2231    200.7142    116.0706   5.2559642565e+01   1.8154153981e+01    0.2389417    0.1986245  71.01  0.001081836    1.416    0.294
        71  -9.3862    174.1154    113.9301   5.7003439854e+01   2.4084841287e+01    0.3774684    0.2813664 -24.86 0.0009804264    1.498    0.333
        72 -10.1421    135.0378    110.6879   6.4970032175e+01   3.3204667987e+01    0.8208399    0.1779719 -45.09  0.002100878    4.537    0.780
        73 -10.8401    136.6237     99.7705   6.1691860358e+01   3.5177633636e+01    0.5607302    0.4533196  16.31  0.001283081    1.564    0.361
        74 -10.1619    205.4927    109.9908   5.0344133746e+01   1.8264196647e+01    0.4283608    0.3399816  30.70  0.001830556    1.490    0.329
        75  -7.4309    211.2863    110.2934   4.9476550061e+01   1.7055687919e+01    0.1319732    0.1057846  -1.96 0.0002309552    1.543    0.352
        76 -11.1199    122.4791    102.5034   6.6067078659e+01   3.7671722681e+01    0.5463136     0.452742  75.48  0.002688782    1.372    0.271
        77 -10.8819    120.0973     96.9230   6.5183537067e+01   3.9392357132e+01    0.7939422    0.5065717 -79.03  0.002925703    2.756    0.637
        78  -8.0298     84.5264    108.5460   7.8801255798e+01   4.3678342704e+01    0.2783356    0.1446234 -66.49  0.001030249    2.410    0.585
        79  -8.7822    166.1829    233.1550   8.1444637868e+01   3.5224360668e+00     0.173965    0.1412264  13.52 0.0002822864    1.117    0.105
        80  -9.3952    151.2144    102.9198   5.9090148230e+01   3.1283543730e+01    0.3824822    0.2703585 -45.10  0.001787001    1.376    0.273
        81  -9.8364    205.8743    101.1025   4.8198757545e+01   1.9723012262e+01    0.3918605    0.2221289 -53.43    0.0012394    1.888    0.470
        82 -10.4162     78.8291    102.9248   7.9259054963e+01   4.6005798365e+01    0.2327925     0.226391  67.78            0    1.057    0.054
        83  -8.7203    210.5365     98.9076   4.6953728009e+01   1.9140161478e+01    0.3843543    0.1747997 -55.23  0.001118516    2.920    0.657
        84  -7.7918    209.4572    163.9155   6.1297558168e+01   8.1468309201e+00    0.1786216    0.1105627 -58.75 0.0008067719    2.475    0.596
        85  -9.8307    145.2061     93.9348   5.8046912974e+01   3.4441782396e+01    0.3339718    0.2940221 -63.96 0.0009470974    1.153    0.133
        86 -10.9090    161.6990     89.9588   5.3363773258e+01   3.1436644720e+01    0.3325869    0.2705398 -28.85  0.001680868    1.314    0.239
        87 -12.1934    234.7956     51.8061   3.3007540863e+01   2.1370742634e+01    0.7628648    0.4168932 -43.75 0.0004537999    1.505    0.335
        88  -8.7803    128.4881     84.5075   5.9420185967e+01   4.0124795832e+01    0.1509926    0.1483526 -72.29 -4.949718e-05    1.013    0.012
        89 -10.4195    149.9483     82.0263   5.3644251974e+01   3.5650916062e+01    0.4203252    0.3261446  -2.40   0.00151405    1.790    0.441
        90  -7.3550    194.2858    231.2900   7.5847534069e+01  -1.3053619732e-01    0.1173904   0.07920092   2.15 0.0003200422    1.536    0.349
        91 -10.6310    140.6302     79.1310   5.4893493490e+01   3.8373860302e+01    0.4035253    0.3656219 -87.24  0.001671187    1.141    0.123
        92  -7.6474    117.7390     80.6646   6.1100972287e+01   4.3304854266e+01    0.1490328    0.1208522  -5.22 0.0002538851    1.578    0.366
        93 -10.4903    151.2810     71.0956   5.0199268785e+01   3.7318032670e+01    0.4785213    0.3152929  56.19  0.001382917    1.522    0.343
        94  -9.5572    154.6010     68.1612   4.8664505986e+01   3.7031906713e+01    0.2755012    0.2149981 -67.31 0.0004598723    1.378    0.274
        95 -10.7278    153.6517     63.6273   4.7516118193e+01   3.8025530040e+01    0.4943536    0.2966628 -45.40 0.0006424612    1.639    0.390
        96  -9.4270    130.3229     64.6831   5.2898483465e+01   4.3439650959e+01     0.263831    0.2445381 -26.07 0.0005959877    1.146    0.128
        97  -7.5094    109.6991     64.6404   5.8230341909e+01   4.8199139792e+01    0.1522271    0.1178675   5.41 0.0004728836    1.716    0.417
        98  -7.7009    114.0000     60.9466   5.5811630902e+01   4.7900519195e+01    0.2270419   0.08389982 -38.60 0.0002921715    2.738    0.635
        99 -10.2401    144.5909     58.9699   4.7932548474e+01   4.0988765188e+01    0.3886798    0.2691322 -35.52 0.0009754166    1.475    0.322
       100  -9.1267    125.2396     58.2229   5.2031814290e+01   4.5760077978e+01    0.2600012    0.1820566 -33.72  0.000684086    1.489    0.328
       101  -8.0385     72.5757     58.4683   6.8121975015e+01   5.6943811910e+01    0.1389244    0.1329011 -21.20 8.191313e-05    1.023    0.023
       102  -7.9997     83.5572     68.8225   6.7774004326e+01   5.2825221669e+01    0.2102107    0.1369951 -57.41 0.0009475465    1.739    0.425
       103  -7.7672    185.1937    166.9098   6.6462651289e+01   1.1791427712e+01    0.1791335    0.1031451 -42.83 0.0005357264    1.715    0.417
       104  -8.8694    134.7219     52.3407   4.7924312560e+01   4.4451658571e+01    0.2803237    0.2015819 -71.44 0.0005496776    1.690    0.408
       105  -9.8968    134.1572     48.3485   4.6740478653e+01   4.5210042908e+01    0.3669774    0.2711956 -43.59 0.0008823476    1.369    0.269
       106  -9.3402    114.5920     48.3276   5.1309921639e+01   4.9894280121e+01    0.2548928     0.240384  13.92 0.0003621649    1.126    0.112
       107  -7.9769    103.5178     42.5040   5.2134727668e+01   5.3361455278e+01    0.1399933    0.1357139  75.61 0.0008094998    1.068    0.063
       108 -10.4894    133.2232     38.6375   4.3701290755e+01   4.6856849423e+01    0.4795009    0.2621318 -23.19  0.002048903    2.215    0.549
       109 -10.3238    204.1723     33.9403   3.1889163014e+01   3.0324240219e+01     0.336724        0.288 -67.10 0.0004249323    1.005    0.005
       110  -9.5065    198.9759     38.9516   3.3724725033e+01   3.0862068393e+01     0.266474    0.1660598 -38.83 0.0005547089    1.490    0.329
       111  -9.4575    200.1917     35.0591   3.2597292362e+01   3.1089647453e+01    0.2693411    0.1712525 -38.77 0.0007609156    1.465    0.317
       112  -8.7052      8.5168     41.5095   9.1842673729e+01   6.8547027111e+01    0.1212948    0.1030734 -41.85 6.701039e-05    1.040    0.038
       113  -9.3452    162.8892     35.8954   3.7628841678e+01   3.9897773701e+01     0.317562    0.2135547 -31.40 0.0007615375    1.560    0.359
       114  -9.2487    123.6156     37.7734   4.5438468657e+01   4.9321299912e+01    0.2009782    0.1270494 -43.58 0.0005966801    1.644    0.392
       115  -9.3821    117.4987     38.4896   4.7089693631e+01   5.0691811639e+01    0.2662894    0.1382547  71.33  0.001041347    2.456    0.593
       116 -10.0290    110.8200     35.6464   4.7662615142e+01   5.2678114825e+01    0.4453647    0.2066692 -37.75  0.001471427    2.197    0.545
       117  -8.5606     86.7274     30.9302   5.2475724708e+01   5.8791636059e+01    0.1854009    0.1698923 -18.13 0.0005391748    1.120    0.107
       118  -9.9861    132.6168     29.0178   4.0551861454e+01   4.8276776638e+01    0.3300375    0.1701442 -28.93  0.001383525    2.081    0.519
       119  -8.8148    163.0242     27.5131   3.5116042800e+01   4.0924957539e+01     0.329607     0.194122 -24.68  0.001570489    1.933    0.483
       120  -9.7659    171.0094     24.4847   3.3171222753e+01   3.9328258041e+01    0.4069387    0.2512344 -54.45  0.001610619    1.591    0.371
       121  -9.3862    179.1599     23.5518   3.1922138748e+01   3.7461402297e+01    0.4124325    0.3166038  88.02  0.002377998    1.211    0.174
       122  -8.0291    159.4184     23.7460   3.4488791751e+01   4.2263763215e+01    0.1674216     0.135027 -17.08 0.0004890909    1.474    0.322
       123  -9.1173    198.0271    161.8437   6.2975402654e+01   1.0453395761e+01    0.3299841     0.244097 -73.65  0.001621515    2.239    0.553
       124  -7.7725    102.3102    230.6885   9.4193483084e+01   1.3164914579e+01    0.1285175   0.08286342  59.53 0.0007027357    1.626    0.385
       125  -8.0809    106.3269     23.3209   4.4044879138e+01   5.5342321756e+01     0.144289   0.09781843  30.50 0.0002936988    1.685    0.407
       126 -10.0981    133.3214    225.8036   8.7078158492e+01   9.5417373990e+00    0.2159397    0.2141855  74.98 0.0004904023    1.173    0.148
       127  -8.8783    224.6083    218.6492   6.8488381478e+01  -2.4271378045e+00    0.2424846    0.1805318  54.80  0.001472978    2.324    0.570
       128  -8.6100     85.0011    218.9466   9.6660822431e+01   1.7846358531e+01    0.1872153    0.1600626  51.06 0.0003918668    1.025    0.024
       129  -8.0830    160.1908     19.7604   3.3181343444e+01   4.2528505094e+01    0.1775576    0.1443058  52.32 0.0003716912    1.311    0.237
       130  -9.2141     92.2319     19.4023   4.6024860257e+01   5.9064196313e+01    0.2405407    0.2224599 -13.67 0.0006611093    1.141    0.124
       131  -8.4806    164.9824     18.4728   3.2182070203e+01   4.1491653580e+01    0.1934177    0.1668531 -45.21  0.000497906    1.188    0.158
       132  -8.4155    130.3302     19.0059   3.7507990724e+01   5.0018980858e+01     0.185444    0.1734951 -37.61 0.0005391326    1.156    0.135
       133  -7.9683     78.4533    218.5410   9.8060605647e+01   1.8823903095e+01    0.1274097    0.1070213  55.06 5.211464e-05    1.002    0.002
       134  -8.5400    156.2796    212.5946   8.0422178045e+01   8.3653128933e+00     0.172181    0.1699168 -21.50  0.001073169    1.179    0.152
       135  -9.4582    188.0889    209.5361   7.3594198400e+01   4.0151895526e+00    0.3257431    0.2521348  75.43  0.001195763    2.414    0.586
       136  -9.1126     17.1131    201.7937   1.1035152109e+02   2.9595374486e+01    0.1926814    0.1487443 -86.43 0.0003872981    1.217    0.178
       137  -9.4913    192.9826    194.9111   7.0170200686e+01   5.6301487594e+00    0.8170112    0.4136004 -61.85  0.002352469    7.467    0.866
       138  -7.7761    221.6793    189.6900   6.4028222573e+01   2.1140760259e+00    0.1281067   0.08530936  -2.08 0.0002223497    1.646    0.392
       139  -8.7474     20.2740    186.1734   1.0862813371e+02   3.2790298877e+01    0.1728996    0.1584675  49.46 0.0003799988    1.247    0.198
       140  -7.7771    169.6770    185.2688   7.3093337683e+01   1.1098601363e+01    0.1276495     0.106188  66.96 0.0002878959    1.568    0.362
       141  -8.8165    242.0401    183.4047   5.9532006731e+01   1.4964941243e-01    0.2019334    0.1496269 -41.64 0.0004212206    1.500    0.333
       142 -10.2404    238.3421    175.8610   5.8729235573e+01   1.7682973039e+00    0.3302302    0.2532094  66.69  0.001442569    2.350    0.575
       143  -9.3804    213.1029    176.3993   6.3068514588e+01   5.4927497885e+00     0.356971     0.199213  24.02  0.001339755    2.129    0.530
       144  -9.8969    228.6048    171.7945   5.9540767309e+01   3.8219941636e+00    0.3405004    0.2345187 -47.38   0.00195241    1.658    0.397
       145 -10.5219    230.7340    167.1689   5.8306517444e+01   4.2143779500e+00    0.4518163    0.2085014 -40.15  0.002177956    1.989    0.497
       146  -8.1467    218.0851    172.2690   6.1409405457e+01   5.3731767023e+00    0.1719574    0.1514578   5.85 0.0004169717    1.092    0.085
