#   1 NUMBER                 Running object number                                     
#   2 MAG_AUTO               Kron-like elliptical aperture magnitude                    [mag]
#   3 X_IMAGE                Object position along x                                    [pixel]
#   4 Y_IMAGE                Object position along y                                    [pixel]
#   5 X_WORLD                Barycenter position along world x axis                     [deg]
#   6 Y_WORLD                Barycenter position along world y axis                     [deg]
#   7 A_WORLD                Profile RMS along major axis (world units)                 [deg]
#   8 B_WORLD                Profile RMS along minor axis (world units)                 [deg]
#   9 THETA_WORLD            Position angle (CCW/world-x)                               [deg]
#  10 FWHM_WORLD             FWHM assuming a gaussian core                              [deg]
#  11 ELONGATION             A_IMAGE/B_IMAGE                                           
#  12 ELLIPTICITY            1 - B_IMAGE/A_IMAGE                                       
         1 -14.6179    187.3022     43.5128   4.9364816281e+01   3.3058680674e+01     1.279253    0.9302903  34.14  0.003951327    1.644    0.392
         2 -14.5727    211.1263     12.4245   3.8132194700e+01   3.0978242525e+01    0.8925066    0.8053517 -72.22  0.004293783    1.060    0.056
         3 -12.5479     53.4228      7.1423   6.8927401510e+01   6.7481675858e+01    0.2913208    0.1092859  32.38  0.001242842    2.780    0.640
         4 -12.5068    244.2790      4.0577   3.3500589680e+01   2.4391304875e+01    0.3079358    0.1782369 -51.24  0.001792312    1.467    0.319
         5 -10.5246     83.6188    239.4144   1.1474002755e+02   1.4407532984e+01    0.1375089   0.09980455  40.89 0.0003137419    1.283    0.221
         6 -13.6848    247.8573    246.2530   8.4594412654e+01  -1.0948928453e+01     0.675266    0.3952983 -14.48  0.004266446    1.614    0.381
         7  99.0000     52.4875    228.3622   1.1971059211e+02   2.0518456436e+01     9.933472     8.115282  46.62   0.07131132    1.278    0.218
         8 -18.5823     21.5992     95.9651   1.1209158770e+02   5.3924696394e+01     14.34749      1.46139 -66.71   0.03162638    8.570    0.883
         9 -11.6140     58.0544    201.4172   1.1623573731e+02   2.5333972244e+01    0.2006693    0.1625497 -53.04  0.001250103    1.502    0.334
        10 -11.9417    191.9084    193.0072   8.5687262446e+01   5.1825940545e+00    0.7230369    0.3619487 -60.18  0.002179712    5.711    0.825
        11 -10.9181    167.1823    226.2231   9.6466554540e+01   3.8265363676e+00    0.1667082    0.1470799  58.14 0.0006431408    1.335    0.251
        12 -11.1813     81.9900    194.7835   1.1026962511e+02   2.3566015642e+01    0.2365579    0.1925213  76.56 0.0005626387    1.146    0.127
        13 -12.6034    150.4067    192.7953   9.4527189354e+01   1.2717602587e+01     0.274801    0.2575316   8.22  0.001566905    1.088    0.081
        14 -13.7832    147.6703    188.0126   9.4290777203e+01   1.4162716157e+01    0.6448439    0.3243101 -52.76  0.002577944    2.222    0.550
        15 -12.1334     63.1251    192.2901   1.1418464162e+02   2.6680073442e+01    0.3313633    0.2377292 -39.16  0.001426283    1.942    0.485
        16 -11.0401     29.9385    193.0337   1.2140120455e+02   3.0341064082e+01    0.1601214    0.1004421  53.89 0.0005639062    1.438    0.305
        17 -11.5930     44.0912    211.6473   1.2001649546e+02   2.4852702931e+01    0.3204156     0.166933 -82.20  0.001449167    1.833    0.454
        18 -12.7938     94.7906    187.8307   1.0642410314e+02   2.3191449158e+01    0.5653169    0.3855826  67.37  0.001467002    1.597    0.374
        19 -13.4441     99.1678    181.1669   1.0441487108e+02   2.3991822760e+01    0.5817114     0.360504 -53.96  0.001940775    1.655    0.396
        20 -12.0553    186.6785    174.8137   8.3167242925e+01   9.4220048903e+00    0.3579227    0.3385955 -38.71 0.0009957366    1.187    0.158
        21 -11.7358    148.7710    176.0307   9.1816814842e+01   1.6411318814e+01     0.219388     0.198221  80.01 0.0004869644    1.270    0.213
        22 -12.5766    146.8320    172.8081   9.1642552200e+01   1.7452131317e+01    0.3614725    0.2575205 -67.49  0.001106113    1.786    0.440
        23 -10.9867     67.4966    249.8962   1.1860897881e+02   1.4673981651e+01    0.1378753    0.1015909 -81.33 0.0004052648    1.417    0.294
        24  -9.9042    193.3065    170.2871   8.0832246846e+01   8.9984836135e+00    0.1469527    0.1076971   3.69 0.0003292388    1.569    0.363
        25 -11.7539     89.7137    212.0084   1.1066195083e+02   1.8817354917e+01    0.2556055    0.1975431  82.15 0.0006450536    1.291    0.226
        26 -10.8482    184.7193    167.9976   8.2159233510e+01   1.1087062019e+01     0.209109    0.1873504 -26.92   0.00071549    1.113    0.101
        27 -11.4848      5.9333    161.6416   1.2414747977e+02   3.9490659735e+01    0.2326656    0.1885675  46.92 0.0009005112    1.386    0.278
        28 -12.0322     92.6694    155.9757   1.0188560439e+02   3.0879453124e+01    0.2719091     0.241994 -56.43 0.0003380538    1.122    0.109
        29 -13.2762     97.8148    149.9702   9.9431165493e+01   3.1484646445e+01    0.5852869    0.4243039 -29.70  0.001721968    1.744    0.427
        30 -12.5759    133.6700    145.2478   8.9108856653e+01   2.6062763050e+01     1.218403    0.2835907 -54.24  0.002530039    7.284    0.863
        31 -10.8542    174.4573    149.2116   8.0263599104e+01   1.6867083293e+01    0.2135428    0.1452682 -52.76 0.0007656635    1.650    0.394
        32 -12.6832     97.3657    136.1754   9.6794178213e+01   3.4884071408e+01    0.3930427    0.2799016 -50.66 0.0007550773    1.345    0.256
        33 -12.5808    108.8390    136.7568   9.3763179059e+01   3.2745567824e+01    0.4873672     0.297952 -36.25  0.002049862    1.899    0.473
        34 -12.3188    105.9577    130.8606   9.3245893980e+01   3.4670011013e+01    0.4243253    0.3384811 -62.71  0.001178535    1.269    0.212
        35 -11.6978    115.5771    128.2477   8.9982409370e+01   3.3513573087e+01    0.2905652     0.252273   6.96 0.0007347859    1.315    0.240
        36 -11.4263    103.4744    123.6604   9.2284681415e+01   3.6833429077e+01    0.2892884    0.2432924 -16.49 0.0005088499    1.372    0.271
        37 -11.3523     39.2897    212.3711   1.2102062068e+02   2.5247595512e+01    0.1618797    0.1451489  77.24 0.0009050294    1.221    0.181
        38 -10.5679    110.8233    117.8326   8.8774490211e+01   3.6858188812e+01    0.2264066    0.2044706 -18.81 0.0004542868    1.169    0.144
        39 -10.7636    231.0415    113.9316   6.0746041088e+01   1.1626964730e+01    0.2222624    0.1990622 -25.64 0.0007828485    1.021    0.021
        40 -10.7125    167.1998    112.1809   7.2736895311e+01   2.6070950704e+01    0.2194722    0.1901676 -74.32 0.0005739277    1.366    0.268
        41 -12.5265    119.2274    111.0114   8.4639030399e+01   3.6792164920e+01    0.4289981     0.342569  87.55  0.001570675    1.676    0.403
        42 -10.6043    205.3522    110.1730   6.4314566950e+01   1.7786290021e+01    0.2536621    0.2058016  34.68 0.0007141501    1.324    0.245
        43 -10.4203    130.6793     96.7138   7.7497750040e+01   3.7533909466e+01    0.1588295    0.1236721   3.87 0.0002054639    1.596    0.373
        44 -13.5795    172.0931     57.1452   5.5928904548e+01   3.4894625677e+01    0.5226967    0.4667225  -7.38 0.0008257628    1.224    0.183
        45  99.0000     61.7528    245.9244   1.1934013201e+02   1.6104088974e+01    0.3844265    0.1864331 -64.19  0.002234428    2.254    0.556
        46 -13.3514    192.2511     36.9001   4.6783757541e+01   3.2703138611e+01     0.583283    0.4591352  41.79  0.001443323    1.414    0.293
        47 -11.4064     66.5726    204.5574   1.1474659591e+02   2.3575304563e+01    0.3033828    0.1809772 -46.25 0.0009593959    2.249    0.555
        48 -12.6388     71.5677    240.8832   1.1714078656e+02   1.5756998296e+01    0.2136062    0.1765825 -70.26 0.0009419479    1.405    0.288
