#   1 NUMBER                 Running object number                                     
#   2 MAG_AUTO               Kron-like elliptical aperture magnitude                    [mag]
#   3 X_IMAGE                Object position along x                                    [pixel]
#   4 Y_IMAGE                Object position along y                                    [pixel]
#   5 X_WORLD                Barycenter position along world x axis                     [deg]
#   6 Y_WORLD                Barycenter position along world y axis                     [deg]
#   7 A_WORLD                Profile RMS along major axis (world units)                 [deg]
#   8 B_WORLD                Profile RMS along minor axis (world units)                 [deg]
#   9 THETA_WORLD            Position angle (CCW/world-x)                               [deg]
#  10 FWHM_WORLD             FWHM assuming a gaussian core                              [deg]
#  11 ELONGATION             A_IMAGE/B_IMAGE                                           
#  12 ELLIPTICITY            1 - B_IMAGE/A_IMAGE                                       
         1 -15.0764     11.2611    147.7204   1.4312076208e+02   4.3037333786e+01     7.329344     2.666951 -85.15   0.02952293    3.334    0.700
         2 -12.3644      2.5582     47.6484   1.2892756746e+02   6.4699286851e+01    0.6303137    0.1800523 -57.86  0.002950604    2.750    0.636
         3 -12.7496      2.9810      8.2643   1.1586388652e+02   7.1088726430e+01     1.047438    0.3190344 -40.32  0.005643541    2.426    0.588
         4 -13.4099    196.7134     28.5756   6.8531728281e+01   3.2727863870e+01     1.379984      1.32021 -72.84  0.006696392    1.143    0.125
         5 -13.4977    212.8329      9.1535   6.1910866592e+01   3.1062239759e+01     1.175131     0.891639  45.68   0.00611789    1.606    0.377
         6 -11.4671    123.3513    249.6864   1.3170426226e+02   6.4968291036e+00    0.3009454    0.2343832  60.00  0.001955927    1.069    0.065
         7 -12.6896    247.3656    247.4708   1.0844164971e+02  -1.3601041306e+01    0.7975865     0.593846  33.75   0.00542467    1.309    0.236
         8 -11.1582     97.9924    248.7348   1.3624317890e+02   1.0740339664e+01    0.3328659    0.2068705  51.30  0.001725097    1.303    0.232
         9 -11.2520    101.1655    246.1704   1.3539720704e+02   1.0705381276e+01    0.3681833    0.2082845  69.46  0.001225239    1.893    0.472
        10 -11.5812     35.3873    244.6704   1.4671083018e+02   2.0168305630e+01    0.5062771    0.3327574 -77.92  0.003581421    1.434    0.303
        11 -10.2380     28.9597    249.7565   1.4807287873e+02   1.9990039217e+01    0.2449365    0.1214887  47.19 0.0007544801    1.754    0.430
        12  -9.7252     29.5427    246.5231   1.4777696430e+02   2.0515905800e+01    0.1828689    0.1114777  84.62  0.001112263    1.292    0.226
        13 -10.6506     12.4522    249.9831   1.5063926442e+02   2.1792700699e+01    0.2290408    0.1031376  52.73  0.001483377    1.733    0.423
        14  -9.7365      1.8742    249.8293   1.5221131620e+02   2.2919202294e+01    0.2103549    0.1221628  76.16   0.00156777    1.194    0.162
        15 -10.2331      2.6848    246.0241   1.5190650357e+02   2.3523541238e+01    0.1907903    0.1090299  72.87 0.0006221423    1.234    0.190
        16 -10.3196     81.1348    248.8710   1.3926640702e+02   1.3266881490e+01    0.1954713     0.130041  68.95 0.0008361817    1.258    0.205
        17 -10.6466     19.0160    242.2528   1.4918912984e+02   2.2499839951e+01    0.1847091    0.1182057  86.66 0.0005471836    1.194    0.163
        18 -10.8152     12.6611    240.4896   1.5008744752e+02   2.3512708560e+01    0.1898366    0.1272434  58.60  0.001428861    1.290    0.225
        19 -11.0338     50.1965    235.2397   1.4350994315e+02   2.0119410940e+01    0.3083427    0.1840679 -57.00  0.001853283    2.112    0.526
        20 -12.1987    123.3022    232.2461   1.2956314098e+02   9.6258806042e+00    0.7510438    0.1731362  45.98  0.002529554    3.619    0.724
        21 -13.0872    108.8048    230.9230   1.3222014388e+02   1.2310844864e+01     1.605913    0.2383724  47.33  0.004387508    5.756    0.826
        22 -12.6029     89.5815    226.6998   1.3544430003e+02   1.6211102865e+01     1.751973    0.2148101  49.24  0.003944256    9.050    0.890
        23 -12.5042     47.3206    215.4692   1.4234071027e+02   2.4447433680e+01    0.7029383    0.5737509 -88.98  0.003460828    1.165    0.141
        24 -12.7762     32.4568    233.1814   1.4640122453e+02   2.2700302912e+01    0.2887589    0.2329496 -82.35 0.0007470117    1.338    0.253
        25 -13.8753     37.4781    226.4128   1.4503556065e+02   2.3434229503e+01    0.7766692    0.5551616  64.05  0.002369988    1.162    0.140
        26 -10.0901     12.8154    233.3627   1.4965167648e+02   2.4840213668e+01     0.125114   0.09444521  43.18 0.0004889122    1.660    0.397
        27 -10.9292    139.4062    231.2849   1.2627126214e+02   7.0036446109e+00    0.4603736   0.08336493  45.50  0.001330432    4.664    0.786
        28  -9.2661     55.0254    230.0050   1.4221532817e+02   2.0514100742e+01    0.2036145    0.1082356  68.31  0.001130456    1.724    0.420
        29 -10.2846    151.9979    229.5384   1.2352940576e+02   5.0742239481e+00    0.2151823    0.1144334  43.41 0.0006408159    1.616    0.381
        30 -10.0274    173.3853    222.5850   1.1818502398e+02   2.4018362498e+00    0.3455637    0.1760031  45.95  0.001603546    1.751    0.429
        31 -11.9502    198.7688    246.7494   1.1713343148e+02  -5.8694853371e+00    0.4928686     0.366506 -49.86  0.003049825    1.748    0.428
        32 -11.6375     59.5343    199.3041   1.3834804734e+02   2.6300528825e+01     0.302084    0.2274963 -78.66 0.0006145086    1.186    0.157
        33 -11.9813     12.8644    195.9067   1.4713738924e+02   3.2364425176e+01     0.257667    0.1765698  64.31 0.0004260048    1.290    0.225
        34  -9.4136    192.0020    193.4913   1.0921775886e+02   4.0741319566e+00    0.4487309    0.1940143 -60.48  0.001036305    8.262    0.879
        35 -11.8518     65.9816    190.7472   1.3601604468e+02   2.7310805547e+01    0.2735407    0.2253664 -68.90 0.0004268562    1.240    0.193
        36 -11.8940     21.8502    126.5122   1.3791856700e+02   4.6973540142e+01    0.4008105    0.2454101  52.27  0.001409238    1.920    0.479
        37 -10.7572     76.4698    177.8566   1.3201293725e+02   2.8733720131e+01     0.242894    0.2083278 -82.75 0.0004313824    1.057    0.054
        38 -13.1059     63.0442    175.7874   1.3475474094e+02   3.1100358473e+01    0.5153944    0.2768839 -47.16  0.001898147    2.286    0.563
        39  -8.6469    152.5266    213.0234   1.2087105696e+02   8.0145865395e+00    0.1799961    0.1381161 -53.12 0.0003676931    1.452    0.311
        40  -8.3106     97.2513    174.2921   1.2669370748e+02   2.6289155494e+01    0.1277786    0.1089831 -35.66 0.0002021144    1.483    0.326
        41 -11.6131     83.5307    168.9867   1.2905247373e+02   2.9723104084e+01     0.601391    0.5265779 -48.65  0.002223479    1.314    0.239
        42  -9.5714     93.8610    167.9005   1.2643332260e+02   2.8331429110e+01    0.3842157    0.2195412  54.55  0.001099461    1.829    0.453
        43 -12.4292      9.8558    207.2160   1.4849293313e+02   3.0307855295e+01    0.6195261    0.4326634  33.99  0.002963677    1.896    0.473
        44  -9.9393     96.9033    152.6867   1.2299138685e+02   3.1395871338e+01    0.2963145    0.2726855  47.31 0.0007966276    1.171    0.146
        45 -11.9308     85.4351    151.7376   1.2568715750e+02   3.3485271400e+01    0.2999037    0.2488891 -48.21 0.0005385636    1.276    0.217
        46  -9.1015     99.9859    148.4960   1.2141331716e+02   3.1858626863e+01     0.216627    0.1845629 -63.74 -8.355208e-05    1.110    0.099
        47 -12.1083     67.4372    143.6834   1.2883223837e+02   3.8025310044e+01    0.6594271    0.4320024  67.61  0.002834981    1.817    0.450
        48  -9.6790    108.9850    137.7765   1.1690333696e+02   3.2775783219e+01    0.4198921    0.2729328 -21.20  0.001572382    2.666    0.625
        49 -10.3822     96.1020    134.7632   1.1962869930e+02   3.5760262693e+01    0.2497622    0.2078774 -44.48 0.0003883117    1.227    0.185
        50 -10.8081     30.2987    131.1985   1.3640892868e+02   4.5168840158e+01     0.259233    0.2031835  63.36 0.0006192363    1.404    0.288
        51  -8.9130     78.0690    130.8245   1.2363594177e+02   3.9554478736e+01    0.2261332    0.1471925  66.85 0.0007140402    2.004    0.501
        52  -8.8225     85.1506    127.2134   1.2096919803e+02   3.9321507783e+01    0.1916096    0.1571484  74.35  0.000432282    1.365    0.268
        53  -8.8161    106.3156    124.0054   1.1451550893e+02   3.6464007722e+01    0.1959607    0.1755143 -57.57 0.0003351846    1.064    0.060
        54  -9.9414    168.0777    113.2754   9.6397709436e+01   2.5620692325e+01    0.3208564    0.2668317  82.62 0.0008158937    1.376    0.273
        55  -8.9285    203.2956    111.3710   8.8601350619e+01   1.7659911802e+01    0.1563571    0.1228678   3.36 0.0007027872    1.732    0.423
        56  -9.1041     42.3844     97.1192   1.2690483257e+02   5.1708755465e+01    0.3717294    0.1260011  46.79  0.001264325    5.094    0.804
        57 -10.7923    241.9064     91.7717   7.7410236247e+01   1.2379112730e+01    0.3027594    0.1652734 -59.32  0.001267032    2.172    0.540
        58 -10.1108    158.4513     76.9500   8.8675854712e+01   3.4978581790e+01    0.2456896    0.2023738  54.60 0.0007416235    1.183    0.155
        59 -11.4791      3.0826     70.4704   1.3397433624e+02   6.0289988924e+01     0.378702    0.1365328 -46.94  0.001989988    2.028    0.507
        60  -9.0655     38.5152     65.2948   1.2039003015e+02   5.8684901273e+01    0.1803926    0.1435093  53.01 0.0009688326    1.782    0.439
        61 -12.1707      8.7264     53.0530   1.2797538840e+02   6.3353800758e+01    0.3970136    0.2943877  41.07  0.002497526    1.907    0.476
        62 -10.1639     46.3188    248.6676   1.4519662180e+02   1.8077441697e+01    0.3220828    0.1372833  73.73  0.001607145    2.566    0.610
        63 -12.5068    141.7988    249.0284   1.2818257287e+02   3.5113916228e+00    0.7195302     0.294641  41.68  0.003318716    2.053    0.513
        64 -11.1757    107.5676    247.9291   1.3441427335e+02   9.3734413658e+00    0.2969688     0.156882  42.55  0.001592232    1.670    0.401
