#   1 NUMBER                 Running object number                                     
#   2 MAG_AUTO               Kron-like elliptical aperture magnitude                    [mag]
#   3 X_IMAGE                Object position along x                                    [pixel]
#   4 Y_IMAGE                Object position along y                                    [pixel]
#   5 X_WORLD                Barycenter position along world x axis                     [deg]
#   6 Y_WORLD                Barycenter position along world y axis                     [deg]
#   7 A_WORLD                Profile RMS along major axis (world units)                 [deg]
#   8 B_WORLD                Profile RMS along minor axis (world units)                 [deg]
#   9 THETA_WORLD            Position angle (CCW/world-x)                               [deg]
#  10 FWHM_WORLD             FWHM assuming a gaussian core                              [deg]
#  11 ELONGATION             A_IMAGE/B_IMAGE                                           
#  12 ELLIPTICITY            1 - B_IMAGE/A_IMAGE                                       
         1 -14.5114    158.5044     55.3785   7.7937498467e+01   3.8053559570e+01     1.503301     1.353924  51.01   0.00310166    1.125    0.111
         2 -14.6874    171.1285     40.3208   7.0863386326e+01   3.6918013350e+01     1.259677     1.085047  -9.26  0.003932456    1.330    0.248
         3 -14.8541    191.4691      7.7401   5.8528974393e+01   3.5377891849e+01     2.384517    0.8903885  67.59  0.008926962    2.467    0.595
         4 -11.3731    119.3172    243.3912   1.2625522275e+02   1.0261148602e+01     0.205863    0.1467759  50.55 0.0007832508    1.411    0.291
         5 -19.7542     61.3004    164.5468   1.3198359677e+02   3.3416441824e+01     18.26391     6.414326 -73.70    0.0671652    3.247    0.692
         6 -11.1978     16.7298    217.3198   1.4642916047e+02   2.6863576582e+01     0.131004    0.1161683  62.45  0.001008962    1.253    0.202
         7  -9.9032    130.9931    214.0358   1.2047014545e+02   1.3259375694e+01    0.1688137    0.1294173  51.97 0.0003160347    1.400    0.286
         8 -10.0876     97.0709    212.6559   1.2799204121e+02   1.8404343480e+01    0.2046437     0.156061 -32.32   0.00102833    1.785    0.440
         9 -10.1115    110.6286    211.7080   1.2477374465e+02   1.6650938518e+01    0.1404224    0.1191924  78.44 0.0002829579    1.427    0.299
        10 -10.8800    106.8169    206.7795   1.2508532146e+02   1.8100562879e+01    0.2449375     0.161112  32.79 0.0006096863    1.257    0.205
        11 -12.4117    105.3425    202.5468   1.2493580766e+02   1.9107960662e+01    0.3958265    0.2640055  28.01  0.001282827    1.354    0.262
        12 -11.1795     30.0248    205.6068   1.4303903466e+02   2.7899534210e+01    0.1565205    0.1479974  66.31 0.0006414169    1.289    0.224
        13 -11.0468    157.2483    199.2137   1.1260471768e+02   1.1684085885e+01    0.2504945    0.2058152  37.64  0.001325612    1.208    0.172
        14 -11.8368    163.2738    202.3338   1.1179285755e+02   1.0241945517e+01    0.3381933    0.2550791  59.69  0.001285646    1.942    0.485
        15 -11.3882    160.4448    197.9361   1.1171354034e+02   1.1386711589e+01    0.2505991     0.209885  73.16 0.0009990844    1.840    0.456
        16 -10.1222    153.3280    201.7339   1.1384243968e+02   1.1888152458e+01    0.2045467    0.1662364 -62.51  0.001227998    1.745    0.427
        17 -10.1952    138.5524    200.0653   1.1688365437e+02   1.4487322137e+01    0.2288247    0.1658455  59.13  0.001250356    1.745    0.427
        18 -10.3666    141.2984    198.3958   1.1601854383e+02   1.4344475514e+01    0.2304024    0.2127477 -30.86 0.0006546552    1.281    0.220
        19 -10.1760    112.9091    196.2361   1.2234571219e+02   1.9174582820e+01    0.4617188     0.282371   0.75  0.001944588    2.986    0.665
        20 -10.3220      6.9846    197.1308   1.4799007835e+02   3.1711629669e+01    0.1713633    0.1123326  50.98 0.0005702036    1.154    0.133
        21 -11.5441    153.1437    193.4578   1.1260619764e+02   1.3296978687e+01    0.3060377    0.2463664  44.68   0.00103653    1.304    0.233
        22 -10.5737    103.5610    194.3238   1.2436625833e+02   2.0961310009e+01    0.3509475     0.182672  28.16  0.001628371    1.816    0.449
        23 -11.0161    180.8154    193.3756   1.0668754346e+02   8.8847219700e+00    0.2348613    0.2125685  82.47  0.001461039    1.805    0.446
        24 -11.2904    168.9860    191.9859   1.0892087888e+02   1.0983268991e+01    0.2640947    0.1508873  17.85  0.001254683    1.938    0.484
        25 -12.4005    169.3352    182.1420   1.0716425174e+02   1.2535253802e+01    0.5482711     0.261254  42.07  0.001898817    1.986    0.497
        26 -12.0462    172.8141    188.8217   1.0757758276e+02   1.0872135948e+01    0.2860671    0.2547325  23.20  0.001332478    1.164    0.141
        27 -12.2667    175.8857    186.1250   1.0646753974e+02   1.0803436441e+01    0.3536513    0.3259268  78.81  0.001067508    1.630    0.387
        28 -12.4644    100.9912    250.5017   1.3064037645e+02   1.1575676760e+01    0.2162793   0.08707418  31.74 0.0004641084    1.864    0.463
        29 -12.3826    165.3936    186.9807   1.0885237392e+02   1.2385065350e+01    0.3981138    0.2679705  -0.16  0.002043057    1.786    0.440
        30 -11.4921    152.9601    186.0375   1.1144642206e+02   1.4606258307e+01    0.2757813    0.2100091 -55.84  0.001012118    1.703    0.413
        31 -13.3673    101.9160    246.6172   1.3012666163e+02   1.2046750349e+01    0.3334398    0.2435589 -42.87  0.002130513    1.909    0.476
        32 -11.4286    144.5990    179.2551   1.1223766487e+02   1.7238584071e+01    0.3061676    0.1754567 -36.90  0.001433494    2.046    0.511
        33 -12.5987    141.7759    175.2349   1.1222189886e+02   1.8478722944e+01    0.8999686    0.5448133  -3.28  0.003516988    3.060    0.673
        34 -12.6105    137.8690    171.3133   1.1248657105e+02   1.9915220031e+01    0.3779575    0.3346206  80.07 0.0009565682    1.421    0.296
        35 -12.8510    204.4361    176.1964   9.8971152791e+01   7.7042308403e+00    0.6324738    0.3885208 -53.80  0.002971092    2.919    0.657
        36 -11.3069    201.5132    169.0197   9.8164551199e+01   9.2455198668e+00    0.3427171    0.2706159 -72.28  0.001660105    2.535    0.605
        37 -12.2772    204.4765    165.5997   9.6936597185e+01   9.2712770775e+00    0.4960032    0.3362621 -39.68  0.001696208    1.639    0.390
        38 -10.3970    198.9072    178.1735   1.0039496309e+02   8.2962700345e+00    0.1860052    0.1684046  19.49 0.0005705973    1.257    0.204
        39 -12.9532    193.8799    166.7864   9.9217804331e+01   1.0871108593e+01    0.7194754    0.4054741 -49.21  0.001303701    2.437    0.590
        40 -11.5259    190.2597    155.8700   9.7759672550e+01   1.3264112965e+01    0.4639603    0.4091905 -24.90  0.002300721    1.193    0.162
        41 -11.5201    230.1787    166.4833   9.2536691618e+01   5.0667488299e+00     0.280662    0.1567742 -45.68  0.001390318    2.521    0.603
        42 -11.9350     25.1482    165.7228   1.4216692450e+02   3.7065274037e+01    0.2675949    0.2047622  11.27 0.0008476514    1.606    0.377
        43 -11.8530    121.1909    164.4700   1.1550372914e+02   2.4229668032e+01    0.4579967    0.2568348  54.89  0.001119727    2.136    0.532
        44 -10.6528    141.2509    164.0164   1.1035104840e+02   2.0747115027e+01    0.1941441    0.1829957  20.75 0.0001995955    1.069    0.065
        45 -11.2647    166.9737    155.3363   1.0260707908e+02   1.7642246853e+01    0.2420425    0.2119847 -82.18   0.00104162    1.617    0.381
        46 -13.8252    133.9625    145.5485   1.0859763121e+02   2.5904044782e+01      1.44693    0.4362765 -55.78  0.003749604    5.478    0.817
        47 -12.6269    142.2656    138.9757   1.0506029501e+02   2.5655446421e+01    0.4012629    0.3431973 -69.57  0.001507174    1.419    0.295
        48 -13.3487    135.9468    127.7172   1.0416572383e+02   2.9339086764e+01     2.425774    0.3916305 -50.40  0.004230339   10.572    0.905
        49 -11.6929    134.6214    106.1888   9.9126697338e+01   3.4294815864e+01    0.4598444    0.2146632 -40.23  0.001641194    2.270    0.559
        50 -10.8660    174.4564    148.9524   9.9626001732e+01   1.7382996599e+01    0.2694181     0.238583  45.19 0.0007601948    1.243    0.196
        51  -9.6919    167.4977    133.9636   9.7866402305e+01   2.1522479626e+01    0.2096436    0.1456932 -39.44 0.0003443788    1.476    0.323
        52 -11.7883    160.4785    127.5480   9.7985250174e+01   2.4215990490e+01    0.4353516    0.3116863 -53.52   0.00137315    1.625    0.385
        53 -12.9997    144.3973    146.0644   1.0603800862e+02   2.3769681267e+01    0.6275163    0.4281016 -72.52  0.002661121    2.358    0.576
        54 -12.6466    113.9357    118.9285   1.0831970937e+02   3.5845311573e+01    0.4671503    0.3638457 -70.18  0.002171066    1.496    0.332
        55 -11.6854    168.0739    248.7063   1.1715041683e+02   3.0752565049e+00    0.2271712    0.1761401 -28.80 0.0009688183    1.613    0.380
        56 -10.7149    168.3395    113.1813   9.2656645929e+01   2.5287501480e+01    0.3803193     0.275517 -89.31  0.001263641    2.329    0.571
        57 -11.0222    205.0049    110.4825   8.4764908764e+01   1.7903103631e+01    0.3575926    0.2565029  23.81   0.00117722    1.580    0.367
        58 -12.8000    117.3290    109.2360   1.0489333550e+02   3.7399795859e+01    0.4270044    0.3359338  37.19  0.001644147    1.250    0.200
        59 -10.2787    131.7428    235.9808   1.2291276054e+02   9.6859468585e+00    0.1533258    0.1278727  33.93 0.0003412345    1.142    0.125
        60  -9.8863    139.8327    250.1151   1.2280330756e+02   6.5913606993e+00    0.1749905    0.1219715  40.06 0.0007715518    1.269    0.212
        61 -10.3652    219.2687    224.3462   1.0438885505e+02  -6.3938337395e-01    0.1512783    0.1305711 -24.36 0.0002472979    1.660    0.398
        62 -10.5244    147.2335     80.8049   8.8516042885e+01   3.6494283659e+01    0.2210052    0.1903787   9.77 0.0006133295    1.334    0.250
        63 -10.9356     92.4168     79.0160   1.0449081252e+02   4.9699698313e+01    0.2867156    0.2290292  39.88 0.0005300903    1.241    0.194
        64 -12.3984    125.0027    247.2750   1.2547954573e+02   8.9409474516e+00    0.2676906    0.1622491 -53.90  0.001697839    2.261    0.558
        65 -10.2234    150.7641    247.7963   1.2039448938e+02   5.4597510722e+00    0.1598534    0.1213689  19.49 0.0005585126    1.122    0.109
        66 -11.7190    133.6051    249.6317   1.2398984373e+02   7.4760606120e+00    0.1985053     0.166339 -25.61  0.001485053    1.542    0.352
        67 -10.8401     13.4865     59.5867   1.3603762118e+02   6.5015827921e+01    0.2298054    0.1979123 -66.76 0.0004884377    1.029    0.028
        68 -11.1207     20.2108    219.2859   1.4575019121e+02   2.6168279376e+01    0.1777038    0.1074201  36.09  0.001147497    1.359    0.264
        69 -12.8927    175.2752     33.0795   6.7965623915e+01   3.6769072003e+01    0.4118532    0.3839171  31.74  0.000895551    1.222    0.181
        70 -11.4522    187.8905     30.7154   6.5633260340e+01   3.3774037555e+01    0.2403078    0.2026119 -13.54 0.0007388648    1.352    0.260
        71 -10.9244    128.7258     27.9115   7.4133333911e+01   5.0164305756e+01    0.2796127    0.2118193  74.80 0.0004303649    1.311    0.237
