#   1 NUMBER                 Running object number                                     
#   2 MAG_AUTO               Kron-like elliptical aperture magnitude                    [mag]
#   3 X_IMAGE                Object position along x                                    [pixel]
#   4 Y_IMAGE                Object position along y                                    [pixel]
#   5 X_WORLD                Barycenter position along world x axis                     [deg]
#   6 Y_WORLD                Barycenter position along world y axis                     [deg]
#   7 A_WORLD                Profile RMS along major axis (world units)                 [deg]
#   8 B_WORLD                Profile RMS along minor axis (world units)                 [deg]
#   9 THETA_WORLD            Position angle (CCW/world-x)                               [deg]
#  10 FWHM_WORLD             FWHM assuming a gaussian core                              [deg]
#  11 ELONGATION             A_IMAGE/B_IMAGE                                           
#  12 ELLIPTICITY            1 - B_IMAGE/A_IMAGE                                       
         1 -13.1969     90.4440    166.8320   1.3125805788e+02   3.0303177428e+01     2.689051    0.5113274  46.42  0.007605357    5.017    0.801
         2 -13.9319    187.4854     21.9613   7.2029869080e+01   3.4799642472e+01     2.110143     1.261055  -9.06   0.00753368    2.058    0.514
         3 -14.2062    194.4532     16.5017   6.9597124190e+01   3.3528691016e+01     1.641019     1.563443 -65.00  0.006160704    1.045    0.043
         4 -13.9225    200.2130      9.0469   6.6831149081e+01   3.2760416914e+01      1.68796    0.7680549  56.20  0.001484864    2.244    0.554
         5 -12.0128     33.0000      9.5006   1.1227420387e+02   7.3918066209e+01    0.8438573    0.1454046 -46.17  0.002482485    5.154    0.806
         6  -9.4619    125.3627    185.4161   1.2555287966e+02   2.1223143145e+01    0.2622442    0.1091793  27.55 0.0009509744    3.396    0.706
         7 -11.5289    248.4624    249.1301   1.1199812608e+02  -4.4845386273e+00    0.3671516    0.2007899  15.77  0.002716847    1.385    0.278
         8 -12.0688    140.4114    250.0129   1.3005947030e+02   9.4647709786e+00    0.5217782    0.1350578  38.11  0.002389642    2.630    0.620
         9 -11.5062    120.4231    239.6540   1.3275701460e+02   1.3536464690e+01    0.2673189    0.1862228  81.41  0.001339864    2.113    0.527
        10 -12.2804    127.5713    244.5682   1.3188195071e+02   1.1900794737e+01    0.3451056    0.2301537  15.82  0.002269001    1.855    0.461
        11 -11.1204    124.3281    242.6659   1.3230575655e+02   1.2594848478e+01    0.2170763    0.1396114  54.88  0.001025365    1.551    0.355
        12 -11.7936     94.6957    239.8878   1.3766116622e+02   1.6944152546e+01    0.5170055    0.1614169 -61.32  0.002580577    4.149    0.759
        13 -12.9051    108.6182    248.7926   1.3575862180e+02   1.3875168007e+01    0.9046385    0.2136288  39.80  0.003594703    2.689    0.628
        14 -11.7106     98.7436    249.7583   1.3765557120e+02   1.5022354628e+01    0.4577787    0.1866209  42.17  0.002128877    1.649    0.393
        15 -11.0363    101.5067    246.4993   1.3689381903e+02   1.5117233224e+01     0.186126    0.1340609  51.40 0.0009433369    1.176    0.150
        16 -13.9448     32.7207    246.1875   1.4955646063e+02   2.3205338992e+01     1.655422    0.5565572  35.81  0.009649615    2.089    0.521
        17 -16.0162     11.3058    237.3588   1.5315059811e+02   2.6651575969e+01     6.995998     1.218937 -73.57   0.03120482    5.766    0.827
        18 -15.6621      2.5646    146.7434   1.5243018788e+02   4.4541593009e+01     16.78208          nan -81.47   0.03120742   16.814    0.941
        19 -11.1731     85.7643    176.2527   1.3355744780e+02   2.9105744534e+01    0.2265859    0.2036304  61.60 0.0003522575    1.109    0.098
        20 -13.3325     73.6860    173.7111   1.3620920403e+02   3.1320507926e+01    0.4222371    0.2883389 -40.36  0.001576575    2.136    0.532
        21 -11.2464    173.6810    221.1355   1.2064172878e+02   8.2832386052e+00    0.2410279    0.1328106  36.15  0.001442951    1.367    0.268
        22 -13.3229     58.0897    131.3919   1.3539481451e+02   4.2702209132e+01     1.741137    0.5957438 -81.03  0.004987152    5.507    0.818
        23 -11.2361    125.4253    174.7557   1.2400217597e+02   2.3107652676e+01    0.4443532    0.1874364  34.33  0.001857432    2.254    0.556
        24 -13.7781      9.8637    207.3660   1.5267608352e+02   3.1861148775e+01     0.898608    0.7009922  11.81  0.003941908    1.862    0.463
        25  -8.8541    194.3453    157.3345   1.0632821248e+02   1.3518383146e+01    0.1420198   0.09307753  12.61 -0.0001326446    1.767    0.434
        26 -12.1566     48.4794    151.4920   1.4043791432e+02   3.9271340911e+01    0.5752184    0.1882742 -71.17  0.002352147    2.991    0.666
        27 -10.3798    103.3106    150.9503   1.2568291154e+02   3.1521727932e+01    0.2680988    0.2612785  70.71 0.0009418441    1.133    0.117
        28  -9.6157    105.5102    146.9977   1.2445912180e+02   3.1974552656e+01    0.3193637    0.2193461 -31.17  0.001530448    2.084    0.520
        29 -12.1954     92.3524    150.3034   1.2845130432e+02   3.3461854909e+01    0.2691053    0.2470971  21.41  0.000507987    1.262    0.208
        30 -10.2224    134.2542    147.0344   1.1723375197e+02   2.6725049317e+01    0.5711426    0.1606858 -53.69   0.00167179    4.990    0.800
        31 -12.3732     55.0190    144.8542   1.3794003076e+02   3.9982989823e+01    0.4895728    0.3007089 -57.81   0.00260119    1.772    0.436
        32  -8.8144    192.0133    144.0418   1.0409224408e+02   1.5932311072e+01    0.1604602    0.1432907   2.41 0.0004146763    1.075    0.069
        33 -10.1594    112.9529    136.3827   1.2059165683e+02   3.2886047284e+01    0.3433315    0.2594056  -2.68  0.001093125    1.996    0.499
        34 -11.1955     70.4280    134.8563   1.3223434494e+02   4.0230132002e+01    0.3916835    0.1874893  35.35  0.001290924    1.978    0.494
        35 -10.7436    100.6473    133.5229   1.2339080216e+02   3.5718088488e+01    0.2734107    0.2448667 -18.45  0.001033968    1.387    0.279
        36 -13.8083     51.4380    230.2661   1.4537177761e+02   2.3715398034e+01     1.223385    0.5060692  76.63  0.003047566    3.040    0.671
        37 -12.7324     44.6297    130.4272   1.3932508874e+02   4.4538042846e+01    0.5294096    0.2646095 -82.15  0.002481101    2.042    0.510
        38 -11.5889     50.2402    130.0269   1.3758212748e+02   4.3988721529e+01    0.3195402    0.2442408  69.04 0.0006953723    1.198    0.165
        39  -9.6364    109.0680    123.4789   1.1907007146e+02   3.6386749692e+01     0.201679     0.191363  66.02 0.0003602187    1.034    0.033
        40 -15.5778     59.1053    215.8856   1.4300269816e+02   2.5239775371e+01     7.478362     1.041473  40.18   0.02374074    3.436    0.709
        41 -11.1018    168.3284    113.4758   1.0199360422e+02   2.5893816776e+01    0.3967081    0.3162057 -78.89  0.001205083    1.729    0.422
        42  -9.5799    118.1858    128.8521   1.1770249312e+02   3.3490175070e+01    0.2006769     0.175682   6.42 0.0006399674    1.366    0.268
        43 -13.4097     67.2931    144.1265   1.3441159455e+02   3.8553517165e+01     1.186693     0.630919  74.57  0.005143314    2.459    0.593
        44  -9.4683    184.6892     77.6442   8.9223913031e+01   2.8029923274e+01    0.1577772    0.1142213  17.77 0.0007043594    1.732    0.423
        45 -10.8394    193.0075    194.8583   1.1322625376e+02   8.6109371073e+00    0.6767532    0.3800082 -61.01  0.002258556    7.633    0.869
        46 -11.9119     73.3333    195.1460   1.3836795646e+02   2.7187516627e+01    0.3880843    0.3227274 -39.12  0.002139928    1.728    0.421
        47 -11.8390     77.8211    188.2147   1.3670254775e+02   2.7895160940e+01    0.2731651    0.2435218 -40.95 0.0008304153    1.527    0.345
        48  -9.2125    113.0066    193.4857   1.2933836291e+02   2.1783268025e+01    0.1767619    0.1031742  18.28 0.0008103544    2.563    0.610
