#   1 NUMBER                 Running object number                                     
#   2 MAG_AUTO               Kron-like elliptical aperture magnitude                    [mag]
#   3 X_IMAGE                Object position along x                                    [pixel]
#   4 Y_IMAGE                Object position along y                                    [pixel]
#   5 X_WORLD                Barycenter position along world x axis                     [deg]
#   6 Y_WORLD                Barycenter position along world y axis                     [deg]
#   7 A_WORLD                Profile RMS along major axis (world units)                 [deg]
#   8 B_WORLD                Profile RMS along minor axis (world units)                 [deg]
#   9 THETA_WORLD            Position angle (CCW/world-x)                               [deg]
#  10 FWHM_WORLD             FWHM assuming a gaussian core                              [deg]
#  11 ELONGATION             A_IMAGE/B_IMAGE                                           
#  12 ELLIPTICITY            1 - B_IMAGE/A_IMAGE                                       
         1 -14.4317    158.8102     52.4105   8.2145605138e+01   3.9027509652e+01     1.651692     1.298647   1.01  0.005773447    1.595    0.373
         2 -14.2914    170.6454     37.0001   7.5424466470e+01   3.8249931964e+01    0.9603384    0.8931152 -38.45  0.003527261    1.166    0.143
         3 -12.1038    189.8816     14.6875   6.6460474842e+01   3.6116437793e+01    0.3789435    0.2368357 -49.06   0.00140849    1.667    0.400
         4 -13.9583    187.1603      5.0425   6.4309812534e+01   3.7766172111e+01    0.9598376    0.6088126  68.44  0.004069332    1.345    0.257
         5 -11.6839    168.8785    234.4247   1.2174708158e+02   1.4419590673e+00    0.2433568    0.2121027 -71.06 0.0006121668    1.389    0.280
         6 -19.1622     69.7385    239.9624   1.4099378271e+02   1.6755049076e+01     6.826027     5.314215  82.17    0.0413193    1.108    0.097
         7 -13.9885    194.4923    194.0060   1.0970491679e+02   3.6689364839e+00     1.171132    0.8200216 -68.09  0.003145284    2.128    0.530
         8 -11.9811    136.6590    197.5045   1.2243104978e+02   1.4254556252e+01    0.4238476    0.2776485  77.57  0.001924101    2.067    0.516
         9 -11.4577    208.5395    197.0475   1.0750811607e+02   4.2945509619e-01    0.2540571    0.1910742  56.72 0.0006824478    1.545    0.353
        10 -10.8706    175.0902    194.0345   1.1368340274e+02   7.4848238559e+00     0.224175    0.1742658  84.07 0.0006360439    1.720    0.419
        11 -11.0259    180.0701    192.3149   1.1232568768e+02   6.8258511556e+00    0.2514952    0.2106097 -60.24 0.0005464594    1.354    0.261
        12 -12.0243    167.4216    191.5220   1.1482120381e+02   9.4939555254e+00    0.4119935      0.24534  32.48   0.00150635    1.865    0.464
        13 -10.3016    156.6628    191.3004   1.1706752237e+02   1.1669032109e+01    0.1480635     0.109769  75.39 0.0007035406    1.661    0.398
        14 -10.6495    176.5128    188.0233   1.1224464058e+02   8.3613964577e+00    0.2149585    0.1442548 -46.19 0.0006481116    1.583    0.368
        15 -10.9222    184.3482    186.7595   1.1036655241e+02   7.0297231968e+00    0.2533531    0.2033623  40.39  0.000673743    1.181    0.153
        16 -19.1691     53.4485    100.8821   1.2488436059e+02   4.9726626273e+01     17.20657    0.8946914 -57.17   0.02632287   17.038    0.941
        17 -11.3449    163.1390    210.6601   1.1909876529e+02   6.6587025131e+00    0.3094909    0.2038082 -56.19  0.001132413    1.751    0.429
        18 -12.2044     39.1163    183.5570   1.4133115145e+02   3.2405451872e+01    0.2422189    0.1726508 -74.64 0.0004558582    1.200    0.167
        19 -12.8491    206.6274    180.0441   1.0449550983e+02   3.8151827777e+00    0.8426654    0.4453169  32.69  0.002956843    2.141    0.533
        20 -12.7031    196.6808    172.4217   1.0491088844e+02   7.2622040486e+00    0.9076696     0.457145 -53.56  0.002729601    2.497    0.599
        21 -10.0182     26.9584    180.0284   1.4346040696e+02   3.4498769618e+01    0.1510154    0.1269936 -57.66 0.0004694068    1.456    0.313
        22  -9.8204     17.5610    180.7536   1.4541097841e+02   3.5268699056e+01    0.1041045   0.08096924 -45.63 0.0004023135    1.780    0.438
        23 -10.4876      3.5560    211.9111   1.5027075609e+02   3.0095416807e+01    0.1066613   0.07487916 -61.24 0.0006409268    1.752    0.429
        24 -13.4202    137.5204    171.6960   1.1762625119e+02   1.9614472680e+01    0.8954011    0.4742742  55.34   0.00362034    2.068    0.516
        25 -11.4644    149.0140    174.0024   1.1547698129e+02   1.6812164314e+01    0.2336596    0.2192515  62.21 0.0007758903    1.015    0.014
        26 -11.2814      6.5177    220.6686   1.5031194795e+02   2.8082889031e+01    0.1480387   0.07438733 -67.19 0.0009271504    1.898    0.473
        27 -11.6454    140.6922    199.6636   1.2193094466e+02   1.3053128273e+01    0.2860752    0.2538021 -23.62  0.001330873    1.419    0.295
        28 -12.0571    143.6342    167.9089   1.1548966143e+02   1.9225947453e+01    0.4893723    0.3280075  76.08  0.002076252    2.073    0.518
        29 -10.9422    223.9609    164.4147   9.7844977965e+01   3.1910588218e+00    0.2601426    0.1937127 -52.74 0.0006030218    1.518    0.341
        30  -9.8372    201.6463    165.3305   1.0239190378e+02   7.5915725566e+00    0.1510668    0.1192357 -88.14 0.0007046055    1.779    0.438
        31 -10.1194     25.3129    165.4575   1.4232633663e+02   3.7902400310e+01     0.178295    0.1233189  25.68  0.001103931    1.978    0.495
        32 -10.8080    114.5482    160.8203   1.2090614640e+02   2.6472265760e+01    0.3905033    0.1716304  54.68  0.001390709    2.769    0.639
        33 -11.0926    237.4327    159.2586   9.4262406918e+01   1.4519383581e+00    0.1980546    0.1263046 -46.54 0.0008433379    1.625    0.384
        34 -11.9217     24.8608    156.7112   1.4146476698e+02   3.9915999831e+01    0.4925103    0.2290862  48.05  0.002584285    2.288    0.563
        35 -10.9846    140.1806    156.7784   1.1401186031e+02   2.2401292517e+01    0.2242815    0.1982409  79.47 0.0003923389    1.160    0.138
        36 -11.7443    162.4625    154.3736   1.0836257281e+02   1.8234693451e+01    0.4133116    0.3197294 -76.23  0.001930062    1.574    0.365
        37 -13.6076    133.7965    145.5422   1.1312022232e+02   2.6246274045e+01     1.206735    0.4979181 -55.93  0.004105903    2.722    0.633
        38 -11.0756     26.9676    150.4678   1.4025227762e+02   4.1134435909e+01     0.247852    0.1759518  61.24  0.001563818    1.471    0.320
        39 -10.9481    174.6487    148.9210   1.0443020286e+02   1.6733713592e+01    0.2841879    0.2423454 -84.11 0.0007134262    1.353    0.261
        40 -12.7622    144.4802    145.8654   1.1063027741e+02   2.3953915045e+01    0.5534946     0.408246  78.15  0.002478169    1.723    0.420
        41 -10.1973    179.1185    206.1072   1.1506070576e+02   4.4508966183e+00     0.200148    0.1771227  20.31 -0.0006383859    1.158    0.137
        42 -12.8371    104.5243    138.5076   1.1890646877e+02   3.3491961343e+01     0.432722     0.328518  74.28  0.002130543    1.530    0.346
        43 -12.9895    114.8785    138.2372   1.1620708330e+02   3.1653413522e+01     0.688872    0.5070334 -16.08   0.00307507    2.056    0.514
        44 -11.0110    158.8755    206.1264   1.1920895100e+02   8.3224832337e+00    0.3115993    0.2187824  54.52  0.001609211    1.376    0.273
        45 -12.4804      8.3185    139.4301   1.4329669820e+02   4.5189109428e+01    0.2666633    0.2537994 -65.35  0.002092208    1.320    0.242
        46 -10.5185    171.6762    137.9744   1.0254284413e+02   1.9711626683e+01    0.2207198    0.2024692 -57.53 0.0006130736    1.095    0.087
        47 -12.4962    106.0454    130.8205   1.1684097943e+02   3.5011360830e+01    0.4271949    0.3594002 -70.71  0.001375649    1.185    0.156
        48 -11.5596    108.1376    125.4367   1.1506505484e+02   3.5873814395e+01    0.2871456    0.2633094 -16.94 0.0005742236    1.241    0.194
        49 -12.6940    119.3546    129.6022   1.1311416016e+02   3.2784839583e+01    0.4858123    0.4003114 -40.93  0.001157555    1.248    0.198
        50 -13.1655    125.6821    127.6178   1.1103019902e+02   3.1978326012e+01    0.7756197     0.491844  84.14  0.002797886    2.945    0.660
        51 -11.8173      8.0884    111.6996   1.3985894122e+02   5.1354555072e+01     0.289299    0.2015681 -12.07  0.001403444    1.999    0.500
        52 -11.6304    160.4531    127.5048   1.0255188153e+02   2.4490352335e+01    0.4212004    0.2622681 -55.51  0.001738377    1.750    0.429
        53 -13.0264      2.9467    126.2085   1.4306141904e+02   4.8492505011e+01     1.081217    0.2741074 -74.90  0.004025816    3.754    0.734
        54 -11.4486    113.5946    118.6618   1.1200393836e+02   3.6392584168e+01    0.2687151    0.2497634  83.07 0.0004972671    1.122    0.109
        55 -11.6760      2.4914    112.5158   1.4145736018e+02   5.1526034131e+01    0.2768337    0.1544243 -56.63  0.001715107    1.416    0.294
        56 -12.8193    135.5222    122.3926   1.0727639497e+02   3.1108702653e+01    0.6677086    0.3278313 -54.48  0.002465358    2.229    0.551
        57 -11.5526    167.6140    113.2237   9.7311398792e+01   2.5848933717e+01    0.4379641    0.3274398  75.01   0.00123302    1.629    0.386
        58 -11.2941    134.6434    106.0060   1.0326968725e+02   3.4863473443e+01    0.5194909    0.1450265 -47.83  0.001456691    3.754    0.734
        59 -12.8132     85.2243    109.2598   1.1752309511e+02   4.3497749791e+01    0.4952219    0.2962589 -47.35  0.002337617    1.537    0.349
        60 -10.8374    205.5077    110.1790   8.8739959612e+01   1.7472664564e+01    0.3284361    0.2219931  44.86 0.0008977805    1.570    0.363
        61 -11.4519    163.7800    204.7412   1.1795847346e+02   7.6478741305e+00    0.3714129     0.245717 -55.37 0.0005020451    1.713    0.416
        62 -10.9984     25.1759    108.8288   1.3470708278e+02   5.0736546417e+01    0.1703789    0.1191715 -46.08 0.0004038737    1.333    0.250
        63 -10.1389     93.2869    100.6251   1.1304759103e+02   4.4088334306e+01    0.1457303    0.1123672 -83.64 0.0007018208    1.720    0.419
        64 -10.5653    124.9661     81.3389   9.8808888293e+01   4.1947922818e+01    0.2112376    0.1921868  40.12 0.0006116547    1.104    0.094
        65 -10.0787    147.2695     79.3452   9.2666150806e+01   3.7312944673e+01    0.1520206    0.1199861   5.39 0.0004269344    1.614    0.381
        66  -9.9065     93.5162     79.4563   1.0707577836e+02   4.8449345157e+01     0.139732    0.1307782 -25.57 0.0001892413    1.023    0.022
        67 -10.7544     33.0693    206.4822   1.4466951686e+02   2.8154597800e+01    0.1899855    0.1159432  31.06  0.001120387    2.229    0.551
        68 -11.6572     13.2885    245.7908   1.5068254962e+02   2.2641021486e+01    0.3040671   0.06519568 -68.68  0.001396562    3.829    0.739
        69  -9.9554     24.3412    206.2625   1.4624913053e+02   2.9161127465e+01   0.09786286   0.08257417 -59.93 0.0003573299    1.593    0.372
        70 -13.1454    174.9176     29.3178   7.2540596798e+01   3.8151524237e+01    0.5046872    0.4199311  -7.32  0.001451081    1.472    0.321
        71 -11.2220     14.1491     58.9382   1.2784132046e+02   6.1963383878e+01    0.2870032    0.1576853 -35.40  0.001743629    1.577    0.366
        72 -10.5676    131.4240     28.8562   8.0498129330e+01   4.8682667473e+01    0.2326187    0.1721739  65.72  0.000566236    1.392    0.281
        73 -12.6510    159.3577    235.7441   1.2377406559e+02   2.9143406193e+00    0.4130521    0.3016946  31.90  0.002397294    1.378    0.274
