#   1 NUMBER                 Running object number                                     
#   2 MAG_AUTO               Kron-like elliptical aperture magnitude                    [mag]
#   3 X_IMAGE                Object position along x                                    [pixel]
#   4 Y_IMAGE                Object position along y                                    [pixel]
#   5 X_WORLD                Barycenter position along world x axis                     [deg]
#   6 Y_WORLD                Barycenter position along world y axis                     [deg]
#   7 A_WORLD                Profile RMS along major axis (world units)                 [deg]
#   8 B_WORLD                Profile RMS along minor axis (world units)                 [deg]
#   9 THETA_WORLD            Position angle (CCW/world-x)                               [deg]
#  10 FWHM_WORLD             FWHM assuming a gaussian core                              [deg]
#  11 ELONGATION             A_IMAGE/B_IMAGE                                           
#  12 ELLIPTICITY            1 - B_IMAGE/A_IMAGE                                       
         1 -17.7255     47.6522    163.6629   1.1806908641e+02   3.5471848080e+01     5.324043     2.686325 -74.58   0.02281719    1.780    0.438
         2 -18.1238     71.2369    209.8892   1.1786191225e+02   2.2592058105e+01     5.759428     2.809179  56.79   0.03022281    1.842    0.457
         3 -18.0850     72.5928    185.4715   1.1499592094e+02   2.7445032114e+01     5.678872     4.153551  43.58   0.03418001    1.373    0.271
         4 -14.8230    243.8481      9.3003   3.9244889935e+01   2.3192466652e+01    0.6997876    0.5800641 -38.84  0.004475328    1.247    0.198
         5 -11.9901     64.9748     10.9941   7.2198362852e+01   6.5228206346e+01    0.2019302    0.1646477   3.18 0.0009561999    1.025    0.024
         6 -12.2924     85.9471      7.6828   6.3603323999e+01   6.1683311386e+01    0.1848287    0.1524935  34.95 0.0004603413    1.110    0.099
         7 -12.3736    230.0173      1.9822   3.8635264605e+01   2.7177153138e+01    0.2030701    0.1726006 -75.57 0.0008959101    1.016    0.016
         8 -10.5359    132.2643    247.7087   1.1028251918e+02   6.8095528964e+00    0.1126411   0.07619549  62.99  0.000335321    1.501    0.334
         9 -16.7678    190.7557    224.4063   9.6306907442e+01   7.1520450577e-01     1.596836     1.095297 -39.28  0.009606038    1.724    0.420
        10 -13.0677    166.5046    241.4901   1.0327470923e+02   2.2758503949e+00    0.2400969    0.1410416  52.84  0.001065493    1.708    0.415
        11 -11.3749    104.9545    237.9276   1.1422710086e+02   1.2566590506e+01     0.160674    0.1393953   5.51  0.001086843    1.771    0.435
        12 -11.0751    100.1906    243.7556   1.1566161843e+02   1.2298443924e+01    0.1929478    0.1625084 -36.96  0.001347034    1.838    0.456
        13  99.0000     95.0767    241.8910   1.1640588544e+02   1.3354300504e+01    0.3013602    0.1978186  67.01  0.001947622    1.385    0.278
        14  99.0000    100.5892    238.1100   1.1504578534e+02   1.3186429134e+01    0.3632948    0.2433315 -63.08  0.002346332    1.749    0.428
        15 -15.9189    188.2814    239.4096   9.9008456450e+01  -9.5191575055e-01     1.686136    0.8832302  24.41  0.008488969    2.200    0.546
        16 -15.9663    175.7493    225.1541   9.9247830024e+01   3.1339223759e+00      1.17935    0.6468415  32.85  0.006147366    1.675    0.403
        17 -13.1583    125.6322    217.5642   1.0794287132e+02   1.2853716620e+01    0.5500804    0.3003415  40.35  0.002586639    1.609    0.378
        18 -13.0233    123.2068    210.7219   1.0753489175e+02   1.4499584750e+01    0.5386073    0.3750944 -81.55  0.003010249    1.759    0.431
        19 -10.9554    141.0349    229.0417   1.0642052124e+02   8.3483219806e+00    0.1408695    0.1264928  54.07 0.0005532457    1.106    0.096
        20 -11.3747     24.0297    225.6642   1.2771018842e+02   2.5262114055e+01     0.263275    0.1313137 -59.85  0.001584848    2.517    0.603
        21 -11.7525     27.9431    219.3043   1.2666776311e+02   2.6036242900e+01      0.30768    0.1944352 -69.75  0.002119972    1.662    0.398
        22 -10.7416     25.0000    216.9796   1.2704714691e+02   2.6792462846e+01    0.2522298    0.1167703 -82.10  0.001498144    1.899    0.473
        23 -16.1664    179.0401    206.3934   9.5653066026e+01   5.4875903733e+00     0.960785    0.6585405  40.57  0.005360978    1.270    0.213
        24 -12.9975    148.1790    232.0004   1.0544372491e+02   6.6957290321e+00    0.3395343     0.248502 -37.81  0.002037717    1.767    0.434
        25 -11.0746    146.8982    223.5878   1.0456799661e+02   8.2666978782e+00    0.1861262    0.1411129 -60.30 0.0008574393    1.602    0.376
        26 -11.5689    140.1534    223.5741   1.0587652033e+02   9.3998502213e+00    0.3209153    0.1067622  39.91  0.001297981    2.595    0.615
        27 -12.2746    140.9756    217.5492   1.0490095241e+02   1.0286669966e+01    0.3829962     0.265303 -57.99  0.001303375    1.710    0.415
        28 -13.1291    156.6613    213.4106   1.0119464634e+02   8.2890495673e+00    0.3163607    0.2093502 -29.38  0.001189701    2.068    0.516
        29 -11.6478     13.5050    216.1810   1.2900533945e+02   2.8114192852e+01    0.2252626    0.1609634 -75.22  0.001700727    1.472    0.321
        30 -10.5750      9.2806    217.2820   1.2978251662e+02   2.8314981703e+01   0.08809556   0.07224958 -75.19 0.0006924871    1.512    0.339
        31 -12.1840    149.0450    213.6851   1.0275026766e+02   9.5674758266e+00    0.2249628    0.1724059  78.31 0.0008124578    1.637    0.389
        32 -12.1462    131.5948    211.9497   1.0600511508e+02   1.2866481847e+01    0.2894895     0.208601 -76.30   0.00127265    1.698    0.411
        33 -15.5521    177.7387    233.9031   1.0015405776e+02   1.5228294732e+00    0.6833435    0.5961727 -22.29  0.004756869    1.358    0.264
        34 -10.8092      8.6500    211.2497   1.2959318049e+02   2.9522419264e+01      0.11171   0.05470465  62.81 0.0004904445    1.588    0.370
        35 -11.8805    154.0835    207.3188   1.0078523847e+02   9.7860320591e+00    0.1991342      0.14931  44.35 0.0008323597    1.154    0.133
        36 -14.0512    160.6602    200.5156   9.8369016063e+01   9.7977527150e+00    0.4761437    0.3859718 -75.32  0.001897358    1.579    0.367
        37 -11.2020     13.8965    202.8448   1.2821188772e+02   3.0664307139e+01    0.2005865   0.07831445  57.56 0.0009575477    2.118    0.528
        38 -11.2824     19.8420    211.5205   1.2764148450e+02   2.8376608228e+01    0.1412837   0.08774104  50.12 0.0005239451    1.422    0.297
        39 -11.2913      3.4509    201.3989   1.3001260493e+02   3.1913190733e+01    0.1040695   0.07862097  82.11 0.0004222845    1.119    0.107
        40 -11.4437    138.2413    193.3617   1.0188897144e+02   1.5177018787e+01    0.1998792    0.1126362  49.57 0.0008988848    1.641    0.390
        41 -14.2266    190.4406    190.3138   9.0573614283e+01   6.0496490162e+00    0.4202734    0.2928234  21.55  0.002189291    1.529    0.346
        42 -11.5977    135.9595    231.6699   1.0771978913e+02   8.7501148012e+00    0.2222138    0.1692738 -69.01  0.000756329    1.602    0.376
        43 -12.3096    166.2160    247.8878   1.0416025083e+02   1.4265518606e+00    0.2035109    0.1638215 -74.06  0.001104302    1.788    0.441
        44 -11.1021    138.0651    243.6981   1.0877171666e+02   6.5113817900e+00    0.1602482   0.08915749  35.42 0.0003914004    1.649    0.394
        45 -11.8562      7.4265    187.3557   1.2851745624e+02   3.4388677947e+01    0.1757838     0.119889  48.17  0.001252703    1.461    0.316
        46 -13.3357    118.4583    226.5313   1.1044532005e+02   1.2434535092e+01    0.6197335     0.427697  17.55   0.00334844    2.279    0.561
        47 -10.9344    155.3919    240.2646   1.0516175742e+02   4.2526949219e+00     0.139013    0.1147738 -78.91 0.0002650787    1.602    0.376
        48 -13.1947    174.5998    180.2110   9.1906687923e+01   1.0823864173e+01    0.2565646    0.2256925 -17.34  0.001466186    1.231    0.187
        49 -13.2689    164.1538    182.3908   9.4505993642e+01   1.2436038865e+01    0.3361839    0.2131906 -56.59  0.001331963    1.904    0.475
        50 -13.0907    165.6416    177.5752   9.3296536959e+01   1.3053262076e+01    0.2772741     0.243627   7.77  0.001559274    1.244    0.196
        51 -12.7730    140.9277    180.3414   9.9152878688e+01   1.7241016394e+01    0.3341856    0.2152778 -57.02 0.0008658685    1.719    0.418
        52 -13.4781    156.4906    176.8992   9.5137060881e+01   1.4959498461e+01    0.5410653    0.3455915  80.26  0.002116616    3.033    0.670
        53 -11.6345    145.0196    239.6603   1.0700634193e+02   6.0193266775e+00    0.1722465    0.1212417  43.57 0.0002837628    1.132    0.116
        54 -11.2045    147.6858    177.3145   9.7133895199e+01   1.6569597336e+01    0.1436758    0.1085276  75.45 0.0007034459    1.641    0.391
        55 -12.4324    140.0257    174.0075   9.8236048317e+01   1.8692439375e+01    0.2123159    0.1982816  55.89 0.0003344469    1.010    0.010
        56 -12.7132    135.9962    174.2500   9.9182104056e+01   1.9401289097e+01      0.26848    0.1936813  28.90  0.001086798    1.559    0.359
        57 -16.6003     43.8626    186.0898   1.2115985473e+02   3.0967021490e+01     3.076927     1.788858 -63.61   0.01798181    1.704    0.413
        58 -13.2708     15.9153    169.5429   1.2562455703e+02   3.7404852312e+01    0.2388404    0.1643054 -64.22 0.0008479189    1.482    0.325
        59 -12.1898     19.8349    167.2663   1.2461294890e+02   3.7546803575e+01    0.2462311    0.1328174  44.97 0.0008103153    1.811    0.448
        60 -12.1637    144.9473    170.0044   9.6400424761e+01   1.8569834253e+01    0.2215286    0.2061563  56.75 0.0005378126    1.020    0.020
        61 -12.6729    131.5491    167.9838   9.9069789352e+01   2.1545524752e+01    0.2855398    0.2555912 -66.07 0.0007057933    1.158    0.137
        62 -11.6924      7.3096    163.3013   1.2698287298e+02   3.9491843804e+01    0.1063127   0.07473043 -57.89 0.0007014016    1.603    0.376
        63 -12.2848    142.6039    160.6709   9.5144977755e+01   2.0964797716e+01    0.2541654    0.1705548  61.11 0.0006830466    1.690    0.408
        64 -11.7931    150.5011    158.4772   9.2898203939e+01   1.9849756284e+01    0.1480256    0.1395418  61.66 9.001751e-05    1.047    0.045
        65 -10.5866    140.2271    239.9965   1.0793546477e+02   6.7370632018e+00     0.128881    0.1016972 -58.33 0.0004829082    1.572    0.364
        66 -11.5054      2.1559    157.8349   1.2769690545e+02   4.1081571861e+01    0.1497779    0.1103827 -67.72  0.000533346    1.350    0.259
        67 -12.9235      7.6155    155.4286   1.2633519814e+02   4.1191740777e+01    0.2035926    0.1592769 -79.86 0.0005807622    1.150    0.130
        68 -10.9799    144.6646    153.3201   9.3187217886e+01   2.2109757434e+01    0.1542168    0.1165309  80.43 0.0006850675    1.704    0.413
        69 -14.5694    128.7997    150.5000   9.6377148671e+01   2.5859251234e+01     0.874291    0.3305867  49.37  0.003000126    2.814    0.645
        70 -14.1080    110.7897    139.3685   9.8599555078e+01   3.1765925658e+01    0.5133042    0.2680055  54.32  0.001959572    2.186    0.543
        71 -14.1255     98.1721    139.0056   1.0178552214e+02   3.4068562260e+01    0.4389959    0.2944985  78.00  0.001303738    1.947    0.486
        72 -12.8885      3.4178    139.8562   1.2604930143e+02   4.4966275317e+01    0.2910844    0.1749454  15.31  0.001777881    2.423    0.587
        73 -11.0183    129.9033    236.1260   1.0939840821e+02   8.9998625572e+00    0.3302078    0.2437003 -52.00   0.00213788    1.685    0.407
        74 -12.6006    129.1247    135.1385   9.3044562079e+01   2.9219794917e+01    0.2240831    0.2102419   5.92 0.0005032806    1.202    0.168
        75 -16.0540    103.4144    129.7238   9.8516135461e+01   3.5331796911e+01     1.805291    0.5902638  49.56  0.005535987    3.788    0.736
        76  99.0000    126.0132    236.2060   1.1013526483e+02   9.6042333574e+00    0.5458799    0.2144071 -65.47  0.002272243    4.125    0.758
        77 -10.8595    117.3829    236.1837   1.1174328676e+02   1.0960886377e+01     0.199527    0.1059075  47.45  0.000922737    1.503    0.335
        78 -13.5689     57.7552    113.3557   1.0801994740e+02   4.6108019179e+01    0.3472941    0.2076086  55.58  0.001683812    2.005    0.501
        79 -17.3703     95.2508    199.1018   1.1180532255e+02   2.1259487598e+01     2.602887     2.250778 -30.63   0.01619881    1.659    0.397
        80 -12.6875     97.3986    108.6666   9.5380882990e+01   4.1304836097e+01     0.280342    0.1895385  35.23  0.001093516    1.616    0.381
        81 -13.3907    152.6016    108.0159   8.0560134035e+01   3.0072447418e+01    0.5142347    0.2402911  50.92  0.001863302    2.214    0.548
        82 -12.1033      1.6976    105.2449   1.2312589822e+02   5.2912633332e+01     0.240666    0.1164243 -65.85 0.0007596935    1.537    0.349
        83 -12.6040    142.6959     96.0533   7.9696715072e+01   3.4828093927e+01    0.2699179    0.2233311  64.93 0.0008433679    1.322    0.244
        84 -13.9403     43.4971     82.8340   1.0613524328e+02   5.4843609150e+01    0.3792016     0.192938  30.46   0.00186858    2.263    0.558
        85 -13.3613     41.7848     70.9916   1.0383370966e+02   5.7661959973e+01     0.305078    0.2028933  32.36  0.001731149    1.751    0.429
        86 -11.6441     99.2543     61.8481   8.1148849422e+01   5.0989175991e+01    0.2431408    0.1675789 -80.58 0.0009636869    2.890    0.654
        87 -11.3928     55.9872     46.0000   9.0646725449e+01   6.1121776648e+01    0.1954598   0.07335341  34.24 0.0007990822    2.919    0.657
        88 -12.4356    126.0593     40.2058   6.5864728362e+01   4.8810117681e+01    0.4957528    0.2373917  47.55  0.001897371    1.982    0.496
        89 -15.9386    166.6037    212.5576   9.9097148440e+01   6.6882792047e+00     1.252224    0.5651709 -48.45  0.005736222    2.636    0.621
        90 -10.9625     34.2785     14.3386   8.6894495787e+01   6.9182527039e+01    0.1234818   0.07502206 -14.57 0.0004504294    1.618    0.382
        91 -15.4703    169.8434    202.2932   9.6801095061e+01   7.8235667979e+00     1.164937    0.4945178 -55.84  0.004437635    3.656    0.726
        92 -13.8057    159.6965    231.5181   1.0319977166e+02   4.8636511156e+00    0.4722756    0.3609707   7.38  0.001876031    1.692    0.409
        93 -12.8915    200.1339    246.6875   9.7927131187e+01  -3.7535464359e+00     0.166531    0.1585358   8.51 0.0004702597    1.323    0.244
