#   1 NUMBER                 Running object number                                     
#   2 MAG_AUTO               Kron-like elliptical aperture magnitude                    [mag]
#   3 X_IMAGE                Object position along x                                    [pixel]
#   4 Y_IMAGE                Object position along y                                    [pixel]
#   5 X_WORLD                Barycenter position along world x axis                     [deg]
#   6 Y_WORLD                Barycenter position along world y axis                     [deg]
#   7 A_WORLD                Profile RMS along major axis (world units)                 [deg]
#   8 B_WORLD                Profile RMS along minor axis (world units)                 [deg]
#   9 THETA_WORLD            Position angle (CCW/world-x)                               [deg]
#  10 FWHM_WORLD             FWHM assuming a gaussian core                              [deg]
#  11 ELONGATION             A_IMAGE/B_IMAGE                                           
#  12 ELLIPTICITY            1 - B_IMAGE/A_IMAGE                                       
         1  -9.3239    182.2539     10.4065   6.0426222717e+01   3.7889372451e+01     3.383642      1.97799  70.39   0.01524817    1.681    0.405
         2 -14.9082    207.2299     63.8240   7.3017324967e+01   2.5022083077e+01     11.77254     4.318902 -48.99   0.03205112    4.947    0.798
         3 -12.8505    185.8533     96.3481   8.6168785203e+01   2.5164194677e+01     3.384668    0.9017354 -40.28  0.009724039    3.963    0.748
         4 -14.7248    137.1849     29.6262   7.5578944084e+01   4.7633193432e+01     8.651134      7.67917 -57.25    0.0455456    1.345    0.256
         5 -14.7481    233.5162     63.4724   6.8911211311e+01   1.8857717630e+01     2.912139     1.792084 -40.60  0.008496266    1.636    0.389
         6 -14.8834    232.4251     11.2009   5.5062158697e+01   2.5005107413e+01     2.408756     1.096493  -7.76  0.005115401    2.978    0.664
         7 -16.5092    245.1924     23.4716   5.7062985390e+01   2.0805076139e+01     3.546659     2.283014  51.20   0.01258678    1.656    0.396
         8 -14.4940    249.1962      4.2424   5.1901307458e+01   2.1762883727e+01    0.8919681     0.527339  -1.24   0.00379916    2.169    0.539
         9  -9.2678     53.2863     18.5261   9.9406699793e+01   6.6410445316e+01    0.3332181    0.1679755 -39.28 0.0007184204    1.755    0.430
        10 -11.5005    119.1181      9.8823   7.1877647239e+01   5.4534846894e+01     0.738376     0.446468  38.86  0.002695362    1.539    0.350
        11  -9.0207    205.4894      8.4152   5.6974702615e+01   3.1967628008e+01    0.2516648    0.2136023 -77.26 0.0005412769    1.215    0.177
        12 -10.7723    208.8862      6.2520   5.5980962229e+01   3.1295000499e+01    0.3932828    0.2501538 -21.38 0.0004070003    1.603    0.376
        13  -8.8681     53.0000     13.9874   9.7365963436e+01   6.7227898220e+01    0.2749569    0.1188261 -42.71  0.001218538    2.215    0.548
        14  -9.8233      7.5496      8.4993   1.1994845580e+02   7.2635942778e+01    0.1818563   0.09570409  28.88  0.001043956    2.392    0.582
        15  -9.3088     79.9486      1.8785   7.9695059869e+01   6.4274313686e+01    0.2299087    0.1767231  -9.23  0.001305161    1.193    0.161
        16  -8.0763    209.3939      1.4560   5.4545272962e+01   3.1590667371e+01    0.1338118    0.1261749  42.95 0.0004431921    1.101    0.092
        17  -8.5678    234.9630    174.0000   9.4427884269e+01   3.9984051996e+00    0.2029037   0.06289383  42.31 0.0007060252    2.901    0.655
        18 -11.2398    249.2370    249.3286   1.0445863755e+02  -5.6090604292e+00    0.5900736    0.2074493  38.49  0.003289896    2.215    0.549
        19 -10.5580    228.6639    172.5451   9.5260894106e+01   5.2416902040e+00    0.2958518    0.1963938  23.45  0.001341971    1.266    0.210
        20  -8.7780    238.4646    172.4652   9.3523260714e+01   3.5959374177e+00    0.1301809    0.1002831  12.65 0.0001057883    1.001    0.001
        21 -12.3632     69.2875    147.2529   1.2585210268e+02   3.6508840273e+01     1.518787     1.038805 -60.61  0.007510582    1.464    0.317
        22 -12.2338     46.3381    167.8246   1.3333929463e+02   3.4853494350e+01    0.5135412    0.3749969  30.46  0.001277652    1.519    0.342
        23 -12.5798     53.2785    163.1306   1.3137959655e+02   3.5063146461e+01    0.7706301    0.5668776  59.71  0.002753862    1.202    0.168
        24 -11.8549     58.7849    158.4623   1.2965670453e+02   3.5406039079e+01    0.5572059    0.3520158  71.68  0.001552967    1.615    0.381
        25 -10.2521    217.4847    169.1248   9.6630936120e+01   7.6227736048e+00    0.7209841    0.3153249  55.66  0.002260493    5.511    0.819
        26  -9.9824    230.4969    167.4071   9.3933119623e+01   5.5657216883e+00    0.2524663    0.1192272 -29.36   0.00120987    2.165    0.538
        27  -9.6951    203.8824    161.2490   9.7657659921e+01   1.1168108885e+01    0.3066408    0.2516397 -79.38  0.001543947    2.298    0.565
        28  -9.5832    239.2350    162.5895   9.1442536502e+01   4.6541446127e+00    0.1897626    0.1009971  30.65 0.0009539028    1.678    0.404
        29  -7.9585     42.2693    247.3121   1.3896009191e+02   2.1632012543e+01   0.07380146   0.07058709  52.64 0.0001916042    1.547    0.354
        30 -13.0928    217.5693     54.4295   6.8733875895e+01   2.3762288015e+01      1.74595     1.004986  21.66  0.007045889    2.393    0.582
        31 -11.1473    237.6283    249.6602   1.0634303632e+02  -4.1180044918e+00    0.3844159    0.1606983  37.18  0.002314356    1.782    0.439
        32 -10.2287    249.2667    143.4338   8.5766870672e+01   5.2556689997e+00    0.2921384    0.1930388 -12.01  0.001628215    1.370    0.270
        33  -9.8249    192.0269    143.9725   9.6434555635e+01   1.6040901799e+01    0.2168121    0.1914549  21.89  0.000383849    1.062    0.058
        34 -11.7641    188.5006    137.4863   9.5741087314e+01   1.7783926169e+01    0.6299109    0.3187394  42.41  0.001934875    1.824    0.452
        35  -9.0698    157.5285    139.9228   1.0304960305e+02   2.3566360005e+01    0.2032326    0.1428201 -41.43 0.0005961215    1.541    0.351
        36  -8.6959    112.0277    138.1028   1.1368696925e+02   3.2250763913e+01    0.1926344    0.1849693  52.32 0.0003004466    1.014    0.014
        37 -10.7293    208.9629    134.0000   9.0854340526e+01   1.4185738074e+01    0.3423134    0.1875214  50.75  0.001513868    2.004    0.501
        38 -11.1019    203.7624    128.8750   9.0688841320e+01   1.6021543529e+01    0.5099104    0.2830325  -9.89  0.002025375    2.540    0.606
        39  -8.0702     97.0066    133.9957   1.1680371234e+02   3.5519357372e+01    0.1574128    0.1492252  61.04 0.0003732373    1.011    0.011
        40 -11.0061    170.9148     84.8008   8.6165387534e+01   3.0606277604e+01    0.9331213    0.5847439   6.18  0.002174461    2.397    0.583
        41 -13.7487    185.2851    121.8196   9.2792052545e+01   2.1035596317e+01     1.833424      1.37305  19.89  0.009184912    1.348    0.258
        42 -13.1834    168.8165    113.1748   9.4287108123e+01   2.6085439638e+01     1.768389     1.254664  16.85 0.0008974103    1.618    0.382
        43 -10.8394    177.9499     80.0815   8.3269967957e+01   2.9713686345e+01    0.4737584    0.3917794   1.65 0.0003737339    1.243    0.196
        44 -10.8817    186.6905     74.2017   7.9762057235e+01   2.8528882170e+01    0.4750294    0.3092904  22.97  0.001192181    1.825    0.452
        45 -10.8694    191.6122     71.2607   7.7948055861e+01   2.7773402624e+01    0.4114273    0.3505941  19.66 0.0008704861    1.158    0.136
        46 -11.3834    159.7701    129.2253   1.0019613975e+02   2.5073568119e+01     0.628374    0.3980613  30.44  0.002879577    1.613    0.380
        47 -10.2542    135.4740    129.4245   1.0607304394e+02   2.9830380012e+01    0.4346763     0.241759 -38.27  0.001894752    1.995    0.499
        48  -9.1859    134.6534    114.3971   1.0288619395e+02   3.2998667105e+01    0.5316435    0.1490546 -43.34  0.001413757    3.717    0.731
        49  -9.3138    135.2716    107.7914   1.0111635794e+02   3.4205064218e+01    0.5015708    0.2812284 -40.46  0.002134655    1.839    0.456
        50  -9.2368    134.6794    123.3309   1.0493905162e+02   3.1197639041e+01    0.2834888    0.2190568 -84.29   0.00103652    1.857    0.462
        51  -8.9666    135.0000    119.9631   1.0409649865e+02   3.1810917770e+01    0.3396454    0.1971406 -46.89  0.001038979    1.810    0.448
        52 -10.9769    218.0412    125.7462   8.7239455693e+01   1.3563615119e+01    0.4317196    0.2842068   1.86  0.001109546    1.696    0.410
        53  -9.9976    205.7558    122.9662   8.8909160169e+01   1.6514809767e+01    0.2849354    0.2084154 -19.68 0.0008834849    1.348    0.258
        54 -10.4184    202.4969    122.5559   8.9448948898e+01   1.7262616340e+01    0.2977944    0.2724149  13.44  0.001013329    1.085    0.078
        55 -11.4252    171.0725     94.6283   8.8898930307e+01   2.8869951084e+01     1.015257    0.8703486 -55.93  0.002968575    1.405    0.288
        56 -11.6139    215.6098    103.5922   8.2288898544e+01   1.7325048444e+01    0.6615004    0.4322082   0.27  0.003014569    1.788    0.441
        57 -11.4245    215.3729    117.0046   8.5653518656e+01   1.5394695364e+01    0.6771029    0.4469934 -48.41  0.003101338    2.004    0.501
        58 -10.6539    210.9584    112.1955   8.5299438121e+01   1.7049311924e+01    0.5613384     0.326062  15.52  0.001677871    2.333    0.571
        59 -11.9019    205.8357    110.3134   8.5803107589e+01   1.8443567758e+01    0.7425055    0.5746219  27.19  0.003171345    1.224    0.183
        60  -9.3094    221.9081    120.0501   8.5191818111e+01   1.3595543964e+01    0.2152528    0.1892401   6.31 0.0004035555    1.042    0.040
        61 -11.7368    193.0046     93.5477   8.3952064463e+01   2.3965304906e+01     1.065118    0.6914065 -59.21  0.004338521    2.420    0.587
        62  -8.5078     20.5098    232.1060   1.4182100396e+02   2.5999105881e+01    0.1214907      0.07635  87.73 0.0003925468    1.474    0.321
        63  -8.3774    144.1812    109.9898   9.9386303165e+01   3.1940063820e+01    0.2441436    0.1774568 -72.20  0.001011955    2.096    0.523
        64  -9.8749    166.6945    209.5482   1.1315239610e+02   1.0738422431e+01    0.2044526    0.1644923  30.79 0.0003694767    1.036    0.035
        65  -8.8512    140.6295    104.9058   9.9000905974e+01   3.3678918521e+01    0.2992029    0.2015892  27.14  0.001009836    1.638    0.389
        66  -9.8744    124.0607    103.0614   1.0291806894e+02   3.7401855058e+01     0.491193    0.3032351  53.55   0.00188108    1.850    0.459
        67  -9.5819    146.9753    100.5980   9.6262847866e+01   3.3172582162e+01    0.3184791    0.2653003  20.94 0.0006696687    1.217    0.178
        68  -9.0193     91.0408     98.8593   1.1140623789e+02   4.4165639732e+01    0.3395519    0.1994382 -72.84  0.001394755    2.483    0.597
        69 -11.8607    205.9419    101.7578   8.3607126873e+01   1.9734689705e+01    0.8408902    0.6201966  41.03  0.004221636    1.316    0.240
        70 -10.5435    208.0717     95.1065   8.1474679918e+01   2.0267017121e+01    0.4883748    0.3696505 -68.27  0.001545481    2.037    0.509
        71  -8.8770    133.3013     97.0239   9.8850589536e+01   3.6773490747e+01    0.2487207    0.2092443  71.43 0.0006485255    1.472    0.321
        72 -10.5143    156.8337     94.1607   9.2084216718e+01   3.2207598458e+01    0.5525463      0.36454  28.16  0.002405182    1.669    0.401
        73  -9.5229    198.8374    152.8936   9.6948169813e+01   1.3342856803e+01    0.2236688     0.165847  13.52 0.0005601331    1.299    0.230
        74  -9.9603    133.6421    147.0042   1.1004689375e+02   2.6725873483e+01    0.6536251    0.2226186 -54.74  0.002184278    3.934    0.746
        75 -11.2281    205.5500    148.5781   9.4720974149e+01   1.2694741455e+01    0.4487226    0.3937655 -11.96  0.002681543    1.177    0.151
        76 -10.0035    140.3380     90.4437   9.5181750020e+01   3.6575547662e+01    0.3053291    0.2762741 -64.08 0.0005896188    1.296    0.228
        77 -10.1048      2.8375     89.4917   1.3752985449e+02   5.5074862879e+01    0.1935998    0.1274048 -61.14  0.001275379    1.309    0.236
        78 -11.4431    154.6174     84.2497   8.9797317631e+01   3.4527653365e+01    0.5759944    0.3861481  41.20 0.0007460508    1.451    0.311
        79 -10.4246      4.7564     83.4997   1.3633720027e+02   5.6334006456e+01    0.3367567    0.1527443  73.40  0.001633296    2.660    0.624
        80  -8.7399    206.9672     82.9691   7.8419108027e+01   2.2336170703e+01     0.219271    0.1789085 -62.39 0.0004568241    1.595    0.373
        81  -9.8859    179.4505    147.9812   9.9907945108e+01   1.7871131415e+01    0.3870445    0.2666749 -29.05  0.001431299    1.556    0.357
        82  -9.0913    197.7774     76.5176   7.8302296005e+01   2.5482199596e+01     0.332095    0.2422539  30.64  0.001578112    1.401    0.286
        83  -9.5773    192.2852    193.7524   1.0583398333e+02   8.6986942008e+00    0.6343504    0.3427734 -59.91  0.002056519    7.332    0.864
        84 -10.8174     68.0894     72.8485   1.1246785724e+02   5.3341979986e+01    0.3426377    0.2467791  64.79  0.001639863    1.920    0.479
        85 -12.2912    169.3821     69.1501   8.1836945640e+01   3.3588853159e+01    0.9471564    0.4854052 -23.66  0.001812738    2.183    0.542
        86 -13.6538     16.2244    185.7132   1.4065689704e+02   3.4211634850e+01     1.117987    0.8011003  69.17  0.005001183    1.064    0.060
        87 -13.0005     26.3157    169.4390   1.3774629418e+02   3.6436241768e+01    0.8458282    0.7445089 -57.14  0.006695478    1.446    0.309
        88  -8.0844    248.4511    195.5441   9.6093117935e+01  -5.5597876279e-01    0.1237788   0.08754507  13.91  0.000151783    1.050    0.048
        89  -8.6676    155.1594    159.6138   1.0747293463e+02   2.0504084709e+01    0.2067271    0.1895824 -67.05 0.0007241475    1.346    0.257
        90  -8.5596     83.2959     51.6698   1.0045006643e+02   5.5564304954e+01    0.1352518    0.1153691 -80.29 0.0006038898    1.636    0.389
        91 -10.1196     71.9154     48.1787   1.0348025023e+02   5.8089537239e+01    0.3518686    0.1999741 -48.16 0.0008030145    1.678    0.404
        92  -8.6606    147.0337    157.9202   1.0897209365e+02   2.2280957864e+01    0.2058387    0.1847883  31.58 0.0004329348    1.013    0.013
        93  -7.6995    167.7304    195.2747   1.1085346039e+02   1.2593049525e+01    0.1137798    0.0903139  56.06            0    1.481    0.325
        94  -8.8168    114.0039    153.4355   1.1586132364e+02   2.8820482468e+01    0.1791246    0.1727549  73.59 0.0002567329    1.073    0.068
        95 -10.5981    214.8912    188.5011   1.0070515342e+02   5.5893112004e+00    0.4380759    0.2115529  46.78  0.001555728    2.209    0.547
        96 -10.6809     39.5079    184.0205   1.3599250484e+02   3.2411948265e+01    0.4234786    0.1417649  55.39  0.002039761    2.796    0.642
        97  -8.4150    190.9757    180.0251   1.0373042387e+02   1.0814793558e+01    0.1577231    0.1302076  21.06 0.0003607597    1.027    0.026
        98  -8.4560     56.5557     15.4961   9.6437558893e+01   6.6460725531e+01    0.1344089    0.1100911 -13.60 4.932419e-05    1.008    0.008
        99  -8.9465    250.4973    176.6636   9.2288591002e+01   1.1541510441e+00     0.300492    0.1083311 -29.24  0.001358647    2.754    0.637
       100  -9.8089    222.0424    177.4800   9.7391654457e+01   5.7576418402e+00    0.2740087    0.2438128  66.85  0.001705707    1.870    0.465
       101  -9.5486     46.9817    177.0355   1.3394696230e+02   3.2983360024e+01    0.3097127    0.1912567  68.39  0.001981062    1.479    0.324
