#   1 NUMBER                 Running object number                                     
#   2 MAG_AUTO               Kron-like elliptical aperture magnitude                    [mag]
#   3 X_IMAGE                Object position along x                                    [pixel]
#   4 Y_IMAGE                Object position along y                                    [pixel]
#   5 X_WORLD                Barycenter position along world x axis                     [deg]
#   6 Y_WORLD                Barycenter position along world y axis                     [deg]
#   7 A_WORLD                Profile RMS along major axis (world units)                 [deg]
#   8 B_WORLD                Profile RMS along minor axis (world units)                 [deg]
#   9 THETA_WORLD            Position angle (CCW/world-x)                               [deg]
#  10 FWHM_WORLD             FWHM assuming a gaussian core                              [deg]
#  11 ELONGATION             A_IMAGE/B_IMAGE                                           
#  12 ELLIPTICITY            1 - B_IMAGE/A_IMAGE                                       
         1 -15.4153     66.5621     71.4674   4.4844608442e+01   5.6501763592e+01      7.99053     5.616605  12.75   0.03432276    2.113    0.527
         2 -16.1784    127.3685    109.4492   3.6423460828e+01   3.4907019633e+01      8.80191     4.116275  50.66   0.03294864    2.192    0.544
         3 -15.6166     61.1859    134.1808   6.1996643748e+01   4.1314584091e+01      8.34136     5.021327 -27.75   0.03165473    2.836    0.647
         4 -16.0714    136.6078    136.1115   4.0455063466e+01   2.7181491141e+01     7.504181     4.793211  57.27   0.02770563    1.782    0.439
         5 -14.0901     16.9050    107.1900   7.4616133342e+01   5.3855289926e+01     3.565978     2.108022 -59.50   0.01702503    1.609    0.378
         6 -11.4337     92.6088     38.9810   2.2811316829e+01   5.7145221256e+01     1.782706    0.8408323 -64.42  0.004904444    5.198    0.808
         7 -11.1286     10.8132     21.5660   5.6971571581e+01   7.5744160375e+01    0.4267798    0.3892534 -67.30  0.001895469    1.246    0.197
         8 -10.7264      3.0481     21.7412   6.4048211992e+01   7.6352187855e+01    0.3947303    0.3157142 -79.01  0.002474081    1.432    0.302
         9 -10.0154      6.0145     18.0200   5.9524861558e+01   7.6910136052e+01    0.2662843    0.2157488 -43.91   0.00034692    1.137    0.121
        10 -10.6564      3.5730     13.1466   5.9335123862e+01   7.8104256214e+01    0.5389158    0.3007864 -41.01  0.002216966    1.637    0.389
        11  -9.8382      7.9318      9.9309   5.2929511777e+01   7.8325072901e+01    0.2495996    0.2261355 -70.21 0.0004924299    1.377    0.274
        12 -11.9308     13.1604      9.7931   4.7751450500e+01   7.7752981258e+01     1.082973    0.5539327 -21.66  0.004626946    3.061    0.673
        13 -15.0733     91.8265     68.8460   3.4594252630e+01   5.1770947406e+01     7.435734      3.22586  35.96   0.02300694    3.511    0.715
        14 -14.8438    120.5658     88.7490   3.2508723669e+01   4.0908021284e+01     5.436584     2.921968  27.56   0.01616471    4.229    0.764
        15 -11.7500      5.9456      5.2218   5.1722288298e+01   7.9399197710e+01    0.8859296    0.5011547  23.84  0.004941697    1.737    0.424
        16 -10.2602     89.2025     23.8416   1.7049441369e+01   6.0198345529e+01    0.4834632    0.2850011  27.20  0.001970293    2.607    0.616
        17  -9.3632     86.8029      8.9241   1.0472498468e+01   6.2525806676e+01    0.3309923     0.178173  84.85   0.00142359    2.123    0.529
        18 -10.1674     28.0086      9.0073   3.4994416551e+01   7.5667045868e+01    0.1860489    0.1701774  10.96 0.0003348559    1.022    0.022
        19  -8.4190    114.2828      7.6862   4.8255355273e+00   5.5457752703e+01    0.1447411   0.09303891 -62.94 0.0002241851    1.575    0.365
        20  -9.4133     42.8716      3.8657   2.2267988122e+01   7.3472832873e+01    0.2027451    0.1835717 -42.95 0.0002555499    1.255    0.203
        21  -9.8967     31.9164      4.0506   2.8570031318e+01   7.5649213759e+01    0.1864548    0.1713408  26.34 0.0003773553    1.050    0.048
        22 -10.0484     27.4302      2.8967   3.0636734666e+01   7.6628784993e+01    0.2940398    0.1912549  -2.08  0.001341173    2.000    0.500
        23  -8.1678     75.7318      3.3036   1.0199258204e+01   6.5860054516e+01    0.1319214   0.09687105 -64.46 0.0001870099    1.530    0.346
        24  -9.5563     42.9160    244.6002   7.7710400487e+01   1.8236238248e+01    0.1915433    0.1439334  64.41 0.0003776772    1.242    0.195
        25  -8.8120    201.8611    250.1611   4.6513004554e+01  -1.5130264578e+00    0.1486832   0.09674546   0.30 0.0008380008    1.334    0.250
        26  -9.0238    153.0093    250.5067   5.5294759773e+01   3.9949604084e+00    0.1749725    0.0891409  27.73  0.001018606    1.564    0.361
        27  -8.5549    148.7746    250.3857   5.6090838820e+01   4.5213100204e+00    0.1618946   0.08706236  22.17 0.0006719548    1.613    0.380
        28  -9.4720    141.3848    249.9016   5.7468577248e+01   5.4874808385e+00    0.2009294    0.1314875  24.36 0.0003905237    1.218    0.179
        29  -8.6165    132.9037    250.5212   5.9208041782e+01   6.4367036538e+00    0.1698616   0.09062719  29.63 0.0004042145    1.464    0.317
        30  -8.5720    128.7513    250.4223   6.0025109283e+01   6.9623206905e+00    0.1594201   0.09094834  22.29 0.0004794213    1.542    0.352
        31  -9.6237    123.8818    249.2546   6.0882159117e+01   7.7402870059e+00    0.3612743    0.1631033  18.33  0.001653878    2.740    0.635
        32  -9.0463     89.1508    249.8275   6.8134348208e+01   1.1936367942e+01    0.1543632    0.1211328  16.73 0.0003798552    1.319    0.242
        33  -8.7673     76.1385    250.1923   7.0920851164e+01   1.3440187780e+01    0.1674782    0.1314469  27.69 0.0003336744    1.186    0.157
        34 -10.2302     61.3952    247.7853   7.3905959886e+01   1.5586108655e+01    0.2870142    0.2202675 -11.61  0.001480454    1.915    0.478
        35  -8.9775     25.2669    250.0521   8.1724304865e+01   1.9086994082e+01    0.1555151    0.1157962  53.82  0.000412612    1.087    0.080
        36  -8.0832     15.2604    250.3441   8.3823215198e+01   2.0015444841e+01    0.0912504   0.08550482 -34.61 0.0003392469    1.595    0.373
        37  -9.3621    187.4831    244.4945   4.8233367664e+01   7.4947086580e-01    0.1104988   0.08291718   8.98 0.0001673785    1.033    0.032
        38  -9.1862     22.9670    242.2607   8.1919400538e+01   2.0757812092e+01    0.2848403    0.1447139 -86.03 0.0009605787    2.160    0.537
        39  -9.5391    113.5384    242.5435   6.2315707155e+01   1.0094699683e+01      0.20147    0.1625605  27.79 0.0004728866    1.046    0.044
        40  -8.6862     79.0348    242.9320   6.9734332833e+01   1.4349358136e+01    0.1676724    0.1333577   1.45 0.0004599291    1.580    0.367
        41  -9.2741     71.8997    242.6039   7.1263184267e+01   1.5271350048e+01     0.166769    0.1547504  33.37 0.0005340351    1.226    0.184
        42  -9.6948     17.4830    242.1897   8.3095327616e+01   2.1311404492e+01    0.2426233    0.1750904 -17.65  0.001243635    2.360    0.576
        43  -9.4832     10.9833    242.9485   8.4504158121e+01   2.1788793521e+01    0.1704857    0.1280933  48.14 0.0003438333    1.071    0.066
        44  -8.9145    226.3404    242.6976   4.1577256579e+01  -3.1956222884e+00   0.08588643   0.07501834  23.38 0.0004195146    1.674    0.403
        45  -9.6526    150.3116    244.8983   5.5151633822e+01   5.1088370693e+00    0.2236293    0.1613206 -16.16  0.001123529    1.543    0.352
        46  -8.8435    146.6775    242.1158   5.5528523845e+01   5.9622269367e+00    0.1542061      0.12936   6.69 0.0004402072    1.134    0.118
        47  -9.7903    141.9052    241.5489   5.6404676817e+01   6.6455167790e+00    0.1923911    0.1561363 -19.85 0.0004507425    1.370    0.270
        48  -9.4438    134.1052    242.1324   5.8036072067e+01   7.5437238103e+00    0.1799666    0.1422673  23.95 0.0004270113    1.018    0.018
        49  -8.8255    131.2764    239.6906   5.8332060798e+01   8.2810739452e+00     0.161306    0.1215185   8.76 0.0003720276    1.329    0.248
        50  -9.4744    123.4418    237.4745   5.9699507115e+01   9.6431132304e+00    0.1681415    0.1452642 -16.51 0.0001190014    1.327    0.246
        51  -9.0886    125.7280    234.0128   5.8828016801e+01   9.9067272577e+00    0.1895275    0.1475874  26.76 0.0004111374    1.051    0.049
        52  -8.9360    122.4118    240.8106   6.0282214379e+01   9.2405475759e+00     0.208009    0.1465555 -13.20 0.0004863095    1.830    0.454
        53  -9.4583    118.3511    239.4832   6.0984735883e+01   9.9755044769e+00    0.2895231    0.2034054 -81.22  0.001700266    2.186    0.543
        54  -9.5116     87.8300    241.3236   6.7688582288e+01   1.3546302569e+01    0.2766612    0.1455425 -66.75  0.001522897    2.415    0.586
        55  -9.8690     35.6125    239.1397   7.9028096467e+01   2.0043792055e+01    0.1618694    0.1296666  54.11 0.0003225341    1.096    0.088
        56 -10.6825     31.2209    233.7791   7.9745410235e+01   2.1539963048e+01    0.3234821    0.2251751  56.16   0.00143303    1.153    0.132
        57 -10.2577     36.1869    228.7357   7.8366978255e+01   2.2006361606e+01    0.4838607    0.1877814  28.50 0.0009260463    2.193    0.544
        58  -8.9371     30.0686    227.7139   7.9716282450e+01   2.2861463121e+01    0.3313825     0.183286 -48.63  0.001729823    2.713    0.631
        59  -9.4233     27.9889    241.2060   8.0790343394e+01   2.0448620990e+01    0.1842366    0.1740357  35.32 0.0004621901    1.348    0.258
        60  -9.3801     31.3913    240.2386   8.0006279849e+01   2.0279972932e+01    0.2478149    0.1347972  56.79  0.001467989    1.506    0.336
        61  -8.2093      3.8640    242.4016   8.5993309382e+01   2.2546099241e+01    0.1389171   0.09556615  20.74 0.0004192063    1.612    0.380
        62  -9.6639    127.2009    240.2279   5.9228627262e+01   8.7192713230e+00    0.2898893    0.1704766 -25.21  0.001551437    2.477    0.596
        63  -8.5039     98.5206    241.4495   6.5392761401e+01   1.2182339639e+01    0.1218309   0.09635141  32.18 8.248682e-05    1.043    0.041
        64  -9.3198     83.6956    240.8799   6.8549669571e+01   1.4137666110e+01     0.194218    0.1422077  24.98 0.0005294453    1.263    0.208
        65  -8.3179     63.7170    241.6641   7.2986815127e+01   1.6414112764e+01    0.1069302   0.08965174  -9.49 0.0002690577    1.621    0.383
        66  -8.9656     51.8119    239.1785   7.5449520380e+01   1.8251751174e+01    0.1475491     0.128954  22.63 0.0002459454    1.311    0.237
        67  -8.8098    153.1955    239.8674   5.3981437931e+01   5.4744990096e+00    0.1574702    0.1150657   6.16 0.0004243946    1.310    0.237
        68  -8.5219     91.7483    240.4076   6.6756885091e+01   1.3215012216e+01    0.1664917   0.09920292  23.48 0.0006148898    1.570    0.363
        69  -9.8591     67.8833    238.6608   7.1850306091e+01   1.6467327754e+01    0.2275739    0.1661836  78.41 0.0009669291    1.535    0.348
        70  -8.4553    112.1053    237.8447   6.2128835891e+01   1.1051018929e+01    0.1578845    0.1248099  11.87 0.0004005844    1.297    0.229
        71  -9.9008     78.3525    237.6027   6.9447819848e+01   1.5384033844e+01    0.4314399    0.2229682  14.44  0.001978361    2.708    0.631
        72  -9.5939     56.7917    239.4033   7.4360655231e+01   1.7638353721e+01    0.2794008    0.2097797 -16.61  0.001191812    2.036    0.509
        73  -8.2746     48.2692    238.3464   7.6184866189e+01   1.8808687682e+01    0.1039828   0.09071475 -20.00  0.000386881    1.616    0.381
        74  -9.0708     21.2134    235.9094   8.2059634175e+01   2.2146594273e+01    0.3069976    0.1434702 -88.08  0.001153824    2.307    0.567
        75  -8.8708     17.6670    237.0750   8.2880144020e+01   2.2269744278e+01    0.1808608    0.1164537  51.19 0.0004662247    1.141    0.124
        76  -9.2337    104.9056    237.0221   6.3585422349e+01   1.2120215225e+01    0.1811421    0.1479131  29.35 0.0004085459    1.060    0.057
        77  -9.9924     42.0637    236.2112   7.7444416914e+01   1.9904645593e+01    0.2637529    0.2024263 -76.06  0.001124662    1.547    0.353
        78  -8.5919      1.9572    237.2944   8.6281972469e+01   2.3689649518e+01    0.1586396    0.1099278  43.47 0.0001955511    1.117    0.104
        79  -8.5989    213.3025    236.3430   4.2765635145e+01  -1.1168233999e+00    0.1107841   0.06510593  -3.29 0.0003991697    1.680    0.405
        80  -9.2889    157.2935    236.1977   5.2725832819e+01   5.4924142560e+00    0.1922957    0.1281096  20.05 0.0003605468    1.276    0.216
        81  -9.4331    146.3358    235.6044   5.4803759878e+01   6.9751510956e+00    0.2035852    0.1628609  10.87 0.0004400544    1.132    0.116
        82  -9.0061    135.1688    236.1787   5.7127634440e+01   8.3282363640e+00     0.174335    0.1373102  13.79 0.0004424737    1.169    0.145
        83  -9.4195     95.5607    235.4751   6.5463865386e+01   1.3592450521e+01    0.2000518    0.1674736  35.35 0.0001851327    1.054    0.051
        84  -9.7312    176.9167    234.3475   4.8782524167e+01   3.3196812292e+00    0.2047096    0.1527334 -65.26  0.001280469    2.472    0.595
        85  -9.5388    130.6890    234.6733   5.7871481372e+01   9.1498542464e+00    0.1989773    0.1550129  10.89 0.0005541656    1.250    0.200
        86  -9.6035     90.9827    233.7559   6.6308653452e+01   1.4485896060e+01    0.2083297    0.1729758 -41.89 0.0005917049    1.522    0.343
        87  -8.6036     52.8011    235.3609   7.4987466767e+01   1.8858986267e+01    0.2057296    0.1261906  32.81 0.0003655849    1.338    0.253
        88  -9.2275     49.2302    234.2153   7.5718686723e+01   1.9486422251e+01    0.2064681    0.1833292  -9.41 0.0009953849    1.532    0.347
        89  -9.2823     54.6182    231.1321   7.4296024736e+01   1.9460617432e+01    0.3290414    0.2051156  26.33  0.001722763    1.501    0.334
        90  -9.1335     57.5801    226.4526   7.3285032001e+01   2.0026413975e+01    0.2969875    0.1923294 -12.42   0.00146017    2.820    0.645
        91  -9.2930     36.9761    235.0082   7.8517572719e+01   2.0689757372e+01    0.1782359    0.1406686  45.67 0.0003259871    1.070    0.066
        92  -8.6045    184.2945    234.6790   4.7489708595e+01   2.3864136198e+00   0.09757088     0.084186  43.70 0.0005091169    1.613    0.380
        93  -9.6575    170.5355    232.8739   4.9767740222e+01   4.3090111877e+00    0.1710272     0.122829 -10.16  0.001021912    1.406    0.289
        94  -9.1999    153.2217    232.4011   5.3034315765e+01   6.5718161282e+00    0.2003526    0.1508314   6.90 0.0006043612    1.258    0.205
        95  -8.8049    140.1627    233.0661   5.5733376685e+01   8.1655587054e+00    0.1711446    0.1358791  10.52 0.0002743986    1.181    0.153
        96 -10.3694    114.8395    231.9608   6.0908085336e+01   1.1684591789e+01    0.2647704    0.1847494  21.81 0.0003784948    1.315    0.240
        97  -8.7303    107.5027    233.0286   6.2609775558e+01   1.2468145456e+01    0.1495592     0.124419 -60.24 0.0003771308    1.488    0.328
        98  -9.3111     99.8222    232.7798   6.4262271739e+01   1.3516317947e+01    0.1959278    0.1761587  82.65 0.0005765313    1.328    0.247
        99  -9.3126     77.4892    232.9590   6.9249802680e+01   1.6341882475e+01    0.2119642    0.1692014  24.84 0.0003780346    1.231    0.188
       100  -8.6937     80.0055    229.0229   6.8337315691e+01   1.6759481089e+01    0.1753581    0.1407384  -0.72 0.0003386161    1.582    0.368
       101  -9.8920     72.8514    231.8405   7.0202438023e+01   1.7128018601e+01    0.4097113    0.2512392  18.34  0.001899273    1.798    0.444
       102  -9.9498     71.6422    227.2378   7.0095774253e+01   1.8154400607e+01    0.2243163    0.2093389 -22.81 0.0005241131    1.378    0.274
       103  -8.4104      4.8214    233.6348   8.5577642726e+01   2.4144158146e+01    0.1639798   0.07350287  39.84 0.0002543548    1.565    0.361
       104  -8.0926    162.5630    232.4758   5.1227098255e+01   5.3668212025e+00    0.1172737   0.09338754  12.97 5.313794e-05    1.044    0.042
       105  -9.0900    135.0581    231.5603   5.6595385916e+01   9.0744135158e+00    0.2313496    0.1246998  22.30   0.00121913    1.780    0.438
       106  -9.1704     84.1620    231.3467   6.7607400987e+01   1.5797104319e+01    0.1713625    0.1637819  27.39 0.0003855146    1.213    0.175
       107  -8.3052    166.5240    231.5348   5.0345529327e+01   5.0018189661e+00    0.1169289   0.09339949  14.21 0.0001851086    1.011    0.011
       108  -9.1156    121.9535    230.8859   5.9263874939e+01   1.0922483552e+01    0.1801821    0.1425385  12.00 0.0002619668    1.259    0.206
       109  -8.5824    188.0724    229.9790   4.6166238441e+01   2.5598420918e+00    0.1829248    0.1131042   1.53 0.0007643965    1.699    0.411
       110  -9.3291    146.6779    230.1118   5.4043948255e+01   7.7723302475e+00    0.2113008    0.1437728  22.83 0.0003492494    1.254    0.202
       111  -9.3430    134.2047    227.8291   5.6313872249e+01   9.7918721810e+00    0.1899885    0.1339698  -1.49 0.0005054247    1.678    0.404
       112  -9.3255    126.8739    229.9417   5.8109940929e+01   1.0424503114e+01    0.1791255    0.1432554  11.07 0.0003544824    1.232    0.189
       113  -8.8175     67.0523    230.1844   7.1387561042e+01   1.8156127275e+01     0.176593    0.1468522  25.51 0.0003892765    1.238    0.192
       114  -8.0664      2.5648    229.4568   8.5968498490e+01   2.5171019807e+01    0.1165448   0.08872326  52.78 8.039286e-05    1.059    0.056
       115  -8.6791    158.9783    228.3134   5.1368438324e+01   6.4400338980e+00    0.1649583    0.1242522  22.23 0.0003156911    1.096    0.087
       116  -9.5116    102.0009    228.0756   6.3294648826e+01   1.4067545819e+01    0.1832931    0.1516076  33.13 0.0003121286    1.033    0.032
       117  -9.8738     93.0791    227.6035   6.5242577414e+01   1.5332279378e+01    0.2436553    0.1942895  19.39  0.000700533    1.267    0.211
       118  -9.4999    173.2661    225.4871   4.8244223417e+01   5.0164400777e+00    0.3282981   0.09828868 -44.98   0.00140642    3.713    0.731
       119  -9.3694    152.6924    227.0483   5.2440229280e+01   7.4545612669e+00    0.2676336    0.1546045  19.59  0.001427861    1.682    0.405
       120  -9.2776    139.3569    227.1705   5.5161708088e+01   9.2084156810e+00    0.2650777    0.1448495  32.38  0.000579587    1.517    0.341
       121  -8.9085    143.8068    225.8706   5.4080236002e+01   8.8208940346e+00    0.1773819    0.1420882   4.52 0.0003870066    1.225    0.184
       122 -10.1708    109.7975    225.8456   6.1324568890e+01   1.3422263911e+01     0.264569    0.2002804 -36.55 0.0004799682    1.619    0.382
       123  -8.6734     75.8968    226.6567   6.9067119556e+01   1.7730566234e+01    0.1792851    0.1293388  39.02 0.0004253348    1.107    0.097
       124  -8.7289     19.9228    227.2417   8.2010979430e+01   2.3989138941e+01    0.1656079    0.1240213  45.91  0.000362059    1.069    0.065
       125  -8.9486    176.9449    226.2660   4.7666986662e+01   4.4394151916e+00    0.1607225     0.122082  17.71 0.0002880444    1.088    0.081
       126  -9.7931    126.8284    224.4890   5.7460276031e+01   1.1346222597e+01    0.2132203    0.1991903 -10.99 0.0004296007    1.201    0.167
       127  -8.9383     46.6288    225.3822   7.5758006531e+01   2.1517886716e+01    0.2643318    0.1913616  -4.92  0.001334824    2.077    0.519
       128  -8.9230     42.2522    225.1728   7.6764058861e+01   2.2054250778e+01    0.1901754    0.1478983  31.84 0.0006801656    1.233    0.189
       129  -8.7576      9.0188    225.4262   8.4418867728e+01   2.5398395047e+01    0.2443325    0.1200143 -61.99  0.001296238    2.592    0.614
       130  -8.9458    167.6516    224.7029   4.9199128106e+01   5.8519748849e+00    0.1868596    0.1372416  26.53 0.0004445179    1.170    0.145
       131  -8.9666    162.8314    225.1989   5.0196455382e+01   6.4049861373e+00     0.165772    0.1398518  26.47 0.0003783992    1.158    0.136
       132  -9.6746     65.9535    225.0142   7.1228868611e+01   1.9293604350e+01    0.2167927    0.1578527  28.99 0.0004001852    1.266    0.210
       133  -8.5095    190.5527    224.5056   4.4948561732e+01   2.9956173007e+00    0.1140367   0.09020837   5.42 0.0001076845    1.015    0.015
       134  -8.5408    180.4942    224.4243   4.6752209812e+01   4.2529315566e+00    0.1172877   0.09146919   8.14  0.000216556    1.067    0.063
       135  -9.2904    120.0338    223.8361   5.8847288683e+01   1.2385833188e+01     0.182961    0.1704658   7.17  0.000342367    1.158    0.137
       136  -9.9207     98.8359    223.3286   6.3499963949e+01   1.5356626140e+01    0.4345069    0.1885674  30.48  0.001379159    1.968    0.492
       137 -10.1918     97.1977    217.9033   6.3286608134e+01   1.6598648598e+01    0.8268569    0.1088582  34.67  0.002410752    4.742    0.789
       138 -10.1250     85.1442    223.3574   6.6632642107e+01   1.7170341863e+01    0.2217353    0.2053308  10.21 0.0004538923    1.248    0.198
       139  -9.8114     88.1415    219.8607   6.5591451050e+01   1.7445972398e+01    0.2860927    0.2023368 -38.78  0.001308324    1.851    0.460
       140  -9.6328     28.5811    222.7812   7.9819938841e+01   2.4018357020e+01    0.3117453    0.2734622  32.77  0.001345146    1.269    0.212
       141  -8.8392    156.7548    223.0461   5.1093771679e+01   7.5338589883e+00    0.1594614     0.136075   4.79 0.0002678238    1.088    0.081
       142  -8.9140    136.9394    222.6808   5.5089604778e+01   1.0269880330e+01    0.1923046    0.1562457 -18.01 0.0006288611    1.361    0.265
       143  -8.7329    133.5269    220.9752   5.5589492428e+01   1.1024028419e+01    0.1611921    0.1482432  10.94 0.0003616229    1.119    0.107
       144  -9.3177    105.0853    222.6134   6.2012106430e+01   1.4643303381e+01    0.1941932    0.1805361 -25.62 0.0004844085    1.276    0.217
       145  -8.7969     79.0255    222.9803   6.8012709082e+01   1.8039115401e+01     0.184242    0.1554262  34.56 0.0003203961    1.101    0.092
       146  -9.2984     58.0366    221.6257   7.2819042630e+01   2.0935018767e+01     0.476021     0.274601 -27.25  0.002056711    3.648    0.726
       147  -9.6337     62.9330    220.9715   7.1611055716e+01   2.0469621607e+01    0.2291218    0.1765683  33.66 0.0004402385    1.165    0.141
       148  -8.7608     14.8770    222.7969   8.2995595312e+01   2.5385149551e+01    0.1620815    0.1423563  49.93 0.0004040439    1.206    0.171
       149  -8.8164      2.0595    221.4622   8.5884541290e+01   2.6834398687e+01    0.2033145    0.1560799 -59.09  0.001354866    1.749    0.428
       150  -8.5435      1.2336    218.0437   8.5987300897e+01   2.7614601668e+01    0.2072044    0.1042099  82.87 0.0003624167    1.865    0.464
       151  -8.4745    113.9306    222.7440   6.0056131848e+01   1.3412974300e+01    0.1808108    0.1061884  21.47 0.0003780999    1.716    0.417
       152  -8.3529    120.4417    218.5511   5.8113690908e+01   1.3261145471e+01     0.181187    0.1074083  23.83 6.834972e-05    1.614    0.380
       153  -9.4973    116.6391    220.1492   5.9148871570e+01   1.3503872437e+01    0.1627938    0.1543843  13.34  0.000285651    1.148    0.129
       154  -9.7268     92.0476    221.3526   6.4841496701e+01   1.6638304599e+01    0.1800376    0.1700117   7.12 0.0004232865    1.223    0.182
       155  -9.2792     73.3133    221.9588   6.9252185199e+01   1.8971634361e+01    0.2193727    0.1614376  26.72 0.0003455044    1.291    0.225
       156  -9.5274     38.2491    220.8849   7.7448227131e+01   2.3372852537e+01    0.3517471    0.2448081 -12.87  0.001909901    2.370    0.578
       157  -8.2956    206.9800    221.7661   4.1716395684e+01   1.3932718930e+00    0.1376096   0.07891218  27.20 0.0004778015    1.567    0.362
       158  -8.1669    201.2981    221.3162   4.2611508504e+01   2.1236410441e+00    0.1146621    0.0722506  -2.78 0.0003084366    1.610    0.379
       159  -8.5119    185.4780    221.5199   4.5426204367e+01   4.0345699124e+00     0.116101   0.09297084   6.93 7.575835e-05    1.014    0.014
       160  -9.0093    147.1267    220.5436   5.2694533391e+01   9.2283410695e+00    0.1987711    0.1674659   8.69 0.0004074451    1.102    0.093
       161  -9.2568    151.1989    217.4061   5.1432221188e+01   9.1777683646e+00    0.3305093    0.2802915   9.30  0.002232175    1.076    0.071
       162  -8.5027    175.2568    220.3735   4.7144975966e+01   5.5020839841e+00    0.1188821   0.07875028  -8.05 0.0004820932    1.650    0.394
       163  -9.1247    130.0149    219.4393   5.6142092837e+01   1.1772321715e+01    0.2005052    0.1629627 -14.32 0.0004208766    1.387    0.279
       164  -8.9157    123.9424    219.8744   5.7511462649e+01   1.2540099708e+01    0.1828697    0.1495247   9.42 0.0003229167    1.247    0.198
       165  -8.8175     68.2528    219.9222   7.0265675810e+01   2.0017435840e+01    0.1663669    0.1456015  44.48 0.0002091699    1.095    0.087
       166  -8.9937      7.0007    219.8718   8.4710988734e+01   2.6723302191e+01    0.2528304    0.1151285  36.78  0.001168896    1.649    0.394
       167  -9.0882    140.9306    219.0565   5.3777054812e+01   1.0323633663e+01    0.1827233    0.1547034  14.50 0.0004128302    1.075    0.070
       168  -8.5478    109.2100    218.8584   6.0654444886e+01   1.4766551277e+01    0.1604734    0.1366581   6.12  0.000292532    1.277    0.217
       169  -9.3390     81.9610    218.2673   6.6877312675e+01   1.8577154059e+01    0.1900488     0.168113  49.29 0.0003640921    1.087    0.080
       170  -9.2735     53.4624    219.4731   7.3743509784e+01   2.1920666893e+01    0.3414973   0.09147192  47.55  0.001292554    3.017    0.668
       171  -9.6160     54.0223    215.7716   7.3333849678e+01   2.2618185961e+01    0.2543881    0.2168501 -10.52 0.0007330677    1.587    0.370
       172  -9.4911     51.9276    212.0946   7.3564752723e+01   2.3641680080e+01    0.2199084    0.1645363  29.65 0.0004310755    1.282    0.220
       173  -9.7880     44.6004    218.8882   7.5816263564e+01   2.3073616494e+01    0.2236607    0.1708761  37.64   0.00043916    1.148    0.129
       174  -8.9233     12.1034    219.1942   8.3508468942e+01   2.6393965041e+01    0.1630259     0.141744  48.05 0.0003182657    1.199    0.166
       175  -8.8067    195.1140    218.0836   4.3203475976e+01   3.3092969421e+00     0.168799    0.1245756  -0.13 0.0002856392    1.190    0.160
       176  -9.1014    104.4346    218.2762   6.1668976915e+01   1.5534332037e+01    0.1698095    0.1302387 -60.57  0.001029518    1.553    0.356
       177  -8.5977    106.8292    215.2184   6.0766238665e+01   1.5775444240e+01     0.170763    0.1370821  13.20 0.0003878635    1.316    0.240
       178  -9.2656    102.9512    214.0327   6.1518644644e+01   1.6542867505e+01    0.1908237    0.1855372  75.97 0.0003539162    1.182    0.154
       179  -9.5953     75.9702    217.8082   6.8248114235e+01   1.9453016925e+01     0.305414     0.159909  25.84  0.001215002    1.838    0.456
       180  -8.8847     71.7673    216.2762   6.9107278313e+01   2.0304864326e+01    0.1846479    0.1389608  35.69 0.0005021201    1.139    0.122
       181  -8.2656    169.8277    217.1337   4.7707572264e+01   6.6964040047e+00    0.1603616     0.119989   1.60   0.00033716    1.285    0.222
       182  -8.4224    157.2201    217.3943   5.0215547835e+01   8.3550725070e+00    0.1590279   0.09991566  37.38 0.0002239523    1.465    0.318
       183  -8.8754    135.0686    216.4497   5.4667814162e+01   1.1580965477e+01    0.1889657    0.1605165 -18.43 0.0003822949    1.287    0.223
       184  -8.6038    138.0194    213.2271   5.3602040985e+01   1.1719092690e+01     0.173529    0.1414357  27.19 0.0002344316    1.050    0.047
       185  -9.5048    146.5399    207.5061   5.0987993261e+01   1.1483233695e+01    0.2988965     0.235354  77.52  0.001725191    1.966    0.491
       186  -8.9306    141.5534    211.1724   5.2565121225e+01   1.1569675292e+01     0.231889    0.1597182  16.57 0.0006357922    1.457    0.314
       187 -10.3470    145.6081    212.5073   5.1899405111e+01   1.0766293305e+01    0.4332102    0.2757149 -11.19  0.002231091    2.180    0.541
       188  -8.9900    150.2950    210.3110   5.0611642127e+01   1.0470791092e+01    0.2149211     0.160813   1.20 0.0006596292    1.426    0.299
       189  -8.9285     36.9301    217.0465   7.7536420686e+01   2.4316201385e+01     0.186783    0.1506511  49.08 0.0003203574    1.050    0.047
       190  -9.0108    126.9159    215.9594   5.6364446996e+01   1.2813439582e+01    0.1918987    0.1518332   5.74 0.0005495685    1.346    0.257
       191  -9.1732     65.9381    215.6348   7.0448737288e+01   2.1178758445e+01    0.1781901    0.1716221  63.44 0.0003385207    1.205    0.170
       192  -8.7484      4.8412    215.8313   8.5092352638e+01   2.7762335627e+01    0.2437873   0.06791807 -76.64  0.001007341    3.589    0.721
       193  -8.2536    211.0028    215.2615   4.0072616107e+01   1.7617717847e+00    0.1287557   0.08315417  24.75 0.0002605083    1.410    0.291
       194  -8.6008    179.9786    215.3070   4.5522240803e+01   5.6285433070e+00    0.1658545    0.1259328  16.27 0.0003473968    1.126    0.112
       195  -7.8770    161.3286    215.2787   4.9096297655e+01   8.1282848199e+00     0.122808   0.08412004   2.62 0.0002673042    1.597    0.374
       196  -9.6123    120.2361    214.9371   5.7705797999e+01   1.3939937866e+01    0.2261682    0.1628726  26.29 0.0003786945    1.237    0.192
       197  -8.6741     44.0393    206.7766   7.5126858216e+01   2.5714477085e+01    0.1752768    0.1613391  33.22 0.0002343357    1.235    0.190
       198  -8.5675     41.3324    210.2806   7.6040988571e+01   2.5264218028e+01    0.1732557    0.1243408 -78.92 0.0002963347    1.512    0.339
       199  -9.8352     42.9669    213.6621   7.5865555938e+01   2.4355416160e+01    0.3886526     0.219681 -42.73   0.00183271    2.742    0.635
       200  -9.3853     46.7366    212.6701   7.4877752936e+01   2.4132013022e+01    0.1915224    0.1631448  59.00 0.0001876583    1.088    0.081
       201  -9.0633     13.2602    215.1594   8.3092004753e+01   2.7133774473e+01    0.1820694    0.1494608  29.60 0.0005170824    1.313    0.238
       202  -8.9001    186.9639    213.7924   4.4013630382e+01   4.9403190346e+00    0.1789437    0.1301769   5.41 0.0005027137    1.257    0.205
       203  -8.7468    131.0601    213.6215   5.5153903404e+01   1.2639317463e+01    0.1819807    0.1374401  27.92 0.0005139555    1.142    0.124
       204  -9.8958     84.8407    213.9355   6.5759382702e+01   1.9052641298e+01    0.2187846    0.1779698  28.49 0.0003034979    1.168    0.144
       205  -8.4661     79.9876    214.4769   6.6971137394e+01   1.9593392860e+01    0.1900809     0.111083  31.99 0.0003249459    1.466    0.318
       206  -9.1444     61.2604    213.8218   7.1425375558e+01   2.2139630411e+01    0.2439606    0.2052254 -87.93 0.0004637495    1.302    0.232
       207  -9.4441     64.8611    211.1730   7.0319761345e+01   2.2240286320e+01    0.4211107     0.130083  45.71  0.001641458    2.671    0.626
       208  -9.1799     29.0657    213.9346   7.9255044206e+01   2.5819212089e+01    0.1833605     0.151966  51.23  0.000404683    1.083    0.077
       209  -8.2132    200.6954    213.7169   4.1575883600e+01   3.2150247673e+00    0.1146826   0.07434573  -0.73 0.0002944701    1.558    0.358
       210  -9.4428    121.0867    202.5290   5.5872104808e+01   1.6125730087e+01    0.2353211    0.1920424  23.38 0.0003709754    1.147    0.128
       211  -8.5038    116.9140    201.2884   5.6664031439e+01   1.6985656915e+01    0.1915663     0.147125  32.85 0.0004450087    1.143    0.125
       212  -9.7593    111.8413    212.5978   5.9303812432e+01   1.5561976984e+01    0.2161691     0.197672  24.82 0.0003110835    1.092    0.084
       213  -9.5253    119.2586    206.3399   5.6806980330e+01   1.5671913555e+01    0.1993698    0.1451986  30.89  0.000294315    1.202    0.168
       214  -9.5894    114.8620    205.1747   5.7661322040e+01   1.6537633846e+01     0.211276    0.1900333 -12.81 0.0004560562    1.251    0.201
       215  -9.0055     74.6572    212.9109   6.8098262788e+01   2.0614894373e+01     0.207764    0.1564872  26.34 0.0003928061    1.291    0.225
       216  -9.2153    155.0233    211.9232   4.9875887596e+01   9.5377889790e+00    0.1866936     0.155064  13.83 0.0003822343    1.060    0.057
       217  -9.9948     98.8175    211.3745   6.2172344217e+01   1.7636005495e+01    0.2566854    0.2306265  48.59 0.0005760019    1.089    0.082
       218  -9.9193     93.0452    211.6545   6.3565781101e+01   1.8385311384e+01    0.2520448     0.209802 -35.24 0.0005442378    1.483    0.326
       219  -8.7553     93.5439    207.5269   6.2978626991e+01   1.9140895990e+01    0.2666453    0.1740321  39.03 0.0006579897    1.286    0.223
       220  -8.9417     69.3791    212.2076   6.9310934290e+01   2.1446334681e+01    0.2015758    0.1580089  25.66 0.0007438915    1.279    0.218
       221  -9.7218     57.2320    211.0869   7.2183706216e+01   2.3212018513e+01    0.2844837    0.2037388  45.06 0.0006183176    1.129    0.115
       222  -8.9296     56.5120    207.5325   7.2069290859e+01   2.4059429791e+01    0.3917626    0.1628054  22.12    0.0015696    2.799    0.643
       223  -8.4245     33.4899    212.0069   7.8073567090e+01   2.5760712944e+01    0.1627471    0.1169649 -87.28 1.806041e-05    1.449    0.310
       224  -9.3054    125.0126    210.3676   5.6048904315e+01   1.4088728740e+01    0.2009424    0.1793868 -19.22 0.0004100738    1.243    0.195
       225  -9.6311    115.1847    208.8160   5.8062165342e+01   1.5796122565e+01    0.2473707    0.2135017 -11.09 0.0005779917    1.325    0.245
       226  -9.0886    119.8255    210.8396   5.7271468495e+01   1.4748842965e+01    0.1847381    0.1585417  11.68 0.0003373656    1.183    0.155
       227  -9.1939    212.8549    209.8833   3.8941097883e+01   2.2451583654e+00    0.1668314    0.1214397  -2.58 0.0002595957    1.177    0.151
       228  -8.7576    181.1702    210.6046   4.4593891831e+01   6.1653556541e+00    0.1630489   0.09793525  20.65  0.000453412    1.595    0.373
       229  -9.3953    170.9250    210.0159   4.6444297851e+01   7.6377848872e+00    0.1785388    0.1488258   5.72   0.00120078    1.049    0.047
       230  -9.3088    167.5849    207.5757   4.6724462157e+01   8.4815758178e+00    0.1620745    0.1034398  36.90 0.0001695169    1.482    0.325
       231  -9.0167    135.0858    210.2100   5.3816744110e+01   1.2664869708e+01    0.1891151    0.1525462  10.91 0.0004452956    1.228    0.186
       232  -9.0829    106.0578    209.9738   6.0313143415e+01   1.6884790351e+01    0.1925834    0.1678715  30.12 0.0003525777    1.062    0.058
       233  -8.9402     89.1102    210.0113   6.4321260446e+01   1.9257741199e+01    0.1937563    0.1682949  42.69 0.0003723707    1.034    0.033
       234  -8.7486     36.8398    209.7774   7.7116921074e+01   2.5875581185e+01      0.17412    0.1573194  43.81 0.0004632881    1.192    0.161
       235  -9.8000      1.8873    209.6587   8.5614272378e+01   2.9336606284e+01    0.1896276    0.1529721 -81.17 0.0003828777    1.405    0.288
       236  -8.0865    199.2979    209.2846   4.1135736017e+01   4.0002118866e+00    0.1155717   0.07602429  -1.43  0.000231101    1.548    0.354
       237  -9.1929    194.2370    209.0087   4.1979282922e+01   4.6854707250e+00    0.1871376    0.1429014  15.79 0.0003851407    1.141    0.124
       238  -9.6267    160.9209    208.0646   4.8117951933e+01   9.3372531567e+00    0.1967409    0.1729385 -19.80 0.0003250782    1.176    0.150
       239  -8.5644    130.7201    208.7005   5.4560926919e+01   1.3565208042e+01    0.2027765    0.1623864   4.88 0.0003461609    1.328    0.247
       240  -8.5080    133.4326    206.4730   5.3655280428e+01   1.3571412909e+01    0.2126572    0.1139813  30.99 0.0001098665    1.666    0.400
       241  -8.2754     75.4210    205.4279   6.7170970262e+01   2.2070033506e+01    0.1660013    0.1246532 -51.03 0.0001305261    1.606    0.377
       242  -8.1764     77.3168    202.7136   6.6417306123e+01   2.2389411406e+01    0.1648751     0.125549 -55.78 0.0003378974    1.534    0.348
       243  -9.8826     77.9226    208.9786   6.6917615733e+01   2.0991639115e+01    0.2347368    0.1799628  31.61 0.0003415275    1.190    0.160
       244  -8.9566     79.5830    205.2554   6.6124218741e+01   2.1543322569e+01    0.2063828    0.1626366 -54.84 0.0005679439    1.494    0.331
       245 -10.0608     24.0558    203.3866   7.9934821603e+01   2.8637129365e+01    0.3281121    0.2249229 -44.59 0.0005111122    2.053    0.513
       246  -9.6294     29.1087    201.7309   7.8566214292e+01   2.8484059509e+01    0.3137101    0.1724943 -63.50   0.00117314    2.062    0.515
       247  -8.9792     26.9023    198.7875   7.8959379264e+01   2.9378525158e+01    0.2612888    0.2026645  -0.71  0.001243561    1.767    0.434
       248  -8.7125     28.0061    209.0037   7.9250243699e+01   2.6992777321e+01    0.1715657    0.1584295  48.55  0.001166494    1.222    0.182
       249  -9.5130     24.1967    208.9499   8.0184427173e+01   2.7397194841e+01    0.2084148     0.201147  62.99 0.0007730683    1.284    0.221
       250  -8.7038     36.5907    201.4683   7.6643817999e+01   2.7733176657e+01    0.1669478    0.1521312 -45.47 9.564397e-05    1.432    0.302
       251  -9.1522     38.9854    198.5048   7.5824923942e+01   2.8132310130e+01    0.2028321      0.17567 -60.32 0.0003868707    1.408    0.290
       252  -9.5901     33.0648    198.9203   7.7381733846e+01   2.8694201024e+01    0.5932814    0.1669491  54.36     0.002121    3.349    0.701
       253  -8.7403     31.4528    208.4702   7.8369616339e+01   2.6744925089e+01     0.234876    0.1619502  59.44 0.0007714939    1.207    0.172
       254  -9.3637     33.0267    205.4577   7.7799337314e+01   2.7236628407e+01    0.2606234    0.1797224  19.51  0.001227911    1.612    0.380
       255  -8.9622     35.3319    195.2705   7.6550430737e+01   2.9278200154e+01    0.1847494    0.1733878  65.73 0.0003199155    1.189    0.159
       256  -9.7821     36.6045    191.8949   7.5976972666e+01   2.9916522444e+01    0.2324225    0.1755362  33.10 0.0003789635    1.268    0.211
       257  -8.7668    110.1727    208.1507   5.9131099153e+01   1.6646538359e+01    0.1889084    0.1610987  12.69 0.0004254947    1.226    0.184
       258  -8.4845     72.7644    208.6407   6.8146519403e+01   2.1747823427e+01    0.1809705    0.1003491  40.06 0.0002688024    1.468    0.319
       259  -8.3453     68.2886    208.2913   6.9214985705e+01   2.2406590552e+01    0.1184181    0.1008601 -11.65  0.000204721    1.543    0.352
       260 -10.6869     11.8866    206.6538   8.3101758019e+01   2.9097140339e+01    0.4218239    0.2890798  24.05  0.002540138    1.523    0.343
       261  -8.2957    176.8646    207.1557   4.4873286603e+01   7.2663215429e+00    0.1633653      0.12264   0.37 0.0003882935    1.287    0.223
       262  -8.5377    156.9743    206.9826   4.8752653657e+01   1.0073970955e+01    0.1504778    0.1269821  18.62 0.0003223139    1.025    0.025
       263  -8.4866    241.8389    206.3512   3.3909714386e+01  -6.2753306066e-01    0.1422024   0.08188944  17.59 0.0004691136    1.711    0.416
       264  -9.0912    126.8209    205.9084   5.5040767188e+01   1.4643907713e+01    0.1858788    0.1606249   4.41 0.0003086491    1.202    0.168
       265  -8.8103     88.8488    196.1524   6.2784258137e+01   2.2172201531e+01    0.4529032    0.2554995  11.31  0.001688834    2.822    0.646
       266  -9.0104     88.4780    199.5536   6.3284065692e+01   2.1503156533e+01    0.2167636    0.1812237  28.72  7.68207e-05    1.161    0.139
       267  -9.5530     84.6537    206.0246   6.4962164661e+01   2.0687280887e+01    0.2475198    0.2044242   8.33 0.0004155388    1.418    0.295
       268  -9.8646     88.5419    203.2342   6.3697193254e+01   2.0723570859e+01    0.2436715    0.1950711  34.26 0.0003557222    1.117    0.105
       269  -9.0426     64.7405    206.0460   6.9887123089e+01   2.3342387401e+01     0.178323    0.1684339  27.52 0.0003438989    1.217    0.178
       270  -8.7204     59.6886    204.2789   7.0994489387e+01   2.4367033807e+01     0.200558    0.1523189  45.42 0.0002640078    1.086    0.079
       271  -9.0035     62.5307    202.5242   7.0118039378e+01   2.4387763990e+01    0.2191037    0.1749135  30.71 0.0005456131    1.218    0.179
       272  -8.4184    183.8044    205.3665   4.3297721227e+01   6.5947895332e+00    0.1587945   0.09887358  21.93 0.0001947703    1.521    0.342
       273  -9.3986    139.4081    204.6054   5.2087168160e+01   1.3029194176e+01    0.2227117    0.1885014  10.02 0.0004811134    1.145    0.127
       274  -8.8835    104.9892    205.0771   5.9956884679e+01   1.7995837524e+01    0.1930539    0.1684166  31.97 0.0003453087    1.053    0.050
       275  -9.2413     71.0474    204.2122   6.8136856706e+01   2.2911969377e+01    0.1993969    0.1818776  70.93 0.0004144958    1.139    0.122
       276 -10.2311     67.7954    200.5979   6.8598424864e+01   2.4123213961e+01    0.2442548    0.2195102  30.37 0.0005182222    1.181    0.153
       277  -9.4297     44.4087    185.6688   7.3382874326e+01   3.0478536292e+01    0.3354023    0.2358005   1.18 0.0009932754    2.021    0.505
       278 -10.6628     56.2199    185.9567   7.0190648349e+01   2.8950084215e+01    0.6100055    0.2526478  50.52  0.002085152    2.237    0.553
       279 -10.2397     48.6564    203.9127   7.3751375744e+01   2.5800546183e+01    0.4445505    0.2134471 -88.49  0.001772657    2.468    0.595
       280  -9.3297     48.1746    197.2040   7.3341308182e+01   2.7355940963e+01    0.2085794    0.1885411   3.55 0.0005966033    1.391    0.281
       281  -9.9770     51.9829    198.9998   7.2503422198e+01   2.6490051429e+01    0.2323115    0.2251092  32.90  0.000444071    1.237    0.192
       282  -9.6926     47.7675    188.4362   7.2709806571e+01   2.9423596505e+01    0.6561359    0.3779096  11.01  0.002921904    2.450    0.592
       283  -9.6792     37.2439    182.8982   7.5125299615e+01   3.1969855653e+01    0.4080436     0.190928 -58.93  0.001134701    2.365    0.577
       284 -10.2192     55.0915    193.7882   7.1235931976e+01   2.7282383703e+01    0.5413079    0.3355763 -84.69  0.002652968    1.748    0.428
       285  -9.4048     49.8962    192.6067   7.2503038644e+01   2.8196711011e+01    0.2174122    0.1848738 -72.88 0.0003989656    1.308    0.236
       286  -8.7615     41.9883    189.5592   7.4360149537e+01   2.9847190747e+01    0.1872818    0.1494192  46.40  6.70934e-05    1.084    0.078
       287  -8.8244     38.8712    187.3639   7.5028927274e+01   3.0722187646e+01    0.1875043    0.1506332  41.37 0.0003612803    1.141    0.123
       288  -8.9593     39.2109    205.2036   7.6229597539e+01   2.6610336933e+01     0.174132    0.1587815  45.68  0.000449886    1.183    0.155
       289  -8.3591    207.2468    204.3256   3.8999515325e+01   3.6834258484e+00    0.1140125   0.07424402  -8.65 0.0001713266    1.537    0.349
       290  -8.9696     60.4517    180.7586   6.8494165737e+01   2.9624566955e+01    0.2138745    0.1738307  27.47 0.0003893268    1.279    0.218
       291  -9.6318     55.7823    203.5204   7.1915228092e+01   2.5020757427e+01    0.2078457    0.1963078 -87.59 0.0004095217    1.227    0.185
       292  -8.9762     57.0844    199.4884   7.1231896971e+01   2.5748281098e+01    0.2133041    0.1670857  31.08 0.0007310112    1.238    0.192
       293  -9.8480     61.3086    196.9638   6.9909248320e+01   2.5773191073e+01    0.3957429    0.2314288 -78.99  0.001763251    1.904    0.475
       294  -9.2271     67.7340    187.4283   6.7242329520e+01   2.7083540903e+01    0.2186596    0.2088267  50.98 0.0002857711    1.140    0.123
       295  -8.9955     61.9745    191.0262   6.9153051679e+01   2.7028952088e+01    0.2198582    0.1905799 -84.52 0.0003337322    1.224    0.183
       296  -8.8375     65.4571    178.5317   6.6859346422e+01   2.9476999748e+01    0.2211416    0.1537541  43.62 0.0001213936    1.257    0.205
       297  -9.7506     61.4117    174.9091   6.7574638247e+01   3.0899064499e+01    0.3940523    0.2455361 -76.74  0.001914013    1.698    0.411
       298 -10.2769     65.4018    172.4908   6.6157857942e+01   3.0936556952e+01    0.2728569    0.2503434 -15.96 0.0002291277    1.356    0.263
       299  -9.1422     64.2857    188.3338   6.8260793841e+01   2.7340603989e+01    0.2294613    0.2051925 -33.58 0.0006133618    1.408    0.290
       300  -9.9655     63.5801    183.1669   6.7896808752e+01   2.8636766360e+01    0.4970001    0.2610677 -48.32  0.001297977    2.385    0.581
       301  -8.5479    189.7899    203.1402   4.1853661276e+01   6.1210290119e+00    0.1626527    0.1180788  -5.83 0.0003648195    1.336    0.252
       302  -8.1195    171.3157    203.2691   4.5334491511e+01   8.6424698376e+00    0.1228219   0.08553345   2.06 0.0002264038    1.554    0.356
       303  -8.0200    167.6697    203.7351   4.6119089040e+01   9.0829846658e+00    0.1242905   0.08622816   3.33 0.0002819874    1.575    0.365
       304  -8.0685    156.5591    203.4773   4.8308857497e+01   1.0717889638e+01    0.1256426    0.1090329  13.60 0.0001197651    1.013    0.013
       305  -9.2586    149.4266    202.5646   4.9649661956e+01   1.1914272830e+01    0.2072744    0.1789495  17.36 0.0002500753    1.025    0.024
       306 -10.0915    109.9380    202.6757   5.8481094698e+01   1.7747473916e+01    0.2773727    0.2037703  41.92 0.0004191543    1.202    0.168
       307 -10.6071     97.5073    202.1453   6.1382615252e+01   1.9668359161e+01    0.2540636    0.1914071  33.85 0.0003130333    1.166    0.143
       308  -8.1958     20.2756    203.3207   8.0880175257e+01   2.9030606576e+01    0.1114395   0.09565472 -44.90 0.0002531114    1.576    0.365
       309 -10.5320    194.5537    199.5089   4.0419082252e+01   6.0178622531e+00     0.425086    0.2732548  53.73  0.002297779    2.538    0.606
       310  -8.3759    182.1215    201.7690   4.3042741238e+01   7.3701412584e+00    0.1653332    0.1230219  -2.93 0.0004674524    1.316    0.240
       311  -8.7818    176.0879    202.1956   4.4247932800e+01   8.1420623223e+00    0.1786887    0.1404005   2.71 0.0003481311    1.189    0.159
       312  -9.2903     16.5350    199.2249   8.1630906165e+01   3.0313391900e+01    0.3039599     0.138364 -60.51  0.001429838    2.594    0.614
       313  -8.0800      6.4595    197.4744   8.4112018015e+01   3.1632375017e+01     0.125666    0.1019143  59.13 0.0004071022    1.056    0.053
       314 -10.1495      6.8845    201.5200   8.4147246704e+01   3.0686118476e+01    0.5699729    0.2055085  28.74  0.002257753    2.321    0.569
       315  -8.9338    161.0193    200.9731   4.7016270691e+01   1.0489894174e+01     0.184969    0.1604276   8.34 0.0003118641    1.034    0.033
       316  -8.5895    145.3508    200.9542   5.0270268277e+01   1.2798297457e+01    0.1709844    0.1529598   4.86 0.0006109669    1.081    0.075
       317  -9.0744    129.2521    201.1431   5.3825217886e+01   1.5168739237e+01    0.1839944    0.1611693   5.01 0.0004136307    1.172    0.147
       318  -9.3735     82.8682    201.0498   6.4851471595e+01   2.1977770092e+01    0.1936534    0.1727463  40.33 0.0003668548    1.073    0.068
       319  -9.3920     42.9656    201.0309   7.4982691608e+01   2.7108511642e+01    0.2076612    0.1789054 -83.54 0.0003090288    1.270    0.212
       320  -9.3709     44.5264    195.6748   7.4171192153e+01   2.8136905119e+01    0.3764879    0.1784818 -59.33  0.001695755    2.374    0.579
       321  -9.8634    191.5184    196.5265   4.0475934293e+01   6.8732175576e+00    0.2303076    0.1712433 -11.66 0.0008836248    1.280    0.218
       322  -8.0355    153.4702    200.4850   4.8488185051e+01   1.1677863131e+01    0.1280529    0.1110153  13.24 0.0002284825    1.036    0.035
       323  -8.8689    141.1651    200.1375   5.1048271431e+01   1.3568376141e+01    0.1921333    0.1605975   5.56 0.0004458794    1.205    0.170
       324  -9.2144    134.0963    200.0092   5.2579509359e+01   1.4652432479e+01    0.1882281    0.1687809  22.51 0.0003116482    1.024    0.024
       325  -8.7622    186.6547    198.7497   4.1720776008e+01   7.2059687922e+00     0.177234    0.1280671 -17.36  0.000537356    1.351    0.260
       326  -8.5243    170.1410    199.6657   4.4996597249e+01   9.3872660907e+00    0.1768554    0.1027949  24.67 0.0006315676    1.689    0.408
       327  -9.9050    105.9755    198.1367   5.8825834020e+01   1.9242636417e+01    0.2313119     0.192153 -47.05 0.0003182018    1.376    0.273
       328  -9.0171    102.2541    196.7029   5.9537847723e+01   2.0090114970e+01    0.2320496    0.1966692  33.00 0.0004002095    1.077    0.072
       329  -9.1937    109.6817    195.7427   5.7612043464e+01   1.9172701367e+01    0.2826973    0.1797964  42.07 0.0005805997    1.398    0.285
       330  -8.3582     79.2911    199.2984   6.5552754602e+01   2.2849411365e+01    0.1861565     0.168388 -58.56 0.0002604608    1.290    0.225
       331  -9.6385     80.3782    195.8690   6.4891884344e+01   2.3440217317e+01    0.2404563    0.1787916  28.75  0.000383389    1.292    0.226
       332  -9.4840     74.0147    198.5177   6.6803857967e+01   2.3743353167e+01    0.2180301    0.1924154  84.29  0.000350534    1.193    0.162
       333  -8.9472    210.4998    197.9891   3.7436868400e+01   4.1468317792e+00    0.1634692    0.1315014   8.48 0.0003231314    1.102    0.093
       334  -7.9473    149.3215    198.2624   4.9015721649e+01   1.2680994702e+01    0.1275379   0.09281783   3.43 0.0002172185    1.554    0.356
       335  -8.7487    119.9230    198.2968   5.5549884631e+01   1.7116088984e+01    0.1853606     0.153566  28.47 0.0003722021    1.094    0.086
       336  -9.3109    114.4163    197.3949   5.6712859956e+01   1.8125535717e+01    0.2364107    0.2015557  -5.08 0.0006242929    1.344    0.256
       337  -8.7829     97.8976    197.6647   6.0727342538e+01   2.0534968870e+01    0.1990424    0.1830592 -45.54 0.0004126918    1.257    0.205
       338  -8.3377     98.3618    194.2730   6.0175661948e+01   2.1175832988e+01    0.1410834    0.1222429  41.71 0.0005590561    1.011    0.010
       339  -8.8387     93.0959    197.9992   6.1952151535e+01   2.1166204841e+01    0.1970393     0.174451  43.92 0.0003496506    1.024    0.024
       340  -9.7211    232.0289    196.5527   3.3799658359e+01   1.6957093837e+00    0.2799769    0.1581927  -0.12  0.001604831    2.139    0.533
       341  -8.6177    181.0240    197.2979   4.2530259115e+01   8.2153211356e+00    0.1670359      0.13834  16.81 0.0003315758    1.087    0.080
       342  -8.7111    162.6816    197.0251   4.6059250033e+01   1.0907881051e+01    0.1687595    0.1500987  -9.12 0.0003170147    1.093    0.085
       343  -8.6205    153.2646    197.0121   4.7991915963e+01   1.2309674926e+01    0.1708195    0.1533627   0.98 0.0001967328    1.069    0.064
       344  -8.0983    130.6867    197.7277   5.3006045608e+01   1.5593401411e+01    0.1291285   0.09764844   1.30 0.0001994948    1.555    0.357
       345  -9.5740    124.0313    196.9801   5.4412193696e+01   1.6748393001e+01    0.1970176     0.173292  32.67 0.0003356551    1.011    0.011
       346  -9.5073    139.4922    195.4499   5.0703414596e+01   1.4675772903e+01    0.2149624    0.1981548   1.56  0.000149749    1.088    0.081
       347  -8.6007     12.5257    195.8476   8.2504622497e+01   3.1457460338e+01    0.1674287    0.1128399  89.39 0.0005911615    1.426    0.299
       348  -9.2762    224.7950    195.1673   3.4680160893e+01   2.7438725752e+00    0.1744257    0.1330927   4.78 0.0003632519    1.151    0.131
       349  -8.7099    201.6981    194.9533   3.8425682649e+01   5.7273684662e+00    0.1576482    0.1323753 -11.58 0.0008389127    1.068    0.064
       350  -8.7495    167.9331    195.3925   4.4746920370e+01   1.0407707675e+01     0.174392    0.1375279  19.27 0.0004218111    1.156    0.135
       351  -9.7558    162.2650    192.5527   4.5423265763e+01   1.1728915637e+01    0.2336598    0.1776445   0.60 0.0006368225    1.396    0.284
       352  -8.8093    157.2863    195.2832   4.6883165660e+01   1.2007105980e+01    0.2018933    0.1159257  29.81 0.0001967049    1.637    0.389
       353  -9.3679    158.4907    192.0176   4.6108989852e+01   1.2391765725e+01    0.2791748    0.2377228 -23.55 0.0007422387    1.189    0.159
       354  -8.1673    150.0315    194.9922   4.8355376197e+01   1.3152649948e+01    0.1488404     0.136823   5.50 0.0009535594    1.056    0.053
       355  -9.5669    145.2453    194.2933   4.9270172009e+01   1.4007386843e+01    0.2189187    0.1862976  -3.11 0.0003655506    1.206    0.171
       356  -9.6847    138.7282    189.0998   4.9881342096e+01   1.5980920406e+01    0.2488641    0.1971954  27.78 0.0004800597    1.162    0.140
       357  -8.7682    138.4991    185.1133   4.9291373548e+01   1.6777455827e+01    0.2636656    0.1865982 -47.76 0.0007463734    1.524    0.344
       358 -10.5663    142.5266    182.9550   4.8036146992e+01   1.6544023619e+01     0.356564    0.2999887 -70.02 0.0002924842    1.471    0.320
       359  -8.5434    138.9904    176.9825   4.7822921890e+01   1.8278852278e+01    0.2510064    0.1641178  55.26 0.0003268021    1.822    0.451
       360  -9.3956    138.7331    173.6611   4.7307404702e+01   1.8979029924e+01    0.1985553    0.1711536  35.51 0.0003720499    1.094    0.086
       361  -8.7853    134.2773    195.0384   5.1797930231e+01   1.5551538939e+01    0.1900873    0.1649983  -0.38 0.0003622422    1.203    0.169
       362  -8.6988    134.5804    191.5019   5.1188087522e+01   1.6174080841e+01    0.2031577    0.1614899  40.22 0.0004761228    1.180    0.152
       363  -9.3096     69.8766    248.7588   7.2152168669e+01   1.4427395888e+01    0.3758481    0.1697776  18.30    0.0010288    2.883    0.653
       364  -8.9439     72.7809    174.3826   6.4317601939e+01   2.9432173609e+01    0.2566354    0.2047133 -22.44 0.0002542267    1.691    0.409
       365  -9.1583     80.8891    184.3389   6.3376713586e+01   2.5933563446e+01    0.2258426    0.1951369 -60.07  0.000439682    1.295    0.228
       366  -9.1903     87.9541    175.7074   6.0339070811e+01   2.6851581574e+01    0.2941123    0.2077144  20.56  0.001182052    1.594    0.373
       367  -9.0233     78.9851    179.9417   6.3327725809e+01   2.7221032209e+01    0.2241362    0.1992115 -80.94 0.0003246569    1.191    0.160
       368 -10.0448     81.1383    191.0328   6.4131502876e+01   2.4395012319e+01    0.2584778    0.2072105  18.79 0.0004626573    1.367    0.268
       369  -8.9506     77.8589    188.3810   6.4669890798e+01   2.5455391444e+01    0.1998657    0.1788438  14.85 0.0003421929    1.268    0.211
       370  -8.8471     82.9869    181.0384   6.2395483936e+01   2.6377808068e+01    0.2037906    0.1724306  53.55 0.0003206066    1.064    0.060
       371  -8.7877     85.2516    178.3644   6.1432874137e+01   2.6652067774e+01    0.2586331    0.2029227 -38.09  0.000450646    1.562    0.360
       372  -8.7753     75.0094    177.0103   6.4036136775e+01   2.8486145028e+01    0.2123855    0.1879327  49.86 0.0003260535    1.030    0.029
       373  -9.9037     74.6952    181.4403   6.4675269325e+01   2.7495017592e+01    0.4682651    0.2463921  57.45  0.001051029    2.054    0.513
       374  -9.0851     70.5032    177.4487   6.5333224952e+01   2.9029258843e+01    0.2587272    0.1675614  50.72 0.0001170027    1.404    0.288
       375  -8.1767    219.6967    191.7169   3.4911027453e+01   3.8419040228e+00    0.1145738   0.07511857  -3.30 0.0001806904    1.555    0.357
       376  -8.6871    199.5223    190.9802   3.8140604231e+01   6.6048913101e+00    0.1660041    0.1074395 -35.52 0.0003597469    1.483    0.326
       377  -9.1541    185.9728    190.9770   4.0566912472e+01   8.5022007881e+00    0.1812515    0.1543664  -0.48 -0.003769674    1.024    0.023
       378  -8.0141    168.2765    191.2876   4.4007827548e+01   1.1041907866e+01     0.124328   0.09057985  -3.32 0.0001986772    1.515    0.340
       379  -9.8371    103.4004    188.4956   5.8142537335e+01   2.1635149744e+01    0.2695645    0.2271769  -1.02 0.0009879707    1.412    0.292
       380  -9.0456    110.7941    190.7255   5.6640917754e+01   2.0029256643e+01     0.215932    0.2053206  20.30 0.0005329174    1.097    0.088
       381  -8.6153    114.1105    186.8355   5.5268508372e+01   2.0316374374e+01    0.1787466    0.1529393   8.52 0.0002742289    1.280    0.219
       382  -9.3417    108.2190    186.0601   5.6598393698e+01   2.1403598885e+01    0.6972772    0.2180555  45.14  0.002365695    3.195    0.687
       383  -8.1523    246.4801    190.4655   3.0706283265e+01   7.9329505179e-01    0.1097425   0.08114377 -11.52 0.0001146248    1.055    0.052
       384  -9.5556    215.8844    190.0526   3.5243113598e+01   4.5593513342e+00     0.173187    0.1372642  -5.55 0.0004482295    1.062    0.058
       385  -9.1242    181.0316    188.1849   4.1018268511e+01   9.6621834877e+00    0.3332753    0.1784931 -55.96  0.001522627    2.887    0.654
       386  -8.7890    148.8808    190.1675   4.7831286562e+01   1.4196438587e+01    0.1850309    0.1627419  34.70 0.0003299876    1.112    0.100
       387  -9.1854    223.4931    189.5301   3.3948962742e+01   3.6608154552e+00    0.1147477   0.09114213  -9.11 2.935256e-05    1.017    0.016
       388  -9.8951    190.4886    189.0261   3.9413360576e+01   8.1621196321e+00    0.1775118    0.1486232 -44.96 0.0005013067    1.414    0.293
       389  -8.6997     49.4789    249.4764   7.6563503610e+01   1.6632076651e+01    0.1184124   0.08954035  42.60 0.0008095093    1.040    0.039
       390  -8.3652     40.4800    194.5057   7.5143777584e+01   2.8874431102e+01    0.1339228    0.1128237  54.81 0.0001315911    1.038    0.036
       391  -8.6187    205.7133    188.3598   3.6637278298e+01   6.1475575019e+00    0.1685965    0.1351809  11.99  0.001142131    1.146    0.128
       392  -8.5381    202.6553    187.3025   3.6977813979e+01   6.7205566691e+00    0.1780689    0.1160624  38.77 0.0009622099    1.645    0.392
       393  -9.7066      6.5563    194.0587   8.3964588213e+01   3.2401574660e+01    0.1844804    0.1418771  46.58 0.0003562118    1.119    0.107
       394  -8.7101     86.7868    192.7568   6.2890735182e+01   2.3202799450e+01    0.1912913    0.1561439  41.22 0.0003504773    1.071    0.066
       395  -8.8650    155.6426    188.0161   4.6045225864e+01   1.3534240120e+01    0.1742389    0.1546412 -15.38 0.0004161467    1.124    0.110
       396  -9.7536    157.6627    184.1971   4.4983192176e+01   1.3901611681e+01    0.2706167    0.2407337 -36.12 0.0004891391    1.186    0.157
       397  -9.9271    155.8090    178.9937   4.4479869589e+01   1.5141268664e+01     0.390889    0.2423197 -11.59  0.001234227    2.533    0.605
       398  -8.7957    152.6758    177.0472   4.4808308013e+01   1.6011173300e+01    0.1950907    0.1762348  49.74 0.0005015124    1.209    0.173
       399  -8.4834    210.8426    187.1041   3.5567631278e+01   5.6393859536e+00    0.1563367    0.1158258  -3.33 0.0002793843    1.260    0.206
       400  -8.5029    174.5795    187.1976   4.2085429708e+01   1.0781338012e+01    0.1603827    0.1117007 -26.45 0.0002699803    1.464    0.317
       401  -8.8727     91.1765    187.1161   6.1048804881e+01   2.3790387206e+01    0.1978101    0.1799826   8.60 0.0005441215    1.245    0.197
       402  -9.8630     72.7719    186.6387   6.5810125536e+01   2.6568867310e+01    0.2335775     0.213854  67.47 0.0002290963    1.085    0.078
       403  -9.0938     90.6656    191.0067   6.1684565132e+01   2.3015713343e+01    0.2139487    0.1724576  27.74 0.0003787261    1.217    0.178
       404  -8.0972    237.7475    186.6651   3.1323831672e+01   2.2911155039e+00    0.1116749   0.06947017 -11.00 0.0002872461    1.563    0.360
       405  -8.3810    147.4377    185.9752   4.7458208834e+01   1.5191969542e+01     0.179507    0.1294442 -45.24 0.0003270672    1.480    0.324
       406  -9.7578    120.4447    185.7869   5.3584468550e+01   1.9529312067e+01    0.3257856     0.181722  37.67 0.0003341583    1.609    0.378
       407 -10.3057     66.3553    192.7959   6.8179890170e+01   2.6046755864e+01     0.235983    0.2015295  40.96 0.0003084797    1.091    0.083
       408  -9.3562    216.8307    185.1795   3.4265920391e+01   5.1193198845e+00    0.1841302     0.144145  -9.14 0.0002740184    1.089    0.082
       409 -10.2110    218.9937    182.5253   3.3466186161e+01   5.2084583727e+00    0.2766292    0.2111842 -61.92   0.00168786    2.252    0.556
       410  -8.8161    166.9044    184.9815   4.3223725760e+01   1.2323705221e+01    0.1886635    0.1525343  -3.54 0.0003229491    1.250    0.200
       411  -9.1749    151.3943    185.1056   4.6461202057e+01   1.4726117783e+01    0.2058787     0.165242  19.35 0.0003308398    1.200    0.167
       412  -9.6704     85.9999    184.9881   6.2113639856e+01   2.5035155795e+01    0.2030213       0.1833  45.53            0    1.042    0.041
       413  -8.6134    210.4821    192.0122   3.6454125583e+01   4.9871861814e+00    0.1641773    0.1012018 -31.96 0.0003672513    1.485    0.327
       414  -8.1600    183.4857    184.4239   3.9914566357e+01   9.9075510209e+00    0.1250003    0.1081563   1.18  0.000111481    1.026    0.025
       415  -8.3550    152.7364    192.6827   4.7416357049e+01   1.3151186198e+01    0.1272598   0.09450108  -7.64 0.0002858709    1.548    0.354
       416  -8.8709    173.2144    182.7804   4.1594613170e+01   1.1729320534e+01    0.1728372    0.1351853   3.96 0.0003537108    1.301    0.231
       417  -8.8185    162.8945    182.8278   4.3668088506e+01   1.3323034562e+01    0.1901167    0.1589859   2.27 0.0003075949    1.182    0.154
       418  -8.9930    177.8759    182.1624   4.0584397648e+01   1.1120991788e+01    0.1906031    0.1629877  -0.41 0.0002657603    1.079    0.073
       419  -8.8944    180.7006    179.7387   3.9621619089e+01   1.1093544623e+01    0.2751385    0.1766397   5.62  0.001397213    2.019    0.505
       420  -8.4182    147.7093    182.2850   4.6783509019e+01   1.5836449047e+01    0.1856848    0.1486962   7.02 0.0002243329    1.331    0.249
       421  -8.5789    150.7169    180.6822   4.5859135607e+01   1.5651324666e+01    0.1928925    0.1544515  30.22 0.0002768756    1.169    0.144
       422  -9.4863    134.8537    181.2851   4.9491263041e+01   1.8110714248e+01    0.2169211    0.1886019 -27.97 0.0003683336    1.232    0.189
       423  -9.5255     69.0221    181.9557   6.6276791983e+01   2.8175633989e+01    0.2068542    0.1833563  49.85 0.0003078198    1.045    0.043
       424  -9.3891     20.5582    179.0544   7.9499199192e+01   3.4655338216e+01    0.4106264    0.2325432 -61.06  0.001409276    1.966    0.491
       425  -9.5965    224.3041    181.0023   3.2374309082e+01   4.7261163463e+00    0.1609017    0.1229863 -20.58 0.0003509701    1.094    0.086
       426 -10.0985    210.7096    180.5583   3.4461957357e+01   6.6067139239e+00    0.2978548    0.1748322 -42.38 0.0005928384    1.740    0.425
       427 -10.2747     89.7973    180.6336   6.0534745281e+01   2.5444584437e+01    0.2398005    0.2265903  20.91 0.0003535105    1.157    0.136
       428  -8.4815    199.0506    180.2936   3.6387574646e+01   8.2854181518e+00    0.1611572    0.1399965   5.72  0.000327393    1.074    0.069
       429  -8.1623    166.6461    180.7703   4.2550307379e+01   1.3095467791e+01    0.1292779   0.09288365   8.49 0.0002819235    1.566    0.361
       430  -9.3394    121.0177    179.6772   5.2487734729e+01   2.0694234645e+01    0.2677754    0.1930026  16.16 0.0004212498    1.594    0.373
       431  -8.5064    235.9483    179.4767   3.0369093204e+01   3.4533700879e+00    0.1438825    0.1029881  26.61 0.0003554265    1.471    0.320
       432  -9.5163    125.0683    191.9381   5.3429900288e+01   1.7571152698e+01    0.2070962    0.1860513  -6.00 0.0003400812    1.198    0.165
       433  -9.5415    163.7061    176.0133   4.2310438747e+01   1.4406851045e+01    0.3256145    0.1976037 -21.84  0.001534586    2.149    0.535
       434  -9.4064    145.8516    178.0025   4.6460887867e+01   1.6949193787e+01    0.1975483    0.1827037   8.11 0.0003971214    1.044    0.042
       435  -9.3980    147.6105    173.5130   4.5287804756e+01   1.7519424688e+01     0.350686    0.3131347  -9.77  0.002096563    1.146    0.128
       436  -7.6797    231.3086    177.3206   3.0678621298e+01   4.3285307159e+00    0.1172658   0.07540913  -6.41 0.0003063373    1.642    0.391
       437  -8.7360    226.5110    177.4680   3.1424202857e+01   4.9285615893e+00     0.117142   0.09253945 -11.83 8.733025e-05    1.054    0.051
       438  -8.0973    195.2550    177.3332   3.6529886181e+01   9.2980359070e+00    0.1241952   0.08595689 -10.07 0.0003413259    1.564    0.361
       439  -8.6943    130.0716    177.1952   4.9921558760e+01   1.9714517930e+01    0.1991121    0.1721506   8.55 0.0002927028    1.227    0.185
       440  -8.4699    109.9923    177.0003   5.4785074472e+01   2.3060521187e+01    0.1703508     0.147867  39.79            0    1.055    0.052
       441  -8.8751    103.2208    176.7996   5.6479541445e+01   2.4199275869e+01    0.1793303    0.1609042  -1.12 0.0003007176    1.283    0.221
       442  -8.1665    219.3242    176.7255   3.2404855020e+01   5.9874958283e+00   0.09984184   0.09356127 -64.81 0.0002582067    1.581    0.367
       443  -9.7211    189.8500    175.6168   3.7191353612e+01   1.0378663626e+01    0.2311977    0.1850815 -38.07  0.001040163    1.266    0.210
       444  -8.6808    134.9784    176.0375   4.8581315798e+01   1.9132864856e+01    0.1964951    0.1577606  -3.10 0.0002957171    1.458    0.314
       445  -8.6104     94.5563    176.5058   5.8694734035e+01   2.5641849579e+01    0.1975089    0.1342767  22.59 0.0001845268    1.617    0.381
       446  -9.3137     98.6397    174.8704   5.7377406884e+01   2.5364102682e+01    0.2335954     0.189982  19.58 0.0003273436    1.338    0.252
       447  -8.3778    205.7036    175.6957   3.4436546145e+01   8.0329741265e+00    0.1470623    0.1135138  40.85 0.0002348548    1.488    0.328
       448  -9.3753    202.7092    173.1738   3.4490633820e+01   8.8515859527e+00    0.2574298    0.1844238  13.24  0.001553378    1.468    0.319
       449  -9.3411    124.3536    174.4778   5.0828749786e+01   2.1225957209e+01    0.2518617    0.2069208  17.76 0.0006666547    1.285    0.222
       450  -9.1723    117.9243    175.0269   5.2489564962e+01   2.2181101088e+01    0.2042157    0.1882886  33.18 0.0003017753    1.034    0.033
       451  -8.7996    196.0734    173.5223   3.5701946154e+01   9.7782315346e+00    0.1824286    0.1494068 -24.98 0.0003834028    1.117    0.105
       452  -9.2597    159.2774    173.8876   4.2847822893e+01   1.5514260869e+01    0.2085592    0.1798669  23.41 0.0005050321    1.102    0.092
       453  -9.1571    113.3295    174.1262   5.3486907604e+01   2.3135755591e+01     0.218983    0.1840027  23.71 0.0003822398    1.213    0.175
       454  -9.0747     56.8455    173.8155   6.8748771105e+01   3.1775338073e+01    0.1892504    0.1848445  55.67 0.0003423966    1.173    0.148
       455  -8.0383    248.6937    173.7237   2.7594646661e+01   2.6481781988e+00    0.1083233   0.07046831  -5.89 0.0002746797    1.549    0.354
       456  -9.3488    153.0244    172.8977   4.3998265505e+01   1.6733282333e+01    0.1982633    0.1791068   7.61    0.0002924    1.073    0.068
       457  -9.5673    129.7653    172.5736   4.9208822753e+01   2.0711215657e+01    0.2540556    0.2149103  20.69 0.0003788905    1.198    0.165
       458  -8.7968    133.8955    170.4103   4.7857044896e+01   2.0453821120e+01    0.2091038    0.1790184 -15.08 0.0001237829    1.301    0.231
       459  -9.2147     27.8917    171.1717   7.6877636567e+01   3.5856677553e+01    0.2604774    0.1717007  61.35  0.000392712    1.331    0.248
       460 -10.3499     23.9192    171.4240   7.8050626886e+01   3.6199365250e+01    0.4596342    0.1967957 -74.08  0.001910437    2.255    0.557
       461  -9.2814     20.7066    169.2734   7.8841444050e+01   3.7051620936e+01    0.2028385    0.1831754  64.72 0.0002577768    1.111    0.100
       462  -8.8304      2.2574    172.8532   8.4323424798e+01   3.7779375727e+01    0.1792189    0.1592893 -82.06 0.0005038581    1.251    0.200
       463  -8.4885      1.2891    169.7301   8.4477659697e+01   3.8619535196e+01    0.1935565    0.1134637  86.70   0.00019555    1.527    0.345
       464  -9.5334    233.8012    171.8465   2.9356522600e+01   4.7542884852e+00    0.1686883    0.1262526 -11.24 0.0004101915    1.172    0.147
       465 -10.0304    107.1917    171.5070   5.4626252917e+01   2.4725857871e+01    0.2422965    0.2375126 -18.87 0.0004048421    1.122    0.109
       466  -9.1578    192.9960    170.4540   3.5688453379e+01   1.0734748043e+01    0.1815924    0.1518894 -25.01 9.234117e-05    1.101    0.092
       467  -9.9032    164.7162    171.0532   4.1208807598e+01   1.5136822867e+01    0.2224383    0.1804571  24.57 0.0003037682    1.199    0.166
       468 -10.3711    118.9656    168.7363   5.1176714915e+01   2.3355218086e+01    0.3359848    0.2599426 -78.86   0.00112736    1.576    0.365
       469  -9.8603    112.3894    168.9721   5.2875614467e+01   2.4418937466e+01    0.4254687    0.2554659 -59.27  0.001963228    1.825    0.452
       470  -9.0353    115.5104    165.5233   5.1492412735e+01   2.4647584754e+01    0.2297152    0.2123223  -3.67 0.0002579433    1.200    0.166
       471  -9.7631     95.7881    170.2819   5.7433397704e+01   2.6866753590e+01    0.2325532    0.2273205   2.64 0.0002827251    1.146    0.127
       472  -9.6527    142.8832    169.3908   4.5605554160e+01   1.9123783190e+01    0.2406821    0.2347669  71.06 0.0005311947    1.124    0.111
       473  -8.9760    126.3668    187.4739   5.2446873766e+01   1.8249234967e+01    0.1956803    0.1645587 -62.44 0.0003107632    1.360    0.265
       474  -9.0282    124.9790    169.9851   4.9911567469e+01   2.2063456490e+01    0.2047245    0.1962685  28.60            0    1.032    0.031
       475  -9.1552    124.1720    166.1345   4.9434342329e+01   2.3019996673e+01    0.2250057     0.188241 -36.90 0.0003016956    1.300    0.231
       476  -8.8825     61.3243    169.9375   6.7017053373e+01   3.2123883315e+01    0.1896211    0.1694598  83.91 0.0003907983    1.107    0.096
       477 -10.0880    101.5325    169.0095   5.5703507306e+01   2.6221602209e+01     0.252079     0.198795  33.15  0.000358549    1.223    0.182
       478  -8.7481      4.8989    168.8455   8.3408464986e+01   3.8554376233e+01    0.1759351    0.1616513  74.70            0    1.168    0.144
       479 -10.1754    229.3189    165.5445   2.8889419221e+01   6.2234536859e+00    0.3576198    0.1702936 -23.77  0.001276299    2.300    0.565
       480  -9.6017    159.0276    168.0802   4.1842281554e+01   1.6632047031e+01    0.1985405    0.1821385   5.46 0.0003034374    1.043    0.041
       481  -8.7185    186.7353    166.9892   3.6181176096e+01   1.2279885538e+01    0.1732868    0.1522844 -21.29  0.000279901    1.057    0.054
       482  -9.1175    148.0643    166.5045   4.3918661238e+01   1.8803331616e+01    0.1902594    0.1803176 -10.14 0.0003405215    1.051    0.048
       483  -8.5393    244.6844    166.7164   2.6921505280e+01   4.0553955735e+00    0.1113639   0.07355699  -5.60 0.0002254527    1.580    0.367
       484  -8.1153    198.2717    166.3000   3.3993758109e+01   1.0594977764e+01    0.1238247   0.08868207  -7.11 0.0002612118    1.529    0.346
       485  -9.5161    200.9547    164.0309   3.3109254023e+01   1.0545787410e+01    0.2244939    0.1481661 -35.42 0.0003750975    1.388    0.280
       486  -9.4383    165.1330    165.9478   4.0178014321e+01   1.5997846603e+01    0.2159476    0.1859286  29.99 0.0003531117    1.138    0.121
       487  -8.9118    135.1290    166.2720   4.6827317096e+01   2.1089774839e+01    0.2017297    0.1781971  14.40 0.0004724709    1.170    0.145
       488  -9.5965    106.9799    165.9690   5.3770872425e+01   2.6002199132e+01    0.2128666    0.1990993  46.43 0.0003195589    1.017    0.017
       489  -8.8024     49.8641    165.8993   6.9911958207e+01   3.4641950672e+01    0.1898416    0.1877011  76.49 0.0003194534    1.192    0.161
       490  -9.7683     29.6361    166.0329   7.5962904401e+01   3.6964031791e+01    0.3707029    0.1835868  25.27  0.001218443    2.037    0.509
       491  -9.2709    131.0275    188.6573   5.1552979800e+01   1.7279204678e+01    0.2027278    0.1809857 -16.62 0.0004233306    1.205    0.170
       492  -9.2116      1.2111    164.0192   8.4276346582e+01   4.0039926592e+01    0.1824534    0.1048459 -71.80 0.0003157452    1.731    0.422
       493  -9.9934    111.4873    161.9451   5.1903011721e+01   2.6138623445e+01      0.26833    0.2159979  32.27 0.0005182964    1.224    0.183
       494  -8.5467    234.4624    161.4775   2.7408744175e+01   6.0988521567e+00    0.1168988   0.09345637 -19.16 0.0001868392    1.015    0.014
       495  -9.6994    129.4996    184.2781   5.1214016530e+01   1.8384442014e+01    0.3890365     0.223733 -44.68  0.001870388    1.897    0.473
       496  -9.4683    115.5367    191.4098   5.5597324685e+01   1.9156190996e+01    0.2296149    0.2017272  16.73 0.0004665955    1.159    0.137
       497  -9.1915      1.9334    157.1492   8.3770929907e+01   4.1715135466e+01    0.1919931    0.1632663  65.24 0.0003709937    1.049    0.047
       498  -8.8936    227.7178    155.0363   2.7194191096e+01   7.9495214629e+00    0.1652299    0.1299686 -23.99 0.0003375087    1.055    0.052
       499  -8.6879      6.4208    154.7096   8.2275688849e+01   4.1997178032e+01    0.1914744    0.1561518 -26.56 0.0003189022    1.614    0.381
       500  -9.0970    217.8194    154.3722   2.8550524807e+01   9.4914359818e+00    0.2010829    0.1579416  66.07  0.001227061    1.944    0.486
       501  -9.4946     38.1929    151.3265   7.1931541092e+01   3.9808491511e+01    0.2341463    0.2019214 -50.15 0.0004943489    1.350    0.259
       502 -11.0760    230.5150    141.4835   2.4219037427e+01   9.5165044325e+00    0.4947191    0.3090214 -66.25  0.001965056    3.396    0.706
       503 -12.0687    230.4539    148.1861   2.5511308792e+01   8.5496811784e+00    0.5507538    0.4311183  34.71  0.003395931    1.462    0.316
       504 -11.1437    227.2760    145.7495   2.5498117127e+01   9.3711212407e+00      0.49736    0.2450718 -27.55  0.002497345    1.994    0.499
       505  -9.3203    206.4293    145.2091   2.8560194746e+01   1.2690464755e+01    0.2865293    0.1848856 -59.21  0.001451763    2.194    0.544
       506 -10.9911    212.9666    145.0387   2.7492442576e+01   1.1670554108e+01    0.6809657    0.2832828 -34.65  0.003092516    2.194    0.544
       507  -9.4975    209.4190    142.0108   2.7444629282e+01   1.2715959245e+01    0.2457016    0.1814389  40.73 0.0009945316    1.511    0.338
       508  -8.1056      1.7421    150.3155   8.3517780616e+01   4.3475928362e+01    0.1415889   0.07970753  60.73 0.0001668078    1.535    0.348
       509  -8.1090    250.2745    149.3470   2.3071438312e+01   5.6542953629e+00    0.1145059   0.07396679 -12.08 0.0003394821    1.628    0.386
       510  -9.1764      3.4959    145.6442   8.2724335494e+01   4.4559503151e+01    0.3272232     0.193385  53.60 0.0009865931    1.479    0.324
       511 -10.4308    248.0392    142.6997   2.2129814796e+01   6.8518746028e+00    0.1894365    0.1718157  27.53 0.0007725753    1.353    0.261
       512 -10.7329    239.0546    138.7548   2.2540945902e+01   8.6593732102e+00    0.1722783    0.1441645 -42.88 0.0007377036    1.248    0.199
       513  -8.2567    207.6744    138.2807   2.6966133244e+01   1.3598502291e+01    0.1195207   0.09808924 -68.51 0.0002337675    1.595    0.373
       514  -9.2898    215.0835    140.4839   2.6263780829e+01   1.2044360530e+01     0.166008    0.1233051  40.18 0.0007007718    1.520    0.342
       515 -10.2986    219.5817    142.0295   2.5895387949e+01   1.1097436857e+01    0.2972911    0.2347351 -20.67  0.001735999    1.152    0.132
       516  -9.4733    206.2432    134.1103   2.6336245271e+01   1.4511757284e+01    0.2038664    0.1893766  41.84  0.001000941    1.231    0.188
       517  -8.4462      2.8317    134.2025   8.2310653677e+01   4.7609837764e+01    0.1705002    0.1480397 -57.50 0.0003667794    1.290    0.225
       518  -9.3118    212.9870    132.0784   2.4878843630e+01   1.3704195787e+01    0.1958362    0.1662988 -27.89 0.0005591612    1.033    0.032
       519  -9.7558    222.2795    129.6919   2.3037400683e+01   1.2552686425e+01    0.1842436    0.1582208  48.03 0.0007901904    1.393    0.282
       520  -9.5128    202.8544    126.9361   2.5365515210e+01   1.6271555091e+01    0.1937692    0.1636651 -11.32 0.0003890732    1.246    0.197
       521  -8.0262    223.6831    125.6978   2.2028102129e+01   1.2933136154e+01     0.121811   0.09030911  -4.47 0.0003157426    1.620    0.383
       522 -13.8153     35.5328    116.9122   6.8480416044e+01   4.9364685815e+01     2.592499     1.610653 -67.32   0.01212078    1.514    0.340
       523 -11.2853    194.3105    118.7701   2.4960626252e+01   1.9198428448e+01    0.4724707    0.2683342 -59.04  0.002082037    2.357    0.576
       524  -9.1881    203.2658    120.5956   2.3938112809e+01   1.7242573725e+01    0.1634625    0.1241872  34.73 0.0003995363    1.530    0.346
       525 -12.4863     46.0088    116.2879   6.4363672553e+01   4.8244973666e+01     1.084405    0.4912994 -71.28  0.004137708    2.220    0.549
       526 -10.0214    184.7428    112.9863   2.5247854453e+01   2.2048968266e+01    0.2160293    0.1893792  34.83            0    1.282    0.220
       527 -11.3845    184.5043    108.5256   2.4247526794e+01   2.2881680524e+01    0.4574401     0.254328 -20.85  0.001733912    2.795    0.642
       528 -11.4789    192.1497    107.8648   2.2835452579e+01   2.1473645883e+01     0.350501    0.2076039 -47.55 0.0008496358    1.577    0.366
       529 -14.0340     73.5350    140.9202   5.9116741659e+01   3.7650739328e+01       2.6255     1.524984 -49.02   0.01120553    1.901    0.474
       530 -12.6282     99.3776    129.3961   4.8927529665e+01   3.6014515610e+01     1.751463    0.6503617  38.79   0.00588028    2.656    0.623
       531  -8.8263    113.9254    248.3209   6.2820750475e+01   9.1230948746e+00    0.1704837    0.1174798  28.73 0.0004583374    1.147    0.128
       532 -12.1284    188.7537     82.7470   1.7309223451e+01   2.6381266194e+01    0.4980013    0.3393504 -58.29  0.002561592    1.455    0.313
       533 -13.1780    186.9684     92.2178   1.9925283887e+01   2.5186655142e+01    0.7749427    0.5521163 -40.90  0.003743243    1.265    0.209
       534 -12.8198    178.0176     87.2920   2.0119505585e+01   2.7948922871e+01    0.6678824    0.5187058  43.60  0.002351844    1.506    0.336
       535  -9.4358    227.7827     95.3929   1.5123168012e+01   1.6785668749e+01    0.1505554     0.117806  42.89 0.0003503326    1.594    0.373
       536  -9.8847      7.1592     86.5832   7.6398656144e+01   6.0124116159e+01    0.2640034    0.2172115   5.91  0.001127357    1.381    0.276
       537  -8.5426      2.7827     86.7863   7.8519179411e+01   6.0319110109e+01    0.2765945    0.1837327 -85.57 0.0008282838    1.369    0.270
       538  -8.6465      3.6732     95.2635   7.8996375583e+01   5.8002923636e+01    0.1759068    0.1538664  57.34 0.0002900695    1.147    0.128
       539  -9.4574      4.0231     91.7114   7.8471097262e+01   5.8935968404e+01    0.3574595    0.2267212  52.17  0.001737065    1.597    0.374
       540  -9.1786    129.8276    194.0280   5.2649949540e+01   1.6428345896e+01    0.1935393    0.1756309  13.06 0.0004067553    1.086    0.079
       541  -8.9613    119.7850    193.9774   5.4963868628e+01   1.7985866585e+01    0.1934007    0.1692263   2.83 0.0004418025    1.235    0.190
       542 -10.6958    243.9009     82.8499   1.0726453135e+01   1.5785135514e+01     0.178352    0.1512481 -23.82  0.000615822    1.265    0.210
       543  -8.5056      6.6928     81.9705   7.6023294070e+01   6.1380417136e+01    0.1835354    0.1584433 -77.62 0.0003696271    1.043    0.041
       544  -9.8883    232.1115     80.3083   1.1373044046e+01   1.8191491555e+01    0.2138394    0.1041871  53.72  0.001085563    2.498    0.600
       545 -10.7307    249.5308     78.1340   9.2184897719e+00   1.5480604324e+01    0.3140772    0.1554417 -41.39  0.001753856    1.521    0.343
       546 -10.8174    191.1898     76.2335   1.5329503861e+01   2.6905743917e+01    0.2698335    0.2164024   1.55   0.00144353    1.764    0.433
       547  -9.0062     18.6680     76.4226   6.9012507909e+01   6.1977396148e+01    0.2254798    0.1862566  18.04 0.0004682282    1.315    0.239
       548  -8.3183     22.2922     75.2766   6.6900699063e+01   6.1949944164e+01     0.205648    0.1442538  13.39 0.0004507729    1.597    0.374
       549  -9.2777    176.6391     75.7407   1.7334064288e+01   3.0207508384e+01    0.1352199    0.1109387  27.64 0.0002290812    1.628    0.386
       550  -8.8758     39.0162     74.0287   5.8133136753e+01   6.0364993286e+01    0.2052265    0.1998324 -64.97  0.001180945    1.027    0.026
       551  -9.7029      3.5733     73.4533   7.6458761071e+01   6.3798763705e+01    0.2124766    0.2046346 -77.42 0.0001934397    1.069    0.065
       552  -8.3224      1.5020     69.6551   7.7048983924e+01   6.4890590058e+01    0.2067556    0.1198211 -77.44 -0.0001600134    1.556    0.357
       553 -12.7959    168.6627     71.1937   1.7370305451e+01   3.2800662813e+01     1.051131    0.6216342 -14.91  0.004020307    3.017    0.668
       554  -9.4596     43.5081     70.5837   5.4940578871e+01   6.0602346805e+01    0.2760542    0.2216847  56.67 0.0008807701    1.328    0.247
       555  -9.3068    177.2831     70.3534   1.5802496525e+01   3.0942111296e+01    0.1352426    0.1132297   6.51  0.000631182    1.660    0.398
       556  -9.6404     36.8710     68.6405   5.7678239379e+01   6.2002728736e+01    0.4587113     0.266791 -80.43  0.001822806    2.230    0.551
       557  -8.8611     39.7447     64.8964   5.5065371945e+01   6.2534994537e+01    0.2482141    0.1761521 -49.68 0.0006886205    1.371    0.271
       558  -9.3019     30.1825     60.9763   5.8956995297e+01   6.4735911048e+01    0.4124747    0.2671612  68.73  0.001645885    2.095    0.523
       559  -9.5013     33.2143     57.0356   5.6002069894e+01   6.5310174416e+01    0.2880824     0.203419  17.57 0.0007421674    1.572    0.364
       560  -8.9196     19.5189     58.9272   6.4493473761e+01   6.6378369846e+01    0.1859701    0.1823975  -9.64 -1.918648e-05    1.069    0.065
       561  -9.5395     19.9791     66.9089   6.6248893693e+01   6.4325065360e+01    0.3155391    0.1824672  35.33  0.001501098    1.778    0.438
       562 -10.0464     25.5163     63.9895   6.2424968847e+01   6.4516318849e+01    0.5300318    0.4127121 -55.71   0.00289508    1.204    0.170
       563  -9.2959     21.9927     61.7928   6.3822239189e+01   6.5426950091e+01    0.3929331    0.2010922  15.55  0.001704341    2.255    0.556
       564  -8.8932     16.0209     65.0632   6.8044993992e+01   6.5139848617e+01    0.1941985      0.18514 -77.24 0.0003239968    1.042    0.040
       565 -10.3779      5.3712     60.5102   7.3329455604e+01   6.7038358108e+01    0.7290312    0.3383332  31.16  0.003326183    2.223    0.550
       566  -9.5461     36.5236     60.5843   5.5366325591e+01   6.4022066895e+01    0.2511836    0.2232642 -36.20 0.0005845549    1.139    0.122
       567 -13.3100     82.5608    124.4583   5.3071743228e+01   4.0351123234e+01     1.858296     1.423437  -2.84   0.00832866    1.918    0.479
       568  -9.4340     94.8161    193.3529   6.0938773436e+01   2.1897214734e+01    0.2080643    0.1906701 -56.28 0.0003340607    1.241    0.194
       569  -8.2498     11.5561     58.4718   6.9161718091e+01   6.7153628415e+01    0.1342991     0.121496 -55.84 6.079939e-05    1.021    0.021
       570  -8.8856     15.5146     57.0227   6.6395950706e+01   6.7205905885e+01    0.1879873    0.1749495   3.90 4.348419e-05    1.137    0.120
       571  -8.9602     21.8237    247.9414   8.2371560707e+01   1.9815379332e+01    0.1539335    0.1358621  37.39 0.0005166933    1.298    0.230
       572  -9.1848     39.7685     56.0886   5.2074735853e+01   6.4626838532e+01    0.2556744     0.198947  20.84  0.000491201    1.386    0.278
       573  -9.9964     63.4757     54.1873   3.9805812071e+01   6.0927774654e+01    0.2652008    0.2284966  40.46  0.000374756    1.162    0.139
       574  -9.1907     22.0765     53.0098   6.1227843560e+01   6.7574941792e+01    0.4085907    0.2838739 -67.67  0.002142259    1.429    0.300
       575  -8.7373     44.9624     53.9655   4.8538757240e+01   6.4313876792e+01    0.2005296    0.1992386  54.89 0.0003124665    1.025    0.024
       576  -8.5536      1.7657     51.6410   7.3871322537e+01   6.9451708613e+01    0.1987462    0.1588739 -48.21   0.00029916    1.149    0.130
       577  -8.4210      5.4974     50.5415   7.1172964051e+01   6.9523158967e+01    0.1869267    0.1212965 -86.38 0.0001319323    1.635    0.389
       578  -9.6332      9.8895     54.2286   6.9195719022e+01   6.8330501077e+01    0.4181902     0.164357  25.68  0.001711073    2.532    0.605
       579  -8.7267      5.0854     53.8944   7.2183363437e+01   6.8717385595e+01    0.2049773    0.1576746 -36.83 0.0004668216    1.274    0.215
       580  -9.3592     34.4569     51.8648   5.3477164404e+01   6.6356415996e+01    0.3267013    0.2374987  49.44  0.001685825    1.514    0.339
       581  -8.8446      1.8298    248.1457   8.6540644343e+01   2.1659713898e+01    0.1336116    0.1158155  40.32 0.0003862973    1.309    0.236
       582  -9.1257     74.1839    193.7538   6.6243873419e+01   2.4768529310e+01    0.1991937    0.1589238  48.80 0.0004229015    1.078    0.072
       583  -9.9009     10.7387     49.3486   6.7398669478e+01   6.9467235542e+01     0.428436    0.2324336  52.89  0.001882878    2.323    0.570
       584 -13.3829     92.6620     93.3631   4.2061473545e+01   4.6090550348e+01     3.037983     1.447252  35.42   0.01068499    2.533    0.605
       585 -10.7904     31.4706     38.7099   4.9919776414e+01   6.9685383126e+01     0.306224    0.2292074  39.42 0.0002788515    1.376    0.273
       586  -9.4444     39.9212     38.8232   4.4883408501e+01   6.8375775397e+01    0.2891746    0.1995946  26.03 0.0009974551    1.552    0.356
       587  -9.0128     36.2069     38.1645   4.6758065583e+01   6.9099800879e+01    0.2021871    0.1796609  -1.60 0.0005191696    1.159    0.137
       588  -8.9746     23.8248     45.6353   5.7625227723e+01   6.9123371314e+01    0.2897039    0.1952271  58.47 0.0009645612    1.906    0.475
       589  -9.9004     21.8165     40.9989   5.7191275009e+01   7.0405220660e+01    0.4088631    0.2531027 -25.34  0.001481848    1.934    0.483
       590  -9.6734     26.7481     41.1872   5.4004857054e+01   6.9778307789e+01    0.2467156    0.2296941 -87.32 0.0005256576    1.207    0.171
       591 -10.2571      8.1901     43.6809   6.7563282800e+01   7.1013596350e+01    0.3887966    0.2258811 -13.35  0.001435102    2.021    0.505
       592 -10.2177     12.1515     39.7511   6.3496332192e+01   7.1634815777e+01    0.2399947    0.1800095 -64.56  0.001375666    1.296    0.228
       593 -10.5004    145.9570     43.8100   1.2912177389e+01   4.2712899968e+01     0.210463    0.1943331  55.79 0.0003869562    1.236    0.191
       594  -9.7244    194.0413    247.4790   4.7485909104e+01  -3.5055210335e-01    0.1701835    0.1043505  13.77 0.0004653962    1.370    0.270
       595 -10.4677     86.3062     30.2943   2.0851521048e+01   6.0031197494e+01    0.4639091    0.3359694 -56.46   0.00231284    1.515    0.340
       596  -9.3829     98.0292     37.9831   2.0866206464e+01   5.5946985551e+01    0.3022871    0.2453875  38.65   0.00057428    1.374    0.272
       597 -10.1366     95.3367     34.5882   2.0169498854e+01   5.7142620396e+01    0.5716101    0.2335291  57.16  0.002163697    2.243    0.554
       598 -10.1545     84.1162     35.8466   2.4046805035e+01   5.9722865001e+01    0.3713884    0.3494382 -35.68  0.001681937    1.140    0.123
       599  -9.4849     81.0119     34.2062   2.4313982223e+01   6.0728602486e+01    0.3093063    0.2001551  47.30 0.0006067592    1.517    0.341
       600  -9.5310      6.4946     40.0393   6.7723590317e+01   7.1990968042e+01    0.1865148    0.1676094  -2.80  0.000378615    1.149    0.130
       601  -9.6113      4.7259     36.6669   6.8037757620e+01   7.2894063235e+01    0.1704177    0.1460484  63.23  0.000398944    1.351    0.260
       602  -8.8794      1.6725     36.7271   7.0412671863e+01   7.3056152831e+01    0.1991641    0.1573238 -38.96 0.0004562607    1.162    0.139
       603  -8.8711     52.9115     37.9029   3.7523695695e+01   6.6237665940e+01    0.2071657    0.1800871  13.05 0.0004440224    1.253    0.202
       604  -8.5486    189.9877     36.9910   5.2837374928e+00   3.2873636073e+01    0.1689969     0.133735 -51.28 0.0005064895    1.092    0.084
       605  -8.6442     73.8703     36.8810   2.8053927985e+01   6.1969422036e+01    0.2312051    0.2021984 -21.91   0.00050087    1.271    0.213
       606 -10.6345     70.7517     33.3788   2.7566695540e+01   6.3259325755e+01    0.6143625    0.4078793  40.02  0.002294837    1.572    0.364
       607 -14.1953     64.5575    106.5597   5.5393696059e+01   4.8090971537e+01     3.396738     1.875744  45.70   0.01400339    1.795    0.443
       608  -9.1271     56.2707     34.2278   3.4106485449e+01   6.6243038518e+01     0.532635    0.2378731  37.33  0.001681623    2.584    0.613
       609  -9.2311     20.3053     35.1393   5.5837687550e+01   7.1872929650e+01    0.2158149    0.1738293   1.62 0.0005856389    1.293    0.226
       610  -9.9376    150.5065     34.1670   9.1162150979e+00   4.2896573482e+01    0.2294194    0.1906012  56.88 0.0004258067    1.331    0.249
       611  -8.8299    125.1100     34.4907   1.3363450101e+01   4.9455044703e+01    0.2148231    0.1355264  66.35 0.0005981099    1.489    0.329
       612  -8.7545    123.5368     31.5238   1.2564141697e+01   5.0272988396e+01    0.2060636    0.1283102 -44.82 3.480929e-05    1.578    0.366
       613  -9.7292    101.3036     32.8706   1.7885553450e+01   5.5877018301e+01    0.2547069    0.1970616  69.10  0.000516012    1.215    0.177
       614  -9.9220    105.8702     32.2419   1.6524715593e+01   5.4789938961e+01    0.2504588     0.221377  88.74 0.0006695681    1.062    0.059
       615  -9.9464    109.2624     30.6627   1.5115664130e+01   5.4128183903e+01    0.2281697    0.1412579  69.72 0.0002997543    1.538    0.350
       616  -8.5633     46.7290     33.0421   3.8268844325e+01   6.8311992394e+01    0.1845164    0.1725007 -32.46 0.0003862785    1.086    0.079
       617  -9.2322    197.3038    244.1224   4.6487531988e+01  -3.0373229198e-01    0.1699907    0.1083104  -9.99   0.00116319    1.507    0.336
       618  -8.9342    109.0712    247.1381   6.3709705718e+01   9.9167092724e+00    0.1706189    0.1355734  15.70  0.000314789    1.237    0.192
       619  -9.3909     93.7780    246.9766   6.6909996602e+01   1.1844382630e+01    0.1697172    0.1395298  23.86  0.000320746    1.167    0.143
       620 -11.0654      8.5514     32.6483   6.3690573446e+01   7.3546855349e+01     0.341481    0.2834247 -31.44  0.001452193    1.124    0.111
       621 -10.5009      2.4663     28.8102   6.7298154737e+01   7.4831737545e+01    0.5033217    0.2792551  87.95  0.001565014    2.584    0.613
       622  -9.6848     92.3210    244.3372   6.6986586040e+01   1.2469199727e+01    0.3211571    0.1957296 -13.88  0.001563531    3.116    0.679
       623 -10.5971     33.4956    246.0022   7.9810604083e+01   1.8983929435e+01    0.2695125    0.2122598   5.37 0.0004601106    1.706    0.414
       624  -8.4324     16.4906    247.4488   8.3477194561e+01   2.0427057138e+01    0.1146222   0.08530696  47.15 0.0002168768    1.062    0.058
       625 -12.6687     84.7472    105.0173   4.7839047155e+01   4.4857513555e+01       1.5469    0.5589787  45.73  0.004009505    2.767    0.639
       626  -9.3175    133.4828     32.4758   1.1157543119e+01   4.7536682378e+01    0.1466804    0.1310896 -83.90 0.0004006202    1.016    0.015
       627 -14.3275    105.9512    153.6053   5.1878879679e+01   2.9018247816e+01     5.070038     2.242558  24.14   0.01557064    3.885    0.743
       628  -8.7039     63.3117     30.9406   2.9328575387e+01   6.5316047690e+01    0.1886017    0.1819598  27.74 0.0006314775    1.046    0.044
       629  -8.8839     22.7640     31.4279   5.2396419195e+01   7.2373833443e+01    0.1763746    0.1231197  11.12 0.0006811473    1.577    0.366
       630 -10.3598     96.0465     28.6553   1.7415317771e+01   5.7814793608e+01    0.4452813     0.242259  45.07   0.00171155    1.990    0.498
       631  -8.2563      7.8736    247.3592   8.5274526974e+01   2.1256374928e+01    0.1406804   0.09135894  23.48 0.0003720501    1.588    0.370
       632  -9.1655     37.5116     30.4266   4.2136347715e+01   7.0421757543e+01    0.3425023    0.1584172  46.70  0.001441982    2.338    0.572
       633  -9.7649     77.0993     29.2220   2.3275509986e+01   6.2425911533e+01    0.2141428    0.1807847  42.31 0.0004611859    1.194    0.162
       634  -8.8795     48.5671     28.9766   3.5167077825e+01   6.8690939099e+01    0.2031399    0.1738484  41.09 1.770536e-05    1.129    0.114
       635  -9.8193     67.6869     27.8475   2.5993658365e+01   6.4828034050e+01    0.3770666    0.1865863  56.57  0.001022498    1.965    0.491
       636  -9.6716     71.4244     26.4658   2.3894934156e+01   6.4172558622e+01    0.3900436    0.2681519   9.42  0.001779013    2.177    0.541
       637  -9.3044    156.6023    245.8703   5.4059977686e+01   4.2029104475e+00    0.2010031    0.1259363  19.59 0.0006017735    1.355    0.262
       638 -13.5941     97.3226    140.6349   5.1842446471e+01   3.3654736580e+01     2.491724     1.324094  34.01  0.008388518    1.939    0.484
       639  -8.4149     38.4752     26.5661   3.9459858444e+01   7.0969657839e+01    0.1314309    0.1254092  17.38 0.0001309238    1.033    0.032
       640  -8.9265    136.0973    245.9118   5.8064262978e+01   6.7233867319e+00     0.178157    0.1379685  18.10  0.000578896    1.106    0.096
       641  -9.8933    118.5456     24.5606   1.0839354583e+01   5.2486144459e+01    0.3453405    0.1630013  59.28  0.001440136    1.948    0.487
       642 -10.0401    103.8927     24.8224   1.3890094980e+01   5.6298593022e+01    0.4015133     0.226364 -84.39  0.001606137    2.389    0.581
       643  -9.5093    130.0082    245.7139   5.9264326646e+01   7.5145725357e+00    0.3374659    0.1593296  50.35   0.00162121    2.789    0.641
       644  -8.7445    114.0606     24.4805   1.1647883888e+01   5.3677919571e+01    0.2222034      0.13152  67.21 0.0009005674    1.551    0.355
       645  -7.8720     44.3564     24.2921   3.4799443153e+01   7.0294420909e+01    0.1394332     0.102092  12.72 0.0007029417    1.687    0.407
       646  -8.6766     97.9308     23.5438   1.4704975461e+01   5.8006776887e+01    0.2159484    0.1324282  66.63  0.000476613    1.512    0.338
       647  -9.8359    117.5725     20.0871   9.2648350198e+00   5.3279702511e+01    0.3776705    0.1745154 -84.71  0.001295137    3.211    0.689
       648  -9.3421     81.4153    176.0068   6.2150882567e+01   2.7776103336e+01    0.3089525    0.1992904  27.87  0.001012036    1.567    0.362
       649 -10.0294     64.0106     18.7805   2.2566285983e+01   6.6967568234e+01    0.2573395     0.239274  29.64 0.0008444301    1.088    0.081
       650  -9.4060     42.9706     20.0937   3.3079501753e+01   7.1241355621e+01    0.2083578    0.1552262  11.09 0.0006384089    1.615    0.381
       651  -9.7938     18.4170     19.7427   4.9551684593e+01   7.5258407383e+01    0.3794833    0.1795793  46.32  0.001655535    2.742    0.635
       652 -10.6726     30.2222     24.1513   4.3348127350e+01   7.2766447420e+01    0.4995586    0.2561315  28.11  0.001470746    2.184    0.542
       653  -9.5799     90.9753    172.0759   5.8999710909e+01   2.7220016932e+01    0.2176687    0.2056726 -38.18 0.0002827088    1.213    0.175
       654  -9.7660     31.2729     15.3911   3.7221087025e+01   7.4115224654e+01    0.3161526    0.2173012  69.66  0.001437608    2.460    0.594
       655  -8.8008     23.8416     15.2213   4.2441842467e+01   7.5335442988e+01     0.172651    0.1384561  -6.32 0.0006538503    1.287    0.223
       656  -9.0957    119.4799    246.0166   6.1442442437e+01   8.7898227413e+00     0.210561    0.1358667  19.76 0.0004347309    1.431    0.301
       657 -10.3116    104.7151    245.3308   6.4446618692e+01   1.0755036719e+01    0.2140011    0.1677176  17.47 0.0002625295    1.246    0.197
       658  -9.2429     81.8957    245.9994   6.9364031448e+01   1.3466920724e+01    0.1742602    0.1430821  33.72 0.0004734184    1.098    0.089
       659  -8.7396     75.3881    244.5318   7.0651802131e+01   1.4510096460e+01     0.157574    0.1159513 -74.72 0.0006515086    1.683    0.406
       660  -9.9861     58.3052    243.4093   7.4289994617e+01   1.6727456522e+01    0.2446101    0.2028548  -2.60  0.001457365    1.616    0.381
       661  -9.6093     50.4694    244.9753   7.6092874332e+01   1.7333135299e+01    0.2097719     0.141465  29.38 0.0004207877    1.314    0.239
