#   1 NUMBER                 Running object number                                     
#   2 MAG_AUTO               Kron-like elliptical aperture magnitude                    [mag]
#   3 X_IMAGE                Object position along x                                    [pixel]
#   4 Y_IMAGE                Object position along y                                    [pixel]
#   5 X_WORLD                Barycenter position along world x axis                     [deg]
#   6 Y_WORLD                Barycenter position along world y axis                     [deg]
#   7 A_WORLD                Profile RMS along major axis (world units)                 [deg]
#   8 B_WORLD                Profile RMS along minor axis (world units)                 [deg]
#   9 THETA_WORLD            Position angle (CCW/world-x)                               [deg]
#  10 FWHM_WORLD             FWHM assuming a gaussian core                              [deg]
#  11 ELONGATION             A_IMAGE/B_IMAGE                                           
#  12 ELLIPTICITY            1 - B_IMAGE/A_IMAGE                                       
         1 -15.2203      9.5503    159.6204   2.9262007752e+02   5.8046659565e+00    0.5721974     0.320528  61.95   0.04940263    2.734    0.634
         2 -13.5319    193.3404     28.1337   2.8973269678e+02   6.2943483830e+00   0.06373456   0.06039651 -15.84  0.006449091    1.027    0.027
         3 -13.6889    207.5064      8.7574   2.8945592185e+02   6.4352181775e+00   0.07117799   0.04953283 -21.77  0.007571385    1.649    0.393
         4 -13.2336      4.9206     10.2715   2.9180534796e+02   7.5108345972e+00   0.09090818    0.0377711 -53.15  0.007896235    2.238    0.553
         5  -9.3450     46.9992    249.4784   2.9270865604e+02   4.5913356744e+00  0.009528939  0.006290024  24.62 0.0004417036    1.503    0.335
         6 -11.1266    249.4784    249.3282   2.9037719661e+02   3.5028182582e+00   0.02166528   0.01607656  -2.96  0.002398282    1.497    0.332
         7 -12.5333    140.3246    248.8826   2.9163034594e+02   4.0964460933e+00   0.03209797   0.02390599  45.14  0.003614526    1.428    0.300
         8  -9.1742     37.0525    250.4631   2.9282894084e+02   4.6335845265e+00   0.01001687  0.006340754  21.97  0.000847272    1.590    0.371
         9  -9.8581      2.7619    249.3286   2.9321744091e+02   4.8300695650e+00   0.01794226   0.01090454   4.04  0.001730478    2.003    0.501
        10 -10.6855     34.7732    245.1396   2.9282441480e+02   4.7057906829e+00   0.02923505   0.01243728 -44.25  0.002452784    2.454    0.592
        11 -11.8295    125.0928    249.9408   2.9181186124e+02   4.1665188573e+00   0.03051439  0.009938615  25.37  0.002296766    3.023    0.669
        12 -10.4251    198.3750    245.8081   2.9094438217e+02   3.8182175215e+00  0.009921207  0.005470952 -50.56 0.0009571972    1.745    0.427
        13 -11.5314    102.1073    247.6378   2.9206320616e+02   4.3161015138e+00   0.01887469   0.01452412 -60.82  0.001358725    1.305    0.233
        14 -10.3907     82.6303    243.5981   2.9226413964e+02   4.4662972625e+00   0.02070139   0.01230952  66.22  0.001848828    2.555    0.609
        15  -8.9704     12.5021    240.5192   2.9305431886e+02   4.8771960536e+00   0.01214369  0.006341359   7.65  0.001035734    2.506    0.601
        16  -9.5818      2.0000    239.9886   2.9317227104e+02   4.9394037901e+00   0.01088696   0.00365399 -62.68 0.0008078466    2.980    0.664
        17  -9.2516    172.3087    238.6796   2.9120290694e+02   4.0390206732e+00  0.006678967  0.004905436  61.09 0.0003608804    1.642    0.391
        18 -11.7272     56.3930    226.8660   2.9246951917e+02   4.7957209049e+00    0.1071606   0.04224167 -36.67  0.007637529    3.605    0.723
        19 -12.8110      9.7144    206.6775   2.9289074292e+02   5.2735063329e+00   0.05047181   0.03030769  23.28  0.003566375    1.667    0.400
        20 -10.4169    174.3271    249.1778   2.9124067000e+02   3.9099469716e+00   0.01735993    0.0063381  43.91  0.001166095    3.215    0.689
        21  -8.9918    152.6548    213.0435   2.9128020446e+02   4.4336197798e+00  0.008803509  0.008011376 -55.16 0.0004212302    1.100    0.091
        22 -14.1265     43.8831    226.6311   2.9261233670e+02   4.8654971464e+00   0.05332386   0.04820428 -29.94  0.004074689    1.089    0.082
        23 -11.5674     63.8514    199.6641   2.9222588434e+02   5.0621735731e+00   0.01757853   0.01128065 -36.83  0.001097882    1.652    0.395
        24 -10.5258      9.7942    195.8133   2.9282694178e+02   5.3955133441e+00   0.02593158  0.007585498  32.52  0.001832695    3.050    0.672
        25 -10.8889     21.4498    200.5481   2.9271993579e+02   5.2797080010e+00   0.01155767   0.01035332 -36.84 0.0004634325    1.094    0.086
        26 -11.5927     18.0637    198.7560   2.9274860773e+02   5.3180492314e+00   0.01509314   0.01197249  41.41 0.0006865364    1.307    0.235
        27  -9.8106    192.0064    193.1898   2.9071155629e+02   4.4448798262e+00   0.02176639   0.01105427  87.80  0.001442115    4.732    0.789
        28 -10.9195    146.5068    229.2097   2.9144494302e+02   4.2846973902e+00   0.01281477  0.009318161  22.14  0.001424376    1.373    0.272
        29  -9.7342      7.5942    226.2977   2.9302867349e+02   5.0637469720e+00    0.0107276  0.007488218  -7.71 0.0002966131    1.675    0.403
        30 -11.8596     69.7098    191.4614   2.9211075052e+02   5.1231221765e+00   0.01532215    0.0117681 -34.30 0.0006404933    1.332    0.249
        31 -13.2517     66.4056    176.5714   2.9206243476e+02   5.3086342533e+00   0.02707379   0.01309057 -40.53  0.001841174    2.267    0.559
        32 -10.9467     79.4328    178.5310   2.9192356807e+02   5.2165414192e+00   0.01187504   0.01102589 -24.33 0.0005379915    1.054    0.052
        33  -8.8426    102.0128    178.5355   2.9166322092e+02   5.0950341483e+00  0.009275169  0.006172728  28.82 0.0004844549    1.479    0.324
        34 -11.7696     86.6676    169.0909   2.9178529358e+02   5.2839818975e+00   0.03046444   0.02752004 -14.56  0.003802269    1.105    0.095
        35 -10.1520    189.4658    152.9701   2.9050649846e+02   4.9113111447e+00   0.01830578   0.01108489  65.88  0.001621821    2.449    0.592
        36  -9.9283     98.8433    152.7631   2.9154994025e+02   5.4023813198e+00   0.01316175   0.01257277 -16.72 0.0008134035    1.014    0.014
        37  -9.1307    101.8147    148.6523   2.9149175483e+02   5.4326842363e+00   0.01191433  0.008189878 -34.98  0.001227237    1.534    0.348
        38 -12.0736     87.6226    152.2132   2.9167617916e+02   5.4689579218e+00    0.0143207   0.01153361 -32.13 0.0006425092    1.263    0.208
        39 -12.5294     67.1899    143.8857   2.9186352343e+02   5.6726323958e+00   0.03439971   0.02371803  53.88   0.00364914    1.694    0.410
        40  -9.5413    183.3690    146.6492   2.9053988605e+02   5.0153883732e+00   0.01346809  0.009468845  59.95 0.0007503356    1.743    0.426
        41 -10.8199    173.6406    222.6498   2.9109440369e+02   4.2123166662e+00   0.02014774   0.01508009  57.55  0.002232503    1.558    0.358
        42  -8.6567    192.0282    144.0308   2.9042486145e+02   4.9980712053e+00   0.00768248  0.007260314 -42.52 0.0004113752    1.044    0.042
        43  -9.7177    110.0483    137.7983   2.9133361663e+02   5.5105759388e+00   0.01898202  0.009457679 -32.78   0.00132852    2.589    0.614
        44 -11.0386     57.6184    132.9310   2.9191031745e+02   5.8474573885e+00     0.015381   0.01159009  86.56  0.001478366    1.646    0.392
        45 -10.9011     96.4239    134.6005   2.9147218829e+02   5.6199543472e+00   0.02297557   0.01118411  36.59  0.001245892    2.026    0.507
        46 -10.0375     84.2174    134.9729   2.9161520297e+02   5.6814529205e+00   0.01372541  0.009451872  47.77  0.001271497    1.596    0.373
        47 -12.6922     38.1194    234.2728   2.9272299265e+02   4.8103001324e+00   0.01899687   0.01405221 -39.26 0.0007733086    1.363    0.266
        48  -8.6132    160.6117    125.8055   2.9068063433e+02   5.3728961735e+00  0.009052699  0.006277947 -79.67 0.0009387807    1.718    0.418
        49  -9.2598    107.1434    124.1789   2.9128783691e+02   5.6795803714e+00  0.009172293  0.008058346 -21.60 0.0003155953    1.146    0.127
        50 -10.2673     53.6058    120.1974   2.9188261026e+02   6.0124315709e+00   0.01272187  0.006529674 -67.76  0.001152528    2.134    0.531
        51  -9.0959     94.3388    216.6827   2.9197318405e+02   4.7065861267e+00   0.01270727  0.008811634  60.81  0.001158233    1.793    0.442
        52 -10.3974    167.9539    113.0744   2.9052173668e+02   5.4765196037e+00   0.01382574    0.0114428  64.10 0.0007752297    1.390    0.280
        53  -9.5034    203.6823    111.4361   2.9010041482e+02   5.3018009426e+00   0.01177533  0.007025968 -40.65 0.0009312907    1.741    0.426
        54  -9.1111     72.9014     86.0989   2.9146133478e+02   6.2926325242e+00   0.00977485  0.008140976  53.06 0.0005368722    1.316    0.240
        55 -11.2604    242.6906     84.1001   2.8949144081e+02   5.3979604169e+00   0.01412418   0.01004141 -68.49  0.001541032    1.493    0.330
        56  -9.4899    156.7415     75.9916   2.9043459871e+02   5.9543143940e+00  0.009180556  0.008619998 -44.43 0.0006521213    1.051    0.049
        57 -10.5443     12.4766     64.9617   2.9203647550e+02   6.8550739986e+00    0.0130514  0.008465738  41.85 0.0009348746    1.611    0.379
        58 -11.0399      2.0455     61.6309   2.9213768916e+02   6.9484631754e+00   0.01979474  0.008864716 -64.03  0.001717405    2.304    0.566
        59 -10.6963      7.0344     62.9981   2.9208796504e+02   6.9063438552e+00   0.01010741  0.009741749  28.98 0.0008669439    1.065    0.061
        60 -10.5776     27.2430     60.3617   2.9183900199e+02   6.8276456663e+00   0.01979847  0.009304265  38.52 0.0009652867    2.142    0.533
        61 -10.9833     22.5946     58.4175   2.9188141780e+02   6.8744661441e+00   0.02595489  0.008878147  36.93  0.002029105    2.811    0.644
        62 -10.9738      2.0000     50.5149   2.9207353321e+02   7.0738065671e+00   0.01965258  0.004235062 -61.58  0.001224792    4.331    0.769
        63 -10.7017    162.5113    249.0634   2.9137599396e+02   3.9749100849e+00   0.01325377  0.008629291  42.82  0.001382582    1.617    0.382
        64 -10.1851     81.8683    249.1316   2.9230497316e+02   4.4080522410e+00    0.0103172   0.00888346  63.28  0.001232609    1.306    0.234
