#   1 NUMBER                 Running object number                                     
#   2 MAG_AUTO               Kron-like elliptical aperture magnitude                    [mag]
#   3 X_IMAGE                Object position along x                                    [pixel]
#   4 Y_IMAGE                Object position along y                                    [pixel]
#   5 X_WORLD                Barycenter position along world x axis                     [deg]
#   6 Y_WORLD                Barycenter position along world y axis                     [deg]
#   7 A_WORLD                Profile RMS along major axis (world units)                 [deg]
#   8 B_WORLD                Profile RMS along minor axis (world units)                 [deg]
#   9 THETA_WORLD            Position angle (CCW/world-x)                               [deg]
#  10 FWHM_WORLD             FWHM assuming a gaussian core                              [deg]
#  11 ELONGATION             A_IMAGE/B_IMAGE                                           
#  12 ELLIPTICITY            1 - B_IMAGE/A_IMAGE                                       
         1 -13.6658    232.2808     39.1771   4.2376096715e+01   2.2538771436e+01      1.24454    0.6384086 -56.71   0.00431631    1.985    0.496
         2 -15.2057    229.2005     16.4702   3.7383081596e+01   2.6006808509e+01     2.392245     1.077397 -49.96  0.008560954    2.019    0.505
         3 -14.2594    239.5075      4.0232   3.3806317200e+01   2.5065160930e+01     1.554426    0.7976405 -71.73  0.007066078    1.920    0.479
         4 -13.1211    216.6076     26.0278   4.0863233008e+01   2.7816650455e+01    0.6405646    0.4773889  45.58  0.002651222    1.606    0.377
         5 -12.8064    198.9828     13.8399   3.9653919497e+01   3.3434469129e+01    0.6480135    0.4894702 -47.75  0.003553506    1.300    0.231
         6 -12.6122    119.7505     13.5430   5.1604432736e+01   5.3176195561e+01    0.5218099    0.3970626  42.96  0.002082625    1.170    0.145
         7 -11.2371     60.5415    224.8827   1.1765071568e+02   2.0339223793e+01    0.3867618    0.2069498 -71.66  0.002134826    1.886    0.470
         8  -9.0517    250.6772    250.7142   8.4501677010e+01  -1.2120800071e+01    0.1165514   0.06665573   8.53 0.0002384907    1.599    0.375
         9 -14.8274    222.9346    229.7590   8.5937407473e+01  -5.7737958626e+00     1.148626    0.8473579  -7.84  0.004297301    1.264    0.209
        10 -14.3878    231.3670    246.4144   8.7157454289e+01  -9.0690617647e+00    0.9964531     0.484589  24.54   0.00433597    1.835    0.455
        11 -14.3629    242.2440    239.4293   8.4108420876e+01  -9.7358648748e+00    0.8167176    0.5169992  22.99  0.003316375    1.284    0.221
        12 -12.6884    201.8027    247.6750   9.2715644872e+01  -4.9641200117e+00    0.5299537    0.3781653  38.59  0.002182947    1.339    0.253
        13 -12.0397    195.1333    248.3937   9.4063612777e+01  -4.0568521605e+00    0.4110786    0.2774855   2.41  0.002483496    1.652    0.395
        14 -15.0821    215.9386    143.4947   7.0071074099e+01   9.1550601241e+00     2.916324       2.3194 -21.87   0.01309928    1.200    0.167
        15 -14.6775     60.3342    192.3110   1.1454167778e+02   2.7186274203e+01     1.320026    0.8124149  86.80  0.006678877    1.676    0.403
        16 -15.2260     75.0491    173.6874   1.0881012680e+02   2.9430967573e+01     3.877346     2.159099  29.63    0.0181121    2.075    0.518
        17 -14.9607    171.6133    247.1940   9.8338581286e+01  -2.7098705867e-01    0.8625324    0.5459788  34.77   0.00321318    1.272    0.214
        18 -17.3633    168.8692    150.4201   8.1450224083e+01   1.7578895785e+01     4.703724      4.02601 -66.81   0.01408274    1.381    0.276
        19 -15.8133    151.2927    209.9122   9.6864544466e+01   9.1870671424e+00     1.737884     1.184859  74.77  0.006525032    2.376    0.579
        20 -16.9574    152.1941    187.7418   9.2879939009e+01   1.3262219906e+01     2.987993     2.126882  78.43   0.01068941    2.197    0.545
        21 -15.8270     15.6064    159.5128   1.2152475335e+02   3.9479126566e+01     8.327566     2.622153  89.98   0.02618205    5.173    0.807
        22 -15.1107      3.0882    245.4451   1.2914582582e+02   2.2851892217e+01    0.7521393    0.3113229 -87.46  0.004627343    2.095    0.523
        23 -15.0673     10.9103    230.0589   1.2716203010e+02   2.4929956555e+01     1.273165     0.722714  72.48   0.00791352    1.365    0.267
        24 -13.5847     49.6054    209.6510   1.1851429538e+02   2.4795734453e+01    0.8948055    0.4321568  89.03   0.00381778    2.322    0.569
        25 -14.4597     10.7656    207.3686   1.2598228183e+02   2.9422157328e+01    0.9906385    0.7293851  73.25   0.00455354    1.038    0.037
        26 -14.9680     17.1250    191.6711   1.2373561620e+02   3.2130493943e+01     1.319246    0.6957321  69.23  0.004364545    1.710    0.415
        27 -15.8041     40.0307    220.0405   1.2124052847e+02   2.3800708172e+01     1.382352    0.7107334 -62.35  0.007505399    2.070    0.517
        28 -14.6435     42.0967    236.3504   1.2200303688e+02   2.0393676732e+01    0.5999458    0.3228806  69.55    0.0025773    1.651    0.394
        29 -14.7866     28.9478    213.9432   1.2293524847e+02   2.6261642579e+01    0.5559803    0.4553925  27.40  0.002441843    1.645    0.392
        30 -14.8440     26.8583    207.6724   1.2290728840e+02   2.7771909334e+01    0.5554011    0.4656323  22.49  0.002235313    1.679    0.404
        31 -14.4392     29.3131    199.9815   1.2185711787e+02   2.9133793193e+01    0.4363273    0.3749056 -69.34  0.002181302    1.359    0.264
        32 -15.5147     51.1262    244.2757   1.2091894861e+02   1.7848408124e+01    0.9558935    0.5209421  63.96  0.005896901    1.565    0.361
        33 -14.1834    236.2999    225.9459   8.2865382065e+01  -7.2405756867e+00     1.216687    0.5132701 -31.15  0.003613815    2.401    0.583
        34 -12.2533    244.2415    213.8596   7.9307766018e+01  -6.8141335149e+00    0.4779959    0.3330694  24.78  0.001842791    1.282    0.220
        35 -12.0687    134.6596    209.5590   1.0037563614e+02   1.2129840651e+01    0.5057266    0.3723235  84.81  0.001377042    1.845    0.458
        36 -15.7811    128.3579    158.2395   9.2843176060e+01   2.4076485630e+01     3.189762     1.692231 -57.59   0.01282603    2.086    0.521
        37 -10.5147    216.7315    205.7977   8.2852774488e+01  -1.4113859811e+00    0.2636605    0.1701555  42.04  0.001422081    1.608    0.378
        38 -10.8687    121.2074    200.9690   1.0202879630e+02   1.6118479943e+01    0.3357137    0.2646741  68.43  0.001249564    1.347    0.258
        39 -10.1403    125.5757    195.7786   1.0024913637e+02   1.6431663070e+01    0.2950116    0.1702158 -52.66  0.001393936    1.873    0.466
        40 -16.2290    150.1861    241.6911   1.0173907533e+02   3.9484961153e+00     2.926998     1.244573  36.43   0.01378458    1.996    0.499
        41 -10.5897    117.3013    190.0223   1.0122441250e+02   1.9065209778e+01    0.3908103    0.2274392  56.11  0.001172565    1.868    0.465
        42 -11.1368     91.7418    186.6058   1.0665027218e+02   2.3996276945e+01     0.427066    0.3108533  86.39  0.001767309    1.493    0.330
        43 -15.0907     76.4374    220.6964   1.1408832776e+02   1.9041428536e+01     1.294765    0.5122777  49.30  0.005995432    2.203    0.546
        44 -12.3134     62.3875    161.4257   1.1023660067e+02   3.4055532894e+01    0.4524566    0.2660386 -46.85  0.001343557    1.925    0.480
        45 -10.6788     37.9373    160.7729   1.1627022751e+02   3.7081860262e+01    0.3257678    0.1623212 -68.47  0.001173434    1.723    0.420
        46 -14.3288     28.3019    248.7381   1.2515843088e+02   1.9684310802e+01     1.012676    0.4609855  32.24  0.005680522    2.546    0.607
        47 -11.3222     70.4836    145.4857   1.0564224741e+02   3.6827119820e+01     0.362136    0.3413639 -28.01  0.001121436    1.233    0.189
        48 -11.6866     67.5142    142.5093   1.0595081106e+02   3.7962966144e+01    0.4153926    0.3195066  62.86  0.001493073    1.377    0.274
        49 -13.7311     41.0857    139.7960   1.1279921013e+02   4.1798077739e+01    0.7528315    0.6002932 -65.89   0.00276496    1.114    0.102
        50 -11.1246     85.2851    142.4867   1.0104451892e+02   3.5372862779e+01    0.2699994    0.2354991 -50.37 0.0003822224    1.153    0.133
        51 -11.5186    235.0842    137.6654   6.5317587215e+01   6.4197993755e+00    0.6350713    0.3079207 -48.04  0.002588839    2.377    0.579
        52 -15.9872     90.1259    212.6581   1.1036910867e+02   1.8688095044e+01     1.814961     1.209658 -79.90   0.01015685    1.636    0.389
        53 -16.5467    116.0305    230.5053   1.0712781865e+02   1.1277879048e+01     2.185651     1.347477 -50.53    0.0096878    1.937    0.484
        54 -14.3191    203.0877    112.7058   6.5100698858e+01   1.7513086801e+01     1.458254     1.165909   2.74  0.005182823    1.490    0.329
        55 -12.2655    149.5016    113.3916   7.6929160628e+01   2.9658913495e+01     1.141547    0.6016619  54.97  0.004222594    2.186    0.542
        56 -12.0454    159.4090    106.9263   7.2796144186e+01   2.8734661975e+01    0.6145098    0.4677677  -6.34  0.002719301    1.683    0.406
        57 -14.9059    145.7886    157.9531   8.8513880496e+01   2.0723973706e+01     1.321575     1.165543  53.53  0.003923593    1.155    0.135
        58 -10.7945    237.0295    108.9586   5.8376346411e+01   1.0874338720e+01    0.4101472    0.2777576 -60.69  0.001973058    1.839    0.456
        59 -10.5496    223.1988    102.1007   5.8929087139e+01   1.4948364183e+01    0.4030315    0.2632827 -20.24  0.001842857    1.759    0.432
        60 -12.6721    167.3216     90.6710   6.6469421877e+01   3.0055661659e+01     1.172122      0.72095 -25.18  0.004416194    1.905    0.475
        61 -12.5872    176.7348     87.5741   6.3605947229e+01   2.8345531577e+01     1.092323    0.7491106  47.85  0.004624429    1.480    0.324
        62 -10.9445    200.0125     98.1974   6.1960825564e+01   2.0860468385e+01    0.4075399    0.3285299  68.26  0.001313699    1.387    0.279
        63  -9.4675     24.7053     82.6864   1.0809375642e+02   5.6976903290e+01    0.1343219   0.07795233 -39.71 0.0002569713    1.598    0.374
        64 -11.9509    128.1207     74.1229   7.0940227847e+01   4.2511341989e+01    0.7540907    0.6270882 -46.14  0.002498933    1.251    0.201
        65 -11.4049    150.2127     62.3829   6.1770438301e+01   3.9291285797e+01    0.5050025    0.4413626  88.54  0.001743692    1.289    0.224
        66 -12.8673    168.2370     61.0721   5.7612785585e+01   3.4995949899e+01    0.9468722    0.5993546 -51.43  0.002960284    1.742    0.426
        67 -13.6302    157.0414     57.9155   5.8897741560e+01   3.8308287941e+01        1.252    0.9073862 -71.17  0.003809436    1.783    0.439
        68 -10.9827     13.3248     60.0265   1.0731068551e+02   6.2796097930e+01    0.1793438    0.1286493 -52.61 0.0004906967    1.110    0.099
        69 -10.4695    237.0614     56.9522   4.6038167723e+01   1.9031346205e+01    0.2143862    0.1911075 -55.39  0.001309063    1.027    0.026
        70 -11.0723    177.0076     55.7251   5.4400316281e+01   3.3610916504e+01    0.3462712    0.2393347  61.93  0.001287188    1.422    0.297
        71 -12.2871    173.8123     47.4379   5.2519629486e+01   3.5630213015e+01    0.7849675     0.498679  53.36  0.003429355    1.520    0.342
        72 -10.2456     95.5404    243.1560   1.1256654948e+02   1.2104068746e+01    0.2490064    0.1157795  51.72 0.0007795758    1.866    0.464
        73 -14.2916     69.7207    238.2494   1.1703095298e+02   1.6584769643e+01    0.6394047    0.4206758 -82.97  0.002514203    1.562    0.360
        74 -11.4102    207.6080    236.0171   8.9813517253e+01  -4.2950014796e+00    0.2941039      0.24209  17.74  0.001986577    1.069    0.065
        75 -10.6287    201.7889     38.1831   4.5707896481e+01   2.9873959993e+01    0.1898004    0.1650883  37.01 0.0009318701    1.347    0.258
        76 -13.8847    194.5135    228.0600   9.1017436624e+01  -1.1181232026e+00    0.9271513    0.6477928 -17.77  0.003278899    1.584    0.369
        77 -12.2173    209.5716     32.9478   4.3380773851e+01   2.8649471813e+01     0.363682    0.2814544 -27.92  0.002034295    1.407    0.289
        78 -12.7828    206.9098     27.0438   4.2179866551e+01   3.0016377713e+01    0.6154904    0.3713888  84.14  0.003033407    1.707    0.414
        79 -15.2980    108.2925    207.6908   1.0583289100e+02   1.6884559944e+01     2.995676     0.900948 -52.88   0.01107775    3.554    0.719
        80  -9.6563     88.9012    228.1239   1.1233469635e+02   1.5823815227e+01    0.1752597    0.1313155  69.60 0.0004268785    1.240    0.193
