#   1 NUMBER                 Running object number                                     
#   2 MAG_AUTO               Kron-like elliptical aperture magnitude                    [mag]
#   3 X_IMAGE                Object position along x                                    [pixel]
#   4 Y_IMAGE                Object position along y                                    [pixel]
#   5 X_WORLD                Barycenter position along world x axis                     [deg]
#   6 Y_WORLD                Barycenter position along world y axis                     [deg]
#   7 A_WORLD                Profile RMS along major axis (world units)                 [deg]
#   8 B_WORLD                Profile RMS along minor axis (world units)                 [deg]
#   9 THETA_WORLD            Position angle (CCW/world-x)                               [deg]
#  10 FWHM_WORLD             FWHM assuming a gaussian core                              [deg]
#  11 ELONGATION             A_IMAGE/B_IMAGE                                           
#  12 ELLIPTICITY            1 - B_IMAGE/A_IMAGE                                       
         1 -14.6298     68.5952    144.3498   1.0740343842e+02   3.7339706148e+01     4.868762      2.36795  68.61  0.004653656    3.861    0.741
         2 -14.4178    214.0555     22.4397   4.2136045146e+01   2.8887910974e+01     1.459996     1.067746  27.70  0.007715609    1.938    0.484
         3 -14.4510    201.0569     36.0807   4.7233151550e+01   3.0382890103e+01     2.228409     1.500502  30.92  0.008546928    2.056    0.514
         4 -12.2446      3.0291     24.3021   1.0262501218e+02   7.0503293756e+01    0.4453716    0.3598383 -57.04  0.003283759    1.396    0.284
         5 -12.6738      3.1797      6.1120   9.4931026961e+01   7.3589572249e+01     1.117708     0.294889 -44.07  0.005281532    2.731    0.634
         6 -10.7078     54.1797      4.4238   6.8584145733e+01   6.7707817798e+01     0.155086    0.1122591  49.54 0.0008800049    1.674    0.403
         7 -11.2639    238.3577      1.7238   3.5129278104e+01   2.5539614480e+01    0.5635498     0.159274  75.09  0.002124604    3.359    0.702
         8 -10.0734     65.8345      2.8266   6.3469918185e+01   6.5843259774e+01    0.1544761     0.146475 -10.01 0.0007691411    1.335    0.251
         9  -9.3949     71.3821    185.9729   1.1262447056e+02   2.7210414542e+01    0.1778396    0.1446731 -86.49  0.000485684    1.116    0.104
        10 -10.5995    140.0027    250.1413   1.0637429249e+02   4.4738479876e+00    0.2411182    0.1268516  48.06  0.001327653    1.604    0.377
        11 -14.7391     46.7645    222.4397   1.2121430944e+02   2.2750823727e+01     1.612294     1.440276  31.18  0.001535528    1.567    0.362
        12 -14.4303     86.6614    228.0289   1.1408556605e+02   1.6367668503e+01     2.577813     1.238599  47.43  0.005081577    1.717    0.418
        13 -13.8989     41.9976    205.6543   1.2081442996e+02   2.6710164147e+01    0.7160385    0.5949257  45.55  0.001707386    1.361    0.265
        14 -14.9156     51.3804    195.0393   1.1795618893e+02   2.7839773592e+01     2.026149     1.248463  63.18  0.008653046    1.464    0.317
        15 -16.4252      9.3990    241.0930   1.2882413339e+02   2.3338984499e+01     2.465859     1.762014 -66.64   0.01517918    1.781    0.438
        16  -9.8910     99.4723    180.9392   1.0553120652e+02   2.4086263846e+01    0.2335393    0.1929972  24.07  0.000629071    1.467    0.319
        17 -12.1085     66.9890    178.3507   1.1268502818e+02   2.9530720565e+01    0.4324531     0.291157 -37.98  0.001687707    2.174    0.540
        18 -12.0381     71.6924    173.0667   1.1090622809e+02   3.0092480941e+01    0.3031604    0.2567642 -47.08 0.0009554294    1.416    0.294
        19 -11.4411    125.8914    173.4675   9.8144518562e+01   2.1156600393e+01    0.5202764    0.2027945  36.34  0.001859338    2.749    0.636
        20  -8.9250    168.4455    248.4396   1.0087881558e+02   2.7611504870e-01    0.1206853   0.09611511  36.96 6.008917e-05    1.036    0.035
        21  -9.6008    230.3097    166.9469   7.4864877827e+01   2.3287911850e+00    0.2198006   0.09805399 -52.25 0.0007039962    4.377    0.772
        22  -9.9598     35.5163    167.1068   1.1867093607e+02   3.5925084734e+01    0.1795867     0.160455 -61.51 -3.248924e-05    1.320    0.242
        23 -12.7476     12.1572    188.9991   1.2551784116e+02   3.3346608611e+01    0.2537034    0.1860541  57.32 0.0005589232    1.271    0.213
        24 -10.6057     37.2880    162.0166   1.1771538702e+02   3.6918867297e+01    0.2859939    0.1684006   5.11  0.001290178    3.471    0.712
        25  -9.5042    126.0082    155.0191   9.4615264179e+01   2.5235467329e+01    0.2115282    0.2047406 -85.34  0.001175547    1.022    0.021
        26 -10.0935    134.2460    148.2598   9.1187645441e+01   2.5151983738e+01    0.4100456    0.1878332 -57.62  0.001318933    2.597    0.615
        27 -11.1631    133.5255    141.5520   8.9895863275e+01   2.6807457105e+01    0.6774037    0.2649829 -53.71  0.002256117    2.808    0.644
        28  -8.4895    112.6752    150.6982   9.7074652655e+01   2.8717830366e+01    0.1457301    0.1191197 -13.08 0.0004517116    1.637    0.389
        29 -10.6207    174.6461    148.9371   8.1951409899e+01   1.6632479331e+01    0.2920202    0.2671129  35.35 0.0008867336    1.082    0.076
        30 -12.4524     80.8295    163.4642   1.0732099157e+02   3.1005950217e+01    0.6820783    0.3874465  55.04 0.0006526352    1.844    0.458
        31 -10.3125     39.0731    146.4087   1.1543043754e+02   4.0424014590e+01    0.2518055    0.1888517  76.66 0.0005071645    1.272    0.214
        32 -11.3779     27.9176    143.6041   1.1793853902e+02   4.2199947715e+01    0.2868184     0.198359  56.32  0.001331236    1.486    0.327
        33 -10.2112    100.5137    142.5047   9.8585624235e+01   3.2812697143e+01    0.3035877    0.2680509  68.80 0.0008715296    1.142    0.124
        34  -9.9881    103.1948    139.2148   9.7206526614e+01   3.3126646526e+01    0.3509889    0.2577477 -22.41  0.001608213    1.905    0.475
        35 -12.3888     88.9989    141.1784   1.0138625631e+02   3.5056974648e+01    0.2919131    0.2517193 -52.20 0.0004174775    1.169    0.144
        36  -9.9865     83.3568    143.0527   1.0324518439e+02   3.5495516638e+01    0.2538731    0.1955737  57.47 0.0003740727    1.340    0.254
        37 -11.3577     25.6925    137.4053   1.1777828376e+02   4.3879402598e+01    0.3153484    0.1882107  45.75  0.001103738    1.796    0.443
        38 -13.5142     68.3259    159.4305   1.0981519146e+02   3.3753672729e+01     0.540389    0.4339202 -46.65   0.00172219    1.429    0.300
        39 -10.1734    106.1220    130.7684   9.4607137915e+01   3.4607852707e+01     0.346067    0.3003535 -79.57  0.001551008    1.191    0.160
        40 -10.1883    111.1895    131.0598   9.3307002872e+01   3.3600918654e+01    0.3281361    0.2444335  21.86 0.0008717538    1.670    0.401
        41 -11.4223    135.3121    121.2911   8.4627848635e+01   3.1003224894e+01    0.8384964    0.1394832 -47.80  0.001779775    6.342    0.842
        42 -12.6439     87.4425    156.5333   1.0455240953e+02   3.1629155772e+01     1.337994    0.7096657 -63.20  0.005946759    1.840    0.456
        43  -9.7958    126.2880    128.2995   8.8676081430e+01   3.1292426069e+01    0.3264885    0.1925689 -70.19  0.001181993    2.601    0.615
        44 -11.5201     67.3380    126.7268   1.0462179814e+02   4.1806659322e+01    0.5456687    0.2601061 -67.90  0.002232669    2.169    0.539
        45 -10.9225     29.6598    128.7488   1.1560210559e+02   4.5595824334e+01    0.2246377     0.167134 -58.17 0.0006859968    1.242    0.195
        46 -10.6174    117.1761    125.8743   9.0501644984e+01   3.3667659933e+01     0.460059    0.2241038 -56.50   0.00171273    2.205    0.546
        47 -10.2349    160.5196    127.4893   8.0045166898e+01   2.4145067592e+01    0.1548392    0.1530464 -46.19 7.775395e-05    1.017    0.017
        48 -10.1899    147.0332    184.2438   9.5271518314e+01   1.4975391896e+01    0.2361452    0.1570457  66.00 0.0008638349    1.967    0.491
        49 -11.0545     98.2019    127.4164   9.6033998506e+01   3.6821576385e+01    0.2862754    0.2569292 -13.94  0.000592665    1.309    0.236
        50  -9.9404    107.6460    119.8269   9.1651472788e+01   3.6908736887e+01    0.2179403    0.2049764  17.16 0.0003671569    1.165    0.141
        51  -9.7010    228.3387    170.6775   7.6000759004e+01   2.0805415811e+00    0.1273121    0.1112044 -74.94 0.0007050711    1.718    0.418
        52 -10.0414    168.4544    113.1746   7.4572274681e+01   2.5319250389e+01    0.3935563    0.2707252 -64.59  0.001185911    1.885    0.469
        53 -11.1636     18.4668    110.4894   1.1624567156e+02   5.0896706860e+01    0.2521255    0.1525904 -69.58 0.0008563863    1.317    0.241
        54 -10.1134    205.5396    110.1654   6.6256354478e+01   1.7345338625e+01    0.3088218    0.2194475  41.37 0.0009366764    1.512    0.339
        55 -10.9889    120.1513    110.3924   8.5816228508e+01   3.6628039857e+01     0.330413    0.2007818  57.27  0.001336189    1.984    0.496
        56 -10.9121    137.7015    170.5532   9.4861442037e+01   1.9579521040e+01    0.2785652    0.1395824  37.46 0.0009236306    2.021    0.505
        57 -11.3555     22.9874    108.5051   1.1458655323e+02   5.1020501978e+01    0.2702235    0.2397793  11.04 0.0008678604    1.422    0.297
        58 -10.5146    134.6657    105.7690   8.0707919463e+01   3.4567023705e+01    0.4462626    0.1445858 -42.37  0.001345873    3.067    0.674
        59 -10.8782     41.4965    103.9851   1.0802964294e+02   5.0421871881e+01    0.2394989    0.1786086  54.82 0.0009793941    1.571    0.364
        60  -9.9738     91.6350    102.7874   9.2013965016e+01   4.3789711727e+01    0.2510065    0.2198266  74.04 0.0004175233    1.306    0.234
        61  -9.6137     65.9423    103.4870   1.0015190922e+02   4.7617160537e+01    0.2059147    0.1417817  33.62  0.001043447    1.623    0.384
        62 -10.1425    248.3297    102.6700   5.7488924358e+01   9.4467375135e+00    0.1434088   0.09960017 -61.11 0.0007051626    1.714    0.417
        63  -9.8398     33.1502    100.2103   1.0997932074e+02   5.2130040641e+01    0.1968253    0.1529982 -50.10 0.0005570581    1.165    0.142
        64 -11.3695      1.6094     96.0667   1.1936865193e+02   5.5343672468e+01    0.5649991    0.1209859 -73.34  0.001930196    4.034    0.752
        65 -11.7467      2.5391     76.8938   1.1611744664e+02   5.9665905788e+01    0.5264846     0.157658 -66.81  0.002308314    2.450    0.592
        66 -11.3194      2.0000     87.5165   1.1801823786e+02   5.7286698771e+01    0.5238158    0.1339675 -73.52  0.001918194    3.579    0.721
        67  -8.8535    129.6834     96.3193   7.9358659770e+01   3.7692266225e+01    0.1587796    0.1255904 -83.42 0.0007040472    1.657    0.397
        68 -10.4771     41.8095     91.8496   1.0540818542e+02   5.3263614635e+01    0.2234687    0.1852933 -51.62 0.0004900709    1.042    0.040
        69 -10.0677     52.7979     90.6801   1.0141571481e+02   5.2315833697e+01    0.2021583      0.15279 -50.77 0.0006082682    1.140    0.123
        70 -10.0081    158.4971     81.0644   6.7797374707e+01   3.4003381105e+01    0.2365881    0.1534496 -36.16 0.0006071713    1.536    0.349
        71  -9.6081     54.1148     65.3130   9.3944711675e+01   5.7780515405e+01    0.1725782    0.1640199  -7.75 0.0004888249    1.149    0.130
        72 -10.5577     13.5042     60.0612   1.0846280984e+02   6.2756924536e+01     0.269564    0.1714784 -60.02 0.0005079401    1.298    0.229
        73 -11.1498    170.5692    233.4991   9.8389347052e+01   2.1293626909e+00    0.2680945    0.2029217  51.44   0.00104627    1.363    0.266
        74 -12.5108    192.4708     42.0246   5.0053264480e+01   3.1739265880e+01    0.6558634    0.5627416  64.26  0.001112272    1.155    0.134
        75 -16.4867      7.6265    201.7429   1.2717002342e+02   3.1092190117e+01     7.217998     1.214406 -74.83  0.007603601    4.478    0.777
        76 -11.2144    143.6118     48.5062   6.0815812128e+01   4.3192423117e+01    0.5396204    0.3363473 -80.82  0.002028954    2.866    0.651
        77 -10.0859    146.2051     42.8152   5.8360650079e+01   4.3377188516e+01    0.2372296    0.2246301  80.73 0.0004299562    1.087    0.080
        78 -11.8030    193.9986    195.6615   8.7510026292e+01   4.1614096122e+00     1.073888    0.6848574 -72.13  0.004031641    4.197    0.762
        79 -15.8079     68.3460    247.9172   1.1923931730e+02   1.5284871748e+01     9.371533      2.99712  30.26  0.009634633    9.030    0.889
        80  -9.1124    137.0650     13.7156   5.0147259258e+01   4.9150693090e+01    0.1886155    0.1590501  63.24 0.0003486439    1.099    0.090
        81  -9.7060    189.6735     15.0485   4.2873960671e+01   3.5730811073e+01    0.1855575     0.170817 -54.14 0.0005653446    1.123    0.109
        82  -8.9451     37.4742     56.5919   9.7715782134e+01   6.1503072965e+01    0.1276726    0.1062148 -34.98 0.0001496583    1.017    0.017
        83 -10.1092    209.9610    199.9354   8.5206984803e+01   6.6706468155e-01     0.178105    0.1643564  83.47 0.0003897708    1.582    0.368
        84 -14.2514     31.2078    248.2430   1.2561567949e+02   1.9755878089e+01    0.8602311    0.7351459  11.87   0.00468757    2.126    0.530
