#   1 NUMBER                 Running object number                                     
#   2 MAG_AUTO               Kron-like elliptical aperture magnitude                    [mag]
#   3 X_IMAGE                Object position along x                                    [pixel]
#   4 Y_IMAGE                Object position along y                                    [pixel]
#   5 X_WORLD                Barycenter position along world x axis                     [deg]
#   6 Y_WORLD                Barycenter position along world y axis                     [deg]
#   7 A_WORLD                Profile RMS along major axis (world units)                 [deg]
#   8 B_WORLD                Profile RMS along minor axis (world units)                 [deg]
#   9 THETA_WORLD            Position angle (CCW/world-x)                               [deg]
#  10 FWHM_WORLD             FWHM assuming a gaussian core                              [deg]
#  11 ELONGATION             A_IMAGE/B_IMAGE                                           
#  12 ELLIPTICITY            1 - B_IMAGE/A_IMAGE                                       
         1 -12.1803     31.4683     29.9991   1.0307560427e+02   6.7044355171e+01     1.877865     1.010638   5.18  0.008967008    3.176    0.685
         2 -10.1320     44.6200      4.1406   8.5095199638e+01   6.9974586122e+01    0.2900971    0.1851085 -32.00 0.0007183013    1.324    0.245
         3 -10.6912     49.1251      2.5053   8.2199848082e+01   6.9549713756e+01     0.278983    0.2342697  17.28 0.0005903993    1.223    0.182
         4 -11.2723     51.7462      9.0423   8.4664962314e+01   6.8214250563e+01    0.8876182    0.3927657 -20.47  0.003420875    3.455    0.711
         5 -11.6968     43.2895     19.6183   9.3538813701e+01   6.7653741747e+01    0.4259211    0.3731758 -49.77  0.001561168    1.293    0.226
         6 -11.2488     39.3260     16.1561   9.3698350478e+01   6.8747589378e+01    0.3429477    0.2513159  24.34  0.000665681    1.556    0.357
         7 -11.2431     42.0995     10.0419   8.9406928892e+01   6.9414706625e+01    0.3272051    0.2642122 -35.89 0.0009431921    1.180    0.152
         8 -10.8933     46.9634      7.9700   8.6146920931e+01   6.9072368296e+01    0.3169122    0.2095673 -13.55 0.0009075595    1.543    0.352
         9 -12.3109    247.5459     34.2845   5.3525202191e+01   1.8940188955e+01    0.5189719    0.3169062 -45.11  0.002566656    1.528    0.345
        10 -12.0039     19.9881     27.8028   1.0747265116e+02   6.8512273015e+01    0.6952056    0.3566549 -18.98  0.002951639    2.998    0.666
        11 -11.2668     21.0188     23.0652   1.0526164577e+02   6.9360070140e+01    0.3427148    0.3157834  12.13  0.001833096    1.340    0.254
        12 -11.9903     58.5300     27.7395   9.0843182284e+01   6.4141577598e+01    0.5318881    0.4116662  84.42 0.0008077275    2.277    0.561
        13 -11.8641     65.4365     26.6367   8.7722812276e+01   6.3278390115e+01     0.492622    0.3686471 -22.89  0.002541472    1.252    0.201
        14 -12.9286     10.2620     18.1826   1.0872846451e+02   7.1133751129e+01    0.5553387    0.4325739  42.99  0.002082757    1.763    0.433
        15 -11.3600     30.8600     14.6199   9.6942306545e+01   6.9986894628e+01    0.5556009    0.2552401 -51.44  0.001865563    2.056    0.514
        16 -10.8671     19.6630     10.8769   1.0081664140e+02   7.1760570912e+01    0.3042125    0.2456263 -63.56  0.001293365    1.518    0.341
        17 -10.9293     26.2499      7.4647   9.5742274258e+01   7.1714584089e+01    0.3214363    0.2557312 -31.21 0.0008991063    1.042    0.040
        18 -11.2189     21.8588      3.4705   9.5966715447e+01   7.2834621254e+01    0.4185481    0.2078602 -31.57   0.00224928    1.814    0.449
        19 -11.3227     16.4418      3.4035   9.8898395194e+01   7.3361105736e+01    0.2878828    0.2847692  48.63  0.001144557    1.483    0.326
        20 -11.2327     82.6698      8.1772   7.2932367207e+01   6.2934340211e+01    0.3186366    0.2742827  30.75  0.001952355    1.163    0.140
        21 -11.7175     76.9631      3.4978   7.2334716444e+01   6.4618733450e+01    0.6226773    0.4053497  30.80  0.002463348    1.556    0.357
        22 -10.7989     67.5561     14.0222   8.1010501315e+01   6.4939549320e+01    0.4310773    0.1683671 -24.08   0.00156738    3.335    0.700
        23 -10.3316     72.6146     10.7631   7.7561271228e+01   6.4508451464e+01    0.2735041    0.2048633 -32.40 0.0007348883    1.271    0.213
        24  -9.8464     56.4755     15.0378   8.5783834929e+01   6.6580000077e+01    0.2452986    0.1588811 -33.37 0.0007806029    1.329    0.248
        25 -10.6977     62.9109     10.1085   8.0757797787e+01   6.6292190602e+01    0.3969284    0.2595983 -32.25  0.001670004    1.364    0.267
        26 -10.4085     59.6155     11.2430   8.2617404981e+01   6.6667393572e+01    0.2708547    0.2027703 -22.96 0.0007376664    1.150    0.130
        27 -11.2807     68.7903      7.9055   7.7438563074e+01   6.5582237258e+01    0.5835775    0.2756945  36.28  0.002681673    2.343    0.573
        28 -12.1467      2.1643     10.4636   1.1009340381e+02   7.3133218236e+01    0.6390157    0.1890989 -50.25 0.0008317633    2.204    0.546
        29  -9.4107     57.6451      6.6821   8.0993359716e+01   6.7640233366e+01    0.1987417     0.131029   2.75 0.0006888672    1.739    0.425
        30 -10.1878     59.4495      2.2749   7.7864680083e+01   6.7935872058e+01    0.3258638    0.1740283 -19.68  0.001073534    1.828    0.453
        31  -9.0657    148.0555      5.9972   5.7038100817e+01   4.7789271863e+01    0.1693353    0.1613024  45.96 0.0004108938    1.014    0.014
        32  -9.1970    222.8001      3.4530   4.7369660035e+01   2.8271937930e+01    0.1891684    0.1208804  59.23 0.0004588206    1.602    0.376
        33  -9.5062     35.2625      2.1512   8.8349232813e+01   7.1523380333e+01    0.1688626    0.1215181 -28.77  0.001094709    1.123    0.110
        34  -9.8933      8.0416      1.8808   1.0293567125e+02   7.4318712277e+01    0.2072618     0.146585  31.09  0.001459201    1.846    0.458
        35 -11.0245     26.3591    238.7878   1.3164104929e+02   2.5445453520e+01    0.2539511    0.2259869 -24.98  0.001058189    2.501    0.600
        36  -9.1927    249.9633    250.0392   9.8216515047e+01  -6.1803890763e+00    0.1601846   0.08553883  21.12 0.0007790824    1.629    0.386
        37  -9.6230    231.9854    250.7768   1.0090795948e+02  -3.7848055083e+00    0.2757945   0.07772288  42.45  0.001253922    2.619    0.618
        38  -9.9082    233.6451    247.7887   1.0027527782e+02  -3.7657630232e+00    0.1547937    0.1069417 -12.10 0.0005599434    1.651    0.394
        39 -10.5295    233.4676    244.0303   9.9802132679e+01  -3.4217604353e+00    0.3644335    0.1330532  39.58  0.001732235    2.003    0.501
        40 -10.2482    218.5659    250.0609   1.0279402445e+02  -1.8367644974e+00    0.2395853    0.1028791  32.58  0.001419946    1.927    0.481
        41 -11.2889    166.2906    248.6361   1.1060309051e+02   5.9175400642e+00    0.1845482    0.1534156  47.96 0.0004780802    1.167    0.143
        42 -12.0202    139.6170    246.9605   1.1461097704e+02   1.0003681745e+01    0.3954498    0.2351699  29.51 0.0009909956    2.024    0.506
        43 -10.7099    132.8921    245.3565   1.1551917093e+02   1.1171665632e+01     0.228719    0.1527633  50.49 0.0004485193    1.099    0.090
        44  -9.7613     87.3934    250.0343   1.2301085307e+02   1.6742559259e+01    0.1520775    0.1073313  48.33 0.0005469888    1.234    0.190
        45  -9.3725     72.7313    250.6637   1.2528457073e+02   1.8487056097e+01    0.1306916   0.06260774  50.36 0.0003447118    1.453    0.312
        46 -10.9444     61.4496    248.6096   1.2686496289e+02   2.0129443726e+01    0.1936114    0.1413281  60.24 0.0005547482    1.127    0.113
        47 -11.2195     46.1346    250.0042   1.2921777950e+02   2.1677498222e+01    0.2750693    0.1201782  46.07  0.001422339    1.679    0.405
        48 -10.0725      1.7099    249.0786   1.3552453955e+02   2.6293740535e+01    0.1678545   0.08838644 -82.88   0.00140681    1.812    0.448
        49 -11.4687     34.9562    231.0617   1.2998851879e+02   2.5740101864e+01    0.3088482    0.2565699  12.87  0.002003048    2.449    0.592
        50 -10.4637      9.6692    238.9113   1.3409677039e+02   2.7065481164e+01    0.1632062    0.1138004  75.77 0.0005500945    1.184    0.156
        51  -9.7847    247.0461    238.9083   9.7107749465e+01  -4.8951762278e+00    0.1609001    0.1064895  24.40 0.0005681154    1.109    0.098
        52 -10.9866    228.2052    217.6127   9.6840220249e+01  -1.8736172541e-01    0.2408276    0.1759139  23.67 0.0005446647    1.097    0.089
        53 -11.8855    223.4515    213.3377   9.6935256061e+01   9.9299514211e-01    0.4792086    0.3333694   1.80  0.002770487    1.547    0.354
        54 -11.5900    234.8116    238.5595   9.8859223180e+01  -3.1382713982e+00    0.6369641    0.1522048  40.07  0.002896738    3.083    0.676
        55 -12.4744    234.0341    185.1458   9.0590197452e+01   2.3541560136e+00    0.7960356    0.3091443  45.25  0.003760699    2.312    0.567
        56 -10.8026    234.1422    209.6495   9.4685255347e+01  -3.0323057216e-01    0.3490841    0.2580591  18.61  0.001136805    1.129    0.114
        57 -12.6981    236.6924    164.3465   8.6286857550e+01   4.3458111080e+00     1.681912    0.9101345 -29.97  0.008882375    1.887    0.470
        58 -11.7902    216.4814    220.6087   9.9121848394e+01   1.3227048442e+00    0.3791036    0.3129825  -5.64  0.001861292    1.327    0.246
        59 -12.1325    229.8664    196.3103   9.3184664515e+01   1.7957580063e+00    0.7218367    0.4150698 -21.70   0.00424024    1.936    0.483
        60 -12.8520    216.6716    205.6278   9.6823158946e+01   2.9178973200e+00    0.7518685    0.3828925 -32.43   0.00391987    2.288    0.563
        61 -12.0700    224.7508    203.8517   9.5240893026e+01   1.8015376536e+00    0.4821184    0.4085929 -51.58  0.001624277    1.791    0.442
        62 -12.4556    247.6458    204.0406   9.1701608113e+01  -1.8375708505e+00    0.9283199    0.4019763 -10.23   0.00398555    4.032    0.752
        63 -11.8502    241.8507    173.9361   8.7301059111e+01   2.3076534415e+00    0.7082503     0.302298 -26.07  0.002473386    2.478    0.596
        64 -11.1924    239.2119    205.8265   9.3286520247e+01  -7.0741265652e-01    0.3539886    0.2231492 -22.65  0.001356213    1.715    0.417
        65 -12.9465    240.2288    197.1762   9.1696721209e+01   2.2454779356e-02    0.8180359     0.584639  13.88  0.003637487    1.238    0.192
        66 -11.7768    245.9680    191.6867   8.9865975018e+01  -3.2255268239e-01    0.4299485    0.3147855  -7.02  0.001576022    1.311    0.237
        67 -11.2146    248.4940    212.9315   9.3011223684e+01  -2.8178500774e+00    0.2740624    0.1836366  16.19  0.000538604    1.268    0.211
        68 -11.7255    249.6021    183.4834   8.7852354393e+01  -4.3926067554e-02    0.3898777     0.238177  11.97 0.0007432913    1.680    0.405
        69 -12.5241    247.1478    176.7256   8.6993565665e+01   1.0959156250e+00    0.9351542    0.3984006 -15.23   0.00394751    3.371    0.703
        70 -11.4721    243.4303    231.7870   9.6623747568e+01  -3.7802457518e+00    0.4821288    0.2215496  24.46  0.002457849    2.175    0.540
        71 -12.2084    244.8961    224.9178   9.5396185500e+01  -3.3847384133e+00    0.4278005    0.3090679  41.34  0.002174979    1.406    0.289
        72 -11.9135    246.7650    218.0825   9.4077393899e+01  -3.0384477898e+00    0.2703765    0.1791192 -23.92 0.0007992294    1.693    0.409
        73 -10.8415    148.4394    238.2193   1.1231557878e+02   9.8001480038e+00    0.2395493    0.1405452  42.92 0.0004141964    1.298    0.230
        74 -10.2695    134.9904    238.8450   1.1455152274e+02   1.1707071190e+01    0.1588802    0.1346885  55.79 0.0004029815    1.154    0.133
        75 -10.0468     62.2440    239.0720   1.2618425959e+02   2.1429381531e+01    0.2069162    0.1065951  45.40  0.001398163    1.543    0.352
        76 -10.8690    184.0249    236.6829   1.0643466325e+02   4.5993409997e+00    0.2208677    0.1511026  33.10 0.0004446676    1.220    0.181
        77  -9.7659     41.4482    236.3906   1.2925073202e+02   2.4214114247e+01    0.1874197   0.09792688  59.48  0.001094507    1.341    0.254
        78 -11.1616    159.0938    235.1747   1.1025744040e+02   8.5748707312e+00    0.2634826    0.1607963  43.60 0.0008245841    1.235    0.190
        79 -10.7380    145.5392    230.4372   1.1194621369e+02   1.1238912752e+01    0.2185693     0.193619 -25.49 0.0008300196    1.581    0.367
        80  -9.9661    144.1270    225.8538   1.1167045456e+02   1.2067241595e+01    0.1712699    0.1681099 -37.90 0.0004533959    1.354    0.262
        81 -10.5152     91.1801    235.8009   1.2136669147e+02   1.8268164451e+01    0.1999674    0.1276163  41.39 0.0005599984    1.474    0.321
        82 -11.7675     87.1499    233.1391   1.2181190390e+02   1.9193099792e+01    0.4395507    0.1770577  49.59  0.001617384    1.826    0.452
        83 -10.6799     77.1227    235.2753   1.2358612034e+02   2.0168277743e+01    0.2617972    0.1462879  60.42  0.001207372    1.382    0.277
        84 -11.0803    128.9344    233.9307   1.1504773985e+02   1.3248679734e+01    0.2729385    0.1701182  60.28   0.00185221    1.465    0.318
        85 -10.7599    124.0489    230.6537   1.1552774775e+02   1.4416147070e+01    0.2474028    0.1569234  35.56 0.0005768998    1.608    0.378
        86  -9.7646      3.7713    235.2144   1.3483501229e+02   2.8176233504e+01    0.1099146   0.08608759  74.82 0.0005445056    1.344    0.256
        87 -10.7710    230.3603    233.3223   9.8797218118e+01  -2.0233867665e+00    0.1984157    0.1445143  34.18 0.0003656234    1.130    0.115
        88 -10.2832    226.7169    229.9166   9.8870109280e+01  -1.1663498328e+00    0.2234878    0.1602093 -11.46  0.001248924    1.557    0.358
        89 -10.9791    236.1893    226.2661   9.6903642788e+01  -2.2295156563e+00    0.2297501     0.164343  16.21 0.0003996977    1.198    0.165
        90  -9.9191    229.5197    225.5031   9.7807301391e+01  -1.1633305577e+00    0.1887581    0.1336388  33.28 0.0005248691    1.100    0.091
        91 -10.7032    233.0970    222.1348   9.6763634956e+01  -1.3777222738e+00    0.3230842    0.1673518  35.35 0.0008902007    1.497    0.332
        92  -9.4669    249.2092    232.3862   9.5859528909e+01  -4.6533513543e+00    0.2273244      0.12162   9.58  0.001389538    2.140    0.533
        93  -9.8732    170.9839    232.9239   1.0806805537e+02   7.0292813407e+00     0.165288    0.1258273  40.29  0.000441246    1.036    0.035
        94 -11.0925    140.7062    234.8612   1.1321602137e+02   1.1384337974e+01    0.3807505    0.1571871  47.91   0.00115519    1.854    0.461
        95  -9.0142    108.4825    233.3969   1.1835190177e+02   1.6256531556e+01    0.1068184   0.07892122  53.46 0.0001665998    1.051    0.049
        96 -10.5482      9.7111    231.9485   1.3385701400e+02   2.8130715013e+01    0.1774014    0.1184965  83.57 0.0007151405    1.266    0.210
        97  -9.7356    165.1398    232.4734   1.0896296674e+02   7.9823849887e+00    0.1787972   0.08419424  43.39  0.000764271    1.609    0.378
        98 -10.9704     55.2369    230.4759   1.2676808889e+02   2.3567375298e+01    0.2665428    0.1901765 -81.09  0.001502445    1.486    0.327
        99 -10.7913    189.3540    230.7253   1.0483424093e+02   4.4464216503e+00    0.4159729    0.1492284  36.56  0.002012483    2.501    0.600
       100 -10.3203    100.5104    230.4839   1.1940742716e+02   1.7787668200e+01    0.1803043    0.1486336  54.41  0.000704027    1.196    0.164
       101 -11.0100    103.8692    227.8869   1.1862196318e+02   1.7705546667e+01    0.2826176    0.1650523  42.03   0.00106503    1.489    0.328
       102 -10.9040    216.7643    230.4321   1.0047341312e+02   2.7693721631e-01    0.2168806    0.1462682  28.10 0.0004998627    1.189    0.159
       103  -9.7453    134.2294    230.4171   1.1381613202e+02   1.2944551105e+01    0.1929171    0.1025526  49.13  0.000747608    1.445    0.308
       104 -10.0492     45.0769    229.3087   1.2831368584e+02   2.4911011553e+01    0.1443323    0.1135731  81.84 0.0005551304    1.273    0.214
       105  -9.0851    158.4896    229.3938   1.0968996544e+02   9.3905493599e+00    0.1120161   0.08370952  43.78 0.0001143763    1.037    0.035
       106 -10.7747    113.9188    227.9825   1.1695375599e+02   1.6266278332e+01    0.2531674    0.1618435  38.91 0.0005137369    1.493    0.330
       107 -10.7319    115.1573    222.5336   1.1621464880e+02   1.6887649978e+01    0.3479603    0.2008799 -81.92  0.001917209    2.417    0.586
       108  -9.8946    174.2336    227.3149   1.0684962308e+02   7.1992424339e+00    0.1594566      0.13798  15.78 0.0005611978    1.300    0.231
       109 -11.2681    163.9139    225.4475   1.0832016658e+02   9.0482288214e+00    0.3855177     0.282927  45.75  0.001649273    1.064    0.060
       110 -11.0995    169.8432    222.7459   1.0699752009e+02   8.4555130875e+00    0.4280773    0.2303631 -51.77  0.002537389    2.540    0.606
       111 -10.1675    165.8204    220.2131   1.0734844238e+02   9.4184650617e+00     0.209617    0.1537423  28.66 0.0007170166    1.379    0.275
       112  -9.6227     92.9806    227.9781   1.2044052989e+02   1.9189944329e+01    0.1368845     0.121328  32.48 0.0004696752    1.576    0.366
       113 -10.0835     78.8777    227.0329   1.2269853453e+02   2.1197992795e+01    0.2657872    0.1267752 -73.02  0.001202828    2.349    0.574
       114 -10.5017     67.9342    227.1905   1.2450660658e+02   2.2554965807e+01    0.1890618    0.1356321  50.81 0.0005363162    1.243    0.195
       115 -11.1858     18.5861    226.2041   1.3230036872e+02   2.8183641129e+01     0.346247    0.1895535  79.03  0.002173851    1.411    0.291
       116 -10.5205     16.1623    221.1603   1.3247065388e+02   2.9231657958e+01     0.172321     0.142683  69.56 0.0007316734    1.371    0.271
       117  -9.7525      1.6515    227.1528   1.3489819198e+02   2.9622582550e+01    0.1269834   0.08443512  74.83  0.001120779    1.113    0.101
       118 -10.3394    184.6840    225.6596   1.0492958562e+02   5.7557805553e+00    0.1818868     0.153298  28.96 0.0006232858    1.137    0.121
       119 -10.0502    199.7551    224.5949   1.0234938288e+02   3.5088822601e+00    0.1675383    0.1459507  -1.68 0.0004828855    1.308    0.235
       120  -9.7304    120.6840    224.9855   1.1552377947e+02   1.5717664420e+01    0.1434371    0.1199379  62.00 0.0004741086    1.117    0.105
       121 -10.0341      7.9597    225.2628   1.3388799044e+02   2.9347433574e+01    0.1316573   0.08600176  61.66 0.0004541176    1.116    0.104
       122 -10.1592    191.0165    223.2627   1.0357954696e+02   5.0355710724e+00    0.1786732    0.1507304   7.41 0.0004823242    1.309    0.236
       123  -9.7809    129.5901    223.8313   1.1389824116e+02   1.4558620769e+01     0.179147    0.1224304  41.52 0.0004841179    1.279    0.218
       124 -10.8342    207.1067    222.4926   1.0088007756e+02   2.5868650529e+00    0.2122162     0.165012  22.40 0.0004323279    1.150    0.130
       125  -8.8525    155.3189    223.3143   1.0949675814e+02   1.0671961422e+01    0.1079028   0.07878839  22.68 0.0006284736    1.651    0.394
       126 -10.2305    135.9288    222.9757   1.1273134469e+02   1.3719488641e+01    0.1768029    0.1345324  52.68 0.0005713732    1.035    0.034
       127  -9.9912     82.5141    222.9930   1.2177927224e+02   2.1354338606e+01    0.1623723    0.1105871  52.94 0.0005129696    1.151    0.131
       128 -10.0746     50.0648    222.5496   1.2712327864e+02   2.5423618898e+01    0.1519534    0.1241282 -83.90  0.000533022    1.428    0.299
       129  -9.2247     97.8478    222.0836   1.1911409653e+02   1.9422541464e+01    0.1295575    0.1123141  52.26 0.0004165661    1.282    0.220
       130 -10.2858     73.6505    222.4616   1.2322195687e+02   2.2584391861e+01    0.2322719    0.1121286  37.78  0.001387418    2.100    0.524
       131 -10.0125     28.7095    221.9922   1.3053153098e+02   2.7842243080e+01    0.1617041    0.1055367  57.85 0.0004980502    1.161    0.139
       132  -9.9554    180.9280    220.9507   1.0492430160e+02   6.9138493454e+00    0.1717714    0.1329221  36.27 0.0004044004    1.059    0.055
       133 -10.0198    174.9088    220.7100   1.0589164618e+02   7.9049065284e+00    0.1660435    0.1433303  17.93 0.0002875672    1.266    0.210
       134 -10.3362    148.6405    220.1557   1.1024805515e+02   1.2144670418e+01    0.1929338     0.177577  22.23 0.0008179054    1.310    0.237
       135 -10.0082     68.4063    220.8144   1.2397708298e+02   2.3507983895e+01    0.1231811     0.089711 -69.64 0.0006052016    1.616    0.381
       136 -10.0265     59.5981    220.3264   1.2541165650e+02   2.4664527771e+01    0.1557502    0.1134053 -78.01 0.0006681126    1.479    0.324
       137 -10.5189     40.1109    220.8197   1.2864174002e+02   2.6820338559e+01    0.1802336    0.1472919  54.66 0.0006070372    1.384    0.278
       138 -10.0507    186.1960    219.0405   1.0379577579e+02   6.3016547474e+00     0.193007    0.1316982  38.90 0.0004157701    1.150    0.131
       139 -10.1762    159.1146    218.0461   1.0820810406e+02   1.0773577447e+01     0.209356    0.1570106  52.59 0.0009514177    1.164    0.141
       140 -10.0405    128.9858    219.0212   1.1348165015e+02   1.5344694058e+01    0.1587464    0.1263013  24.61 0.0004597083    1.609    0.379
       141  -9.4732    109.3050    218.9459   1.1686093041e+02   1.8279584114e+01    0.1466912    0.1197925  62.93 0.0004355955    1.083    0.077
       142 -10.9366    132.3374    213.6843   1.1230059635e+02   1.5616514865e+01    0.2090056    0.1637154  42.44 0.0006429832    1.186    0.157
       143 -11.6871    138.1161    214.7015   1.1141201253e+02   1.4566000129e+01    0.3373722    0.2675062  77.74   0.00136905    1.387    0.279
       144 -10.4887    238.9302    215.9853   9.4938572905e+01  -1.6674316015e+00     0.252508    0.1448617 -15.94 0.0009644169    1.970    0.492
       145  -9.8613    119.8556    216.7699   1.1481561775e+02   1.7057209381e+01    0.1783322     0.151023 -89.67 0.0006183595    1.291    0.226
       146 -11.2211    119.0782    212.4115   1.1448341057e+02   1.7839972069e+01    0.2987961    0.1546353  38.26  0.001208211    1.845    0.458
       147 -10.4742      7.9012    216.1802   1.3356910155e+02   3.0825790869e+01    0.1834122    0.1633094 -84.91  0.001120761    1.631    0.387
       148 -10.4983    193.7385    215.7687   1.0209502214e+02   5.4771928562e+00    0.2231564    0.1643209  29.75 0.0004333143    1.174    0.148
       149 -10.3140    201.3750    210.1935   1.0002409485e+02   4.8935652970e+00    0.4359727    0.2202462  54.81  0.002224361    2.393    0.582
       150 -10.5680    198.1589    212.6787   1.0092117504e+02   5.1254778971e+00    0.2711305    0.2043033  38.00   0.00126265    1.065    0.061
       151  -9.3500     21.6724    216.7080   1.3140756199e+02   2.9421978770e+01   0.07915657   0.07164305 -84.28 0.0002174786    1.622    0.384
       152  -9.2155    179.7822    215.3934   1.0436501942e+02   7.7861008823e+00    0.1546843   0.08825371  36.91 0.0002551218    1.477    0.323
       153  -9.3443     83.0897    215.4788   1.2106314306e+02   2.2477026138e+01    0.1523653   0.08759806  44.89 0.0005791844    1.477    0.323
       154 -10.2937     31.4399    214.3007   1.2970588500e+02   2.8826494140e+01      0.16698    0.1444777  71.12 0.0006702715    1.396    0.283
       155  -9.2069    186.5098    213.9549   1.0303835186e+02   6.8702128973e+00    0.1358646    0.1150804 -30.08 0.0003986075    1.452    0.311
       156 -10.2487    171.2823    213.9754   1.0560880285e+02   9.3505868660e+00     0.203406    0.1393895  46.67  0.000497609    1.193    0.162
       157  -9.5967    165.8487    213.9065   1.0652610263e+02   1.0243250190e+01     0.171582    0.1335819  27.49  0.000474446    1.316    0.240
       158  -9.7798    143.2397    214.2420   1.1046712348e+02   1.3826246099e+01     0.165669    0.1299529  39.75 0.0007401088    1.185    0.156
       159 -10.8544     63.6084    213.3284   1.2424309033e+02   2.5328021783e+01    0.2177574    0.1562761  56.50 0.0004699208    1.140    0.123
       160  -9.6147     51.8430    212.7586   1.2620879073e+02   2.6831264506e+01    0.1429765    0.1166088  64.76 0.0005978628    1.227    0.185
       161  -9.8384     41.0927    212.6657   1.2801452052e+02   2.8064313282e+01    0.1421155    0.1012472  58.90 0.0006540336    1.151    0.131
       162  -9.3800    154.6058    212.2521   1.0824680622e+02   1.2291179006e+01    0.1289721    0.1113486 -27.46 0.0003929813    1.517    0.341
       163  -9.5000     96.9544    212.4941   1.1838210783e+02   2.1058919422e+01    0.1602351   0.09062105  44.26 0.0005259957    1.498    0.332
       164 -10.1118     56.0644    216.8462   1.2576824967e+02   2.5655171832e+01    0.1650327     0.114026  83.31  0.000751104    1.255    0.203
       165 -11.0168    115.2999    206.9965   1.1456089709e+02   1.9261191455e+01    0.3369711    0.1700082  60.97  0.001617179    2.080    0.519
       166  -9.3594    120.4506    206.5162   1.1358325584e+02   1.8552713845e+01     0.154254    0.1355506  25.25 0.0002679485    1.469    0.319
       167  -9.6783     25.3755    210.5080   1.3051043957e+02   3.0089762150e+01    0.1388083   0.09964798 -71.58 0.0006378877    1.648    0.393
       168 -10.3279     18.1339    210.7419   1.3170933439e+02   3.0767584037e+01    0.1748662    0.1513322  56.91  0.001019504    1.492    0.330
       169  -9.0040    106.6448    210.1895   1.1644456680e+02   2.0037693990e+01    0.1283222    0.1020629 -58.06 0.0003219797    1.578    0.366
       170 -10.1731     56.4405    209.8477   1.2522425115e+02   2.6781534741e+01    0.1572101     0.108781  47.93  0.000453481    1.344    0.256
       171 -10.2191    161.2091    208.5481   1.0661300997e+02   1.1732045961e+01    0.1954054    0.1643492  28.33  0.000441213    1.234    0.190
       172  -9.2144     93.4475    208.7699   1.1864607294e+02   2.2158545184e+01    0.1289064    0.1019098 -60.56 0.0005461724    1.584    0.369
       173  -9.1199     78.4192    208.8374   1.2131206293e+02   2.4191991472e+01    0.1252627   0.09623761 -66.94 0.0004301824    1.547    0.354
       174  -9.5476    177.0880    208.1540   1.0381356196e+02   9.1596651668e+00     0.166603    0.1310701  31.22 0.0003181895    1.164    0.141
       175 -10.4861    145.0283    207.9837   1.0937959436e+02   1.4450755458e+01    0.3039454    0.1371212  34.86  0.001457347    2.436    0.590
       176  -9.5322    149.2198    205.5272   1.0832080205e+02   1.4131207283e+01    0.1785292     0.129529  47.18   0.00116712    1.119    0.106
       177 -10.6235    145.0535    200.4244   1.0839368495e+02   1.5578713493e+01     0.317865    0.1625508  47.39  0.001635416    1.617    0.382
       178 -11.1237    132.5133    206.9346   1.1147315110e+02   1.6607710294e+01     0.357979    0.2157988  40.40   0.00161058    1.476    0.322
       179 -11.1110    139.2879    203.7175   1.0986118151e+02   1.6017313076e+01    0.3895467    0.2634397  11.10  0.001349371    2.896    0.655
       180  -9.6725     72.6865    207.7897   1.2223438226e+02   2.5116118158e+01    0.1478382    0.1105424  55.88 0.0004921551    1.146    0.128
       181 -10.8871    206.7161    206.1607   9.8532335837e+01   4.4900412516e+00    0.2214651    0.1499131  29.78  0.000476378    1.268    0.211
       182 -10.9642    202.5705    215.6877   1.0063635943e+02   4.0626838746e+00    0.3141273    0.2107633  29.18 0.0009845104    1.291    0.226
       183 -10.7243    124.1124    205.9937   1.1286573186e+02   1.8069761918e+01    0.1854554    0.1349734  45.70  0.001238467    1.185    0.156
       184 -10.2272     46.9841    206.1493   1.2660475158e+02   2.8516619941e+01    0.1559117    0.1185646  66.99  0.000513728    1.096    0.087
       185  -9.3353     32.0501    206.5046   1.2918328664e+02   3.0087333267e+01    0.1380424   0.08244362  46.35 0.0004764979    1.495    0.331
       186  -8.7239    183.5310    205.4880   1.0232586483e+02   8.4335709439e+00    0.1195787    0.0961503  35.72 0.0001396338    1.039    0.038
       187  -9.8086     86.4737    204.9474   1.1953049736e+02   2.3763512892e+01     0.181974    0.1405544  39.83 0.0005529828    1.451    0.311
       188 -11.7690     56.3404    202.4157   1.2470374008e+02   2.8074101158e+01    0.2788397    0.1627054 -80.07 0.0006430385    1.639    0.390
       189  -8.8482    156.6618    204.7522   1.0689927076e+02   1.3019559116e+01    0.1143988    0.0815356  27.13 0.0002887772    1.562    0.360
       190 -10.9313    110.0007    201.5757   1.1491852894e+02   2.0941430463e+01    0.3174471    0.2148175 -88.65   0.00200964    1.690    0.408
       191  -9.1479    179.4007    202.4188   1.0258560683e+02   9.5333022595e+00    0.1182503   0.09676032  37.30 0.0001225151    1.028    0.028
       192  -8.6408    173.2959    202.2961   1.0362984614e+02   1.0581574523e+01    0.1150994   0.08403212  20.51 0.0002785997    1.565    0.361
       193  -9.8929     91.0437    201.1089   1.1833321225e+02   2.3781189810e+01    0.2658347    0.1353339  73.28  0.001363493    2.496    0.599
       194  -8.8147     21.2650    202.3400   1.3078933666e+02   3.1905282168e+01   0.08605731   0.06880028 -72.16 0.0003428003    1.595    0.373
       195  -9.9966    198.3363    201.1091   9.9147242870e+01   6.4992605852e+00    0.1856888     0.135512  31.07 0.0004122969    1.172    0.147
       196  -9.2689    187.0037    201.0067   1.0106197933e+02   8.4317706990e+00    0.1405137    0.1151357  36.65 0.0003243692    1.004    0.004
       197 -10.8609    164.2567    200.4174   1.0495127326e+02   1.2371716782e+01    0.4633021    0.1977649  36.02  0.001988058    2.397    0.583
       198  -9.0820     34.2852    201.3068   1.2850082030e+02   3.0757218914e+01   0.08588456   0.07486691 -73.30  0.000232207    1.566    0.361
       199  -9.6841    132.3197    199.6825   1.1061184277e+02   1.7768781508e+01    0.2094132    0.1569418  15.02  0.000798566    2.037    0.509
       200  -9.1806     98.4952    200.5352   1.1691179455e+02   2.2815295789e+01    0.1141228   0.09301262  60.90 0.0001373929    1.065    0.061
       201 -10.1347     69.3458    200.3781   1.2221148953e+02   2.6821805215e+01    0.1322077    0.1307593 -26.99 0.0005647656    1.610    0.379
       202 -10.0381    199.6426    188.9826   9.6970783421e+01   7.8224968922e+00    0.2089296    0.1690735  29.78 0.0004143342    1.057    0.054
       203 -11.0098    211.0882    179.9749   9.3457131031e+01   6.9676494629e+00    0.3088267    0.2360794 -16.34  0.001032294    1.407    0.289
       204 -10.7067    209.8807    198.1899   9.6750881470e+01   4.9080286792e+00    0.2310583    0.2158138 -78.05 0.0007453462    1.552    0.356
       205 -10.8123    209.2113    192.3565   9.5905961716e+01   5.7321278159e+00    0.2912751      0.22345  13.90  0.001298862    1.287    0.223
       206 -10.3234    202.7425    194.7092   9.7384053305e+01   6.5501547769e+00    0.3170478    0.2106162  17.08  0.001173429    1.695    0.410
       207 -11.2621    207.2945    187.9584   9.5490213171e+01   6.6150711739e+00     0.639898    0.2877072  30.88  0.002293023    2.519    0.603
       208  -9.9332     41.9350    199.2940   1.2703553863e+02   3.0283940987e+01    0.1444602    0.1079377  62.55 0.0004873627    1.130    0.115
       209 -10.2412    103.4464    198.0899   1.1573792895e+02   2.2504604545e+01    0.2257363    0.1380173  52.45 0.0005601372    1.343    0.255
       210 -10.7800     75.5024    197.5161   1.2083791170e+02   2.6524967851e+01    0.1856964   0.08976173 -56.40  0.001035547    2.491    0.599
       211  -9.9027     49.3910    198.1314   1.2562923939e+02   2.9647476756e+01    0.1587093    0.1269473  57.02 0.0004880974    1.253    0.202
       212  -9.3907    169.8844    195.8614   1.0328490128e+02   1.2064316522e+01    0.1610181    0.1261824  57.22 0.0004202082    1.274    0.215
       213 -10.5259    157.6146    194.6822   1.0531963185e+02   1.4340224695e+01    0.3054723    0.2116065 -41.14  0.001474763    1.763    0.433
       214  -9.7146    149.2500    196.5535   1.0710623472e+02   1.5472070777e+01    0.1662917    0.1005826  37.16 0.0005121048    1.560    0.359
       215 -10.0276     89.0544    195.9417   1.1818077123e+02   2.4954348101e+01    0.1717766    0.1407281  64.34   0.00047542    1.072    0.067
       216 -10.7803      6.7622    203.9498   1.3327974035e+02   3.2990029385e+01    0.1780221    0.1747871  59.54  0.001054812    1.760    0.432
       217  -9.4854    176.4574    195.4935   1.0206217465e+02   1.0983607019e+01    0.1221128    0.1018898  40.18 9.239295e-05    1.004    0.004
       218  -9.2956    140.6635    195.2999   1.0850754623e+02   1.7099182418e+01    0.1232313    0.0831731  67.70 0.0004359329    1.659    0.397
       219  -9.6793    113.1606    193.8615   1.1344262966e+02   2.1752127085e+01    0.1466015    0.1317867  40.56 0.0003521549    1.300    0.231
       220 -10.9533     81.4095    193.7622   1.1938895866e+02   2.6397744092e+01    0.2457301    0.1302763  43.42  0.001100449    1.681    0.405
       221  -9.8267    184.3821    194.5880   1.0052791464e+02   9.7372986317e+00    0.1957763    0.1488334  31.12  0.000410421    1.191    0.160
       222  -9.4560    219.8506    193.1358   9.4271225057e+01   3.8252399075e+00    0.1688442    0.1174051  22.06 0.0004221107    1.325    0.245
       223  -9.1449    143.9776    193.5066   1.0765082945e+02   1.6829578599e+01    0.1687545   0.08934733  61.42 0.0006483542    2.302    0.566
       224  -9.2076     36.3970    192.7946   1.2759776444e+02   3.2054048498e+01    0.1300491   0.08350178 -73.84 0.0004172101    1.546    0.353
       225  -9.0735    138.6759    199.2518   1.0939665889e+02   1.6805943349e+01    0.1186472   0.07895242  63.34 0.0006924894    1.541    0.351
       226 -10.2081    151.6013    191.5136   1.0596170030e+02   1.5850942206e+01    0.2173904    0.1901211  34.12  0.000645623    1.175    0.149
       227 -10.2086    224.5985    190.1552   9.2988483012e+01   3.3710891362e+00    0.2199772      0.20905   6.20  0.001607897    1.288    0.224
       228 -10.1310    162.1470    190.2052   1.0383219423e+02   1.4233173994e+01    0.1893995    0.1822001  79.04 0.0004576202    1.182    0.154
       229 -11.0050    158.9688    186.7350   1.0388969633e+02   1.5317504651e+01    0.3587742     0.233651  46.74  0.002082131    1.311    0.237
       230  -9.8530     96.6278    189.0419   1.1601441166e+02   2.5085225587e+01    0.2789974    0.1327614 -66.33  0.001009272    2.309    0.567
       231 -10.7837     73.2623    188.7854   1.2044288936e+02   2.8388603154e+01     0.256626    0.1308078 -89.25  0.001367899    2.298    0.565
       232  -9.4585    172.6727    189.0092   1.0173566908e+02   1.2569181212e+01    0.1592812    0.1481632  28.37 0.0003617899    1.118    0.106
       233  -9.2284     64.4872    189.5739   1.2217374681e+02   2.9374543810e+01    0.1116162   0.08794941  69.96 4.985699e-05    1.047    0.045
       234  -9.0821    179.2744    188.0256   1.0039238164e+02   1.1546416404e+01    0.1293022    0.1105281 -32.95 0.0003328681    1.363    0.266
       235 -10.0601    116.3426    187.6674   1.1207491741e+02   2.2316476939e+01    0.3562471    0.1748409  39.12  0.001726816    1.979    0.495
       236  -8.7365     89.6762    188.6791   1.1730346527e+02   2.6155826464e+01    0.1010731   0.09389285  -7.50  0.000704619    1.678    0.404
       237  -9.8181     77.5491    188.5497   1.1960484710e+02   2.7860514662e+01     0.116382   0.09014969  69.05 4.346208e-05    1.022    0.022
       238  -9.8042    215.1224    186.6481   9.3947029506e+01   5.4153916597e+00    0.1762245       0.1305  35.18 0.0007713399    1.140    0.123
       239  -8.7964    193.7215    186.2969   9.7550067113e+01   9.2249461921e+00    0.1116452   0.09472331  72.21   0.00025211    1.535    0.349
       240 -10.0360    127.3294    185.6332   1.0970124007e+02   2.0891076126e+01    0.3312417    0.1646898  33.93   0.00156244    2.390    0.582
       241  -8.9244     20.5578    186.4574   1.3007033113e+02   3.4824695089e+01    0.1025336   0.07683838  78.08 0.0001903776    1.093    0.085
       242  -9.9725    166.9620    184.4559   1.0205835121e+02   1.4256789987e+01    0.1699902    0.1659563  12.76 0.0004314746    1.159    0.137
       243  -8.6796     80.6684    184.7060   1.1861561679e+02   2.8141686565e+01   0.09871396   0.09360703  -7.57 0.0003701612    1.635    0.388
       244  -9.4082     34.8691    184.5096   1.2732526422e+02   3.3743240969e+01    0.1440148   0.09222846  44.83 0.0009749052    1.518    0.341
       245  -9.2654    140.4515    183.4505   1.0688143709e+02   1.9054441770e+01    0.1241427    0.1067058  51.73 6.362521e-05    1.029    0.028
       246  -9.7486     66.9867    182.4084   1.2103907949e+02   3.0387276419e+01    0.1961967    0.1314693  82.60  0.000806799    1.339    0.253
       247 -11.7669    210.9312    213.8899   9.9016972807e+01   2.9232925500e+00    0.4715403    0.2694905 -33.44  0.002910051    2.103    0.524
       248  -9.1205     80.6139    198.7955   1.2001806613e+02   2.5618113394e+01     0.140253    0.0923726  89.22 0.0002392783    1.494    0.331
       249 -10.3749    203.1745    180.4200   9.4895161857e+01   8.3266937902e+00    0.3901929    0.2531561 -57.89  0.001779963    2.531    0.605
       250 -10.7781    205.1040    175.0388   9.3600374417e+01   8.7000110075e+00    0.2986274     0.206417  -4.75 0.0007512775    1.774    0.436
       251 -10.1455    209.9957    174.0723   9.2578457273e+01   7.9375082622e+00    0.3192156    0.1901181  43.84 0.0009907151    1.499    0.333
       252  -9.5643    184.1921    180.8484   9.8325314695e+01   1.1696621198e+01    0.1678552    0.1323732  22.46 0.0003481917    1.289    0.224
       253  -9.2434    155.4261    181.5389   1.0374904090e+02   1.6758194416e+01    0.1249115    0.1088827  42.08 3.382264e-05    1.068    0.064
       254 -10.5288    175.1488    179.6147   9.9763289423e+01   1.3517841171e+01    0.2278464    0.2252169  57.58 0.0009456961    1.159    0.137
       255  -9.4811     55.5002    180.0125   1.2304989478e+02   3.2266602076e+01    0.1553613   0.09614962 -75.29 0.0005399203    1.514    0.339
       256  -9.5098    235.8154    179.1373   8.9222638069e+01   2.7410753370e+00    0.1682387    0.1192818  15.51 0.0003925103    1.311    0.237
       257 -10.5705    159.7836    179.5903   1.0261916418e+02   1.6293262267e+01    0.2487129    0.1080858  41.72  0.001126772    2.060    0.515
       258  -9.9140     61.1792    177.8222   1.2174012271e+02   3.1991006004e+01    0.2998998    0.1402856 -85.22  0.001541566    2.367    0.578
       259  -9.9052    191.0401    176.9529   9.6423768190e+01   1.1007961401e+01    0.1924503     0.163373  30.38 0.0003932964    1.047    0.044
       260  -9.0183    134.5191    177.5571   1.0715885943e+02   2.1069367860e+01    0.1264114    0.1083241  57.01 0.0002281031    1.007    0.007
       261  -9.2158     69.3124    177.3399   1.2008507764e+02   3.1047911453e+01    0.1024608   0.09021935 -42.06 0.0007046245    1.696    0.410
       262  -8.9992    231.2669    178.2825   8.9798314788e+01   3.6241473163e+00    0.1208266   0.08122267  15.29 0.0002393259    1.490    0.329
       263  -9.4793    169.4989    176.4724   1.0028378603e+02   1.5026283517e+01    0.1284917      0.11167  40.31 6.893276e-05    1.024    0.024
       264  -9.7319    140.1295    175.4309   1.0573943623e+02   2.0464256720e+01    0.2627705    0.1441365 -34.84  0.001215652    2.789    0.641
       265 -10.2018    101.1127    176.0352   1.1357793028e+02   2.6783323506e+01    0.2048958    0.1482098  71.14  0.001264136    1.302    0.232
       266  -9.3368    219.4692    175.0217   9.1144079736e+01   6.1029601938e+00    0.1632264    0.1190711 -24.15 0.0003438939    1.452    0.311
       267 -11.1673    197.7771    174.1355   9.4722983525e+01   1.0168275581e+01    0.2826899    0.2436512  70.79  0.001769869    1.478    0.323
       268  -9.4784    182.7789    174.0228   9.7405083793e+01   1.2956535697e+01    0.1697878    0.1573312  25.47 0.0003889245    1.075    0.070
       269 -11.2139    161.6266    174.0537   1.0136411449e+02   1.6846377743e+01    0.2843877    0.1698065  36.58 0.0005997075    1.638    0.389
       270 -10.6908    153.2878    173.5426   1.0287981756e+02   1.8443949365e+01    0.3278136    0.2166232  30.97  0.001451962    1.680    0.405
       271  -9.3557    233.4115    172.4839   8.8375423967e+01   3.9420860604e+00    0.1243758    0.1030952  15.81 9.909963e-05    1.019    0.018
       272  -9.0295     24.3993    172.2495   1.2848471537e+02   3.7138308324e+01    0.0894046   0.08018298 -51.64 0.0005868869    1.693    0.409
       273 -10.0812    225.9203    170.8494   8.9292108220e+01   5.4721844258e+00    0.1880636    0.1517948  23.35 0.0004342356    1.059    0.056
       274 -10.4090    192.9876    171.0863   9.5026191724e+01   1.1490124914e+01    0.1953033    0.1700809  32.55 0.0004145566    1.004    0.004
       275  -9.0778     76.4744    171.4666   1.1801810015e+02   3.1225933431e+01    0.1189473   0.09831139  74.33 0.0003333666    1.033    0.032
       276 -10.5972    201.1088    170.1243   9.3401104882e+01   1.0113226914e+01     0.198489    0.1566155  18.60 0.0003068335    1.253    0.202
       277 -10.1623    188.0375    170.5575   9.5826650730e+01   1.2492354439e+01    0.1965136    0.1137505  44.54 0.0003707249    1.532    0.347
       278  -8.7853     44.6499    170.6984   1.2438278431e+02   3.5327197989e+01   0.09851023   0.08480892 -49.26 0.0007038909    1.695    0.410
       279  -9.0965     46.6496    175.2946   1.2437421658e+02   3.4206147867e+01     0.121152   0.06433143  66.29 0.0007032109    1.679    0.404
       280 -11.5146    164.9055    168.2853   9.9751751875e+01   1.7176662975e+01    0.2963667    0.2343139 -46.91  0.001770439    1.424    0.298
       281  -9.4362    143.3380    169.3255   1.0414019600e+02   2.0951349541e+01    0.1264889     0.100848  11.17 0.0007051442    1.724    0.420
       282  -9.3503    134.9689    167.7284   1.0555577661e+02   2.2720376222e+01    0.1800022    0.1518386  52.11 0.0004231766    1.064    0.060
       283 -10.2627    210.6656    165.5696   9.0870683318e+01   8.9595340772e+00    0.4434111    0.3536915 -75.00   0.00248745    2.048    0.512
       284 -11.1586    205.3698    166.7638   9.2021714620e+01   9.7866279540e+00    0.3169236    0.2200105 -16.02  0.001722745    1.650    0.394
       285  -9.8243    150.4841    166.9222   1.0232665215e+02   2.0072180644e+01    0.1748719     0.130135 -49.15 0.0003467801    1.499    0.333
       286  -9.0323    140.5859    166.7878   1.0427464007e+02   2.1889656365e+01       0.1646    0.1222599 -69.76 0.0006677182    1.573    0.364
       287  -9.1576     84.5314    167.4429   1.1588722453e+02   3.0885399553e+01    0.1218195    0.1015567  73.32 0.0001049502    1.014    0.014
       288 -10.3241    218.9555    165.2143   8.9382147967e+01   7.4648484276e+00    0.1959399    0.1696119   3.29 0.0004079936    1.099    0.090
       289  -9.2922    179.0379    166.4938   9.6751042263e+01   1.4803797933e+01    0.1929541    0.1168584  44.24 0.0003916542    1.473    0.321
       290  -9.8519    169.9185    166.5107   9.8478400251e+01   1.6524459069e+01    0.1983448    0.1172011  45.28 0.0003714392    1.511    0.338
       291 -11.3344    222.2469    225.2143   9.8886537491e+01  -3.5237736997e-02    0.4530142    0.1784772  40.32  0.001874807    1.955    0.489
       292 -10.4509    200.0999    162.3668   9.2116684432e+01   1.1408603778e+01    0.2522433    0.1844003  12.67 0.0009012186    1.547    0.354
       293 -11.2372    205.4117    159.1672   9.0548435898e+01   1.0850817354e+01    0.3223176    0.2556711  10.32 0.0005473745    1.302    0.232
       294 -10.2827    207.3480    155.6849   8.9514357319e+01   1.0975485706e+01    0.2587879    0.2028327  68.96  0.001434331    1.707    0.414
       295 -10.2850    206.0427    152.4574   8.9093209070e+01   1.1696357106e+01    0.2353064    0.1791179  -6.04 0.0004034046    1.444    0.308
       296  -9.7160    192.0037    162.6566   9.3636474595e+01   1.2916309281e+01    0.1854046    0.1489657  38.20 0.0003940202    1.115    0.103
       297 -10.2878    184.9587    163.3478   9.5065074984e+01   1.4162126443e+01     0.190445    0.1487438  40.47 0.0004106206    1.148    0.129
       298  -9.3837    111.1634    162.9114   1.0970590203e+02   2.7672940879e+01    0.1577558    0.1529011 -32.97 0.0005214854    1.326    0.246
       299  -8.9448     80.5308    163.5202   1.1624226236e+02   3.2227767434e+01    0.1224541    0.1020422  76.19 0.0002128078    1.012    0.011
       300  -9.0246    246.6996    161.2546   8.4096476601e+01   2.9419427521e+00    0.1033504    0.1004615  83.35 0.0002286346    1.502    0.334
       301 -10.0215    213.2816    160.2976   8.9394565812e+01   9.1897316347e+00    0.2111722    0.1676565  19.61 0.0003533513    1.189    0.159
       302  -9.7727    221.0725    159.7030   8.7945971892e+01   7.8005841837e+00    0.2047551    0.1866714 -63.02 0.0008549031    1.501    0.334
       303  -9.9380    158.4933    168.9569   1.0110518639e+02   1.8255679177e+01    0.1765884    0.1303044 -45.83 0.0004778042    1.525    0.344
       304 -10.2889    153.0182    159.9849   1.0061645419e+02   2.0802965414e+01    0.1946007    0.1583666  10.90 0.0003451065    1.573    0.364
       305 -10.4055     53.3540    158.4322   1.2143496264e+02   3.6781540809e+01     0.361714    0.1972628  33.49  0.001787597    2.158    0.537
       306 -10.2851    250.4479    156.7378   8.2615471747e+01   2.8138454231e+00    0.2790027    0.1337733 -25.23  0.001038653    2.052    0.513
       307 -10.3070    158.8345    158.1769   9.9128552726e+01   2.0015300424e+01    0.1754799    0.1534237  16.40 0.0003770725    1.291    0.225
       308  -9.3341    168.2946    157.3306   9.7106978518e+01   1.8340294500e+01    0.1326452    0.1028564  10.25 0.0003124197    1.634    0.388
       309  -8.9138    176.6667    156.7044   9.5368179881e+01   1.6815301186e+01    0.1360527    0.1004303  17.14 0.0003073509    1.642    0.391
       310  -8.7697     99.2831    156.2915   1.1125488487e+02   3.0878232010e+01    0.1114718    0.1020126 -20.30 0.0003124807    1.533    0.348
       311  -9.0806    246.4343    155.4980   8.2985378137e+01   3.6741543666e+00    0.1279688     0.105812   9.53 9.570624e-05    1.023    0.023
       312 -10.4422    226.0957    154.6743   8.6093594925e+01   7.5224209345e+00    0.1897242    0.1493047  30.77   0.00113245    1.145    0.127
       313 -10.3780    228.0031    150.6493   8.4951341062e+01   7.6940750561e+00    0.2476775    0.1741216  -1.54 0.0005379982    1.531    0.347
       314  -9.5132    197.1452    154.6791   9.1142067350e+01   1.3114818074e+01    0.1855685    0.1549456  32.61 0.0004271487    1.090    0.083
       315 -11.0860    214.3130    151.6772   8.7482677115e+01   1.0191173087e+01     0.603795    0.3413824 -50.92  0.002735004    2.571    0.611
       316 -11.3440    211.0052    150.0000   8.7713350425e+01   1.1076606686e+01    0.7308455    0.3503195  30.06  0.002967357    2.656    0.623
       317  -9.9815    221.4968    150.5450   8.6019123205e+01   8.9555889617e+00    0.2810801    0.1242579 -34.35 0.0005239742    2.317    0.568
       318 -10.6166    144.9530    149.3852   1.0032635783e+02   2.4231183431e+01    0.4121781    0.2213172 -50.61  0.001716343    2.009    0.502
       319 -11.0183    243.7491    145.5348   8.1346524555e+01   5.3884468483e+00    0.4528055    0.2153049 -32.08  0.001091488    2.057    0.514
       320 -10.6721    248.4245    133.7910   7.8100279368e+01   5.9909784157e+00     0.332334    0.2414533   8.06 0.0009967758    1.367    0.268
       321 -10.6324    249.5811    147.8060   8.0919186124e+01   4.0365739786e+00    0.4040079    0.2187515 -15.90  0.001635196    1.958    0.489
       322 -11.3226    249.7803    140.0359   7.9247198865e+01   4.9536822806e+00    0.4985404    0.3092378  -9.60  0.001535681    1.680    0.405
       323  -9.0497    202.5119    149.5236   8.9123404120e+01   1.2826055593e+01    0.1355765    0.1214075  22.85 0.0001618254    1.014    0.014
       324 -11.1750    160.3794    145.3354   9.6357051439e+01   2.1961445647e+01    0.4031314    0.2700451 -71.11  0.001428369    2.203    0.546
       325  -9.0386    107.9859    151.2668   1.0858774273e+02   3.0477691484e+01    0.1634957    0.1057017  46.74 0.0004464161    1.462    0.316
       326  -8.8413     98.5013    146.4868   1.0992914591e+02   3.2987530197e+01    0.1295626    0.1153487  79.58 0.0008104104    1.026    0.025
       327 -11.3132     25.6195    143.8413   1.2607484309e+02   4.2751723306e+01    0.3849168    0.1740705  76.81  0.001243818    2.292    0.564
       328  -9.6561    118.9373    144.7944   1.0508387307e+02   2.9897937448e+01    0.3125349    0.2205547   3.23  0.001387202    2.924    0.658
       329 -11.0441     36.7669    145.0764   1.2370928798e+02   4.1395595153e+01    0.2684415    0.1702788  50.85  0.001722916    1.502    0.334
       330 -10.2365    234.8923    143.9381   8.2416090003e+01   7.2643253102e+00      0.21713    0.1707551  30.59 0.0004972796    1.176    0.150
       331  -9.1748    223.5173    144.5141   8.4413453503e+01   9.3905604686e+00    0.1355677    0.1173804  13.94 0.0003886182    1.038    0.037
       332  -9.8171    208.5024    142.9930   8.6682048871e+01   1.2595754865e+01    0.1919574    0.1316917 -30.12 0.0003671159    1.500    0.333
       333  -8.9471    139.2891    141.2565   9.9973420604e+01   2.6840918719e+01    0.1266836    0.1076063  13.24 0.0002298411    1.485    0.327
       334  -9.5673     29.7660    140.8463   1.2487626563e+02   4.2988046225e+01    0.1612478    0.1047506  73.93 0.0003840746    1.328    0.247
       335  -9.6542    238.5051    139.4869   8.0883034233e+01   7.1540116705e+00     0.226016    0.1716331 -18.60 -3.407053e-05    1.251    0.201
       336  -9.7289    237.0426    136.0007   8.0357171228e+01   7.8955953377e+00    0.1870416    0.1628134  10.10 0.0004435251    1.017    0.017
       337  -9.8161    135.0461    138.3904   1.0033428632e+02   2.8204910164e+01    0.3240134    0.1699324 -45.23  0.001451843    2.037    0.509
       338  -9.5175    131.3647    139.1786   1.0129728875e+02   2.8746857071e+01    0.1822779     0.126834 -62.59  0.000406792    1.556    0.357
       339  -9.5661    109.6452    138.7731   1.0610173303e+02   3.2732907121e+01    0.1924939    0.1624084 -43.34 0.0006323605    1.380    0.275
       340  -9.2550    243.5407    138.0208   7.9773675350e+01   6.3806049796e+00    0.1845699     0.119747 -22.07 0.0003632799    1.472    0.321
       341 -10.4085    166.3745    137.1546   9.3448154791e+01   2.2201491299e+01     0.314909    0.2113329 -54.52  0.001539747    1.715    0.417
       342  -9.1490    195.5166    136.9915   8.7739576963e+01   1.6176543864e+01    0.1876177    0.1198403  -4.93 0.0008065758    2.328    0.570
       343  -9.0607    218.5894    135.5432   8.3304583519e+01   1.1638347274e+01    0.1339716    0.1242658   6.34 3.080648e-05    1.052    0.049
       344 -10.7289    215.5200    133.5326   8.3385743669e+01   1.2558144764e+01    0.4527978     0.219739  23.14  0.001495618    4.012    0.751
       345 -10.9998    248.9996    122.8065   7.5562106922e+01   7.2857321574e+00    0.3876562    0.2588058  19.01  0.001330213    1.617    0.382
       346 -10.8732    242.2500    131.6000   7.8566393315e+01   7.4602775137e+00    0.2916309    0.2167234  26.41 0.0006798351    1.297    0.229
       347 -11.1544    246.7508    127.9182   7.7053653627e+01   7.0636722374e+00      0.43899    0.2724183  11.50  0.002071673    1.938    0.484
       348 -11.3974    240.2410    124.1349   7.7198403279e+01   8.8444711891e+00    0.5141186    0.3186887  -9.86  0.002512283    1.782    0.439
       349 -11.2803    232.2151    127.6623   7.9272033803e+01   9.9812443697e+00    0.6935064    0.4016383  -6.70  0.002994738    2.259    0.557
       350 -12.2584    236.2252    121.0353   7.7113578945e+01   1.0075576588e+01     0.874774    0.2502799  42.85  0.002927934    3.665    0.727
       351  -9.3882     39.2783    131.3798   1.2167431671e+02   4.4064833944e+01    0.1170597   0.07893927 -52.08 0.0007005809    1.711    0.416
       352  -8.8210     32.3521    131.3110   1.2332228122e+02   4.4777250136e+01    0.1114415   0.08111824 -48.65 0.0007044797    1.723    0.420
       353 -10.8724    102.5551    125.8242   1.0536901510e+02   3.6652821450e+01    0.4831065    0.3315284 -11.65  0.002024557    3.245    0.692
       354 -11.3362    221.5417    125.7192   8.0586357169e+01   1.2448566011e+01    0.2550715    0.2264113  42.91  0.001494057    1.170    0.145
       355  -9.5732    145.7393    123.1836   9.4770038379e+01   2.9048935836e+01    0.2087799    0.1761298  57.83  0.001129059    1.171    0.146
       356 -11.0980      5.6539    120.9908   1.2876087292e+02   4.9250055136e+01    0.2925965    0.1502778 -73.97 0.0009446768    1.510    0.338
       357  -9.2765    153.5617    122.4503   9.2892204191e+01   2.7565128078e+01    0.1411734    0.1376407  41.31 2.078288e-05    1.038    0.036
       358 -11.7929    234.8803    115.1460   7.5946210281e+01   1.1163902025e+01    0.9026541    0.3571705 -40.32  0.003474383    2.653    0.623
       359 -11.7501    230.4759    114.6472   7.6524941656e+01   1.2157355812e+01    0.7557106     0.270647 -28.69  0.002775769    2.784    0.641
       360 -12.5706    247.9438    103.0219   7.1085503056e+01   1.0092065041e+01    0.5930586    0.4955476  40.85  0.002135142    1.253    0.202
       361 -11.9349    246.0798    110.0146   7.3027206253e+01   9.5472990439e+00     1.278646    0.5632118  66.79  0.004274695    4.550    0.780
       362 -10.3565     16.7975    115.3969   1.2548419201e+02   4.9622963272e+01    0.1320888    0.1128944  -1.48 0.0009526557    1.758    0.431
       363 -10.5851     90.2588    112.5087   1.0580908590e+02   4.1562497557e+01    0.2487217     0.221186 -66.55 0.0005513084    1.076    0.071
       364 -11.2494      5.8333    112.0407   1.2794922829e+02   5.1167442122e+01    0.1793959    0.1475374  72.71 0.0008600489    1.208    0.172
       365 -11.4882     27.0246    107.2601   1.2186512131e+02   5.0565386753e+01    0.3650301    0.2750226 -26.44  0.001697412    1.962    0.490
       366 -10.7665      2.1155    108.8002   1.2861190093e+02   5.2117694558e+01    0.2585857    0.1125321 -58.57  0.001099732    2.097    0.523
       367  -9.7843     12.8003    105.8541   1.2552277305e+02   5.2025848316e+01    0.1609024    0.1080715  77.92 0.0006198969    1.340    0.254
       368  -9.9543     60.5195    103.7098   1.1208561304e+02   4.7791830322e+01    0.3636347    0.2146353 -74.47  0.001871719    1.651    0.394
       369  -9.6721      9.2869    104.3676   1.2630546930e+02   5.2604688647e+01    0.1160746   0.06740895 -55.47 0.0007021455    1.702    0.412
       370  -9.9517     89.2964    102.9386   1.0403026126e+02   4.3824083170e+01    0.2146457    0.1948249  57.02 0.0005566328    1.165    0.141
       371  -9.0282     34.3646    101.2752   1.1901077202e+02   5.1234524665e+01     0.116939   0.08344941 -42.89 0.0004492947    1.668    0.401
       372 -10.1138      5.9748    102.0000   1.2695384712e+02   5.3349373137e+01    0.1462302    0.0650111  24.13 0.0004842285    2.897    0.655
       373 -10.1072     65.6655    100.6799   1.1006777144e+02   4.7808317844e+01     0.129805   0.09655818 -34.86 0.0004431598    1.701    0.412
       374 -11.2158     24.9845     98.9687   1.2132819515e+02   5.2596427034e+01    0.3202679    0.1730066 -55.95  0.001533951    1.689    0.408
       375 -11.6293    239.4962    114.1068   7.4985012879e+01   1.0349491520e+01    0.5142081    0.2923691 -31.05  0.002476356    1.649    0.394
       376  -9.1361    105.6841     98.3450   9.8586109561e+01   4.2005869596e+01    0.1480267    0.1088526 -89.11 0.0007048158    1.717    0.418
       377 -10.1074     44.1383     97.2036   1.1556701510e+02   5.1168853600e+01    0.3302727    0.1491301 -62.01  0.001622021    1.811    0.448
       378 -10.1352    214.1880     97.1984   7.4861095771e+01   1.8303579221e+01    0.2196282    0.1940488   9.19 0.0005464952    1.135    0.119
       379 -10.3741     87.1665     96.2019   1.0308074330e+02   4.5653305490e+01    0.2924811    0.2684403 -16.38  0.001281682    1.331    0.248
       380 -11.9665    247.8864     93.7409   6.8832566622e+01   1.1335742646e+01    0.4512311    0.3584704 -40.60  0.002119899    1.291    0.225
       381  -9.6567    147.9889     95.9661   8.7546347854e+01   3.3851352542e+01    0.2202483    0.2163448 -38.40 0.0003746153    1.024    0.024
       382 -11.0559      6.6156     95.2885   1.2606721917e+02   5.4784611956e+01     0.309143    0.1363618  77.84  0.001509175    2.604    0.616
       383 -10.5566     39.3914     94.0908   1.1641636060e+02   5.2364554655e+01    0.2385134    0.2082753  -1.49 0.0009500977    1.571    0.364
       384 -10.8386     44.4615     91.1042   1.1438106937e+02   5.2514920648e+01    0.3101485    0.2214364 -87.44   0.00138191    1.378    0.274
       385 -10.0032     68.8561     93.8807   1.0775025955e+02   4.8906005792e+01    0.2047102    0.1665361 -50.10 0.0007348149    1.221    0.181
       386 -11.1254     18.3290     94.2816   1.2259780107e+02   5.4182071687e+01    0.1576899     0.145079 -62.33 0.0008554184    1.277    0.217
       387  -9.3825     35.2890     91.5908   1.1720660195e+02   5.3332060785e+01    0.1358936    0.1212742  -3.71 0.0004697439    1.516    0.340
       388  -8.7233    128.2580     91.2974   9.0966937171e+01   3.9046257345e+01    0.1400744    0.1167203  -7.58 0.0001580765    1.502    0.334
       389  -9.5987     23.9487     88.0571   1.2004160020e+02   5.5133603613e+01    0.1893214    0.1185574 -45.68 0.0008652356    1.728    0.421
       390 -11.5524      6.4857     87.0195   1.2514378690e+02   5.6621550694e+01    0.3995673      0.12352 -57.96  0.001902825    2.511    0.602
       391 -11.0863     10.9108     85.9198   1.2367725669e+02   5.6579697593e+01    0.1819761    0.1591492  80.18  0.001073333    1.212    0.175
       392 -10.3749    249.6117     86.4466   6.6787795136e+01   1.1932259704e+01    0.2816255    0.1570182 -24.27  0.001271176    1.658    0.397
       393 -12.0428    239.2013     82.4820   6.7213504600e+01   1.4740544767e+01    0.6494263    0.1827378 -40.01  0.002088678    3.443    0.710
       394  -9.8755    229.8906     84.3953   6.9052408397e+01   1.6579476695e+01    0.2839599    0.1812145 -42.57 0.0008546812    1.584    0.369
       395  -9.3434    202.0135     84.6572   7.3592811311e+01   2.3095131069e+01     0.205689    0.1926289  46.92 0.0004967568    1.098    0.089
       396 -10.3647      2.2591     82.4578   1.2586198628e+02   5.7882462108e+01    0.2880573    0.1401416  82.52  0.001548785    2.130    0.530
       397 -11.9388    249.7173     78.3570   6.4741300750e+01   1.2969472845e+01    0.6065716    0.2699362 -32.75  0.001424073    1.962    0.490
       398  -9.9955    243.1915     81.7507   6.6473917723e+01   1.3952585438e+01    0.1986169    0.1562806   9.62  0.001056679    1.366    0.268
       399 -11.4821     45.6200     79.0821   1.1161836811e+02   5.5103921343e+01    0.4192924    0.3275654  48.61  0.002636566    1.468    0.319
       400  -9.6031     35.9818     82.0000   1.1527639122e+02   5.5431840551e+01    0.1683699    0.1328382 -25.61 0.0007793676    1.642    0.391
       401  -9.9300     38.3967     79.1956   1.1395810148e+02   5.5828297656e+01    0.2411664    0.1587579 -72.58   0.00133026    1.329    0.247
       402 -11.1799     60.1465     79.2907   1.0705348078e+02   5.3334589299e+01    0.2632348    0.2231162 -20.09  0.001602383    1.466    0.318
       403  -9.9798     80.4572     76.5022   1.0004154871e+02   5.1038780917e+01    0.1384071    0.1234435 -56.12 0.0001108432    1.007    0.007
       404 -11.2160      6.3799     74.6363   1.2353861585e+02   5.9372163631e+01    0.3889895    0.2163258  45.91  0.002373517    2.104    0.525
       405 -11.1702    101.6576     68.6932   9.1450101492e+01   4.8984386366e+01    0.4482587    0.2264927 -38.08 0.0007045059    2.007    0.502
       406 -11.2653     53.2790     71.3012   1.0731053920e+02   5.5964193405e+01    0.2522361    0.2281344  71.08 0.0009315682    1.241    0.194
       407 -11.1448      9.5371     70.7133   1.2190738974e+02   6.0048952046e+01    0.3289709    0.1862652  87.39  0.001819653    1.825    0.452
       408 -12.5987    239.9591     68.3006   6.3418040887e+01   1.6473798918e+01    0.4960752    0.3653143 -31.31  0.002600829    1.236    0.191
       409 -11.2144     42.9679     64.2290   1.0903734716e+02   5.8694215790e+01    0.3543626    0.2986794 -48.75  0.002327152    1.118    0.106
       410  -9.2628     28.7398     64.5431   1.1411851088e+02   5.9997198478e+01    0.1337621   0.06881331 -45.14 0.0003485582    1.867    0.464
       411 -11.3416    247.3327     61.9323   6.0820737778e+01   1.5620957917e+01    0.3295017    0.2280101 -50.25  0.001675435    1.516    0.340
       412  -9.1591    125.2962     73.6888   8.6597110622e+01   4.3176307243e+01    0.1493983    0.1166059 -75.55 0.0002455707    1.596    0.373
       413  -9.9445     13.4958     62.3096   1.1908096072e+02   6.1653377408e+01    0.2672579    0.1591334 -10.69  0.001518348    2.589    0.614
       414 -12.5007     16.7888     52.1027   1.1573028549e+02   6.3662970899e+01    0.7010589    0.5602916 -38.74  0.004600472    1.303    0.232
       415 -12.0571      6.9249     58.8227   1.2080699895e+02   6.2827093073e+01    0.4580142    0.2819876 -45.38   0.00203273    1.568    0.362
       416 -11.9245      4.2131     55.5629   1.2121541797e+02   6.3690831771e+01    0.6158237    0.2816063 -68.89  0.002245083    1.626    0.385
       417 -12.3094     79.0540     57.3659   9.4707550704e+01   5.5291811995e+01     0.514174    0.3431522 -31.94  0.002598657    1.583    0.368
       418 -11.3737     84.5207     56.9351   9.2805988700e+01   5.4462081676e+01    0.2907717    0.1855336 -41.44  0.000850724    1.431    0.301
       419 -11.3549     45.4712     54.1384   1.0538612764e+02   6.0606401428e+01    0.3327286    0.2267224 -37.81  0.001502709    1.444    0.308
       420 -10.1705     64.8422     57.1735   9.9402880284e+01   5.7500912045e+01    0.1779671     0.147056 -24.75 0.0003422404    1.305    0.234
       421  -9.3928     39.1822     57.6059   1.0866923768e+02   6.0535946085e+01    0.1515626    0.1194061  -0.74 0.0006299748    1.644    0.392
       422  -9.4473     31.3199     57.3229   1.1148898326e+02   6.1355990969e+01    0.1931265    0.1161855 -40.84 0.0009359463    1.652    0.395
       423 -10.8862     26.5367     55.7267   1.1287698703e+02   6.2121839320e+01    0.3795581    0.2227634  18.93  0.001484937    2.256    0.557
       424  -9.7045    250.5128     54.5279   5.8520565850e+01   1.5831542380e+01    0.1393066    0.1252885 -28.80  0.000125939    1.002    0.002
       425 -10.3230    223.4288     51.0442   6.0882155111e+01   2.2691090095e+01    0.3803767    0.2150087  28.67  0.001505586    2.500    0.600
       426 -11.3032     49.7614     42.8401   1.0014821855e+02   6.2448326574e+01     0.343282    0.2429024   6.95  0.001937062    1.877    0.467
       427 -10.4994     51.0552     50.2852   1.0213992433e+02   6.0761869921e+01    0.2232747    0.1601445 -52.07 0.0003732695    1.179    0.152
       428 -11.1752     48.0622     47.7122   1.0243474140e+02   6.1657842906e+01    0.2406391    0.2283888 -13.08  0.001344754    1.189    0.159
       429 -10.9191     80.4575     47.8703   9.0947450998e+01   5.6936931543e+01    0.3493664    0.2567478 -83.08  0.001700398    2.166    0.538
       430  -8.8836    172.0688     49.9745   6.8556235752e+01   3.5987064207e+01    0.1728972    0.1717275  52.65 0.0009356507    1.026    0.025
       431 -10.4012      1.4467     61.0383   1.2315519852e+02   6.2640827617e+01    0.3164392    0.1322614 -63.81 0.0009111491    1.694    0.410
       432 -10.3677     69.7954     48.4068   9.4757209675e+01   5.8557811271e+01    0.1762906    0.1282441  20.86 0.0006458384    1.695    0.410
       433 -10.4941    108.8055     44.9848   8.1216679030e+01   5.2027666139e+01    0.2270793    0.1910507  -1.55 0.0009976571    1.289    0.224
       434 -10.5139     19.6742     43.5759   1.1245649009e+02   6.5282948709e+01    0.2959821    0.1991768 -27.44   0.00116817    1.691    0.409
       435 -11.4907     18.0794     38.4783   1.1170523809e+02   6.6476047481e+01    0.5845162    0.2960075 -47.83   0.00332343    1.574    0.365
       436 -10.3719     23.4372     34.8455   1.0828314878e+02   6.6804719691e+01    0.2359595    0.2099597 -15.51  0.001219045    1.275    0.216
       437 -10.6845    225.1567    247.7685   1.0152317671e+02  -2.5699097132e+00    0.1824072    0.1405352  27.95 0.0004534823    1.112    0.100
       438 -11.2472    177.3602    232.4230   1.0697668324e+02   6.1059669637e+00    0.4535027     0.276575  12.97  0.002311957    2.765    0.638
       439 -10.5472    154.8603    241.1656   1.1160024800e+02   8.4793816105e+00    0.2730092     0.194752  16.33  0.001876753    1.977    0.494
       440 -11.2677    157.4045    245.7072   1.1168136592e+02   7.5605940714e+00    0.4477895    0.2493858  35.12  0.002752735    1.617    0.382
       441 -11.3104     31.1040     41.1757   1.0704780562e+02   6.4818557912e+01    0.3990639    0.2753753 -15.77  0.000399361    1.820    0.450
       442 -11.4294     28.8764     37.8297   1.0691104982e+02   6.5715956286e+01    0.4455881    0.2805278 -19.07   0.00238205    2.049    0.512
       443 -11.2491    170.1570    240.0991   1.0904411565e+02   6.3133908652e+00     0.361803    0.2006854  34.57  0.001795653    1.588    0.370
       444 -10.9570    165.9836    240.0624   1.0970405502e+02   6.9458469156e+00    0.3018079    0.2126026  19.28  0.001642991    1.769    0.435
       445 -10.4056     17.2795    248.6850   1.3333463297e+02   2.4880110926e+01    0.1462247    0.1285193  75.63 0.0007361308    1.607    0.378
       446 -10.3696      8.9576    248.4465   1.3449932751e+02   2.5714419660e+01    0.1557142   0.09848142  80.22 0.0004616829    1.269    0.212
       447 -10.4752     11.9102     44.3230   1.1583615544e+02   6.5666544743e+01    0.2656018    0.1693305 -37.72  0.001209285    1.574    0.365
       448  -9.3125     83.3689     43.2768   8.8275324706e+01   5.7297617560e+01    0.1392381    0.1043717   0.48 0.0007007972    1.682    0.405
       449  -9.1419     87.4540     41.5056   8.6269854580e+01   5.6882321943e+01    0.1408127    0.1249505 -21.98 1.076997e-05    1.058    0.055
       450 -10.9947    115.5312     37.2943   7.6432588682e+01   5.1835042306e+01    0.3883527    0.2826099  57.34  0.001820512    1.488    0.328
       451  -9.8388    119.2097    248.3838   1.1794737668e+02   1.2713419912e+01    0.1542887   0.06867275  50.11 0.0009476451    1.656    0.396
       452 -11.1781    112.9686    244.8016   1.1862221638e+02   1.4050884110e+01     0.716928    0.4850386   3.83  0.003266447    6.141    0.837
       453 -10.5317    114.6164    240.1808   1.1795904688e+02   1.4447651127e+01    0.2929239     0.170894  70.84  0.001451756    1.939    0.484
       454  -9.8477    239.6402     33.7006   5.4171010847e+01   2.0880549698e+01    0.1442761    0.1024527  29.94  0.000703559    1.713    0.416
       455 -11.1425    118.0259    238.9935   1.1730410208e+02   1.4129782010e+01    0.4113158    0.2046856  36.59  0.001175693    1.998    0.499
       456 -10.5747     31.5237    247.1391   1.3122817270e+02   2.3665706939e+01    0.1940098     0.126529  68.23 0.0006873346    1.071    0.066
       457 -10.2839      5.7705     28.9575   1.1445859686e+02   6.9259040718e+01    0.3321638    0.1598718 -39.56  0.001901687    1.906    0.475
       458 -10.4925    250.5095     24.9945   5.0806472742e+01   1.9293476436e+01    0.2128389     0.122337 -26.81 0.0006073474    1.574    0.365
       459 -11.7223    210.8601    246.1104   1.0345142424e+02  -3.6703773431e-01    0.2260097    0.1575288  26.54 0.0005223968    1.185    0.156
       460 -10.5978      1.6328     22.0113   1.1438012721e+02   7.0898257197e+01    0.3080541   0.09644821 -59.59  0.001511034    2.191    0.544
       461 -10.6883     78.4527     21.1190   8.0577743959e+01   6.1943130839e+01    0.3664863    0.2392759 -55.08  0.001362033    2.091    0.522
       462 -10.5040    235.9853     20.0499   5.0812963367e+01   2.3298531936e+01    0.2191797    0.1890461 -51.20 0.0005830576    1.079    0.073
       463 -10.3118     49.8686     32.8421   9.6395598994e+01   6.4395973731e+01      0.20351    0.1505339 -27.78 0.0007601999    1.291    0.225
       464  -9.8943    124.2391    247.0453   1.1704044151e+02   1.2183976745e+01    0.1428146    0.1132704  45.49 0.0004346352    1.201    0.168
       465 -11.5712    191.9963    244.1116   1.0609111378e+02   2.6035755062e+00    0.2345298    0.1647052  30.66 0.0005371446    1.193    0.162
       466 -10.1211     93.5489    244.7793   1.2167763912e+02   1.6672881520e+01    0.1766581    0.1056753  47.01 0.0005719585    1.287    0.223
       467 -10.1625     80.8358    244.5193   1.2364305055e+02   1.8348847665e+01    0.1528638     0.125294  50.96 0.0004943032    1.344    0.256
       468  -9.6183     41.3180    244.7617   1.2967947275e+02   2.2970812138e+01    0.1114412   0.09060622  65.12 0.0005633499    1.342    0.255
       469  -9.9173     89.5450     19.4933   7.6248396875e+01   6.0051501080e+01    0.2157898    0.1382014  65.78 0.0007961516    2.158    0.537
       470 -11.1451    177.0456    243.4080   1.0833795468e+02   4.9064894590e+00    0.2245065    0.1602454  32.93 0.0005374139    1.209    0.173
       471 -10.7232    225.7581    240.2675   1.0044432155e+02  -1.9877909168e+00    0.2017834     0.146164  25.09 0.0004196628    1.082    0.076
       472 -11.9474    210.6761    237.6542   1.0238969295e+02   4.7526308143e-01    0.4083917    0.2574469  34.98  0.001678603    1.180    0.152
       473 -11.2062    217.7247    241.0044   1.0175418519e+02  -8.8726340643e-01    0.3165933    0.2595151  77.09  0.002314863    2.248    0.555
       474 -11.0477     59.7503     17.0424   8.5463680553e+01   6.5757656532e+01    0.2709033    0.2231951  20.83 0.0008988602    1.280    0.219
       475 -11.2510    221.5143    236.6962   1.0060328349e+02  -1.0381311847e+00     0.374397    0.2112954  24.06  0.001477262    1.663    0.399
       476 -11.0800    125.2445    240.2415   1.1625705887e+02   1.2933577647e+01    0.2228685     0.176205  33.09 0.0005674859    1.453    0.312
       477 -10.1978     98.5073    241.3774   1.2063291110e+02   1.6491168280e+01    0.1800792    0.1498491  69.77 0.0007999199    1.211    0.174
       478 -10.5013    103.3528    240.1608   1.1976210614e+02   1.6006943134e+01     0.181563    0.1278804  49.75 0.0004095329    1.133    0.117
       479  -9.7941    250.3152     15.3564   4.8315267952e+01   2.0368195591e+01    0.1362734   0.09896738  26.19 0.0007044809    1.745    0.427
       480  -9.1954    179.1369     14.8402   5.5633937693e+01   3.8618791831e+01    0.1987095     0.164206  35.92 0.0003164052    1.271    0.213
       481 -10.6598     87.1848     13.9323   7.4360887772e+01   6.1292241808e+01    0.2061407    0.1809138 -43.46  0.001226238    1.293    0.227
       482 -10.4070     68.8969    240.1628   1.2521482122e+02   2.0464959944e+01    0.1946473    0.1302328  40.50 0.0005331158    1.570    0.363
       483 -11.1819     50.5158    239.7411   1.2803497988e+02   2.2694534138e+01    0.3114869    0.1457954  58.08  0.001876401    1.534    0.348
       484 -11.6325    204.8931    231.6508   1.0249124376e+02   1.9563137037e+00    0.3469191    0.1978586  36.10 0.0005011905    1.348    0.258
       485 -10.5381    202.2771    239.9951   1.0398904111e+02   1.4940974207e+00    0.1951965    0.1383021  30.39 0.0004747387    1.130    0.115
       486 -11.7095    198.5542    237.8203   1.0429031417e+02   2.2752936500e+00    0.5011008    0.2311034  39.21  0.002140112    1.633    0.388
       487  -8.8796     35.3685    240.2923   1.3036023805e+02   2.4278218498e+01   0.07649441   0.07123062  55.14 0.0007026438    1.717    0.418
