#   1 NUMBER                 Running object number                                     
#   2 MAG_AUTO               Kron-like elliptical aperture magnitude                    [mag]
#   3 X_IMAGE                Object position along x                                    [pixel]
#   4 Y_IMAGE                Object position along y                                    [pixel]
#   5 X_WORLD                Barycenter position along world x axis                     [deg]
#   6 Y_WORLD                Barycenter position along world y axis                     [deg]
#   7 A_WORLD                Profile RMS along major axis (world units)                 [deg]
#   8 B_WORLD                Profile RMS along minor axis (world units)                 [deg]
#   9 THETA_WORLD            Position angle (CCW/world-x)                               [deg]
#  10 FWHM_WORLD             FWHM assuming a gaussian core                              [deg]
#  11 ELONGATION             A_IMAGE/B_IMAGE                                           
#  12 ELLIPTICITY            1 - B_IMAGE/A_IMAGE                                       
         1 -12.4815    221.6924     49.4919   5.9946539422e+01   2.4121801495e+01     3.599924     1.144783 -49.04   0.01434017    2.941    0.660
         2 -11.6191    141.3854     40.5650   6.7780876296e+01   4.4197083695e+01     1.075126    0.5660647  72.82  0.004501407    1.966    0.491
         3 -10.5357    248.3974     24.8723   5.2620885648e+01   2.1815409262e+01    0.3875881    0.1654523 -47.43  0.001141088    1.759    0.432
         4  -9.0405    223.9329     16.9957   5.2370312249e+01   2.7402799124e+01     0.390729    0.2193331 -87.05  0.002131876    1.780    0.438
         5 -10.8974    203.3642     18.0172   5.3990074238e+01   3.1698891590e+01      1.43141    0.3724112  67.80  0.005576451    3.465    0.711
         6 -12.1637    243.4490      7.6829   4.9346058938e+01   2.4505540126e+01     1.795858    0.4389991  64.50  0.007678546    4.341    0.770
         7 -10.0651    119.1806     10.0643   6.0665373213e+01   5.3545805334e+01    0.6342304    0.3766143  52.83  0.002825897    1.596    0.373
         8  -8.2345    143.0000     11.0771   5.7703778273e+01   4.7168239247e+01     0.295336    0.1267865 -23.48 0.0008805256    2.604    0.616
         9  -8.2314    144.0047      6.2179   5.5973812353e+01   4.7351777425e+01    0.4309893    0.2319329   4.29  0.001785241    3.163    0.684
        10  -8.8217    183.1694      2.9237   5.1574637810e+01   3.7847014737e+01    0.3992087    0.1476185 -31.76  0.001789617    2.436    0.590
        11  -9.8955    226.3476      6.0231   4.9801926388e+01   2.8016413365e+01    0.5014337    0.1182522 -38.06  0.002203267    2.737    0.635
        12  -7.3583    204.7527      1.3372   4.9852906767e+01   3.3040910441e+01    0.1290004   0.06833021 -54.84 0.0004486562    1.559    0.359
        13  -9.1394    232.5916    176.4811   8.5150076134e+01   4.3794933260e+00    0.2223913    0.1752899  -7.51 0.0004695009    1.026    0.026
        14 -11.9632    246.7332    247.7621   9.4352384606e+01  -5.6836452089e+00    0.6500558    0.3659406  11.50  0.004746315    1.391    0.281
        15  -8.4229    232.9278    171.6675   8.4227438393e+01   4.9893588056e+00    0.1906787    0.1329568 -16.79 0.0004020829    1.224    0.183
        16  -8.9603     87.0332    171.7072   1.1627328441e+02   2.8523135193e+01    0.2239598    0.2026805 -52.02 0.0002952361    1.221    0.181
        17  -7.1877    242.5408    171.4908   8.2747513136e+01   3.7365110578e+00    0.1169872   0.09046685 -12.60 0.0008091537    1.015    0.014
        18  -8.4061    153.9162    171.1838   9.9063272005e+01   1.7439612578e+01    0.2037786    0.1794343  14.30 0.0003279558    1.036    0.035
        19 -10.1254    200.9968    168.8622   8.9047466660e+01   1.0055941137e+01    0.2336392    0.2042949  -0.56 0.0003416284    1.053    0.050
        20  -8.4836     86.8146    156.1087   1.1387028929e+02   3.2227607357e+01     0.209408    0.1973962  39.49 0.0003742281    1.034    0.032
        21  -8.7182    220.7859    151.9463   8.2402581173e+01   9.5611973401e+00    0.1845413    0.1611364   8.16 0.0003642202    1.135    0.119
        22  -7.1790    130.7638    152.6302   1.0101520123e+02   2.5308855946e+01    0.1475218    0.1117046 -16.95 0.0002556569    1.606    0.377
        23  -7.9611    206.1219    150.7695   8.4596754000e+01   1.2078876841e+01    0.1859037    0.1706953 -41.27 0.0009015026    1.272    0.214
        24  -7.9497    149.0237    148.3746   9.5653998187e+01   2.2750352833e+01    0.2019845    0.1765842  31.53   0.00109733    1.096    0.087
        25 -10.9164    240.2945    143.7066   7.7885499459e+01   7.8135994476e+00    0.5653306    0.2259128 -31.96  0.002705586    2.163    0.538
        26  -8.5093     69.5110    145.4866   1.1744487649e+02   3.7510506475e+01     0.288774    0.2498408  59.90 0.0007664664    1.125    0.111
        27  -8.3582     66.2393    144.2560   1.1830086678e+02   3.8298132024e+01    0.4201622    0.2453913 -81.22  0.001368501    2.109    0.526
        28  -7.3168    153.5827    143.8146   9.3620618669e+01   2.2781854507e+01    0.1873309    0.1396441 -54.14   0.00037908    1.517    0.341
        29  -9.2074    247.8871    139.1902   7.5986115296e+01   7.3366217169e+00     0.176227    0.1432357 -39.09 0.0009002336    1.277    0.217
        30 -11.1229    239.7505    127.5886   7.4789166200e+01   1.0145812469e+01    0.6503921    0.3254311 -50.89  0.003103328    2.612    0.617
        31 -10.5874    243.4833    123.5368   7.3493047416e+01   1.0134253079e+01    0.5142349    0.3266107 -65.05  0.002630465    2.824    0.646
        32  -9.2324    250.0095    133.0064   7.4520275996e+01   7.8670967892e+00    0.2064478    0.1665528  77.25  0.001364254    2.003    0.501
        33  -7.2733     12.5436    131.5490   1.3506157789e+02   4.7456285906e+01    0.1358143    0.1196238  73.98 4.698799e-05    1.034    0.033
        34  -7.0638    176.7177    126.2939   8.4752730431e+01   2.1545806566e+01    0.1339683    0.1120196 -74.52 0.0001922654    1.536    0.349
        35  -7.7664    186.6597    121.9686   8.1873704224e+01   2.0347691167e+01    0.2307933   0.09891368 -54.84 0.0007043913    4.312    0.768
        36 -10.4489    238.4910    109.9992   7.1372053787e+01   1.2816035350e+01    0.3825045    0.2871538  -0.61  0.002361705    1.594    0.373
        37 -11.1814    244.2291    112.9177   7.1263686739e+01   1.1483568623e+01    0.6303968    0.3721438 -50.79   0.00353242    1.856    0.461
        38 -11.1168    244.5591    106.9253   7.0005355609e+01   1.2253287266e+01    0.5025696    0.4031518 -63.91  0.003353451    1.500    0.334
        39  -8.5224    167.8855    113.8186   8.3570458589e+01   2.5621300147e+01     0.243188    0.2396483   8.33 0.0007634136    1.029    0.028
        40  -8.8331    187.6936    103.3954   7.7323400842e+01   2.3294942063e+01    0.3406576    0.2242039  86.80  0.001473887    2.569    0.611
        41  -8.6840    163.9384    103.0111   8.1672868660e+01   2.8454039300e+01    0.2087476    0.2034914 -14.58            0    1.041    0.040
        42  -7.7260    126.2912    101.3414   9.0049521157e+01   3.7234265188e+01    0.2156661     0.142142  54.47  0.000875663    1.564    0.361
        43  -9.7128    220.1587     97.1648   7.0971958390e+01   1.7872253260e+01    0.2213659    0.2094284 -22.47 0.0002833924    1.106    0.096
        44  -8.1166    150.0533     98.4926   8.3449735951e+01   3.2410067624e+01    0.2749921    0.2182763 -15.47  0.001328957    1.511    0.338
        45 -10.6570    243.4539     93.7643   6.7419399877e+01   1.4227426589e+01    0.4032677    0.2176892 -31.39  0.002218256    1.584    0.369
        46  -7.4777    136.1817     95.7359   8.5951575873e+01   3.6126067590e+01    0.2595089     0.167954 -79.56 0.0007323095    2.742    0.635
        47  -9.3395    225.1908     93.3873   6.9487959673e+01   1.7490900088e+01     0.253818    0.2107339 -15.89  0.001029153    1.271    0.213
        48  -8.3930    186.4362     92.5701   7.4883270832e+01   2.5350682467e+01    0.2280568    0.1931179  42.26   0.00128085    1.286    0.222
        49 -10.0753    136.2284    232.8090   1.1259210752e+02   9.3246868448e+00    0.2224121    0.1932641  11.92 0.0004058687    1.128    0.114
        50 -10.6253    233.8034     42.5929   5.7362394874e+01   2.2564014497e+01    0.4683904    0.3163651  51.54  0.001399727    1.891    0.471
        51  -8.2688    222.7715     86.3438   6.8222977537e+01   1.8948603211e+01    0.2331213    0.1852365   0.37 0.0008976299    1.586    0.369
        52 -10.2168    179.6438     79.1311   7.2569642589e+01   2.9022432618e+01    0.6686703    0.5121148  82.48  0.002046047    1.478    0.324
        53  -8.1356    107.5529     82.8654   8.9985891873e+01   4.5345033089e+01    0.2206346    0.2013088  50.63 0.0003755831    1.060    0.057
        54  -9.9893    160.2016     80.1457   7.6298373291e+01   3.3362615352e+01    0.3413674    0.2662424 -21.10 0.0007275208    1.474    0.321
        55  -8.7525    247.0207     79.9852   6.4180158006e+01   1.5454462042e+01    0.1855493    0.1496647 -39.12 0.0005248417    1.020    0.019
        56  -7.5348    164.7391     76.4965   7.4431790640e+01   3.2902528076e+01    0.1882623    0.1359922  45.97 0.0008149513    1.480    0.325
        57  -9.0178    214.6500     74.1712   6.6425047137e+01   2.2258959054e+01    0.3831768     0.286736 -66.85  0.001871149    1.414    0.293
        58  -8.5783    213.6119     67.9892   6.5098409807e+01   2.3332068778e+01    0.5517251    0.2085494 -56.76  0.001838221    4.272    0.766
        59  -8.7406    208.8152     65.7733   6.5132457346e+01   2.4631207651e+01    0.4125572     0.280013 -32.19  0.001776527    1.396    0.284
        60  -9.1547    197.5905     66.3377   6.6661756231e+01   2.6954538634e+01    0.2683988     0.219908  40.51 0.0007239005    1.461    0.316
        61  -9.5980    203.5818     62.7457   6.5021455811e+01   2.6161418928e+01     0.347636    0.2490227  47.83  0.001928115    1.640    0.390
        62  -8.8494    186.8724     73.6485   7.0014764147e+01   2.8248578340e+01    0.2286406    0.2111084 -12.57 0.0004297461    1.219    0.179
        63 -10.8752    179.1338     63.3154   6.8438760546e+01   3.1573998340e+01    0.5379902    0.3886573  20.57  0.002601888    2.048    0.512
        64  -8.7902    169.8447     62.2281   6.9570736140e+01   3.3938844471e+01    0.3003608     0.224844  59.98  0.001098006    1.349    0.259
        65 -10.3192    121.6356     60.9754   7.8884751183e+01   4.6129390930e+01    0.2661087    0.2496484  66.57 0.0002419796    1.014    0.013
        66  -8.4443    167.6618     58.0629   6.8739749904e+01   3.5087196949e+01    0.2929851    0.2090098  57.22  0.001487865    1.420    0.296
        67  -8.3639    139.3139     64.8878   7.6046263810e+01   4.1039697447e+01    0.3356522    0.2203367  22.21  0.001348625    2.429    0.588
        68  -8.0575    163.1740     89.5333   7.8289497408e+01   3.1043177098e+01     0.253979    0.2221236  75.19  0.001362931    1.204    0.169
        69  -7.3786    250.7928     48.9280   5.7413261985e+01   1.8667250419e+01    0.1477283   0.07685245 -33.28 0.0004334163    1.606    0.377
        70  -7.9803    243.6937     47.5417   5.7659251007e+01   2.0111048649e+01    0.2948942    0.1109677 -54.51  0.001328923    2.699    0.630
        71  -7.1718    247.6830     46.6438   5.7170186257e+01   1.9492081555e+01    0.1071266   0.08798853   6.88 0.0005349157    1.749    0.428
        72  -7.3604    187.6646     44.3215   6.2212879852e+01   3.2210066548e+01    0.1474231   0.08960163 -63.47 0.0007050178    1.707    0.414
        73  -7.6207    250.6740    221.6208   8.9894691842e+01  -3.3033369578e+00    0.1153378   0.06119967  -4.17  0.000702161    1.841    0.457
        74  -7.6795    191.1862     40.7697   6.0878612672e+01   3.1844961035e+01    0.1676913    0.1471837  51.64 0.0004182627    1.335    0.251
        75  -8.5788    246.1927     36.6938   5.5201664354e+01   2.0914566639e+01    0.2258691    0.1468681 -50.36   0.00124696    1.212    0.175
        76  -8.6969    191.8024     34.6803   5.9223220692e+01   3.2450529239e+01    0.3005272    0.2395673 -39.82  0.001105929    1.216    0.177
        77  -7.1546    195.4971     42.4840   6.0855275341e+01   3.0641473251e+01    0.1375372    0.1113906 -62.53 -6.529048e-05    1.099    0.090
        78  -8.0914    164.5402     30.0720   6.1015452261e+01   3.9595440206e+01    0.2006036    0.1329747 -31.88 0.0004963348    1.558    0.358
        79  -7.3377      8.4680    220.5060   1.4094500402e+02   2.6917128678e+01     0.114982   0.09508456  52.07  0.000807962    1.097    0.088
        80  -9.2169    183.2234     26.6286   5.7947951697e+01   3.5410915225e+01    0.4226087    0.2789437 -49.79  0.002303831    1.367    0.269
        81  -8.1761    177.8996     24.1786   5.7812183941e+01   3.6969101325e+01     0.280801    0.1677239  80.63  0.001421742    1.608    0.378
        82  -8.4960    144.4096     87.6425   8.1721647419e+01   3.5762410298e+01    0.2845312    0.2415973 -71.23 0.0007700854    1.284    0.221
        83 -10.0924    144.5551     29.9722   6.3760033309e+01   4.4727773970e+01     0.320873    0.2929418  35.61  0.001854487    1.273    0.214
        84  -8.1980    231.0626     24.8365   5.3662023843e+01   2.5126242521e+01    0.2685994    0.1088373 -56.75  0.001292524    2.264    0.558
        85  -7.4199    138.2081    218.3735   1.1025670230e+02   1.1419978382e+01    0.1840599   0.09997006  37.77 0.0009376864    1.593    0.372
        86 -10.3829      2.1744    201.7315   1.4180892579e+02   3.1363939463e+01     0.617256    0.2171952 -83.83  0.002821733    2.795    0.642
        87  -8.7377    245.8504    204.2727   8.7871282668e+01  -7.8859644857e-01    0.1797464    0.1404953 -16.03 0.0003856822    1.226    0.184
        88  -9.2238    243.8231    186.2015   8.5146895105e+01   1.6728740692e+00    0.2553762    0.2220298 -50.84  0.001051233    1.896    0.473
        89 -11.9523     30.8829    179.4602   1.3313865317e+02   3.3853796038e+01    0.7994106    0.6627642  15.22  0.002783072    1.360    0.265
        90 -11.5078     43.8060    170.7232   1.2866895666e+02   3.4568358437e+01    0.8930773    0.8241711  48.90  0.003487139    1.076    0.071
        91  -8.9486    232.0511    181.2515   8.6085481980e+01   3.8078063954e+00    0.2312671    0.1723209  10.61 0.0005362236    1.226    0.184
        92  -9.4366     14.1245    179.1531   1.3776981099e+02   3.5478594242e+01    0.1784642    0.1747661  79.65  0.000489742    1.211    0.174
