#   1 NUMBER                 Running object number                                     
#   2 MAG_AUTO               Kron-like elliptical aperture magnitude                    [mag]
#   3 X_IMAGE                Object position along x                                    [pixel]
#   4 Y_IMAGE                Object position along y                                    [pixel]
#   5 X_WORLD                Barycenter position along world x axis                     [deg]
#   6 Y_WORLD                Barycenter position along world y axis                     [deg]
#   7 A_WORLD                Profile RMS along major axis (world units)                 [deg]
#   8 B_WORLD                Profile RMS along minor axis (world units)                 [deg]
#   9 THETA_WORLD            Position angle (CCW/world-x)                               [deg]
#  10 FWHM_WORLD             FWHM assuming a gaussian core                              [deg]
#  11 ELONGATION             A_IMAGE/B_IMAGE                                           
#  12 ELLIPTICITY            1 - B_IMAGE/A_IMAGE                                       
         1 -13.6248    247.1273    126.0676   2.6717119602e+02  -5.9819165847e+01    0.3020279    0.1614612 -15.01  0.008495407    3.205    0.688
         2 -11.7026    243.8756     35.1883   2.6098478791e+02  -6.0948026793e+01    0.1538311    0.0453335 -39.60  0.003131305    5.471    0.817
         3 -12.1270    153.6041     28.6188   2.5847095868e+02  -5.7961811828e+01   0.07101564   0.06369387   1.49  0.001230176    1.134    0.118
         4 -10.4734     45.3231     12.0645   2.5545074496e+02  -5.4411939416e+01   0.03887491    0.0310021  36.76 0.0008257104    1.246    0.197
         5 -11.9438     49.7890     14.4218   2.5566374678e+02  -5.4543377359e+01    0.0822017   0.05453681 -85.71  0.001625622    1.592    0.372
         6 -11.7206     56.1551     19.9640   2.5609989148e+02  -5.4709111237e+01   0.06739276   0.04466718 -55.96  0.001355795    1.469    0.319
         7 -10.9366    109.1956     18.4621   2.5695245272e+02  -5.6546645617e+01   0.04914735   0.04242845  40.22  0.001125491    1.163    0.140
         8 -10.4181    113.4469     14.0076   2.5675324934e+02  -5.6737399020e+01   0.06450277   0.02841253 -82.50  0.001892966    2.585    0.613
         9 -12.2670    239.1547     24.1713   2.6010151789e+02  -6.0918722635e+01    0.1350438   0.03613355  38.34  0.002880396    3.482    0.713
        10 -11.7560    249.5067     14.2935   2.5966000628e+02  -6.1381411031e+01    0.1256669   0.05954535  54.59  0.003743213    2.626    0.619
        11 -12.3576    241.4890      9.9970   2.5916480619e+02  -6.1157920791e+01    0.1651129    0.0445121  17.84  0.003984321    3.736    0.732
        12 -11.4101    237.2698      7.8904   2.5891782668e+02  -6.1037880046e+01   0.07023536   0.06427552  89.35  0.003123895    1.123    0.109
        13 -11.4486    136.7524     23.1511   2.5777806199e+02  -5.7443677926e+01   0.08157329   0.04012151  87.90  0.002090157    2.597    0.615
        14 -10.8515     71.0114     18.9344   2.5629374903e+02  -5.5229762038e+01   0.06990405   0.03863462 -21.76  0.002282295    2.183    0.542
        15 -10.8952    184.2139      3.3903   2.5744779657e+02  -5.9274777964e+01   0.06279675   0.04317341 -47.94  0.001222365    1.446    0.308
        16 -10.4300    178.8317     19.0907   2.5838078194e+02  -5.8925966810e+01   0.08277802   0.03452677  55.97  0.002202832    3.266    0.694
        17 -11.3349    183.2646     14.7410   2.5818640773e+02  -5.9123850595e+01    0.0799746   0.03514718 -71.45  0.001911006    2.249    0.555
        18 -12.5442    175.9956      5.2555   2.5740399647e+02  -5.8973950734e+01    0.1805925   0.06202129 -46.86  0.003802737    2.977    0.664
        19 -10.2479     23.5298     16.5177   2.5536103503e+02  -5.3620712862e+01   0.08475896   0.03292247 -10.52  0.001993339    4.270    0.766
        20 -10.8571      5.3064     19.7399   2.5526005207e+02  -5.2964915363e+01   0.08920761   0.04455765 -84.92  0.002853912    2.219    0.549
        21 -11.1534     13.8247     17.7809   2.5528078717e+02  -5.3275546696e+01    0.1512103   0.02209551 -58.91  0.003343563    4.333    0.769
        22 -10.1038    178.9409      1.4655   2.5721126028e+02  -5.9113547930e+01   0.03520584     0.025159 -65.77 0.0003079708    1.368    0.269
        23 -10.5777     84.9698     15.9371   2.5635680802e+02  -5.5739063765e+01   0.05947474   0.03271386 -74.53  0.002043348    1.826    0.452
        24 -12.6623    249.2924     57.9796   2.6269889822e+02  -6.0845532887e+01    0.2030391   0.07229193  12.70  0.005039548    3.688    0.729
        25 -10.9827    127.3934     14.4795   2.5704515495e+02  -5.7211907217e+01   0.07034403   0.03719662  79.75  0.002196819    2.406    0.584
        26 -12.1570    162.9313     11.8323   2.5757264123e+02  -5.8458447325e+01   0.07955936    0.0462744 -56.77  0.002270618    1.647    0.393
        27 -11.5985    160.4316      5.7230   2.5712234160e+02  -5.8435132078e+01   0.07547425   0.04427329 -18.21  0.002384093    2.024    0.506
        28  -9.9931     35.1939     13.6115   2.5537794141e+02  -5.4048916732e+01   0.03827624   0.03352798  -0.87  0.001095834    1.163    0.140
        29 -10.1175     32.9697      9.4851   2.5510047705e+02  -5.4010704623e+01   0.05537497   0.02710208  46.31  0.001775034    2.140    0.533
        30 -10.5508    120.7727     12.6831   2.5680649421e+02  -5.7002462775e+01   0.04036873   0.03294974  87.17 0.0008747305    1.281    0.219
        31  -9.9343     79.2593     12.0050   2.5601706675e+02  -5.5580782427e+01   0.03517904   0.02480946 -58.69 0.0006734382    1.381    0.276
        32 -10.4650     27.5507     11.3413   2.5512348496e+02  -5.3807084882e+01   0.03374979   0.03261437   3.73 0.0008911496    1.037    0.036
        33 -10.0431    191.0071     11.1162   2.5810885371e+02  -5.9426858367e+01   0.04874885   0.02127834 -58.13  0.001525308    2.114    0.527
        34  -9.5150    104.9905     11.3181   2.5643033370e+02  -5.6473158265e+01   0.02554722   0.02368985 -82.67 0.0006845079    1.087    0.080
        35 -11.0454     62.4872      4.7224   2.5529325522e+02  -5.5071798366e+01   0.07088175   0.04106077 -71.24  0.002460546    1.693    0.409
        36 -10.3629     69.1647      9.3532   2.5568374016e+02  -5.5258491273e+01   0.03881609   0.03190359  11.02 0.0007403007    1.227    0.185
        37 -10.8338     68.8920      5.1418   2.5542445420e+02  -5.5288733259e+01   0.04811333   0.03932168  -6.95  0.001208548    1.273    0.215
        38  -9.7496    115.0263      8.9753   2.5646655664e+02  -5.6841548619e+01    0.0275316   0.02630288  74.87 0.0005517838    1.063    0.059
        39 -11.0043     97.4954      6.6993   2.5600952669e+02  -5.6259944350e+01   0.07390951   0.03360011 -26.16   0.00208375    2.923    0.658
        40 -11.8510     77.6365      5.8924   2.5561686108e+02  -5.5583167608e+01    0.1009049   0.05351715  56.58  0.002462996    2.159    0.537
        41 -11.7790     86.7594      6.6650   2.5582017778e+02  -5.5890301842e+01   0.06494927   0.04415319  85.34  0.001900608    1.605    0.377
        42 -10.2463     89.3942      1.6028   2.5555383597e+02  -5.6029039956e+01   0.05215169   0.01975023 -59.63 0.0008061664    2.379    0.580
        43 -10.3158      3.3694      8.1270   2.5456635687e+02  -5.3004652860e+01   0.08979364   0.04123285  77.69  0.002562433    2.908    0.656
        44  -9.8765      4.3409      3.9621   2.5434204779e+02  -5.3075244602e+01   0.06331984   0.02629594 -65.27  0.001955946    2.227    0.551
        45 -11.0838     15.7097      4.6458   2.5455150849e+02  -5.3460470102e+01   0.05338798   0.03448518  53.16 0.0005646419    1.637    0.389
        46 -11.7864     11.3354      3.2559   2.5440539108e+02  -5.3322274164e+01    0.1400881   0.04903379 -40.31   0.00362605    3.370    0.703
        47 -11.3831    124.2951      6.9500   2.5650944762e+02  -5.7180465696e+01   0.05698436   0.03322578 -50.71  0.002024663    1.683    0.406
        48  -9.2201     40.1759      8.2679   2.5514336952e+02  -5.4270064304e+01   0.02889151   0.02148191  69.73 0.0005605849    1.447    0.309
        49 -10.5154    250.0293      4.8274   2.5900041881e+02  -6.1504420391e+01   0.06413946   0.02832192   9.75  0.001895201    2.560    0.609
        50 -10.9258    137.5692      3.9337   2.5656481685e+02  -5.7667006585e+01   0.06438659   0.02764918 -48.50  0.001958834    2.307    0.567
        51 -11.6138    114.7207      2.0125   2.5602263180e+02  -5.6898645359e+01   0.06274949   0.03346739 -71.82  0.001438679    1.841    0.457
        52 -10.4720    231.3207      2.2903   2.5838851055e+02  -6.0895999229e+01   0.07060965    0.0469468 -84.41  0.002638791    1.616    0.381
        53 -10.3709    153.6816      1.9541   2.5674386301e+02  -5.8240901903e+01   0.03767993   0.03483073 -76.13  0.001135306    1.083    0.077
        54  -9.4313    131.2490      3.4024   2.5641253963e+02  -5.7454651454e+01   0.02541273   0.01623929 -60.22 0.0006078969    1.508    0.337
        55  -9.6505    220.0470      1.3932   2.5807452702e+02  -6.0521153889e+01   0.02636095   0.01738833 -71.00 0.0003422845    1.505    0.336
        56  -8.7774     31.3212    157.3237   2.6343853034e+02  -5.2289925419e+01    0.0195339   0.01319227  57.41 0.0003741281    1.678    0.404
        57  -9.8822     49.8619    100.7235   2.6068670730e+02  -5.3619788710e+01   0.02942131   0.02259114  77.06 0.0003983031    1.445    0.308
        58  -9.7006     26.3348    101.2720   2.6024489221e+02  -5.2821859445e+01    0.0325643   0.02005769  65.88 0.0002782757    1.965    0.491
        59 -10.3441     29.2231     99.0453   2.6017712692e+02  -5.2945098697e+01   0.04081722   0.02260503  30.75   0.00142039    1.728    0.421
        60  -8.6717    107.7239    100.7456   2.6193323417e+02  -5.5563486278e+01   0.01792094   0.01340259  59.34 0.0001853451    1.460    0.315
        61  -9.3522     72.0098     99.5414   2.6108045380e+02  -5.4378918947e+01   0.02894136   0.01781599 -69.17 0.0009175672    1.620    0.383
        62  -8.8668      3.4475    156.4759   2.6279237618e+02  -5.1379829023e+01   0.01783398   0.01766483  10.64 7.807446e-05    1.009    0.009
        63  -9.6772    143.0861     96.2479   2.6248340348e+02  -5.6805269666e+01   0.02995807   0.02613627  15.99 0.0005504965    1.154    0.134
        64 -10.7098     64.5680     95.9754   2.6071812158e+02  -5.4171463430e+01   0.03846578   0.03500537 -45.44  0.000751982    1.096    0.088
        65 -10.3255      4.6857     95.7545   2.5952141909e+02  -5.2156778247e+01   0.04475287   0.03267487 -82.53 0.0008884399    1.448    0.309
        66  -8.9132    155.6662     95.2818   2.6272727554e+02  -5.7238392205e+01   0.01945909   0.01302369 -35.92 0.0002835571    1.614    0.381
        67 -11.2618     38.9051     94.2308   2.6009719705e+02  -5.3327404661e+01   0.05835028   0.02737165 -40.06  0.001779234    2.398    0.583
        68  -9.2187     90.0520     94.3074   2.6116152676e+02  -5.5049459999e+01   0.02631035   0.02241246 -63.85 0.0006176187    1.164    0.141
        69 -10.4310    132.7064     92.2673   2.6199601453e+02  -5.6508101922e+01   0.03950128   0.03268016   5.69 0.0006146209    1.253    0.202
        70 -11.3234    173.0331     89.1366   2.6277117728e+02  -5.7898299412e+01   0.07728796   0.05883107  82.08  0.003069696    1.476    0.323
        71  -9.7782     36.8944     89.8845   2.5981123711e+02  -5.3309925198e+01   0.02789184   0.02373724  54.47            0    1.217    0.178
        72  -9.1967      1.9999     88.5047   2.5907087983e+02  -5.2147821941e+01   0.02690875   0.01792863 -72.56  0.000530555    1.516    0.340
        73 -11.1020     12.4022     84.5105   2.5904150044e+02  -5.2543598497e+01   0.05365296   0.04604932  75.51  0.002005683    1.231    0.188
        74  -9.5467    101.3402     83.3144   2.6075350508e+02  -5.5562655635e+01   0.03697362   0.02500615  67.69  0.001259519    1.721    0.419
        75 -10.1287     98.0054     82.2411   2.6061777909e+02  -5.5462929020e+01   0.04246319   0.04115077  73.55  0.001933328    1.050    0.048
        76 -10.8436     16.1582     94.8010   2.5968614891e+02  -5.2554150016e+01   0.06053866   0.04077553 -81.79  0.002283342    1.588    0.370
        77  -9.4882    160.1847     81.1740   2.6195809538e+02  -5.7569785659e+01   0.02540371    0.0204966 -26.36 0.0003942843    1.315    0.239
        78 -11.0329     54.4809     78.5781   2.5950930556e+02  -5.4033825101e+01    0.0446476    0.0335366 -25.57 0.0005017975    1.435    0.303
        79  -9.6497    143.7665     77.0780   2.6131823767e+02  -5.7068640438e+01   0.02570436   0.02416318  15.28  0.001141155    1.066    0.062
        80  -8.7876     78.3993     77.4828   2.5992541910e+02  -5.4856071873e+01   0.01808464   0.01736352  40.44 0.0002032805    1.047    0.045
        81 -12.3234     36.3196     73.5334   2.5886930473e+02  -5.3475075816e+01    0.0838276    0.0675064 -87.69  0.001957473    1.304    0.233
        82 -10.3968      3.9647     75.6153   2.5839118590e+02  -5.2355871472e+01   0.04570195   0.03364251   3.72   0.00151823    1.424    0.298
        83  -9.7580    153.0359     76.5160   2.6149784813e+02  -5.7387584019e+01   0.02856696   0.01790966 -69.06  0.001032761    1.591    0.371
        84 -10.8507     99.7024     72.8067   2.6008911456e+02  -5.5631521484e+01   0.05727355   0.03128163 -61.13 0.0009916986    1.744    0.427
        85  -9.1966     95.5046     73.4888   2.6004201457e+02  -5.5481458968e+01   0.02578127   0.01783119   0.41 0.0006361209    1.584    0.369
        86  -9.1013    146.6473     73.3158   2.6115043590e+02  -5.7211664422e+01    0.0202534   0.01277654 -35.30 0.0007046431    1.737    0.424
        87  -9.3107     76.6808     72.0072   2.5956767534e+02  -5.4860788043e+01   0.03531489    0.0172142   7.64  0.001077213    2.365    0.577
        88  -9.0937     89.8701     72.1390   2.5984440704e+02  -5.5306267817e+01    0.0245442   0.02044157  58.88  0.001018573    1.260    0.207
        89  -9.6973    235.7537    222.0101   2.7269548466e+02  -5.7881871484e+01   0.02503784   0.01541366  29.35 0.0008972103    1.633    0.388
        90 -11.3986     63.8153     69.5525   2.5916778391e+02  -5.4452156997e+01   0.03746453   0.03113381 -71.92 0.0002733796    1.207    0.171
        91  -9.2167    189.1825     68.3152   2.6184110502e+02  -5.8704338471e+01   0.03770293   0.01374138  28.71 0.0009812288    2.490    0.598
        92  -8.9649    192.1559     65.8109   2.6175165849e+02  -5.8835409942e+01    0.0241736   0.02039527  57.67 0.0003701518    1.244    0.196
        93 -10.2444      7.5477     68.5605   2.5806091987e+02  -5.2553163849e+01   0.04102363   0.03007637 -56.55 0.0005769812    1.338    0.253
        94 -10.7557      4.5219     63.7739   2.5773928791e+02  -5.2501159004e+01   0.04033601   0.03062611  32.47 0.0007868158    1.295    0.228
        95 -10.6944      3.4453     58.8774   2.5744596240e+02  -5.2515730168e+01    0.0485288     0.044468  78.06  0.001464897    1.124    0.110
        96 -11.5828    248.8958     45.1006   2.6180112472e+02  -6.0995301807e+01   0.08667315   0.05253484  11.06  0.003083574    1.771    0.435
        97  -9.1123     83.1701     68.1470   2.5946999384e+02  -5.5124806216e+01   0.02462364    0.0197043 -44.31 0.0003666241    1.257    0.204
        98 -10.1646     47.4256     67.7661   2.5874788486e+02  -5.3915585282e+01   0.03893577   0.02732768 -33.17  0.001488972    1.521    0.343
        99  -9.8313     44.7507     63.2357   2.5843557572e+02  -5.3874208697e+01   0.04490427   0.02793294 -46.02  0.001635408    1.625    0.384
       100  -9.9736     35.0219     67.3973   2.5849392876e+02  -5.3498375721e+01   0.04292582      0.02787  66.63  0.001029985    1.781    0.439
       101 -11.3877    165.6057     63.6024   2.6097582142e+02  -5.7968806710e+01    0.0969096   0.06173555  -4.08  0.003328464    1.836    0.455
       102  -9.9464    204.5218     65.7912   2.6205740597e+02  -5.9250443328e+01    0.0361155   0.02556205 -35.57 0.0008626873    1.503    0.335
       103  -9.1153    151.8091     66.3866   2.6083469643e+02  -5.7469611796e+01   0.02578054   0.01748593 -87.23 0.0009454495    1.638    0.389
       104 -11.5287    237.8419     61.6981   2.6264560095e+02  -6.0416201904e+01   0.05684851   0.04966014 -46.89  0.002466113    1.141    0.123
       105 -11.8836    230.7530     59.7549   2.6232760189e+02  -6.0204510900e+01    0.0992983   0.05210929 -34.08  0.002524409    2.293    0.564
       106  -8.9827     75.4419     64.5365   2.5910141787e+02  -5.4903093676e+01   0.01805551   0.01759565 -29.00 0.0003742456    1.026    0.025
       107 -10.0847     99.3577     61.6588   2.5941042594e+02  -5.5747936327e+01   0.04791148   0.02923438 -31.31  0.001675448    1.851    0.460
       108  -9.9268     86.1793     61.6331   2.5914217214e+02  -5.5300443465e+01   0.05725002   0.02672654  43.00  0.001794513    2.204    0.546
       109 -11.7570     15.7354     59.9201   2.5771906183e+02  -5.2922819359e+01    0.0794787   0.06500542 -77.34  0.002718759    1.241    0.194
       110 -11.0418     22.0019     61.7606   2.5793487907e+02  -5.3116494302e+01   0.06922352   0.03524229 -70.92   0.00213153    1.944    0.486
       111 -10.7792     22.3921     58.2348   2.5774117717e+02  -5.3167024610e+01   0.04505501   0.03116585 -10.76 0.0008892397    1.605    0.377
       112  -8.9063     78.4712     62.5548   2.5904379948e+02  -5.5028153177e+01   0.01791914   0.01776865 -45.61 2.730224e-05    1.005    0.005
       113 -11.7535     66.7343     59.7687   2.5865000156e+02  -5.4659789384e+01    0.1186409   0.08978788   7.17   0.00457495    1.367    0.268
       114 -10.6279     69.5350     55.5012   2.5845170038e+02  -5.4801689565e+01   0.05330068   0.03335151  51.59  0.001344622    1.720    0.418
       115  -9.5202    114.4568     60.9010   2.5967747921e+02  -5.6269259160e+01   0.02810333   0.02374562  60.44 0.0003551638    1.241    0.194
       116  -9.3546     54.2979     60.6840   2.5846664825e+02  -5.4226647700e+01   0.02642364   0.02073595  54.62  0.000392218    1.334    0.250
       117  -9.9503     57.3042     59.6873   2.5846524488e+02  -5.4339778142e+01   0.02604496   0.01737822 -86.89 0.0008549204    1.632    0.387
       118  -9.4616     35.1801     60.6815   2.5811153582e+02  -5.3576221336e+01   0.03117614    0.0229082 -89.06 0.0006805636    1.458    0.314
       119  -9.5920    124.8653     59.8720   2.5983465559e+02  -5.6634284081e+01    0.0283007   0.02336377  52.19 0.0004506111    1.254    0.202
       120  -9.6934    106.4814     58.2982   2.5935283473e+02  -5.6027977588e+01   0.04824915   0.01891075 -44.89  0.001356548    2.717    0.632
       121  -9.8742    174.8020     64.8159   2.6126904096e+02  -5.8264062888e+01   0.03089542   0.02487611  85.10  0.000648629    1.342    0.255
       122 -11.4671    148.7066     54.1462   2.5999395160e+02  -5.7509117548e+01   0.09002899   0.06511313  36.97  0.002467774    1.373    0.272
       123 -11.5583    118.2845     53.8989   2.5932756418e+02  -5.6478863907e+01   0.08542433   0.05344516  -0.28  0.002637003    1.808    0.447
       124 -10.0665    113.2179     50.1326   2.5899131937e+02  -5.6348611601e+01   0.04023016   0.03543295  69.31  0.001067597    1.186    0.157
       125 -10.4899    135.9805     56.1271   2.5984086015e+02  -5.7054557690e+01   0.05222739   0.03196784 -59.82  0.001904358    1.571    0.363
       126 -10.1161     29.0397     56.4792   2.5775937051e+02  -5.3411814012e+01   0.03836025   0.02260629  36.87   0.00136817    1.662    0.398
       127  -9.6156     78.1654     55.9080   2.5864237033e+02  -5.5091190990e+01   0.03243367   0.02727463  79.69  0.001013474    1.257    0.205
       128  -9.2614     52.0544     56.1396   2.5815947109e+02  -5.4199322568e+01   0.02828693   0.02387249  63.69 0.0008233464    1.243    0.195
       129  -9.3800     45.4493     56.4961   2.5805805271e+02  -5.3970521435e+01    0.0289023   0.02077507 -31.47 7.978083e-05    1.484    0.326
       130 -11.5681     50.3343     47.0102   2.5759429253e+02  -5.4237261470e+01   0.09859841   0.06239146  76.63  0.003516657    1.849    0.459
       131 -10.6582     43.5418     52.2375   2.5777592999e+02  -5.3950666232e+01   0.06042304   0.03629282 -52.72  0.001475691    1.625    0.385
       132 -10.9182     38.9536     48.5063   2.5747689541e+02  -5.3833178822e+01   0.05397405   0.04235023  72.38  0.001432473    1.372    0.271
       133 -10.6794     39.1702     44.1921   2.5723037919e+02  -5.3885135314e+01   0.05629051   0.04247883 -46.94  0.001994757    1.327    0.246
       134  -9.0376     99.4360     55.4699   2.5903743984e+02  -5.5820108823e+01   0.01796877   0.01770068 -21.63 0.0001477506    1.013    0.013
       135  -9.3404    237.3634     52.8415   2.6203147351e+02  -6.0512836039e+01   0.02731685   0.01545955  33.00 0.0009461068    1.706    0.414
       136 -11.1653    127.7427     50.5341   2.5931686236e+02  -5.6838431959e+01   0.06612554   0.04094028 -76.73  0.001934582    1.675    0.403
       137 -11.0775     86.1118     50.4571   2.5847067699e+02  -5.5421403237e+01   0.06690996   0.05549251 -51.26  0.002831243    1.195    0.163
       138  -9.8219     14.9536     49.2452   2.5709963851e+02  -5.3006789881e+01   0.05218517   0.02312597  10.19  0.001563518    2.456    0.593
       139 -11.2100    119.7329     43.6290   2.5872238067e+02  -5.6642410023e+01   0.07870276   0.04450078  -8.89 0.0009763718    2.184    0.542
       140 -11.0956     94.0851     48.1530   2.5848742375e+02  -5.5718326910e+01   0.05179951   0.02460632  22.81  0.001672405    2.019    0.505
       141  -9.1423     91.5371     43.5467   2.5815862840e+02  -5.5681049854e+01   0.03605996   0.01758703 -43.37 0.0008503495    2.159    0.537
       142  -9.7718    172.9660     47.5316   2.6011305998e+02  -5.8408219121e+01   0.03485231   0.02509578 -11.88 0.0007164431    1.548    0.354
       143  -9.8649      6.0942     46.1184   2.5677212705e+02  -5.2736303425e+01   0.05892553     0.026464  59.41  0.001636937    2.932    0.659
       144 -11.7064    226.1273     42.2105   2.6102199844e+02  -6.0266658034e+01   0.07815129   0.03986307 -13.68  0.002274197    2.843    0.648
       145  -9.9300    105.3112     43.0945   2.5840023766e+02  -5.6156201115e+01   0.05228784    0.0259189 -76.77   0.00167374    2.124    0.529
       146  -9.4236     31.4456     43.6105   2.5706143648e+02  -5.3627178334e+01   0.04368851   0.01823507 -81.27  0.001239334    2.745    0.636
       147  -9.1380     71.4976     42.0178   2.5768726970e+02  -5.5012526166e+01   0.02852121   0.01780426  18.25   0.00103308    1.592    0.372
       148  -9.4404    186.1009     40.8608   2.5997723127e+02  -5.8930651929e+01   0.03795016   0.01931829  45.86  0.001105491    2.089    0.521
       149  -8.5976    143.3170     41.6342   2.5908618773e+02  -5.7468160976e+01   0.02039777   0.01272032 -32.66 0.0007039126    1.775    0.437
       150 -10.9700    159.2421     39.0353   2.5926085558e+02  -5.8039291426e+01   0.05464517   0.03498656  60.78 0.0005873214    1.784    0.439
       151  -9.4585     89.7480     39.4152   2.5787380156e+02  -5.5663841955e+01    0.0331145   0.01854456  40.44 0.0006804742    1.784    0.440
       152  -9.7094     56.6204     39.1688   2.5724663877e+02  -5.4533312005e+01   0.04254051   0.01437694 -56.71 0.0008644884    2.636    0.621
       153  -9.7876     96.0356     38.0603   2.5791158811e+02  -5.5893153904e+01   0.02619761   0.02597199 -78.82 0.0003307626    1.012    0.012
       154  -9.1948     51.2304     38.4035   2.5710537290e+02  -5.4356732161e+01   0.02620811   0.01571901 -57.92 0.0003722663    1.605    0.377
       155 -10.7117     26.5900     34.5201   2.5645338074e+02  -5.3552395397e+01    0.0633779   0.04788852   9.08  0.002559702    1.348    0.258
       156  -9.7770     12.5743     36.3485   2.5632483830e+02  -5.3054801981e+01   0.04253838   0.02565638 -27.52  0.001482821    1.880    0.468
       157 -10.6049    119.1144     35.0872   2.5817894779e+02  -5.6713823845e+01   0.03191948   0.02837771  84.50 0.0003513742    1.163    0.140
       158 -11.0958     39.7373     35.7286   2.5674756516e+02  -5.3990431452e+01   0.07811733    0.0305876 -68.16  0.002326627    2.397    0.583
       159  -9.8831     51.8134     33.3642   2.5681888366e+02  -5.4427743000e+01   0.03469396   0.02753015  57.17 0.0006071434    1.318    0.241
       160  -9.9881     46.9419     35.7307   2.5687284191e+02  -5.4237062849e+01   0.03758062    0.0305738  45.80 0.0003412958    1.246    0.197
       161  -9.6665     48.5899     32.2409   2.5669648795e+02  -5.4328566438e+01   0.03092569   0.02655475 -86.80 0.0005700612    1.194    0.162
       162  -9.2251    174.1745     34.8331   2.5931455133e+02  -5.8594389043e+01   0.02524828    0.0208113  54.42 0.0008516125    1.263    0.208
       163 -10.1528    131.5178     34.1157   2.5836702961e+02  -5.7148097430e+01   0.04254778   0.02552186 -88.83  0.001208434    1.893    0.472
       164  -8.8458    169.1096     33.1815   2.5909611015e+02  -5.8440494420e+01   0.02566469   0.02023693 -32.13 0.0003954364    1.322    0.243
       165 -10.2044    243.0044    220.4919   2.7285057770e+02  -5.8133190098e+01   0.02725632   0.01336368 -38.97 0.0008099292    2.500    0.600
       166 -10.9629    161.1295     26.8432   2.5851376045e+02  -5.8237967351e+01   0.05599028   0.04038975  57.48  0.001189815    1.495    0.331
       167 -10.4223    139.2327     32.7856   2.5844023984e+02  -5.7425971656e+01   0.03537184   0.03281644 -45.70 0.0009421766    1.073    0.068
       168 -10.8942      4.2383     31.5479   2.5591577803e+02  -5.2816373314e+01   0.05558413   0.02936135 -50.99  0.001200821    1.857    0.462
       169  -9.0336     68.6548     32.3111   2.5705534723e+02  -5.5015435550e+01   0.02015874   0.01256526 -37.55 0.0007045769    1.706    0.414
       170 -10.0070     17.6207     31.2242   2.5611454488e+02  -5.3277634396e+01   0.03298881   0.02518113 -39.14 0.0004721377    1.342    0.255
       171 -10.1675     75.9725     27.9352   2.5692429791e+02  -5.5310650151e+01   0.04838087   0.02606823 -57.86  0.001664598    1.766    0.434
       172 -10.2072     81.0000     30.0494   2.5714322015e+02  -5.5461585496e+01   0.04626151   0.02398287   7.31  0.001497724    2.109    0.526
       173 -10.5202     83.0937     25.9102   2.5693051745e+02  -5.5575396398e+01   0.04137087   0.03049012  50.80 0.0006758712    1.409    0.290
       174 -10.5239     59.5410     28.7461   2.5668084497e+02  -5.4738915262e+01   0.07407793   0.02011603  30.52  0.001931891    3.078    0.675
       175  -9.4333     92.5925     30.2800   2.5737147500e+02  -5.5856541033e+01   0.02655905    0.0159237  30.93 0.0009456456    1.612    0.380
       176  -9.6598     85.2004     30.6096   2.5725430522e+02  -5.5599828620e+01   0.02630929   0.01711956  86.77 0.0009444017    1.716    0.417
       177 -10.0943    103.9815     28.2010   2.5745821346e+02  -5.6268299746e+01   0.02838395   0.02591708  15.32 0.0002993057    1.097    0.088
       178 -10.7797     47.4179     26.3524   2.5632953668e+02  -5.4346735760e+01    0.0695297   0.03212127  45.28  0.001656134    2.269    0.559
       179 -10.7422    249.9577    201.0427   2.7193273560e+02  -5.8690050366e+01    0.0409018    0.0216205  37.85  0.001384918    1.852    0.460
       180 -11.8906    245.6482    197.1277   2.7155391582e+02  -5.8622999898e+01    0.0703119   0.03771413  49.34  0.002305614    2.127    0.530
       181 -11.7586    242.5769    189.1557   2.7097215455e+02  -5.8662434201e+01   0.05149061   0.03196243 -88.89  0.001702564    2.288    0.563
       182 -11.1807     50.0894     19.3590   2.5596149254e+02  -5.4506501298e+01   0.05384069   0.03251072  89.62   0.00161135    1.838    0.456
       183  -8.9332     42.4500     28.4790   2.5636998725e+02  -5.4155417143e+01   0.01788997   0.01772145  37.31 0.0001619469    1.012    0.012
       184 -10.0790     32.3846     27.2875   2.5613102435e+02  -5.3821901721e+01   0.03680745   0.01599513  22.24   0.00113907    2.171    0.539
       185 -10.4238    119.7943     26.1799   2.5763604045e+02  -5.6831127906e+01   0.05807343   0.03512961  88.86  0.001816605    1.881    0.469
       186 -10.3305     88.1964     25.4964   2.5699829103e+02  -5.5754667811e+01   0.04531698   0.02940494   0.32  0.001121679    1.677    0.404
       187 -10.4128    109.7591     24.2148   2.5732091604e+02  -5.6507455042e+01   0.07723679   0.03166953 -49.56  0.002308486    2.389    0.581
       188 -11.3071    237.9682    187.2496   2.7070682716e+02  -5.8549431487e+01   0.04155188   0.02692897  14.28  0.001499958    1.768    0.434
       189 -11.6094    244.0789    180.3328   2.7048487910e+02  -5.8857877052e+01   0.05370706   0.03241479   7.39  0.001358852    2.176    0.540
       190 -10.9531     98.4668     23.0169   2.5703529868e+02  -5.6132237993e+01   0.04847945   0.03127478  23.15 0.0005398986    1.516    0.340
       191  -9.0433    250.7000     23.9016   2.6036749805e+02  -6.1311329233e+01   0.02559974   0.01632951   1.85 0.0004201969    1.750    0.429
       192  -9.4317      1.3981    181.0431   2.6404727241e+02  -5.0990018701e+01   0.02625578    0.0173708  22.02 0.0003141033    1.505    0.336
       193 -11.1809    224.1138    173.0224   2.6940445306e+02  -5.8344555129e+01   0.04257512   0.03160032 -12.04  0.001364508    1.614    0.380
       194  -9.1791     20.7233    174.9634   2.6415224174e+02  -5.1705696107e+01   0.02497336   0.02346704   0.22 0.0004695564    1.073    0.068
       195  -9.9942     21.5721    170.0154   2.6390694726e+02  -5.1800021875e+01   0.03452466   0.02680899 -70.31 0.0005701034    1.308    0.235
       196  -8.9674     25.5011    175.4482   2.6428503883e+02  -5.1856010542e+01   0.01779716   0.01776202 -50.38 2.153446e-05    1.014    0.013
       197  -9.6416     65.9577     16.2391   2.5604428579e+02  -5.5082194409e+01   0.02826043   0.02758788  14.71 0.0004112479    1.025    0.024
       198  -9.2090     15.0000    165.9781   2.6354683538e+02  -5.1637309852e+01   0.03024639   0.01028046  21.67 0.0008017301    2.938    0.660
       199  -9.9797     66.7484     20.4752   2.5631237203e+02  -5.5068163206e+01    0.0281077   0.02261776  71.63 0.0004018515    1.318    0.241
       200 -10.4520    208.7204     19.9083   2.5909261103e+02  -5.9935530571e+01   0.04226006   0.02587355 -44.74  0.001285821    1.659    0.397
       201  -8.8360    206.6673    165.6737   2.6842648467e+02  -5.7903170668e+01   0.01955908   0.01355327  61.88 0.0007051324    1.713    0.416
       202 -10.5392      6.8919    159.6466   2.6303436776e+02  -5.1452706406e+01   0.04850708   0.02778803  48.76 0.0005775545    1.911    0.477
       203  -9.0357     27.7020    159.6728   2.6348608838e+02  -5.2139424482e+01   0.01928996   0.01317124  55.66 0.0004423412    1.634    0.388
       204 -13.8185    236.7000     96.1548   2.6491444150e+02  -5.9914901940e+01    0.1846581    0.1342026  22.55  0.007323721    1.377    0.274
       205  -9.2043     33.5122     20.9474   2.5578000526e+02  -5.3921740911e+01   0.02663193   0.01789742  13.89 0.0004345114    1.496    0.332
       206 -13.0450    236.4911     78.9825   2.6377083626e+02  -6.0143850429e+01    0.1466615    0.1015662  -7.54  0.005489842    1.690    0.408
       207  -9.9550     19.9728     15.9939   2.5527436603e+02  -5.3503378948e+01   0.04148572   0.02607895 -89.69 0.0007068932    1.728    0.421
       208 -13.2027    236.3018    130.0488   2.6709975753e+02  -5.9408396688e+01    0.1373873   0.05075945  33.24  0.004006888    2.491    0.599
       209 -12.9854    246.7843     84.4783   2.6442535280e+02  -6.0409167409e+01    0.2003476   0.09411656  18.79  0.006277224    2.248    0.555
       210 -13.3966    247.0399    142.4712   2.6821938090e+02  -5.9564089822e+01    0.2305765   0.09969938  13.41  0.006142002    3.325    0.699
       211  -9.5396    159.0762     20.0857   2.5803236531e+02  -5.8240117945e+01   0.02809474   0.02547861 -27.15 0.0006467722    1.120    0.107
       212  -9.4350     84.9352     20.0119   2.5660485342e+02  -5.5697674424e+01   0.03515318   0.02249659 -46.45 0.0006423405    1.570    0.363
       213 -13.1212    237.9622    145.1956   2.6811081105e+02  -5.9229767480e+01    0.1068093    0.1022018  20.72  0.004862661    1.046    0.044
       214  -9.7174     39.9528    147.6467   2.6310018112e+02  -5.2702411508e+01   0.03220612   0.02376542 -22.96  0.000434458    1.505    0.335
       215  -9.6562    128.9253     23.9980   2.5767711749e+02  -5.7166709773e+01   0.02720107   0.02568795  53.23 0.0003582435    1.074    0.069
       216  -9.3126    115.7077     18.4523   2.5707391446e+02  -5.6770382038e+01   0.02544105   0.01746261  85.81 0.0009428365    1.602    0.376
       217 -10.6467     38.9209     22.7875   2.5597693909e+02  -5.4089792422e+01    0.0494867   0.02949556 -69.24  0.001047102    1.640    0.390
       218 -10.1584     25.2466    146.3147   2.6270813524e+02  -5.2232133118e+01   0.03797872   0.02819064 -56.15 0.0009840238    1.320    0.243
       219  -9.4716    241.3196    223.3219   2.7295888572e+02  -5.8030885438e+01   0.01903989   0.01381959  65.53 0.0007044296    1.670    0.401
       220  -8.7429     75.0052    144.0169   2.6368880799e+02  -5.3911672360e+01    0.0209066    0.0201759 -61.65            0    1.035    0.034
       221  -9.3684    148.6708     14.3219   2.5744877581e+02  -5.7943832877e+01   0.02009269   0.01268214 -36.18 0.0007048926    1.693    0.409
       222  -9.1573     31.5981    143.6080   2.6269684000e+02  -5.2477626347e+01   0.02772241   0.01987159  57.59 0.0006086561    1.543    0.352
       223 -10.3351      7.0318    142.5880   2.6212285676e+02  -5.1674979556e+01   0.05648963   0.02267972  32.09  0.001712454    2.295    0.564
       224 -10.1045     28.6980    138.2014   2.6233854610e+02  -5.2450305694e+01   0.03049817   0.02800873 -83.68 0.0003247563    1.119    0.106
       225  -9.7619      3.7254    138.4274   2.6183069723e+02  -5.1617064436e+01   0.02584715   0.01764369 -87.51 0.0009555793    1.655    0.396
       226  -9.2024     51.4383    136.2581   2.6272231827e+02  -5.3231341506e+01   0.02515076   0.01758413   1.02 0.0008038941    1.591    0.371
       227  -9.2298     26.6399    134.2629   2.6207900364e+02  -5.2431539257e+01   0.01951367   0.01269212 -38.56 0.0005798877    1.633    0.388
       228 -10.2905     10.9173    132.6201   2.6166335518e+02  -5.1928352751e+01   0.06011695    0.0230891  26.68  0.001782808    2.400    0.583
       229 -10.5133     18.0740    132.4418   2.6180073192e+02  -5.2168992687e+01   0.05118972   0.02483412 -46.78 0.0009750584    2.095    0.523
       230  -9.0577     58.2041    129.7651   2.6250723016e+02  -5.3539920775e+01   0.02525558   0.02032181  57.63 0.0004360933    1.325    0.245
       231 -12.8308    247.3868    112.0550   2.6626836047e+02  -6.0036470868e+01    0.1633651     0.100102  -2.03  0.005531693    2.124    0.529
       232  -9.0267     22.2842    129.6716   2.6173618204e+02  -5.2343708090e+01   0.01917826   0.01317516 -29.80 0.0004130366    1.608    0.378
       233 -10.4235      3.1246    127.8771   2.6124834972e+02  -5.1726683212e+01   0.06888346   0.03228871  58.31  0.001953205    2.961    0.662
       234  -9.8370    134.9646    124.7734   2.6400896969e+02  -5.6158112890e+01   0.03403646   0.02662686  10.43 0.0006442381    1.333    0.250
       235  -9.7975      6.0660    121.4914   2.6095993215e+02  -5.1902112660e+01   0.02741642   0.01749141 -65.40 0.0007035962    1.540    0.351
       236  -9.2566    103.1446    119.8784   2.6295578032e+02  -5.5165423991e+01   0.02613849   0.02325852 -34.81            0    1.141    0.124
       237 -10.9547    224.4449    117.2082   2.6593057150e+02  -5.9212540372e+01   0.04724429   0.01884596  19.49  0.001322067    2.775    0.640
       238 -12.1319    248.3112     99.6017   2.6547620188e+02  -6.0247111033e+01    0.1046397   0.08105972  10.06  0.004252291    1.361    0.265
       239  -8.8224     53.7468    116.9993   2.6169095251e+02  -5.3551987504e+01    0.0215393   0.01555448  19.91 0.0002583594    1.384    0.277
       240  -9.8744     13.6856    117.0095   2.6086630598e+02  -5.2210828921e+01   0.03981014   0.02499695  62.79  0.001400374    1.891    0.471
       241  -9.4474     91.6957    116.1329   2.6247462308e+02  -5.4831831258e+01   0.02475072    0.0226426  29.69 0.0003788943    1.090    0.083
       242  -9.6128     96.2381    111.8966   2.6233053444e+02  -5.5037773205e+01   0.02893662   0.02601754 -79.61 0.0004840097    1.136    0.120
       243  -8.7697     79.5418    110.5394   2.6187928397e+02  -5.4496124984e+01   0.01803032   0.01768429  53.72  0.000807663    1.032    0.031
       244  -9.2994    200.4714     11.4513   2.5833555265e+02  -5.9746498856e+01   0.01795338    0.0177385 -42.86 8.402198e-05    1.005    0.004
       245 -10.0310      1.2932    108.6457   2.6016528227e+02  -5.1894375371e+01   0.06347042   0.02439294 -50.74   0.00184582    2.506    0.601
       246 -10.4274      1.5765    105.1835   2.5998113950e+02  -5.1944096284e+01   0.04905887   0.02477695  28.95  0.001160489    1.873    0.466
       247  -9.6874     13.0455    106.0545   2.6025022898e+02  -5.2319168879e+01   0.02672411   0.02584356 -37.35 0.0003313179    1.031    0.030
       248 -10.2747    118.6097    102.8522   2.6230782084e+02  -5.5901577903e+01   0.05350932   0.02644436 -44.72   0.00151016    2.114    0.527
       249  -8.9418     59.0000    103.0729   2.6100979948e+02  -5.3898800257e+01   0.03122285   0.01033221  19.72 0.0008136155    3.020    0.669
