#   1 NUMBER                 Running object number                                     
#   2 MAG_AUTO               Kron-like elliptical aperture magnitude                    [mag]
#   3 X_IMAGE                Object position along x                                    [pixel]
#   4 Y_IMAGE                Object position along y                                    [pixel]
#   5 X_WORLD                Barycenter position along world x axis                     [deg]
#   6 Y_WORLD                Barycenter position along world y axis                     [deg]
#   7 A_WORLD                Profile RMS along major axis (world units)                 [deg]
#   8 B_WORLD                Profile RMS along minor axis (world units)                 [deg]
#   9 THETA_WORLD            Position angle (CCW/world-x)                               [deg]
#  10 FWHM_WORLD             FWHM assuming a gaussian core                              [deg]
#  11 ELONGATION             A_IMAGE/B_IMAGE                                           
#  12 ELLIPTICITY            1 - B_IMAGE/A_IMAGE                                       
         1 -14.8238    149.6821    106.0121   6.2423295915e+01   3.1591858583e+01     1.401186    0.7880897 -55.70  0.005447126    2.112    0.527
         2 -12.3530     10.5273     15.3124   8.1855276664e+01   7.1178705314e+01    0.2324528    0.1975541  -5.07  0.001589099    1.290    0.225
         3 -13.9634     16.9443      5.7676   7.3900341429e+01   7.1938526634e+01    0.9417179    0.3866446  18.93  0.004758744    2.645    0.622
         4 -11.4774     53.9702      9.2980   5.8260238496e+01   6.6539564441e+01    0.1733885    0.1336169  22.98 0.0004399138    1.074    0.069
         5 -10.9071    210.4721      7.4928   2.7057567699e+01   3.2542351608e+01    0.1217552   0.09869188 -80.93 0.0001286729    1.003    0.003
         6 -10.8606    144.8375      4.1161   3.3684464153e+01   4.7976807691e+01    0.1752236    0.1304967  46.46 0.0005153579    1.322    0.243
         7 -10.5755    131.3582      3.7171   3.5679243233e+01   5.1149433862e+01    0.1263692   0.08986064 -78.34 0.0005250353    1.671    0.401
         8  -9.9718    113.5240      1.4636   3.8158390356e+01   5.5393569128e+01    0.1260273    0.1044287  52.28 5.733065e-05    1.007    0.007
         9 -10.3140    138.9792    217.9931   8.8524072176e+01   9.0817323050e+00     0.155963      0.15229  22.73 0.0003846055    1.075    0.070
        10  -9.7951     10.7959    224.9720   1.1677326642e+02   2.4829360623e+01     0.810413    0.4975895 -73.49  0.005223846    1.524    0.344
        11  99.0000     21.1146    235.8523   1.1545871830e+02   2.1571480150e+01     1.406409    0.9469697 -57.06  0.009148522    1.850    0.459
        12 -14.5276     42.2608    234.1519   1.1126123156e+02   1.9603382638e+01    0.8840986    0.6235328  57.59  0.004856467    1.179    0.151
        13 -17.0570     56.4633    225.2252   1.0761776518e+02   1.9763784158e+01     3.423487      1.72893  53.58   0.01755903    1.805    0.446
        14 -17.8977     68.6550    195.0956   1.0167414550e+02   2.4947301867e+01     4.090991     3.118501  69.24   0.02306596    1.274    0.215
        15 -11.6153     32.6280    249.4617   1.1415276852e+02   1.7642635451e+01     0.180269    0.1485081  79.79  0.001003607    1.150    0.131
        16 -11.0557    117.9038    213.8656   9.2662857393e+01   1.3360031360e+01    0.2472602    0.1717878  82.51 0.0005580137    1.966    0.491
        17 -11.8772    157.0743    213.1872   8.3734812545e+01   7.0214920149e+00    0.2955605    0.1955364  30.22   0.00117709    1.433    0.302
        18 -13.3129    153.3332    210.3340   8.4086429217e+01   8.2112445624e+00    0.5151664    0.4180617   1.77  0.002318349    1.362    0.266
        19 -13.1121    183.1410    213.2275   7.8125078229e+01   2.6866491630e+00    0.3991705    0.2385431  26.41  0.001949604    1.660    0.398
        20 -11.8297    124.4754    211.4766   9.0805529713e+01   1.2798184595e+01    0.4010974    0.2675341  -5.77  0.001743019    2.563    0.610
        21  -9.8638    156.6542    243.2909   8.8489893821e+01   1.5908436532e+00    0.1273504   0.09286211  56.56  0.000617344    1.660    0.398
        22 -11.1769    103.7276    213.6269   9.5869358761e+01   1.5645667659e+01    0.2942862    0.1534511  32.79  0.001328015    1.900    0.474
        23 -10.7587     14.5358    211.8752   1.1524064355e+02   2.7266884173e+01    0.1725951    0.1358087  57.10  0.001103175    1.195    0.163
        24 -10.7781     88.5748    241.9177   1.0254931693e+02   1.2055550525e+01    0.2138966    0.1538831  32.81  0.001271172    1.380    0.276
        25 -11.1331    143.5123    211.0112   8.6401054545e+01   9.7313547843e+00    0.2034123    0.1387493 -49.50 0.0008800916    1.577    0.366
        26 -10.3869    116.6329    239.9556   9.6445814091e+01   8.3303107627e+00    0.1680796    0.1526219  68.13 0.0008325069    1.139    0.122
        27 -13.1417    168.5704    205.4905   7.9880523109e+01   6.5711011170e+00    0.4227609    0.3131521  43.10  0.001851671    1.361    0.265
        28 -10.8502     36.9115    249.7141   1.1337843835e+02   1.7113107552e+01    0.1647272    0.1372716 -88.18 0.0004597756    1.246    0.197
        29 -10.9834    229.4929    206.5029   6.7715720099e+01  -3.3952594151e+00    0.1308145    0.1080261  -7.13 0.0008106467    1.004    0.004
        30 -11.2665    220.0635    206.5072   6.9488328262e+01  -1.9914370858e+00    0.1960448    0.1208772  31.87 0.0008847103    1.596    0.374
        31 -11.6336     17.5041    204.7406   1.1414350892e+02   2.8558618855e+01    0.4260552    0.1552523  54.75  0.001934846    2.623    0.619
        32  -8.3326     10.5519    206.4558   1.1569873770e+02   2.8821717411e+01    0.1169391   0.09436103  86.28 0.0001856193    1.078    0.072
        33 -13.1737    146.8450    203.0186   8.4310321590e+01   1.0800427655e+01    0.4986022    0.3500788  47.20  0.001256622    1.435    0.303
        34 -10.6254    108.0559    238.0020   9.8025184099e+01   9.9928015412e+00    0.1875646    0.1527206  -1.11   0.00110136    1.636    0.389
        35 -10.5772     96.4198    237.7395   1.0045800590e+02   1.1755912526e+01     0.206457    0.1698114 -17.63 0.0007410435    1.708    0.415
        36 -10.7044    121.4038    200.6847   8.9843357483e+01   1.5626792574e+01    0.2254037    0.1744451 -43.77 0.0006310926    1.402    0.286
        37 -11.2431    212.4740    200.0163   6.9740255202e+01   2.8576229183e-01    0.2003344     0.123878 -38.50 0.0006671025    1.566    0.362
        38 -11.9161    137.8935    199.0887   8.5705236152e+01   1.3171128113e+01    0.2692877    0.2153559 -43.97 0.0004815152    1.318    0.242
        39 -13.8936    191.9694    194.2066   7.2777890414e+01   4.7204897883e+00    0.5232928    0.4482946   6.69  0.003010397    1.100    0.091
        40 -10.5388     15.7406    198.3830   1.1405929197e+02   3.0151670047e+01    0.2005784    0.1057477  62.14  0.001079708    1.771    0.435
        41 -12.1869    124.5420    195.6078   8.8271575481e+01   1.6219248817e+01    0.4073216    0.3429936  46.92  0.001654428    1.143    0.125
        42 -11.0661    212.7125    194.5448   6.8650702727e+01   1.2032904345e+00    0.2242418    0.1631963 -55.82 0.0008117956    1.833    0.454
        43 -13.0380    160.4115    192.2584   7.9291850932e+01   1.0646307202e+01    0.5057118    0.2068433  48.38  0.001778768    2.921    0.658
        44 -10.9975     20.7739    190.0336   1.1230893151e+02   3.1599144015e+01    0.1976271    0.1357702  74.13 0.0009692004    1.293    0.227
        45 -10.7321      1.2872    190.1733   1.1658128635e+02   3.3243708060e+01    0.1538635   0.08512989 -88.12            0    1.487    0.327
        46 -12.2746    144.4531    189.3388   8.2444960308e+01   1.4118223289e+01    0.3082075    0.1808336  40.90  0.001370535    1.642    0.391
        47 -10.6992      8.0824    188.5428   1.1500570243e+02   3.3065456053e+01    0.3379112    0.1153152  50.38  0.001383875    2.777    0.640
        48 -13.2020    127.0640    185.4059   8.5908753613e+01   1.8074299269e+01    0.7119938     0.423149  11.69  0.002632074    2.969    0.663
        49 -12.1836    112.5625    186.7579   8.9707355311e+01   2.0251205276e+01    0.4162035    0.3846928  21.75   0.00234494    1.148    0.129
        50 -12.7964    135.2058    184.9944   8.3857056281e+01   1.6726848520e+01    0.4333203    0.3088688 -84.01  0.001944316    2.018    0.504
        51 -12.0226      6.1700    193.8512   1.1578416707e+02   3.2016103104e+01    0.1949831    0.1754014  88.47 0.0005559066    1.208    0.172
        52 -11.4282    186.2218    185.5788   7.2313244473e+01   7.3777818420e+00    0.1987903    0.1318011  25.40 0.0004968212    1.591    0.371
        53 -12.4318    176.2116    183.8306   7.4136995739e+01   9.5246893493e+00    0.3010101    0.2039876 -55.16  0.001418405    1.713    0.416
        54 -11.2772     17.6274    183.1229   1.1244974325e+02   3.3501075884e+01    0.2044196    0.1815436  15.42 0.0008418131    1.481    0.325
        55 -12.3552    144.7379    181.5577   8.0925991088e+01   1.5768825863e+01    0.2907763    0.2434496  13.20 0.0007657225    1.294    0.227
        56 -12.2946    148.7857    179.8253   7.9629522996e+01   1.5407420868e+01    0.2838905    0.2003548  43.10 0.0004728544    1.405    0.288
        57 -10.3313      9.4245    182.5091   1.1426424245e+02   3.4348050927e+01    0.1238612   0.09648924  86.00 0.0002430929    1.033    0.032
        58 -11.6430     94.6642    232.6295   1.0025164199e+02   1.3031169336e+01    0.3641743    0.2158792  63.08  0.001015439    1.889    0.471
        59 -12.3352    191.7212    178.4748   6.9727411597e+01   7.7834292231e+00    0.2812854    0.2536812 -23.24 0.0007434154    1.057    0.054
        60 -10.7698    158.3313    178.3223   7.7092032626e+01   1.3965547242e+01     0.154921    0.1156106  -5.78  0.000297806    1.699    0.411
        61 -12.1284    132.4972    177.0769   8.3046460882e+01   1.9004571859e+01    0.3375306    0.1927599 -51.22  0.001442129    1.777    0.437
        62 -12.5741    126.9961    177.2116   8.4434805746e+01   1.9963382121e+01    0.4489122    0.1979225 -48.09 0.0009196973    2.298    0.565
        63 -13.6456    119.9409    176.2154   8.6018324817e+01   2.1444948909e+01    0.6264743    0.3637641 -40.69  0.002653438    1.935    0.483
        64 -11.5379    113.0162    176.2912   8.7785419679e+01   2.2628084490e+01     0.243775    0.2068226 -60.62 0.0002932892    1.189    0.159
        65 -12.9977    175.0866    174.3333   7.2475676211e+01   1.1676399444e+01    0.3303984    0.2881592 -32.89  0.001782058    1.122    0.109
        66 -10.7858     17.3357    175.0459   1.1182246726e+02   3.5437573059e+01    0.1701013    0.1584947 -79.48 0.0002899766    1.202    0.168
        67 -13.6287    106.7930    169.7892   8.8216936367e+01   2.5243353069e+01    0.6125007    0.5114551 -50.94   0.00320273    1.204    0.169
        68 -12.2554    103.8770    164.5182   8.8016810266e+01   2.7015055814e+01    0.5769562    0.2563335 -43.10  0.001581409    2.594    0.614
        69 -11.4826     99.7108    172.4100   9.0525951643e+01   2.5784874796e+01    0.4479868     0.181592  32.68   0.00161323    2.641    0.621
        70 -10.8461    197.3165    170.3378   6.6891270667e+01   8.3590862434e+00     0.151563    0.1085844  -6.13  0.000704831    1.701    0.412
        71 -12.2369    160.5752    169.5404   7.4791598335e+01   1.5439956918e+01    0.2612813    0.2522339   5.82 0.0005310646    1.012    0.012
        72 -12.5509    152.8629    168.3017   7.6355157820e+01   1.7185429382e+01     0.410192    0.1761771 -49.19  0.001493517    2.363    0.577
        73 -13.3726    138.9366    165.8213   7.9238140525e+01   2.0394228164e+01     0.504474    0.3402589 -19.71 0.0009784352    2.097    0.523
        74 -12.8446    171.9749    167.0396   7.1656244914e+01   1.3791641626e+01    0.4946828    0.1673103 -41.27  0.001600595    3.043    0.671
        75 -11.0805     32.7787    167.8380   1.0731127740e+02   3.5749964999e+01    0.2296935     0.163454 -76.68 0.0006911138    1.216    0.177
        76 -10.4287    103.4313    233.4869   9.8471001849e+01   1.1569164178e+01    0.2390667    0.1769562 -19.81  0.001279689    2.048    0.512
        77 -10.4550     18.6419    166.9082   1.1075501342e+02   3.7278133715e+01    0.1767691     0.133112 -82.06 0.0008761268    1.102    0.093
        78 -12.4857    155.9548    164.4498   7.4816629573e+01   1.7443403594e+01    0.3395059    0.2040689 -66.78  0.001289248    2.516    0.603
        79 -10.6316    182.3032    163.6696   6.8655735826e+01   1.2512217954e+01    0.1454075    0.1208104 -85.16 0.0004055741    1.652    0.395
        80 -10.3696    158.3770    232.8237   8.6583366371e+01   3.1488792247e+00    0.1852231    0.1186701 -34.74 0.0009622374    1.788    0.441
        81 -14.1617    131.6603    168.3152   8.1558161927e+01   2.1177937220e+01    0.8282097    0.3774705  50.27     0.002947    2.591    0.614
        82 -13.3068    170.8598    159.3242   7.0258425008e+01   1.5647316070e+01    0.5159039    0.3558436 -81.56   0.00204236    2.620    0.618
        83 -12.2909    123.8985    160.8798   8.2050035984e+01   2.4357505165e+01    0.2352491    0.2098997 -19.23 0.0005047086    1.230    0.187
        84 -12.1156    118.6522    159.6583   8.3172382774e+01   2.5607118038e+01    0.3347007    0.2017507  21.35  0.000936303    2.216    0.549
        85 -11.1314     28.5307    160.0499   1.0752922461e+02   3.8071211785e+01    0.2276524    0.1851947   8.49 0.0004404074    1.587    0.370
        86 -11.6644     17.7167    158.6485   1.1017102918e+02   3.9360036309e+01     0.259484    0.1695348 -62.60 0.0007786191    1.351    0.260
        87 -14.0029     24.2924    152.9855   1.0784030112e+02   4.0193995556e+01    0.8505502    0.6420817  27.68  0.003939802    1.554    0.357
        88 -13.5278     98.1574    152.2160   8.7218908575e+01   3.0999895820e+01     0.574235    0.3747641 -54.79  0.002624015    1.478    0.323
        89 -11.4831    102.7664    157.9882   8.7080483670e+01   2.8801464001e+01    0.2878374    0.1474391 -54.46 0.0006046728    1.893    0.472
        90 -16.0695     93.5672    191.2260   9.5099030037e+01   2.2263999161e+01     2.125804     1.278838  89.47  0.008976265    2.387    0.581
        91 -12.2198    112.7464    228.4934   9.5827048224e+01   1.1158327284e+01    0.3343238    0.2457761  50.20  0.001898518    1.251    0.201
        92 -11.6724     29.7146    152.2744   1.0629941505e+02   3.9884386306e+01     0.171018   0.09107899  55.10            0    2.124    0.529
        93 -12.7666     71.6315    153.9365   9.4935439888e+01   3.4630437977e+01    0.4533477    0.2862214  19.83  0.002069422    1.980    0.495
        94 -11.7543    212.1621    154.0090   6.0481263610e+01   8.7791940252e+00    0.2393802     0.210242  36.79  0.000536147    1.232    0.188
        95 -13.5576    144.3408    150.0172   7.4521423192e+01   2.2975606800e+01    0.5724825    0.2876367  39.90  0.002206461    2.018    0.504
        96 -12.8326    149.0106    152.7042   7.3961411473e+01   2.1435816351e+01    0.3436305    0.2630306  -5.58 0.0007991748    1.688    0.408
        97 -12.0369     59.4801    151.2164   9.7901232601e+01   3.6920536248e+01    0.3564107    0.2455243 -59.50 0.0007466375    1.321    0.243
        98 -13.6559    128.6874    147.8586   7.8050116740e+01   2.6545425072e+01    0.5460799    0.4516611 -86.15  0.001009112    1.458    0.314
        99 -13.3230    108.8336    147.5331   8.3319845851e+01   3.0310857246e+01    0.4584724    0.4185133   2.96  0.001536791    1.209    0.173
       100 -13.7981    111.7674    141.5444   8.1223320075e+01   3.1239986883e+01    0.6261553    0.4724683  55.94  0.001674845    1.469    0.319
       101 -12.8040    172.1168    150.6397   6.8058167027e+01   1.7253282890e+01    0.3172784    0.2633932 -83.05  0.001545503    1.562    0.360
       102 -13.3734    163.4910    148.4919   6.9553100984e+01   1.9461862697e+01    0.7682458    0.1541398  40.96  0.001842065    5.365    0.814
       103 -10.9357     12.4798    150.0109   1.1064636491e+02   4.1874358692e+01    0.2164453    0.1542485  52.74 0.0005671727    1.494    0.331
       104 -13.3657    112.0978    156.1311   8.4201450896e+01   2.7635106218e+01    0.4264835     0.404633  72.69   0.00169608    1.076    0.071
       105 -14.2821    104.2204    142.2368   8.3479870591e+01   3.2423004036e+01    0.7849687    0.5293772  45.75  0.002728425    1.545    0.353
       106 -12.4280    115.9784    164.3647   8.4801861769e+01   2.4957215137e+01     0.358745    0.2017769 -45.52   0.00149011    1.826    0.452
       107 -12.6927     90.6982    150.6251   8.8986776505e+01   3.2613387935e+01    0.4581971      0.22936 -43.57  0.001544694    2.166    0.538
       108 -12.0688     93.4375    143.5813   8.6816400795e+01   3.3923507177e+01      0.25633    0.2427763 -63.63 0.0002215592    1.014    0.013
       109 -10.5721    154.7927    230.3969   8.6975869511e+01   4.1546825725e+00    0.1952599    0.1153196  26.31   0.00095141    1.684    0.406
       110 -13.4082    140.8168    144.9377   7.4266935346e+01   2.4844915351e+01    0.5955082     0.367927 -18.02  0.002132435    2.779    0.640
       111 -13.0751    186.8409    225.4236   7.9452149405e+01  -4.3712561599e-02    0.3994419     0.214507 -35.96  0.001952544    1.973    0.493
       112 -10.6291     94.1417    227.4894   9.9766889071e+01   1.4157901775e+01    0.1963607    0.1172437  37.51 0.0007236454    1.526    0.345
       113 -10.8184     32.3448    140.2888   1.0400159041e+02   4.2626657034e+01    0.1363993   0.09079076 -39.56 0.0004272859    1.653    0.395
       114 -10.0406      3.4228    136.4803   1.1168631495e+02   4.5771396233e+01    0.1260584   0.09914859 -73.98 0.0001109272    1.019    0.019
       115 -13.5550    133.2141    129.6294   7.2641754775e+01   2.9911091296e+01    0.7295863    0.3343847 -35.45  0.002427397    2.770    0.639
       116 -11.7393    137.9465    131.0145   7.1741275619e+01   2.8625645845e+01    0.3717303    0.2254403  41.13 0.0006739808    1.681    0.405
       117 -14.0374    143.0917    133.1069   7.0927979275e+01   2.7088719807e+01    0.8990821    0.5462615  20.84  0.003345536    2.467    0.595
       118 -15.6652    154.6881    127.9919   6.6817972710e+01   2.5793482420e+01     1.621359     1.073068  59.25  0.006894769    1.814    0.449
       119 -14.3602    154.1393    117.9711   6.4451340758e+01   2.8084233153e+01     1.240999    0.5269455  39.42  0.004253513    2.622    0.619
       120 -11.0176    187.1783    249.3887   8.3205176994e+01  -3.9553657979e+00    0.1807464     0.100222  40.21 0.0009549714    1.722    0.419
       121 -12.3017    102.3100    133.9173   8.2200791753e+01   3.4794964398e+01    0.2712969    0.2163159  52.41  0.001137327    1.349    0.259
       122 -11.5235     75.6707    133.1073   8.9892358977e+01   3.9295738408e+01    0.2342421    0.2001143  50.69 0.0003333775    1.256    0.204
       123 -11.9113    116.0723    130.8380   7.7586653617e+01   3.3011487699e+01    0.2404209    0.2146927  78.69 0.0005990566    1.260    0.207
       124 -11.1224     20.6395    133.9034   1.0652225264e+02   4.5210185084e+01    0.2038943      0.18482  47.08  0.000340765    1.268    0.211
       125 -12.0413    125.0918    221.0335   9.2076747668e+01   1.0724949501e+01    0.3645747    0.2257031 -55.77  0.001839884    1.778    0.438
       126 -11.4028     56.7901    128.1347   9.4688485608e+01   4.3066853417e+01    0.1945028    0.1548038 -33.84 0.0003686493    1.332    0.249
       127 -10.0643     23.9852    124.9802   1.0429233235e+02   4.7147752269e+01    0.1538697     0.133316 -65.56 0.0009619642    1.034    0.033
       128 -11.4606    119.4859    123.5247   7.4868894013e+01   3.4074689413e+01    0.2450385    0.1446248 -38.43 2.771906e-05    1.790    0.441
       129 -10.5219    120.2838    120.3382   7.3853109622e+01   3.4656825135e+01    0.1592273    0.1221068 -14.77 0.0002850634    1.628    0.386
       130 -11.0075    195.4923    122.0220   5.6471692983e+01   1.8303540152e+01    0.2224342    0.1963229  47.29  0.001190533    1.206    0.171
       131 -10.8669    189.8083    121.8545   5.7556949666e+01   1.9540306978e+01    0.2064241    0.1800564 -84.41  0.001066131    1.331    0.249
       132 -12.0701    108.3903    121.9143   7.7626976072e+01   3.6579230997e+01    0.2771315    0.2215006  -2.46   0.00130564    1.539    0.350
       133 -12.5798    100.8613    120.4169   7.9471623486e+01   3.8311939794e+01    0.3777499    0.2997896  81.62  0.001781601    1.640    0.390
       134 -10.9580    106.2654    220.2477   9.6181440659e+01   1.3846570109e+01    0.3007716    0.1602062 -44.51  0.001367745    2.298    0.565
       135 -11.1875     71.9891    121.9366   8.8682532142e+01   4.2600387004e+01    0.2153987    0.2006035 -50.86 0.0003328964    1.007    0.007
       136 -10.6360     48.7518    122.3768   9.6124983038e+01   4.5437996876e+01    0.1967826    0.1688507  57.40 0.0008929074    1.310    0.237
       137 -11.7189     59.9935    120.9487   9.2270493379e+01   4.4457730042e+01    0.2138295    0.1932698 -54.23 0.0003879464    1.001    0.001
       138 -11.8690     31.3134    118.2738   1.0095015426e+02   4.8185638523e+01    0.2746916    0.2335879 -40.63 0.0007928366    1.173    0.147
       139 -12.3559     46.5465    117.4376   9.5895078859e+01   4.6901469812e+01    0.5165487    0.3069178 -10.79  0.002253058    2.550    0.608
       140 -10.7631     70.1425    117.1369   8.8213190500e+01   4.4039586656e+01    0.1918826    0.1679537  89.50 0.0002684843    1.292    0.226
       141 -11.2705     23.0684    115.7658   1.0317533335e+02   4.9478876274e+01    0.2103786    0.1778273 -65.62 0.0004551048    1.032    0.031
       142 -12.6535    180.5309    150.7485   6.6216879887e+01   1.5541961716e+01    0.3608367    0.2690354  75.94   0.00161556    1.990    0.498
       143 -10.7386    223.3963    220.2126   7.1338774047e+01  -4.6834436317e+00    0.1641049    0.1138865 -42.23 0.0004087495    1.625    0.385
       144 -10.8439     75.1277    110.8495   8.5155040975e+01   4.4838284931e+01    0.2199218    0.2016259  78.52 0.0007095797    1.247    0.198
       145 -12.1212     54.3329    109.8543   9.1782850148e+01   4.7870351443e+01    0.4207435    0.2300133 -33.36   0.00128488    2.149    0.535
       146 -11.1864     91.9884    107.9980   7.9069236226e+01   4.2799098980e+01    0.2102405    0.2020585 -25.43            0    1.019    0.018
       147 -11.0681    109.9782    109.9189   7.4120651904e+01   3.9065377711e+01    0.2484832    0.1947392  81.41  0.001132773    1.744    0.427
       148 -11.4776     88.8077    110.4104   8.0679869168e+01   4.2775590173e+01    0.2503349    0.2037809 -14.23 0.0007519835    1.386    0.278
       149 -12.0920    173.5387    219.1015   8.1164814371e+01   3.1881109970e+00    0.2425168     0.212926  60.38  0.001433346    1.428    0.300
       150 -11.0135    117.8059    103.1493   7.0044585581e+01   3.9027068656e+01    0.2215905     0.185617  -8.53  0.001082171    1.357    0.263
       151 -12.4424     58.0794    100.0644   8.8273505366e+01   4.9746369579e+01    0.3553972     0.304005 -77.41  0.001391267    1.332    0.249
       152 -11.6402     60.0308     96.0455   8.6607395531e+01   5.0432042408e+01    0.2461785    0.2138099 -15.68  0.000351147    1.160    0.138
       153 -10.5925    177.9597     99.3203   5.4371892149e+01   2.6556481225e+01    0.2469558    0.1265976  72.98 0.0003543843    4.448    0.775
       154 -11.1548     76.0700     97.5953   8.1508016709e+01   4.7797467208e+01     0.292863    0.1422019  32.81 0.0008337744    2.188    0.543
       155 -14.9924    143.2779    107.1147   6.4297767931e+01   3.2772454672e+01     1.095308    0.9043816   1.23  0.005274641    1.466    0.318
       156 -13.9914     49.7296     82.3415   8.6779223721e+01   5.4800124668e+01    0.8920502     0.568711  55.98  0.004174158    2.431    0.589
       157 -10.4465    206.4607     81.5123   4.4795553248e+01   2.3349860765e+01    0.1401594    0.1297723 -59.80 6.807761e-07    1.027    0.026
       158 -10.7332    153.0073     80.2967   5.4586835627e+01   3.5859218208e+01    0.2123589     0.191502  54.14 0.0004455039    1.098    0.089
       159 -10.8371    214.1709     78.7913   4.2971175908e+01   2.2114671093e+01    0.1728182    0.1639394  -1.60 0.0003631367    1.275    0.215
       160 -10.3927    105.4723     79.4380   6.6796415904e+01   4.6452177575e+01    0.1466996    0.1401167   3.53 7.735996e-05    1.012    0.012
       161 -10.7984    189.1347     76.9099   4.6523334285e+01   2.8035763399e+01    0.2355167    0.1855823 -69.73  0.001220857    1.348    0.258
       162 -10.8360     75.3402     75.8492   7.5540546142e+01   5.2620747294e+01    0.2209463    0.1913048  35.52 0.0005158181    1.241    0.194
       163 -10.8898    116.0069     74.2316   6.2115114266e+01   4.5275106495e+01    0.2743747    0.1862745 -23.42  0.001232732    1.701    0.412
       164 -12.7418     31.8216     74.7080   9.1674401418e+01   5.8327864831e+01    0.3273816    0.1952204  -6.45  0.001657411    2.027    0.507
       165 -10.0531    177.6803     74.7012   4.8005260681e+01   3.1066918677e+01    0.1435081    0.1146934  21.08 0.0007021642    1.619    0.382
       166 -11.0128    125.1455     73.1858   5.9295419832e+01   4.3487828775e+01     0.228209    0.1997355  13.26 0.0007254357    1.216    0.178
       167 -12.2988     19.8771     66.5713   9.4437148489e+01   6.1045720122e+01    0.6394709    0.3115574 -29.82  0.003143929    2.085    0.520
       168 -12.8946     27.7288     63.7135   9.0392337137e+01   6.1019224684e+01    0.6284174    0.3095296  31.97   0.00315637    2.308    0.567
       169 -10.5911    196.5602     70.5217   4.3679611692e+01   2.7387078745e+01     0.141388    0.1283049 -69.64 9.146074e-05    1.026    0.025
       170 -12.2611     99.8794     68.5544   6.5079238655e+01   4.9630008481e+01    0.3501633    0.2464939 -45.35   0.00173111    1.498    0.333
       171 -10.1413     74.3826     66.1491   7.2796145829e+01   5.4688981569e+01    0.1865104    0.1280453 -52.11 0.0004409059    1.654    0.395
       172 -11.2893     59.8542    134.3362   9.4904402622e+01   4.1132284760e+01    0.2402652     0.183785 -72.21 0.0004693747    1.269    0.212
       173 -10.7590    109.6114     59.8056   5.9318910202e+01   4.9173975496e+01    0.1973789    0.1324613 -46.67 0.0005402279    1.657    0.397
       174 -10.2282     45.6714     60.6849   8.2029664563e+01   5.9795209124e+01    0.1393775   0.08834618 -19.15 0.0005436021    1.675    0.403
       175 -10.5484      2.1879     59.7930   1.0026502983e+02   6.3525465219e+01    0.1714431    0.1046667 -37.27 0.0004856503    1.339    0.253
       176 -11.0064    153.2861     57.9024   4.8099661357e+01   3.9556332495e+01    0.1939063    0.1885304 -23.97 0.0004745663    1.099    0.090
       177 -10.7064    139.2906     56.6506   5.0738375770e+01   4.3044734929e+01    0.1458055    0.1109738 -71.88 0.0004374934    1.668    0.400
       178 -10.9323    127.5063     56.4720   5.3472449268e+01   4.5785186475e+01     0.142709    0.1352012  40.50 5.923752e-05    1.009    0.008
       179 -10.4980     65.6158     52.1676   7.1239228925e+01   5.8635841355e+01    0.2163043    0.1470362  26.64 0.0006801427    1.442    0.306
       180 -10.0099     17.2979     51.3267   9.1372175284e+01   6.4347522545e+01    0.1310311   0.07129851 -30.85 0.0005611449    1.632    0.387
       181 -10.4617     95.4935     49.5205   6.0006297035e+01   5.3732879020e+01    0.1390603    0.1258277  16.56 0.0001376056    1.002    0.002
       182 -11.0839    195.7668     44.3607   3.7302623817e+01   3.1466990525e+01    0.1881198    0.1142014  58.19 0.0009449457    1.619    0.382
       183 -10.2552    189.6251     43.3085   3.7892146515e+01   3.3036054673e+01    0.1463793   0.09415194 -72.87 0.0004978207    1.777    0.437
       184 -11.6284     51.8204     43.1348   7.3391267092e+01   6.2203544955e+01    0.1855633    0.1690846  -6.62 0.0005059019    1.188    0.158
       185 -11.5986     60.1375     38.2579   6.8162686657e+01   6.1768859732e+01    0.2362645    0.1779563 -35.32  0.000656458    1.380    0.275
       186 -10.8646     11.9411     36.3365   8.9168159485e+01   6.7560276210e+01    0.1704241    0.1408053  22.61  0.001202762    1.493    0.330
       187 -10.3029     43.6798     34.2932   7.3439239513e+01   6.4729000979e+01    0.1056991    0.1011785  54.80 0.0002457722    1.609    0.378
       188 -11.2826    218.9348     32.2980   3.1708230116e+01   2.7836863229e+01    0.1735284    0.1430042  87.53 0.0003409054    1.114    0.102
       189 -10.6636    106.5451     32.0637   5.0619477500e+01   5.3872467679e+01    0.1926986    0.1314631 -27.31  0.001024778    1.579    0.367
       190 -10.0004     47.7018     32.6962   7.1055196963e+01   6.4439947158e+01     0.128223   0.08374054  -4.21 0.0001854159    1.585    0.369
       191 -10.8045    155.8194     29.8503   3.9467840886e+01   4.2766443917e+01    0.1832642    0.1490638 -74.79 0.0003746983    1.307    0.235
       192 -10.7470     39.0321     28.9930   7.3365274765e+01   6.6142203945e+01    0.2011627    0.1250713  -6.50 0.0008424341    1.672    0.402
       193 -11.1845    101.9955     25.5277   4.9458351045e+01   5.5630585302e+01     0.206321    0.1188735  54.04  0.001030727    1.596    0.374
       194 -11.1300     84.0176     23.9731   5.4033152274e+01   5.9494995330e+01    0.1593928    0.1377531  17.38  0.001008297    1.042    0.041
       195 -10.3130     20.5134     22.9854   7.9807771457e+01   6.9109294606e+01    0.1715256   0.09614362 -38.06 0.0008216822    1.555    0.357
       196 -10.2638    177.7548    249.0199   8.5025743751e+01  -2.5232755851e+00    0.1411581    0.1052378 -38.28 0.0003579564    1.516    0.340
       197 -10.1727    116.5620     15.5175   4.2400855077e+01   5.3482566788e+01    0.1295729    0.1125747  48.26 7.308786e-05    1.007    0.007
       198 -10.4103    173.0298    248.9516   8.5964952921e+01  -1.8140301551e+00    0.2024596    0.1384926   2.07  0.001127581    1.701    0.412
       199 -10.5504     92.6622    247.9507   1.0233605814e+02   1.0319677715e+01    0.1654127    0.1381303  84.81  0.001085659    1.246    0.197
       200 -11.4536    179.9452    244.2869   8.3874542351e+01  -2.1004716983e+00    0.1855695    0.1742348 -34.15 0.0005850016    1.313    0.238
       201 -11.0095    194.3380    219.3025   7.6874312715e+01  -1.7234349349e-01    0.1385333   0.09416098   0.59 0.0007037829    1.668    0.400
       202 -11.3416     78.0506    244.3029   1.0494301257e+02   1.3042243991e+01    0.2499567    0.2314952  -2.25  0.001094965    1.457    0.314
