#   1 NUMBER                 Running object number                                     
#   2 MAG_AUTO               Kron-like elliptical aperture magnitude                    [mag]
#   3 X_IMAGE                Object position along x                                    [pixel]
#   4 Y_IMAGE                Object position along y                                    [pixel]
#   5 X_WORLD                Barycenter position along world x axis                     [deg]
#   6 Y_WORLD                Barycenter position along world y axis                     [deg]
#   7 A_WORLD                Profile RMS along major axis (world units)                 [deg]
#   8 B_WORLD                Profile RMS along minor axis (world units)                 [deg]
#   9 THETA_WORLD            Position angle (CCW/world-x)                               [deg]
#  10 FWHM_WORLD             FWHM assuming a gaussian core                              [deg]
#  11 ELONGATION             A_IMAGE/B_IMAGE                                           
#  12 ELLIPTICITY            1 - B_IMAGE/A_IMAGE                                       
         1 -17.6674    109.0310    116.5808   4.6168849104e+01   3.7259413228e+01     10.90822     4.974147 -55.78   0.03929874    2.321    0.569
         2 -18.2800     14.2683    108.5515   8.0376202949e+01   5.3737099598e+01     20.33965     3.848324 -79.66   0.05140806    5.340    0.813
         3 -17.0381     58.6753    129.6147   6.5587015361e+01   4.2884245307e+01     4.277609     2.819505   0.72   0.01743912    2.283    0.562
         4 -17.0987     45.8771    115.8054   6.8107225503e+01   4.8459629539e+01     7.800148     3.081522 -45.17    0.0251503    3.276    0.695
         5 -14.5065    145.4058     14.2286   6.4517265226e+00   4.6908607839e+01     1.314852    0.8184634  89.33  0.006206413    1.468    0.319
         6 -13.9094    171.2666      9.0756   2.5443118894e+00   4.0982648559e+01     1.137321     0.300659 -36.74  0.004476343    2.795    0.642
         7 -14.4763    192.7855      5.1391   1.1572136298e-01   3.6373501082e+01     1.001143    0.4301389 -68.23  0.004756716    2.110    0.526
         8 -13.5696    205.4541      4.0713   3.5921026307e+02   3.3708562720e+01    0.5966692    0.2704172 -64.17  0.003091078    1.846    0.458
         9 -11.9840    246.4937      5.4952   3.5787294208e+02   2.5515588623e+01    0.1144665   0.07843465 -53.01 0.0001711836    1.003    0.003
        10 -12.2184    162.0672    215.1471   5.1559948190e+01   8.2594063804e+00    0.4295198    0.2872909  -6.48   0.00252131    1.641    0.391
        11 -12.9690    225.6269    249.2390   4.5095373601e+01  -3.1619738066e+00    0.2970921    0.1752945 -17.84  0.002237068    1.416    0.294
        12 -14.2520    224.1455    236.1586   4.3566919789e+01  -1.5609981373e+00    0.9534012    0.3518429 -36.06  0.005495375    2.531    0.605
        13 -13.8962     64.2637    168.2762   6.9288082689e+01   3.1915473761e+01     1.588919    0.6430032  33.16  0.006145536    2.146    0.534
        14 -15.7844    123.8944    246.9544   6.3370263101e+01   7.9794821826e+00     2.115792     1.557018  17.04   0.01430129    1.154    0.134
        15 -15.7623    162.4598    172.3967   4.4633407066e+01   1.5515364306e+01     1.796485     1.192379 -45.11  0.008204059    1.536    0.349
        16 -15.7986    182.2051    160.0276   3.8452545263e+01   1.4600163761e+01     1.950068     1.792487  65.26   0.01249731    1.388    0.279
        17 -16.4266    145.0787    194.2874   5.2011041951e+01   1.4143078287e+01     4.058271     1.773942 -27.92    0.0133093    4.851    0.794
        18 -16.0988    115.6138    192.0243   5.8504955197e+01   1.8946468402e+01     2.049222     1.534574  38.04  0.009473305    1.201    0.167
        19 -15.9048    136.9853    173.2939   5.0412328450e+01   1.9428206708e+01     1.977815     1.670583  18.56   0.01047077    1.160    0.138
        20 -13.5674     68.3719    215.4268   7.3022494859e+01   2.0537719037e+01    0.6696063    0.4844034  10.39  0.002547204    1.578    0.366
        21 -15.0059     86.0069    201.1810   6.7126040745e+01   2.1261141109e+01     1.969455     1.036848   9.48  0.007654751    3.063    0.674
        22 -15.9130    105.9124    213.8149   6.3681469921e+01   1.5996492103e+01     1.463703    0.9489698 -45.41  0.006721289    1.808    0.447
        23 -15.7920    117.6866    214.2195   6.0982910041e+01   1.4329977310e+01     1.393378    0.9181764 -46.42  0.006097107    1.739    0.425
        24 -11.3593     59.9868    249.8369   7.7531780004e+01   1.4881149964e+01    0.2636046    0.1880818  -0.36  0.001621364    1.827    0.453
        25 -11.4693     65.0056    247.4539   7.6258206892e+01   1.4752697118e+01    0.3136714   0.09578745  27.29  0.001111166    2.591    0.614
        26 -13.0232    169.4362    224.2646   5.1396954743e+01   5.9442255579e+00    0.5743042    0.3950956 -57.07  0.003514634    2.169    0.539
        27 -12.8064    175.4301    224.8900   5.0344514835e+01   5.1321083902e+00    0.4299276    0.2924631  27.89  0.001831222    1.320    0.242
        28 -11.6741     52.8787    231.3587   7.8003661651e+01   1.9124018053e+01    0.2016381    0.1224857 -63.05   0.00114455    2.003    0.501
        29 -14.3667    232.9630    225.6669   4.0743738390e+01  -1.1937639941e+00    0.5648463    0.3301616 -33.39  0.003315283    1.618    0.382
        30 -13.4664    231.3842    217.5493   3.9800984594e+01  -7.7080172982e-02    0.3807555    0.2992134  28.40  0.003009762    1.605    0.377
        31 -11.1640     59.0926    231.1939   7.6515503746e+01   1.8457077425e+01     0.148746    0.1137675  69.35  0.000745266    1.364    0.267
        32 -11.9586    193.8051    228.5214   4.7515930217e+01   2.5160669102e+00    0.4889433    0.2313367  38.40   0.00273278    2.337    0.572
        33 -12.3360    196.7614    222.1626   4.6097340199e+01   3.0354854592e+00    0.3486377     0.284853 -45.64  0.002172107    1.707    0.414
        34 -11.8878    158.1271    228.2146   5.4139740945e+01   6.7314378911e+00    0.3424547    0.1938749 -19.92  0.001835975    2.225    0.551
        35 -11.3888     87.5059    229.5322   6.9674302449e+01   1.5390739291e+01    0.4213248    0.2420874  -0.45  0.001888095    2.899    0.655
        36 -11.7953     83.7388    225.7288   7.0206215163e+01   1.6577836206e+01    0.6137421    0.4606306 -21.46  0.002983087    1.763    0.433
        37 -12.8985     90.2750    218.7900   6.7965324364e+01   1.7094618575e+01    0.6147107    0.4460098  80.03  0.002439739    1.747    0.428
        38 -11.7073     94.8109    247.9000   6.9684821861e+01   1.1259230623e+01    0.2683343    0.1853271  63.20  0.001380433    1.773    0.436
        39 -11.6037    231.6590    206.6649   3.8121948871e+01   1.2309375629e+00    0.1740298    0.1016236  -7.56  0.001113306    1.700    0.412
        40 -13.1181    164.4220    200.2119   4.8864994411e+01   1.0366739252e+01    0.7266132    0.4541815  -9.56  0.003675982    2.023    0.506
        41 -11.5769    157.2167    203.4114   5.0823360432e+01   1.0820560313e+01    0.2810259    0.1830138  45.02  0.001355829    1.731    0.422
        42 -10.7895     55.3943    203.8208   7.5374117313e+01   2.4609104793e+01    0.1706077    0.1204431 -58.32 0.0005615661    1.670    0.401
        43 -11.8848    186.3338    200.7685   4.4736415970e+01   7.3586700515e+00    0.3102967    0.2072653 -34.76  0.001435783    1.456    0.313
        44 -11.3942    208.0303    198.5119   4.0581231229e+01   4.9800239258e+00    0.2762572    0.1813796  45.66  0.001688071    2.134    0.531
        45 -12.3159     64.2799    192.9365   7.2003564461e+01   2.5974763720e+01    0.6552151    0.4285388  86.48  0.002653034    1.753    0.429
        46 -11.8614    250.4919    193.4998   3.3381381244e+01   8.9501170377e-01    0.2886293    0.1259352 -37.15  0.001737708    1.973    0.493
        47 -13.4643    245.6150    188.3819   3.3234262507e+01   2.0380719100e+00    0.7009175    0.4128958  -9.84  0.004587931    1.700    0.412
        48 -11.8487    206.6467    191.0915   3.9610196281e+01   6.2089000994e+00    0.2527471    0.1958853 -46.62  0.001593168    1.610    0.379
        49 -11.0978    216.9837    184.5032   3.6832320716e+01   5.8628587575e+00     0.163143    0.1056679  30.53  0.001039915    1.613    0.380
        50 -11.3683    181.3389    183.6194   4.2856274573e+01   1.0744783988e+01    0.2518523    0.1976587  -5.79  0.001427721    1.220    0.180
        51 -11.8206     65.3342    179.6038   7.0300798908e+01   2.8981451098e+01    0.5076892    0.3251921 -89.54  0.002427257    1.789    0.441
        52 -15.9643    166.8669    143.7431   3.8216572346e+01   2.0129216083e+01     2.778973     1.373713  47.64   0.01214267    2.209    0.547
        53 -12.0972    213.8678    171.5814   3.5107091555e+01   8.1362025594e+00    0.3325075    0.2211822 -18.85  0.001405525    1.426    0.299
        54 -10.9386     50.8369    170.5109   7.3607810584e+01   3.3104820002e+01    0.3113663    0.1730194  76.66  0.001328348    2.073    0.518
        55 -11.7793     51.6028    160.6502   7.2302267016e+01   3.5540724025e+01    0.3644975    0.3147617  49.74  0.001786155    1.045    0.043
        56 -11.1137     42.0007    160.7655   7.5378214416e+01   3.6680038293e+01    0.2184351    0.2023361 -66.59 0.0003206125    1.211    0.174
        57 -11.4005     45.0105    158.2238   7.4147279911e+01   3.6991318691e+01    0.3075197    0.1811122  23.33  0.001372888    1.748    0.428
        58 -10.8312     91.4269    245.4758   7.0217325540e+01   1.2066599435e+01    0.1754915        0.118  49.44 0.0007073741    1.437    0.304
        59 -14.0424    233.7752    153.9039   2.8985834457e+01   8.0595752167e+00    0.4973915    0.3165517 -25.27  0.002981923    1.356    0.263
        60 -13.8206    240.0756    143.6237   2.6267226852e+01   8.6724496896e+00    0.6183964    0.3734507   1.67  0.003331255    2.590    0.614
        61 -13.3809    229.3384    142.2491   2.7443987560e+01   1.0342662507e+01    0.3900862    0.2454461 -55.78  0.002195438    2.129    0.530
        62 -12.4519    144.2176    155.7045   4.5513224545e+01   2.1783951028e+01    0.7359859    0.3517219  47.91  0.002998568    2.293    0.564
        63 -11.4473    145.2620    150.3970   4.4230186875e+01   2.2685935702e+01    0.3954582    0.2515287 -40.81  0.001794704    1.604    0.376
        64 -15.9720     37.3669    142.4934   7.5010538097e+01   4.2106030288e+01     3.221627    0.7394904  28.00  0.009800285    3.586    0.721
        65 -12.5080    134.3909    146.5402   4.6026442463e+01   2.5474487623e+01    0.7251942    0.4698386 -19.96  0.003031848    2.359    0.576
        66 -13.4296    149.4996    243.4846   5.7765837864e+01   5.4928617715e+00    0.3123423    0.2265108  14.37  0.001543534    1.129    0.114
        67 -12.7625    108.2627    145.4635   5.2657491176e+01   3.0505868878e+01     0.597898    0.4404472 -29.11  0.002111482    1.710    0.415
        68 -13.8485    147.3139    239.5509   5.7731246567e+01   6.3293806902e+00    0.5787101    0.3291772 -19.22  0.003153616    2.317    0.568
        69 -12.8426    123.4779    142.7486   4.8003640545e+01   2.8335506960e+01    0.7885082    0.5114504  56.32  0.003510093    1.742    0.426
        70 -12.8111    126.5324    136.7502   4.5957253068e+01   2.9105953568e+01    0.5205939     0.402693 -60.45  0.001550503    1.360    0.264
        71 -13.2841    218.3024    136.5870   2.7913115882e+01   1.2809265676e+01    0.8486893    0.5159152 -21.12  0.004539229    1.801    0.445
        72 -12.8038    213.1581    135.1669   2.8388597195e+01   1.3823449799e+01    0.3194565    0.2580289 -26.68  0.001562415    1.089    0.082
        73 -14.0845    135.0684    131.5742   4.2684332905e+01   2.8588484630e+01     1.202457    0.7879148 -68.52  0.005034163    1.985    0.496
        74 -12.9950    194.1326    134.8941   3.1345693502e+01   1.6969426255e+01     0.543175    0.4486361 -18.16  0.002409509    1.212    0.175
        75 -12.7460    249.9305    130.7925   2.2685147286e+01   9.1307535480e+00     0.378952    0.1200044 -39.99  0.001772829    2.462    0.594
        76 -13.0710    182.8305    120.1084   3.0118179879e+01   2.1562251192e+01    0.7887157    0.5718494 -67.06  0.004095631    1.720    0.419
        77 -12.2448    237.1505    129.4233   2.3977068796e+01   1.1089445612e+01    0.2527388    0.1735748 -31.69  0.001642604    1.174    0.148
        78 -13.6444    187.1154    126.2403   3.0715912085e+01   1.9690422014e+01    0.8803114    0.5686828  25.02   0.00430391    2.131    0.531
        79 -14.0479    196.6196    116.9528   2.7132067955e+01   1.9572527139e+01     1.113031    0.6034027 -45.19  0.004083009    1.666    0.400
        80 -12.9033    154.1844    112.9617   3.3973973948e+01   2.8591671242e+01    0.9497889    0.3810418 -51.38  0.003349533    2.722    0.633
        81 -12.3308    133.3082     98.7898   3.5088729112e+01   3.6024842493e+01     0.565964    0.3891108 -62.53  0.002479324    1.585    0.369
        82 -12.1569    152.8431     97.9679   3.0499880080e+01   3.1836136072e+01    0.3564689    0.2502786 -34.09  0.001695172    1.521    0.342
        83 -11.5287    182.4004    215.0359   4.7634836671e+01   5.7232256977e+00    0.2387253    0.1893061 -32.79  0.001137029    1.346    0.257
        84 -11.6462    202.2855    214.5362   4.4026265718e+01   3.4390409181e+00    0.2066086    0.1786084  13.59   0.00157126    1.286    0.222
        85 -12.1632    201.8778    206.3898   4.2858261554e+01   4.6110039239e+00    0.3619827    0.2402578 -48.79   0.00225446    1.993    0.498
        86 -15.8254     90.8544    173.1263   6.2227521207e+01   2.6854232194e+01     2.500758     1.554862  69.08    0.0109027    2.111    0.526
        87 -12.3272    141.6310     74.2925   2.6274330609e+01   3.8943328805e+01     0.502696     0.381353  76.41  0.002128439    1.367    0.269
        88 -11.1241    177.1925     66.3846   1.7889759214e+01   3.1955273988e+01    0.1906219     0.128025  83.15 0.0008252683    1.655    0.396
        89 -13.2290    135.3360     63.2631   2.4220111475e+01   4.2483905121e+01    0.4167509    0.3541998  75.17   0.00156737    1.135    0.119
        90 -13.2739    142.2441     61.5589   2.2300813545e+01   4.1063744303e+01    0.6260117    0.2386125  62.07  0.002214777    2.680    0.627
        91 -13.2261    157.1810     59.2400   1.8952088859e+01   3.7784669535e+01    0.6677653    0.2649909  60.57  0.002556623    2.510    0.602
        92 -12.4961    130.5356     57.4481   2.3357240398e+01   4.4703822539e+01    0.3369828    0.2576594 -73.57  0.001564389    1.331    0.249
        93 -12.5350    151.2755    220.1775   5.4447454731e+01   8.8454982592e+00    0.3324723    0.2776328   6.54  0.001350434    1.060    0.057
        94 -12.9371    197.5398     49.6138   1.1078606182e+01   2.9952428864e+01    0.8164686    0.3854947  43.15  0.003203512    3.849    0.740
        95 -10.9532     60.6560    208.1369   7.4359429766e+01   2.3027173226e+01    0.2368862    0.1415363  38.51  0.000864491    1.350    0.259
        96 -13.5878    245.5302    202.8327   3.5519282271e+01   2.7100251211e-01    0.4670514    0.4157971 -48.85  0.003760769    1.954    0.488
        97 -13.3391    218.0857     25.4535   3.5663592907e+00   2.8738801821e+01     0.317346    0.2843994  10.54  0.002177783    1.674    0.403
        98 -10.3044     70.2669    236.3368   7.4266364731e+01   1.6186271881e+01    0.1121024   0.09091479 -12.88 0.0003242219    1.592    0.372
        99 -13.2401    150.4922    231.5164   5.6096550118e+01   7.1622011561e+00     0.329623    0.2689533  12.33  0.001044443    1.028    0.027
       100 -11.7942    179.6875    231.2087   5.0420780408e+01   3.7428005993e+00     0.329743    0.2765831  82.90  0.002151042    2.518    0.603
       101 -13.5294    240.9496    214.7333   3.7970849111e+01  -6.9023997559e-01    0.5180204    0.1880156 -25.94  0.002662954    2.831    0.647
       102 -12.3771    167.7985    215.3628   5.0458971529e+01   7.4931637485e+00    0.4014806    0.2871367  20.46  0.001537516    1.208    0.172
