#   1 NUMBER                 Running object number                                     
#   2 MAG_AUTO               Kron-like elliptical aperture magnitude                    [mag]
#   3 X_IMAGE                Object position along x                                    [pixel]
#   4 Y_IMAGE                Object position along y                                    [pixel]
#   5 X_WORLD                Barycenter position along world x axis                     [deg]
#   6 Y_WORLD                Barycenter position along world y axis                     [deg]
#   7 A_WORLD                Profile RMS along major axis (world units)                 [deg]
#   8 B_WORLD                Profile RMS along minor axis (world units)                 [deg]
#   9 THETA_WORLD            Position angle (CCW/world-x)                               [deg]
#  10 FWHM_WORLD             FWHM assuming a gaussian core                              [deg]
#  11 ELONGATION             A_IMAGE/B_IMAGE                                           
#  12 ELLIPTICITY            1 - B_IMAGE/A_IMAGE                                       
         1 -13.8003    245.0592    110.3861   3.7380093198e+01   1.2692748152e+01     1.583464     0.858455 -39.00  0.008880985    1.620    0.383
         2 -12.2701    214.6447     52.2521   2.7839163605e+01   2.5557179108e+01    0.6337312    0.3803895   0.54  0.002869141    2.852    0.649
         3 -11.0282     39.4504      8.3055   5.3282794505e+01   7.3452309944e+01    0.4015166    0.2216172 -26.04  0.001618606    2.061    0.515
         4 -13.1250     44.9615     22.7710   5.8943981934e+01   6.9996352823e+01     1.159211    0.8437673 -62.04  0.005824963    1.852    0.460
         5 -12.2337    178.2920     23.9338   2.4084067654e+01   3.7027242171e+01    0.5524384    0.4117935 -45.72  0.003119893    1.222    0.181
         6 -12.7724    156.1409     11.9083   2.2743423772e+01   4.3820469120e+01    0.7640093    0.6190666  40.02  0.004087329    1.444    0.307
         7 -12.8982    177.3348      3.5493   1.8216719578e+01   3.9316544611e+01      1.06967    0.6930935 -62.46  0.005857753    1.408    0.290
         8 -12.7587    165.1316     12.0120   2.1834504692e+01   4.1526582217e+01    0.6833366     0.486521  79.16  0.003737049    1.338    0.253
         9 -12.5766    158.2468      3.8369   1.9898422276e+01   4.4044769352e+01    0.9897325    0.4165705  66.80  0.004268099    2.169    0.539
        10 -12.4934    168.6082      2.8653   1.8693786973e+01   4.1520148845e+01     1.127618    0.4646533 -42.49  0.004987182    2.123    0.529
        11 -10.5029    116.0494     16.5686   3.0358510689e+01   5.3921564160e+01    0.4352256    0.1292414 -42.56  0.001397889    3.515    0.716
        12 -11.6498     78.3523     13.3924   3.8392077204e+01   6.4103772261e+01    0.3912603    0.2849804  -8.42  0.001970914    1.609    0.378
        13 -10.7310    192.2459      5.3787   1.7671842047e+01   3.5622570018e+01    0.2778778    0.1435269 -37.71  0.001426217    1.659    0.397
        14 -11.8617    145.5322      4.5144   2.1404502849e+01   4.7275619815e+01    0.5470677    0.3713464  76.60  0.002864974    1.356    0.262
        15 -10.7109    141.4910      1.5088   2.0781162549e+01   4.8601723869e+01    0.2655908     0.165837  78.27   0.00132377    1.464    0.317
        16 -11.3075    131.3987      3.8644   2.2839314437e+01   5.1077187553e+01    0.7477863    0.2440866  58.74  0.002769088    2.654    0.623
        17 -10.5279     70.9739      5.7080   3.6532618829e+01   6.6820612129e+01    0.4604131    0.1948101  57.59  0.001879991    2.064    0.515
        18 -10.3834    208.4961      4.0652   1.6328700611e+01   3.2111756555e+01    0.2142309      0.19353 -71.31  0.001056558    1.135    0.119
        19 -10.9820    204.4922      4.6566   1.6709601291e+01   3.2930954165e+01     0.287385    0.1778792  83.30  0.001647145    1.615    0.381
        20 -10.9984    121.3514      4.3588   2.4421378022e+01   5.3727727923e+01    0.5010684    0.3806484  88.58  0.002680834    1.245    0.197
        21 -10.3857    106.6095      5.1230   2.7199968412e+01   5.7622032471e+01    0.2948544    0.1781014 -77.09  0.001307269    1.963    0.491
        22 -11.8093     83.9126      3.5882   3.1454800243e+01   6.3765854678e+01    0.8841434    0.3374233  66.77  0.003344766    2.425    0.588
        23 -10.3478     60.9623      2.1030   3.7967447392e+01   6.9630708438e+01    0.3896585    0.1970103  50.02  0.001769825    1.735    0.424
        24  -9.4487    217.8074      1.8696   1.5297059284e+01   3.0334797244e+01    0.1761812    0.1099247 -55.33 0.0008900896    1.325    0.245
        25  -9.0771      1.6613      1.6677   8.3687987029e+01   7.9651800628e+01    0.1389049   0.07441193 -31.17 0.0007051827    1.743    0.426
        26 -10.4693    172.2238    163.4236   6.0001838910e+01   1.6561232435e+01    0.2664298    0.1776916  41.89  0.001441178    1.566    0.362
        27 -10.1841     14.5104    160.0760   1.0190904832e+02   3.9182699255e+01    0.1911837    0.1180377 -87.71  0.001027398    1.575    0.365
        28 -11.4422    219.8443    156.0968   4.9972015018e+01   1.0384812382e+01    0.3759073    0.2669916  47.67  0.002319966    1.862    0.463
        29 -10.1666     20.5000    155.9399   9.9881544659e+01   3.9697511940e+01    0.2094402    0.1655238  34.79  0.001178401    1.191    0.160
        30 -11.1587    163.4376    151.2962   5.9498309931e+01   2.0081235068e+01    0.5172191    0.2666791 -32.86  0.002322284    2.087    0.521
        31  -9.9337     53.6464    143.5550   8.8250858418e+01   3.9396039324e+01    0.2654004     0.176047 -77.67 0.0009707823    1.591    0.371
        32  -9.6976    173.5135    144.5318   5.6026457787e+01   1.9510866116e+01    0.1358654    0.1209539   1.29 0.0001317202    1.005    0.005
        33 -12.3627     10.7131    139.8914   1.0201166951e+02   4.4384367293e+01    0.5728118    0.2758654  63.64  0.002641598    1.990    0.497
        34  -9.9529    165.1783    134.8520   5.5711241889e+01   2.2682930054e+01    0.2810667     0.191408 -51.38 0.0009601898    1.719    0.418
        35 -13.5595    240.7962    125.3820   4.0936626831e+01   1.1411754560e+01     1.028898    0.9070987  54.75  0.007453137    1.554    0.356
        36 -10.8996    159.1532    231.8940   7.3315104535e+01   8.0124836352e+00     0.172851    0.1370805  28.72  0.001237602    1.264    0.209
        37 -10.1217      4.3402    124.6200   1.0334529839e+02   4.8644243407e+01    0.2274786    0.1251567  54.13  0.001121509    1.683    0.406
        38  -9.4229     58.6711    124.6994   8.3830739673e+01   4.3517758502e+01    0.1482416    0.1118794 -25.54 0.0007031359    1.643    0.391
        39  -9.7485    208.4754    123.4495   4.5218761638e+01   1.6811843665e+01    0.2754247    0.1528721  36.60  0.001399427    1.973    0.493
        40 -10.2895    154.4600    120.6561   5.4850139101e+01   2.7323569577e+01    0.2850375    0.1796105  39.52  0.001078416    1.581    0.367
        41 -11.6991    189.1814    116.1623   4.6853224567e+01   2.1382515296e+01    0.6578947    0.3865557  -7.68  0.002741281    2.733    0.634
        42 -11.0466    212.6169    112.5030   4.2201408183e+01   1.7699411281e+01    0.5076494    0.2245913 -35.71  0.002361244    1.979    0.495
        43  -9.6409    224.6102    112.1833   4.0400975188e+01   1.5704415433e+01    0.3129113    0.1053071 -34.67  0.001320302    2.501    0.600
        44 -11.3978    223.0371    107.1830   3.9542279908e+01   1.6658405666e+01    0.4568558    0.2359226  44.79  0.002086856    2.182    0.542
        45 -10.3782    148.5990    111.1421   5.3893592292e+01   3.0310358399e+01    0.3721251     0.174169 -44.00  0.001380058    2.158    0.537
        46 -10.0209    155.8290    108.6059   5.1634681652e+01   2.9290646651e+01     0.207322    0.1385611  57.07 0.0009549272    1.708    0.414
        47 -10.7285     17.5520    104.3687   9.6754644615e+01   5.3112391416e+01    0.3939201    0.2267785  32.91  0.001899819    1.701    0.412
        48  -9.9523     30.6448    101.9656   9.1030638888e+01   5.2682869417e+01    0.2720795    0.1909209 -27.52   0.00132994    1.692    0.409
        49  -9.2621    160.3497     97.3148   4.7792498937e+01   3.0384010230e+01    0.1511358    0.1128262  11.12 0.0007046952    1.726    0.421
        50  -9.7972    208.9609     94.4474   3.8658916555e+01   2.0974061431e+01    0.2140423    0.1559141 -30.59 0.0007166469    1.215    0.177
        51  -9.7807    178.4992     92.0323   4.2937300373e+01   2.7417341583e+01    0.2239631     0.130739 -35.92  0.001039324    1.610    0.379
        52 -10.5959     12.9708     89.9532   9.7159262800e+01   5.7244502265e+01    0.2161497     0.197736  83.21  0.001129362    1.043    0.041
        53 -11.4949      2.4271     86.3565   1.0161669629e+02   5.8724982664e+01    0.8597555    0.2599413 -82.60  0.003068483    3.064    0.674
        54 -12.4131      4.8603     76.1238   9.9500006901e+01   6.1323228534e+01    0.7651753    0.4476037  59.26  0.003434954    1.827    0.453
        55 -13.1643     15.1014     73.1543   9.3891618949e+01   6.1567850469e+01     1.040155    0.6893148  32.07  0.005364783    1.567    0.362
        56 -10.6974     18.0388    127.5102   9.8685382107e+01   4.7008674385e+01    0.2011854    0.1290506  23.44 0.0008142568    1.576    0.366
        57 -10.5723    192.1830     87.0133   3.9386413261e+01   2.5365539717e+01    0.4835695    0.2049574  56.37  0.002001816    2.624    0.619
        58 -12.5052     41.7279     82.2112   8.2535887030e+01   5.6733936954e+01    0.9892868    0.7663402  14.76  0.005067656    1.391    0.281
        59 -11.1329     47.2071     76.4055   7.8575865000e+01   5.7535119649e+01     0.413053    0.3415589  51.12  0.001906771    1.268    0.211
        60  -9.6063    100.6023     83.8126   5.9545024382e+01   4.6211371494e+01    0.2236902    0.1484853 -58.04 0.0009535737    1.695    0.410
        61 -10.0450    214.9742     79.3481   3.4312689775e+01   2.1952954383e+01    0.3162304     0.147332 -44.66  0.001465738    2.034    0.508
        62  -9.9634    220.7233     77.7641   3.3234723787e+01   2.1079224930e+01    0.2651803    0.1483467 -59.21  0.001260819    2.395    0.582
        63 -10.3894    169.7024     76.3111   4.0345818866e+01   3.1876892059e+01    0.3123415    0.2610951 -34.11  0.001391297    1.153    0.133
        64  -9.8248    227.1548     71.7180   3.1104741990e+01   2.0673618679e+01    0.1939052    0.1516511 -67.62   0.00121417    1.463    0.316
        65  -9.9195    207.9892     72.7549   3.3621847138e+01   2.4220762771e+01    0.1580167     0.112127  60.88  0.000569948    1.589    0.371
        66 -10.5605     75.2305     69.3496   6.4131328373e+01   5.4630882428e+01    0.4443732    0.3150854  23.30  0.001993585    1.632    0.387
        67  -9.7760     83.4996     69.0512   6.0808467772e+01   5.3047550702e+01    0.2402298     0.152752 -47.14  0.001038095    1.605    0.377
        68 -11.0831     25.4232     65.1745   8.6871001802e+01   6.2868767742e+01     0.460092    0.2594894 -64.07  0.001980312    1.642    0.391
        69  -9.7255    179.0067     66.4680   3.6088695616e+01   3.1294393236e+01    0.2098796    0.1383642  61.96  0.001037608    1.612    0.379
        70 -11.3214    232.9963     64.2442   2.8795611116e+01   2.0540107416e+01    0.2686906    0.2120301  39.12  0.001746368    1.562    0.360
        71 -11.6928    240.6319    229.5762   5.8816576275e+01  -8.1570971941e-01    0.3593498    0.1813194  30.90  0.002449214    1.923    0.480
        72 -10.5746    226.4661     58.0283   2.8019237321e+01   2.2520522389e+01    0.2506154    0.1343687  43.40  0.001261146    2.464    0.594
        73 -10.1029     20.0000     88.9467   9.3830213477e+01   5.7042509875e+01    0.2369892   0.07503415 -74.42  0.000805885    2.966    0.663
        74  -9.8212    200.0417     63.7197   3.2388165132e+01   2.7089659648e+01    0.1807536    0.1720527 -54.31  0.000889609    1.069    0.065
        75 -10.0611    220.3404     53.5587   2.7575850989e+01   2.4256503259e+01    0.2125618    0.1249441  75.99   0.00112943    2.058    0.514
        76 -11.1502    198.3990     52.6050   2.9728209809e+01   2.8921629715e+01    0.5296401    0.2948949 -14.06  0.002350493    2.416    0.586
        77  -9.5119    138.1553     55.8436   4.0343955244e+01   4.2713132380e+01    0.2104117    0.1802712  27.88  0.001080066    1.328    0.247
        78 -10.0293    164.7436     53.6408   3.4693744212e+01   3.6507013023e+01    0.2671402    0.1804036 -18.12  0.001261412    1.739    0.425
        79 -10.0383     35.0879     52.8597   7.8059176416e+01   6.4954895329e+01    0.2187402    0.1976841  62.33  0.001195011    1.236    0.191
        80 -11.0781     85.0627     47.8594   5.2312995705e+01   5.7060202050e+01    0.5781868    0.4018301  62.77  0.002626469    1.621    0.383
        81 -11.2866     81.0674     37.8332   4.9501196007e+01   5.9796021534e+01    0.4554894    0.3970991 -60.05  0.002410897    1.278    0.217
        82  -9.2741    132.4665     63.5293   4.4138441783e+01   4.2830486495e+01    0.1497147    0.1465127  82.01 0.0002738642    1.004    0.004
        83 -10.6275    196.8685     43.8862   2.7615998372e+01   3.0366224264e+01     0.193445     0.182796   4.19  0.001230873    1.233    0.189
        84 -11.8270    181.5568     40.5237   2.8483920193e+01   3.4277173810e+01    0.5243125    0.2539385 -39.48   0.00236793    1.839    0.456
        85 -11.4402     11.9763    125.2492   1.0067309525e+02   4.8018749975e+01    0.2270037    0.1640323  57.84 0.0009436332    1.283    0.221
        86 -11.5174      3.2923     41.2652   9.5430485355e+01   7.0371222446e+01      0.48808    0.4003693  62.41  0.002929652    1.375    0.272
        87 -11.9648    191.0421     38.4766   2.6808982263e+01   3.2339364340e+01    0.6672379    0.1584124 -36.47   0.00234494    3.157    0.683
        88 -10.7665    218.6241     61.6220   2.9679095163e+01   2.3585528198e+01    0.2340216    0.1484317 -31.06  0.001234933    1.380    0.276
        89 -11.5884    248.5330    224.6338   5.6927293638e+01  -1.0962023145e+00    0.4168071      0.23285 -18.87  0.003056456    1.459    0.315
        90 -12.0518     40.0633     29.3977   6.5483227340e+01   6.9546341517e+01    0.5360659     0.333874 -49.44   0.00217375    1.646    0.392
        91 -10.7720      3.7103    230.3103   1.0688840987e+02   2.5325180667e+01    0.2573057    0.1073373  26.13  0.001448454    1.938    0.484
        92 -10.5653     85.9710     31.6900   4.4952249211e+01   5.9655591807e+01    0.2174489    0.1891192  54.42  0.001154191    1.095    0.086
        93 -10.8232    197.9879     34.4798   2.5008583634e+01   3.1253061864e+01    0.3108976    0.1107991 -44.14  0.001271342    2.426    0.588
        94 -10.5609    145.6780     28.0168   2.9540845515e+01   4.4743527600e+01    0.4209852    0.2301273 -75.42   0.00166886    2.459    0.593
        95  -9.9642     90.0853     27.9972   4.1899675950e+01   5.9207979968e+01    0.2333646    0.2218109  50.91  0.000878746    1.013    0.012
        96 -10.7435      5.9968     35.3516   9.2158678681e+01   7.1719911220e+01    0.3140924    0.2100295  36.56  0.001700146    1.670    0.401
        97 -10.4933    168.7867     26.8174   2.6005138810e+01   3.9019333796e+01    0.2016197    0.1463243 -62.89   0.00074783    1.341    0.254
        98 -10.9663     75.8758     25.3998   4.5544467006e+01   6.3044172717e+01    0.3734564    0.2361943 -16.95  0.001649557    2.007    0.502
        99 -11.1709    163.2109    227.7329   7.1984470334e+01   8.0802727860e+00    0.2208584    0.1547554  38.59  0.001453079    1.540    0.351
       100 -11.5853    173.2747     20.5766   2.3617901035e+01   3.8614463610e+01    0.3784979      0.25061  70.82  0.001361415    1.488    0.328
       101  -9.3158    102.6777     25.7033   3.7273280489e+01   5.6325645886e+01    0.1531395    0.1080154  33.05 0.0005324017    1.620    0.383
       102 -11.9781    214.8657     67.2981   3.1460510509e+01   2.3588827477e+01    0.4113069    0.2109235 -31.34  0.002041228    1.708    0.414
       103 -10.2243    187.4473     19.4992   2.1933112065e+01   3.5335002189e+01    0.2415429     0.212427 -63.59  0.001364464    1.016    0.016
       104 -10.5116    128.4570     18.3112   2.8809969022e+01   5.0416064902e+01     0.326865    0.2863474 -87.01  0.001396208    1.085    0.078
       105  -9.4705    111.5062    228.5284   8.2818809881e+01   1.4403018917e+01     0.122299   0.09442389  26.54 0.0001289408    1.012    0.012
       106  -9.8122     31.8302    227.1915   1.0062568995e+02   2.3483414408e+01    0.1471248    0.1252019  14.74 0.0008086067    1.350    0.259
       107 -12.7836    202.8780    221.0304   6.3710862423e+01   4.1759654426e+00    0.5927811    0.3673415  -9.98  0.003932996    1.496    0.332
       108 -12.4347    209.9680    215.1006   6.1615508760e+01   4.0627134793e+00    0.5373151    0.3195811   4.79   0.00344362    1.535    0.348
       109 -10.9348    158.3444    225.4317   7.2642779408e+01   9.0004123387e+00    0.1945651    0.1473034 -36.85 0.0008070888    1.583    0.368
       110 -13.7905    184.2005    215.0064   6.6199805004e+01   7.1840188846e+00    0.9997788    0.5497195 -21.95  0.005774792    1.967    0.492
       111  -9.9737     94.2709     16.9718   3.5493573350e+01   5.9622782113e+01    0.2774132    0.1976103 -85.22   0.00131389    1.697    0.411
       112  -9.8349    227.7055     15.5070   1.7981865409e+01   2.7021290099e+01    0.3051749    0.1387164 -83.28  0.001490241    2.614    0.617
       113  -9.2720     64.6359     16.2962   4.5165170868e+01   6.6994711141e+01    0.1416484    0.1123229 -83.18 0.0007031582    1.716    0.417
       114 -10.0647     20.2081     15.2672   7.2497242503e+01   7.5168354452e+01    0.3555145    0.1914336 -15.45 0.0009220762    2.750    0.636
       115 -10.7147     67.5115    217.3199   9.1788837291e+01   2.1618166129e+01     0.275173    0.1367255  46.83  0.001452066    1.739    0.425
       116 -10.0740    129.8566     12.8816   2.6503717877e+01   5.0626105276e+01    0.2287285    0.1861747  45.18  0.001014811    1.313    0.238
       117 -11.1407     50.8092    218.2969   9.5790542515e+01   2.3259183734e+01    0.3174536    0.2432791  24.40  0.002106853    1.232    0.188
       118  -9.3492      9.5128    211.5115   1.0516048202e+02   2.8403903965e+01    0.1177629   0.08879198  48.06 0.0001426127    1.007    0.007
       119 -10.1345    141.1158    206.6855   7.3695103869e+01   1.4070529940e+01    0.1919887     0.181674 -53.47  0.001337737    1.412    0.292
       120  -9.8439    123.9620    205.9783   7.7403853864e+01   1.6530745128e+01    0.1771666    0.1453822  23.27  0.001134809    1.011    0.011
       121 -11.6724    243.7353    201.8710   5.4187597064e+01   1.7761006366e+00    0.4643492    0.3106625 -27.34    0.0034276    1.477    0.323
       122 -10.3679    202.8495    197.1195   6.0051404409e+01   7.1830722920e+00     0.211786    0.1509837 -19.54 0.0008786374    1.282    0.220
       123 -11.2656    203.9421    193.0124   5.9189561843e+01   7.5831930952e+00    0.3948021    0.1763185  21.81  0.001915045    2.453    0.592
       124 -11.8581    195.6876    185.1112   5.9345521730e+01   9.7639216664e+00    0.3637185    0.2896288 -46.57  0.002350921    1.749    0.428
       125 -11.3098    191.6526    185.6801   6.0184303734e+01   1.0241086830e+01     0.255495    0.1738207  12.74  0.001317402    1.336    0.251
       126 -10.2580     37.2702    185.4339   9.7028115304e+01   3.1350977567e+01    0.2402432    0.1179047  19.55  0.001130361    2.084    0.520
       127  -9.9609    101.0724    175.8380   7.8860355400e+01   2.5473649886e+01    0.1892883    0.1602642  40.30  0.001101893    1.084    0.078
       128 -11.1544    173.1685    158.8001   5.8932664990e+01   1.7172856530e+01    0.2361418    0.1905298 -25.45  0.001101449    1.207    0.172
