#   1 NUMBER                 Running object number                                     
#   2 MAG_AUTO               Kron-like elliptical aperture magnitude                    [mag]
#   3 X_IMAGE                Object position along x                                    [pixel]
#   4 Y_IMAGE                Object position along y                                    [pixel]
#   5 X_WORLD                Barycenter position along world x axis                     [deg]
#   6 Y_WORLD                Barycenter position along world y axis                     [deg]
#   7 A_WORLD                Profile RMS along major axis (world units)                 [deg]
#   8 B_WORLD                Profile RMS along minor axis (world units)                 [deg]
#   9 THETA_WORLD            Position angle (CCW/world-x)                               [deg]
#  10 FWHM_WORLD             FWHM assuming a gaussian core                              [deg]
#  11 ELONGATION             A_IMAGE/B_IMAGE                                           
#  12 ELLIPTICITY            1 - B_IMAGE/A_IMAGE                                       
         1 -14.8299      8.2765    149.7561   1.4714968023e+02   4.3263284250e+01     5.471224     1.457959 -83.41   0.02114712    3.815    0.738
         2 -12.1613      2.1324     43.9627   1.3479031603e+02   6.6631279249e+01     2.276492   0.09558119 -65.21  0.004442855   14.634    0.932
         3 -11.4041      2.1030     11.7848   1.2492786184e+02   7.2726217978e+01    0.6082344    0.1544915 -56.19  0.002658838    3.329    0.700
         4 -12.0338      2.6401      4.0823   1.2135943882e+02   7.3992837524e+01    0.6455024    0.3737117  16.52  0.004442925    1.940    0.485
         5 -13.1727    191.2022     27.5705   7.1981860643e+01   3.4161122571e+01     1.339026     1.278076  39.06   0.00664733    1.145    0.127
         6 -10.1407     32.8299      5.7531   1.0594441483e+02   7.1012827855e+01    0.5217201   0.07389536 -40.81   0.00154274    6.540    0.847
         7 -13.4247    205.7526      8.6187   6.4785760454e+01   3.2467936821e+01     1.564248     1.067148  45.68  0.008039684    1.649    0.393
         8 -13.9149      8.4987    207.2986   1.5060306101e+02   3.1609725419e+01     7.650342     1.534653  41.79   0.03778301    3.306    0.698
         9 -10.3267    249.1606    249.5084   1.1247864108e+02  -1.0013766740e+01    0.1859987    0.1643452  32.10  0.001489805    1.518    0.341
        10 -10.7714    139.3431    249.9383   1.3104823158e+02   6.9337999903e+00    0.3057326    0.1479561  46.69  0.001742696    1.551    0.355
        11 -11.3964    125.4403    249.9615   1.3345133779e+02   9.0938660375e+00    0.5894845    0.1357816  41.77  0.002307401    3.446    0.710
        12  -9.9432     98.7387    249.5850   1.3798325862e+02   1.3144489235e+01    0.2208208    0.1295653  49.17  0.001128686    1.279    0.218
        13 -10.6465    102.3856    247.9188   1.3721691442e+02   1.2871970410e+01    0.2408697    0.1635571  60.25 0.0007953029    1.149    0.130
        14  -8.7939     74.3378    250.3204   1.4211999192e+02   1.6426522069e+01   0.09044185    0.0825426  32.78 0.0007050011    1.710    0.415
        15  -8.9426     66.8627    250.6278   1.4336493870e+02   1.7361652849e+01    0.1574477   0.06687585  51.86 0.0006419448    1.695    0.410
        16 -10.8783     34.1793    246.2610   1.4833182948e+02   2.2045603158e+01    0.4433726    0.3189556 -86.86  0.003624481    1.394    0.283
        17  -9.2825     28.8560    249.8430   1.4933089507e+02   2.2051635206e+01     0.189557    0.1006507  59.08  0.001046606    1.294    0.227
        18  -9.5995     25.5773    247.4652   1.4972331829e+02   2.2798533942e+01    0.1559726   0.07179558  47.34 0.0005621135    1.671    0.402
        19  -9.2752     11.1931    250.3828   1.5200814077e+02   2.3827328696e+01    0.1445281   0.05549553  51.40 0.0009583908    1.764    0.433
        20 -10.0536      2.1150    248.6138   1.5327455493e+02   2.5008069507e+01    0.2972592     0.126875 -88.91   0.00206489    1.945    0.486
        21 -10.5043      2.1423    240.4097   1.5298939572e+02   2.6353591972e+01    0.3168475    0.1318269  89.24   0.00211499    1.969    0.492
        22  -9.8390     81.5018    248.5323   1.4079924879e+02   1.5741849224e+01    0.2400265     0.135139  72.93 0.0009017242    1.714    0.416
        23 -14.0326     46.1836    227.1166   1.4525889909e+02   2.3936966006e+01     2.877915    0.5918051  39.85  0.005655543    3.833    0.739
        24 -10.4623    173.3520    221.9398   1.2141308832e+02   5.3420702831e+00    0.3511024    0.2612385  68.22  0.002104585    1.685    0.406
        25  -9.7927    146.4948    230.4975   1.2751636861e+02   8.6371482004e+00    0.1236245   0.09729823  49.44 -2.80119e-05    1.011    0.010
        26 -10.8730      6.1801    227.7110   1.5188873381e+02   2.8135818320e+01    0.3483019    0.3151307   3.77  0.002957686    2.207    0.547
        27  -9.8456     32.6097    228.4091   1.4763190772e+02   2.5276043890e+01    0.2188037    0.1214693 -87.36 0.0008877169    1.573    0.364
        28  -8.6107    152.5246    213.0085   1.2405395226e+02   1.0367975320e+01    0.1561477    0.1282936 -57.69 0.0001045955    1.458    0.314
        29  -9.1513     33.0891    207.6513   1.4629164592e+02   2.9038383327e+01    0.1834391    0.1122601  83.49 0.0004728595    1.320    0.242
        30 -11.5303     22.1926    201.1167   1.4785207587e+02   3.1447803455e+01    0.3435073    0.1557315  58.24  0.001749212    1.772    0.436
        31 -11.2165     65.3462    199.7596   1.3958495943e+02   2.6656460663e+01    0.2850224    0.2228291 -56.75  0.001121755    1.652    0.394
        32 -10.6599     14.2744    197.8355   1.4909375162e+02   3.2864614481e+01    0.3104174    0.1465621  57.41  0.001376286    1.686    0.407
        33  -9.3574    192.0387    193.2347   1.1328166548e+02   6.3095099605e+00    0.4106281    0.2488252 -74.28  0.001345477    5.744    0.826
        34  -8.4624     51.4678    197.4401   1.4208559554e+02   2.8890358151e+01    0.1199074   0.08819942  72.32 0.0001665771    1.053    0.050
        35  -9.2560     41.4123    193.5384   1.4371765263e+02   3.0862803554e+01    0.2835982    0.1326051  64.34  0.001534737    1.959    0.489
        36  -8.7044     44.2926    191.9622   1.4302825528e+02   3.0846392684e+01    0.1558598    0.1177009  83.52 0.0003413483    1.073    0.068
        37 -11.5062     71.0263    191.6789   1.3764863937e+02   2.7502421058e+01    0.2534501    0.2133851 -69.51 0.0004359698    1.354    0.262
        38  -8.3895    103.9382    180.0061   1.2927737825e+02   2.4910363488e+01    0.1542587    0.1300553  64.87 0.0009325348    1.031    0.030
        39 -12.9783     67.6611    176.7374   1.3672419316e+02   3.1062217410e+01    0.4647703    0.2712679 -47.35  0.001584354    2.354    0.575
        40 -10.5626     80.5201    178.7135   1.3418085838e+02   2.8831891994e+01    0.2212853    0.1949026  75.21 0.0004387866    1.108    0.097
        41  -8.0788    171.3349    173.2781   1.1374050447e+02   1.3682312227e+01    0.1404942    0.1064133  17.09 0.0002547828    1.609    0.379
        42 -11.3045     87.5349    169.4086   1.3141389106e+02   2.9760536896e+01    0.5140757    0.5017043  45.67  0.003389216    1.311    0.237
        43 -10.8256     32.7428    156.7497   1.4230292878e+02   3.9544867094e+01    0.4765178    0.1254483 -73.50  0.001854426    3.391    0.705
        44 -10.2031    191.2002    154.6655   1.0594035373e+02   1.2922319893e+01    0.5835276    0.3696736 -78.00  0.002041184    3.861    0.741
        45 -11.7123     88.3223    152.3722   1.2869579995e+02   3.3380486334e+01    0.2699355     0.237698 -51.80 0.0006583299    1.310    0.237
        46  -9.5789     99.5419    152.8260   1.2607716666e+02   3.1460213573e+01    0.2636303    0.2288927  71.55 0.0007840854    1.055    0.052
        47 -12.1682     67.2010    143.9279   1.3255946243e+02   3.8372140110e+01    0.6912849     0.441344  69.87  0.003255275    1.677    0.404
        48  -8.8596    102.3321    148.8926   1.2472576142e+02   3.1860703649e+01    0.1932076    0.1669513 -66.78 0.0003887111    1.150    0.131
        49 -12.0911     32.8601    144.7098   1.4104044713e+02   4.2197984069e+01    0.8766276    0.1161532 -66.68  0.002835494    4.719    0.788
        50  -8.9785    184.3766    147.7422   1.0582930080e+02   1.5630439284e+01    0.2911832    0.2113857 -78.78  0.001013915    2.124    0.529
        51  -8.8143    180.9284    143.9023   1.0569479501e+02   1.7092394882e+01    0.2364169    0.1842088 -87.53  0.001093959    1.769    0.435
        52  -9.3884    110.4455    137.6330   1.2061459291e+02   3.2940532683e+01    0.3426795    0.2317205 -21.31  0.001302499    2.661    0.624
        53  -9.8276     86.5756    136.5856   1.2646228590e+02   3.7230813054e+01    0.2601571    0.1981739  74.04 0.0004508469    1.353    0.261
        54 -11.5445      2.4547    152.5638   1.4861917916e+02   4.3109185513e+01    0.6164257     0.246417 -81.42  0.003347882    1.960    0.490
        55 -10.3424     97.9131    135.1195   1.2328852174e+02   3.5714394880e+01    0.2484777    0.2283144 -31.07 0.0004493023    1.319    0.242
        56 -10.6813     57.0964    130.8575   1.3315957307e+02   4.2676403413e+01    0.4817775    0.1731446 -75.11  0.001631141    3.845    0.740
        57  -9.6633    163.5956    127.9409   1.0575762413e+02   2.4043690889e+01    0.5600443    0.3441591  84.89  0.001818969    3.698    0.730
        58 -13.0875     55.7718    214.3188   1.4264666324e+02   2.5097757730e+01     2.646294    0.7035689  48.82   0.01196592    2.840    0.648
        59  -9.1786    107.5074    124.1672   1.1856112184e+02   3.6506578783e+01    0.1936388    0.1839359  75.31  0.000360845    1.048    0.046
        60 -11.0607     32.9979    117.8258   1.3769456963e+02   4.8285067338e+01     0.542329    0.1166941 -70.20   0.00173738    4.417    0.774
        61 -10.1612    168.0479    113.1300   1.0109313210e+02   2.5966516372e+01    0.3511313    0.2871115 -83.19  0.000719283    1.485    0.326
        62  -9.2112    203.2008    111.7936   9.3553717566e+01   1.7900939005e+01    0.2115399    0.1780157   9.72 0.0004999998    1.343    0.256
        63 -12.3850     40.1511    234.5409   1.4673261998e+02   2.3344083697e+01    0.2638193    0.2089212 -89.54 0.0007609892    1.341    0.254
        64  -9.1377     34.2518     93.3603   1.3340873752e+02   5.3764447369e+01    0.2351725     0.200196  38.07  0.001576629    1.394    0.283
        65  -8.0362     75.6787     87.7652   1.1903638678e+02   5.0071409611e+01    0.1290601     0.104339 -15.55 0.0001586776    1.512    0.339
        66  -8.9408    156.2970     75.6768   9.3231260098e+01   3.5987040045e+01    0.1593965    0.1220457 -72.61 0.0004314648    1.623    0.384
        67 -11.4435     13.0624     65.0818   1.3512456911e+02   6.1633934424e+01     0.332095     0.251359  43.47  0.001252175    1.662    0.398
        68 -11.2761      7.6803     63.1568   1.3671633220e+02   6.2357646998e+01    0.2324918    0.2019936 -82.56 0.0004176194    1.229    0.187
        69 -10.1964     31.2171     61.4770   1.2752966665e+02   6.1060611816e+01    0.2910862    0.2171486  32.90  0.001698912    1.613    0.380
        70 -10.8322      9.9684     54.4714   1.3402841585e+02   6.4062802192e+01     0.215317    0.1602092  42.51  0.001262277    1.740    0.425
        71  -9.2441     47.2116    249.2446   1.4643807551e+02   2.0039160173e+01    0.1512579   0.08307058  64.64  0.000671394    1.341    0.254
        72 -10.1862    238.2213    248.5949   1.1409510113e+02  -8.3618608910e+00    0.1668045   0.07766685  32.07 0.0009576541    1.699    0.411
        73  -9.7353     82.0351    243.0076   1.4027746864e+02   1.6560952131e+01    0.1819677    0.1243322  61.95 0.0009941561    1.090    0.083
        74  -8.9510     73.4102    242.1896   1.4167835460e+02   1.7872132153e+01     0.144627   0.08551311  84.22 0.0009346228    1.678    0.404
        75  -9.9926     12.9415    241.3035   1.5139105531e+02   2.5144075477e+01    0.1789267    0.1141307 -87.98  0.001001284    1.395    0.283
