#   1 NUMBER                 Running object number                                     
#   2 MAG_AUTO               Kron-like elliptical aperture magnitude                    [mag]
#   3 X_IMAGE                Object position along x                                    [pixel]
#   4 Y_IMAGE                Object position along y                                    [pixel]
#   5 X_WORLD                Barycenter position along world x axis                     [deg]
#   6 Y_WORLD                Barycenter position along world y axis                     [deg]
#   7 A_WORLD                Profile RMS along major axis (world units)                 [deg]
#   8 B_WORLD                Profile RMS along minor axis (world units)                 [deg]
#   9 THETA_WORLD            Position angle (CCW/world-x)                               [deg]
#  10 FWHM_WORLD             FWHM assuming a gaussian core                              [deg]
#  11 ELONGATION             A_IMAGE/B_IMAGE                                           
#  12 ELLIPTICITY            1 - B_IMAGE/A_IMAGE                                       
         1 -14.4697    158.9862     55.2399   7.8365090017e+01   3.8330057152e+01     1.394596     1.233258  50.53  0.003795982    1.105    0.095
         2 -14.6559    171.8901     40.0558   7.1810963757e+01   3.7333545580e+01     1.101269     1.014028  13.74  0.004119266    1.312    0.238
         3 -14.8326    191.8467      7.6352   6.0823377968e+01   3.6291391000e+01      2.22404    0.7446296  62.82  0.008563096    2.407    0.585
         4 -11.1954    150.0729    239.9512   1.2170943629e+02   2.7276894633e+00    0.2032842    0.1770165  42.18 0.0005515155    1.037    0.036
         5 -12.0597    248.7934    248.0288   1.0406580289e+02  -1.4341888131e+01    0.4427145    0.1751822 -35.70  0.002199683    2.567    0.610
         6 -10.8048    167.9579    248.8635   1.1945138535e+02  -1.8606527621e+00    0.2532243     0.180279 -44.20 0.0009207203    1.654    0.395
         7 -19.0160     71.0096    236.5145   1.3700766104e+02   1.6241575946e+01     8.351418     6.227304 -85.06   0.04868037    1.253    0.202
         8 -11.5222    160.4336    197.9215   1.1262555059e+02   8.9384602630e+00    0.3367111    0.2202796 -72.86  0.001019346    2.250    0.556
         9 -11.5896    206.8438    195.1617   1.0232030944e+02   6.0143732558e-01    0.2588563    0.1884742 -36.26 0.0004667967    1.376    0.273
        10 -12.3098    153.1182    193.4603   1.1342225754e+02   1.1291737905e+01    0.3729818    0.3179178  86.32  0.001003848    1.332    0.249
        11 -19.1861     52.2688     97.2474   1.2015919832e+02   5.0865277631e+01     17.41744    0.9128178 -55.93   0.02661822   16.824    0.941
        12  -9.6391    176.2465    231.3630   1.1508334460e+02  -3.4446259251e-01    0.1292943   0.09951473  -4.01 0.0002305872    1.609    0.379
        13 -11.3907    169.3082    182.1282   1.0763371377e+02   1.0478022200e+01    0.4726106    0.2417196  54.46  0.001796709    2.314    0.568
        14 -11.4127    172.8350    188.8325   1.0818705067e+02   8.3795465621e+00    0.2998104    0.2814087 -51.15  0.001470171    1.116    0.104
        15 -10.8007    176.0160    186.0556   1.0694819973e+02   8.3174788175e+00    0.3813606    0.3069521  87.97  0.001073508    1.639    0.390
        16  -9.6277    219.3409    224.2020   1.0532951627e+02  -6.5273600635e+00     0.163402    0.1174781 -45.11 0.0002296171    1.621    0.383
        17 -11.1691    165.3695    186.6731   1.0940443297e+02   1.0311388672e+01    0.3307281    0.1848774 -40.70  0.001392375    1.938    0.484
        18 -10.5957     20.5970    219.2070   1.4498019495e+02   2.6209508571e+01    0.1193071   0.06327538  61.56 0.0006810272    1.631    0.387
        19 -12.0068    204.3440    176.2787   9.8997142169e+01   4.6457082404e+00    0.8335457    0.3915883 -57.37  0.002792619    3.519    0.716
        20 -11.2752    201.5117    169.0168   9.8039633229e+01   6.6355831799e+00    0.4397972    0.2956705 -74.61  0.001779839    2.572    0.611
        21 -12.2124    204.4593    165.5633   9.6702256636e+01   6.7249204907e+00    0.5915009    0.3845533 -50.45  0.001685634    1.616    0.381
        22 -12.3688    152.6707    185.9469   1.1210958274e+02   1.2991482882e+01    0.3347772    0.2842047 -71.71  0.001197027    1.287    0.223
        23 -12.8540    193.7821    166.4625   9.9086502763e+01   8.7245453342e+00     0.869592    0.4568076 -56.77  0.001734428    2.484    0.597
        24 -11.5573    190.4854    155.6506   9.7410394987e+01   1.1638927855e+01    0.5375702    0.4647166 -61.07  0.002314012    1.232    0.188
        25 -10.8581     29.2834    206.0944   1.4227582516e+02   2.8075237948e+01    0.1500589    0.1315008 -52.73 0.0007879152    1.555    0.357
        26 -11.9306    230.1652    166.5391   9.1962478404e+01   1.5229153612e+00    0.3385323    0.1979169 -47.86  0.001558795    1.755    0.430
        27 -11.4151     25.1281    165.6526   1.3915363490e+02   3.7717016283e+01    0.2332948    0.2065694  -3.05  0.000971659    1.605    0.377
        28 -11.9561    121.1425    164.4474   1.1537931296e+02   2.4072458615e+01    0.4392448    0.2839676  64.13  0.001441891    1.875    0.467
        29 -11.4584    120.5026    156.7653   1.1398680014e+02   2.6016935023e+01    0.2791629    0.2134961  43.53 0.0007383543    1.323    0.244
        30 -11.4625    166.9116    155.3245   1.0250359582e+02   1.6765522955e+01    0.4025061    0.2627373  71.73   0.00157511    2.281    0.562
        31 -13.0878    134.0459    146.1636   1.0830039987e+02   2.5815346532e+01     1.505057    0.3718148 -54.79  0.003363711    6.012    0.834
        32 -10.8528    141.1475    163.8981   1.1039370390e+02   2.0246342637e+01    0.2361726    0.2072227  89.66 0.0003374062    1.216    0.178
        33 -11.6949    153.5052    201.6642   1.1482336878e+02   9.4976339191e+00    0.3091294    0.2689024 -56.75  0.001708644    1.227    0.185
        34 -11.0300    174.3375    148.7260   9.9343753675e+01   1.6594608706e+01    0.3642502     0.283204 -74.46  0.001132997    1.577    0.366
        35 -12.3262    144.1781    145.7884   1.0571181015e+02   2.3783191535e+01     0.591943    0.3541026 -70.12  0.002168299    2.500    0.600
        36 -12.1105    142.1275    138.7614   1.0459177263e+02   2.5830212213e+01     0.451302    0.2840039 -61.11  0.001849209    1.816    0.449
        37 -12.9029    135.6710    125.8483   1.0310406164e+02   3.0151378082e+01     1.728916    0.2721225 -49.47  0.003346272    7.717    0.870
        38 -12.7623    119.3691    128.5529   1.0800315771e+02   3.2901588020e+01     0.573306    0.3883951  20.56 0.0006080337    2.040    0.510
        39 -11.5967    160.4376    127.4378   9.7461777855e+01   2.4330099500e+01    0.4812365    0.2909262 -56.36  0.001413537    1.836    0.455
        40 -11.4862    107.7891    124.4605   1.1015126601e+02   3.6095698633e+01    0.2933088    0.2609136 -16.70 0.0006318183    1.268    0.212
        41 -10.8213    113.5037    118.1523   1.0703973497e+02   3.6451784372e+01    0.2590091     0.213184  45.88 0.0003005748    1.252    0.201
        42 -10.8625    168.2682    113.0482   9.2069592831e+01   2.5594012230e+01    0.4269413    0.2888187 -87.17  0.001246788    2.333    0.571
        43  -9.8635    167.0923    133.5555   9.7418099133e+01   2.1497498469e+01    0.2354332    0.1548141  49.67 0.0008762957    1.542    0.351
        44 -11.4703    134.7663    106.0107   9.8234113686e+01   3.4706825305e+01    0.4819409     0.187946 -47.08  0.001624414    2.595    0.615
        45 -10.9746    205.0037    110.4518   8.3965041410e+01   1.7570545622e+01    0.3919592     0.276051  42.26  0.001287447    1.582    0.368
        46 -11.7801    117.4894    109.1692   1.0364595450e+02   3.7668880823e+01    0.2538249    0.2196464  76.27  0.001283818    1.324    0.245
        47 -10.8164    162.9572    202.2491   1.1286477073e+02   7.5700986108e+00    0.3816887    0.2723155  78.91  0.001156029    2.056    0.514
        48 -10.9342     72.9928     95.7518   1.1319190213e+02   4.8445056249e+01    0.1896511    0.1770203 -17.13 0.0004488288    1.068    0.064
        49 -11.6249    157.2410    199.2261   1.1356473818e+02   9.2854265412e+00    0.3210235    0.2546162  45.70  0.001293684    1.187    0.158
        50 -11.0181    166.4369    233.9168   1.1748251381e+02   9.3559353812e-01    0.2411007    0.1916138 -53.25 0.0008569425    1.462    0.316
        51 -10.1261    147.7562     80.5993   8.8010661434e+01   3.6788790298e+01    0.2078916    0.1430141  61.99  0.000717072    1.541    0.351
        52 -10.6484     91.7982     78.9564   1.0260040835e+02   4.8836195382e+01    0.2237661    0.1954152  26.58 0.0003077677    1.151    0.132
        53  -9.7543    141.5262     71.4647   8.6836500138e+01   3.9863467981e+01    0.1470072    0.1409424  74.20  0.000808316    1.060    0.057
        54 -10.1987    235.4596    249.0463   1.0662735435e+02  -1.2604565481e+01    0.1625393    0.1090328 -28.80 0.0003615675    1.525    0.344
        55 -11.5898    150.5933    248.1954   1.2277731966e+02   1.1970625339e+00    0.2553177     0.235808 -63.20 0.0009482158    1.273    0.214
        56 -12.9474    175.7838     33.0785   6.9325229376e+01   3.7281682244e+01    0.3740331    0.3499392  31.04 0.0009201836    1.263    0.208
        57 -11.2444     14.1633     58.9977   1.2391282142e+02   6.2229280970e+01    0.3074334    0.1722423 -27.25  0.001570106    1.696    0.411
        58 -10.6309    155.6657     38.4406   7.4209310368e+01   4.1474613249e+01    0.2480653     0.128229  65.78 0.0006312143    1.891    0.471
        59 -11.0672    167.9372    229.8384   1.1652786793e+02   1.3934908340e+00    0.2270897    0.2061598 -64.92 0.0003966473    1.289    0.224
        60 -11.6702    188.3024     30.9138   6.6934989590e+01   3.4519202548e+01    0.2745649    0.1796536  61.25 0.0009787986    1.393    0.282
        61 -10.7319    128.1780     27.7867   7.6470078526e+01   4.9196951443e+01    0.2206087    0.1890657  58.81 0.0004611503    1.097    0.088
