#   1 NUMBER                 Running object number                                     
#   2 MAG_AUTO               Kron-like elliptical aperture magnitude                    [mag]
#   3 X_IMAGE                Object position along x                                    [pixel]
#   4 Y_IMAGE                Object position along y                                    [pixel]
#   5 X_WORLD                Barycenter position along world x axis                     [deg]
#   6 Y_WORLD                Barycenter position along world y axis                     [deg]
#   7 A_WORLD                Profile RMS along major axis (world units)                 [deg]
#   8 B_WORLD                Profile RMS along minor axis (world units)                 [deg]
#   9 THETA_WORLD            Position angle (CCW/world-x)                               [deg]
#  10 FWHM_WORLD             FWHM assuming a gaussian core                              [deg]
#  11 ELONGATION             A_IMAGE/B_IMAGE                                           
#  12 ELLIPTICITY            1 - B_IMAGE/A_IMAGE                                       
         1 -10.3193     50.6640     37.4054   8.0117553277e+01   6.5718082635e+01    0.9675571    0.6950583 -82.71  0.004467444    2.402    0.584
         2 -10.5296     39.0958      7.0036   6.9394137843e+01   7.2978930411e+01     1.304946    0.5248837 -24.56  0.004840795    3.450    0.710
         3 -10.5940     39.5966     29.6809   8.2305815764e+01   6.8950711674e+01    0.5848756    0.3493697 -52.04  0.002313064    1.692    0.409
         4 -12.0447     44.6936     22.3122   7.5659366717e+01   6.9552640284e+01     1.197233      0.94976 -62.52  0.006066557    1.657    0.397
         5  -9.9701     90.5490     28.2654   5.9787888195e+01   5.9305738294e+01    0.6393895     0.408718 -10.67  0.002831584    2.009    0.502
         6 -11.4489    115.1202     17.2669   4.8543537336e+01   5.4687960924e+01     1.644949    0.8901972 -87.26  0.006232427    2.832    0.647
         7 -12.0669    128.6635     15.3196   4.5186754886e+01   5.1400492799e+01     1.455785     1.131834 -62.71  0.007671671    1.352    0.260
         8 -11.5618    131.4750      3.7573   4.0150509897e+01   5.1801304851e+01     1.698776    0.4943622  69.97  0.005840225    3.082    0.676
         9 -12.7713    115.5235      4.3402   4.2859717691e+01   5.5906005685e+01     4.871661    0.8809542  71.98   0.01141848    6.722    0.851
        10 -12.5512    155.7562     21.0475   4.3164583301e+01   4.3716548189e+01     1.682905    0.6647848  67.19  0.006513328    2.420    0.587
        11 -13.7014    169.2033     13.7413   3.9093518246e+01   4.1069752206e+01     2.772421     1.948389  76.68   0.01202332    1.395    0.283
        12 -11.2836     84.2326      3.7456   4.9271063662e+01   6.3827131472e+01     1.082497    0.5063536  64.94  0.004413031    2.104    0.525
        13  -9.1380     21.5095     23.5815   9.0522459873e+01   7.2447360813e+01    0.4673183    0.2674143  48.77  0.002243823    2.541    0.606
        14 -10.5901     77.8391     21.0051   6.0406219764e+01   6.3259484348e+01    0.9872788    0.5462787  -6.26  0.003773656    2.962    0.662
        15 -11.1171     78.8253     13.1714   5.5951471641e+01   6.4070282773e+01     1.013363    0.6953598  16.33  0.005020295    1.719    0.418
        16  -9.3931     94.4147     17.2861   5.3448557671e+01   5.9872995538e+01    0.4519422    0.2903923  88.32  0.001793578    2.196    0.545
        17  -7.8737     52.1843      1.9853   5.9277705031e+01   7.1178926107e+01    0.3515862    0.1795157  49.07  0.001696577    1.857    0.462
        18 -10.0052     61.3706     10.5294   6.0803121476e+01   6.8239145213e+01    0.4210385    0.3396069 -83.57  0.002300306    1.788    0.441
        19 -10.0702     60.7122      2.6803   5.6197026225e+01   6.9319114355e+01     0.637607    0.3646481  41.81  0.003183826    1.658    0.397
        20  -9.2204     69.2683     12.9834   5.9154086793e+01   6.6236286371e+01    0.3464284    0.2637834  61.20  0.001731808    1.425    0.298
        21  -9.1231     20.5673     13.9248   8.6087992546e+01   7.4473262084e+01    0.5875379     0.231184 -34.94    0.0023926    2.837    0.648
        22  -9.8957    249.5256      7.8669   3.1588128333e+01   2.3494645500e+01    0.3225929    0.1166331 -45.86  0.001588763    2.033    0.508
        23 -10.0945     71.2861      5.6206   5.4195556733e+01   6.6664233471e+01    0.5654923    0.4031522  51.72  0.002214921    1.329    0.248
        24 -10.0233    203.7205      4.2496   3.3327923313e+01   3.3618737638e+01    0.2826438    0.2290293 -86.24  0.001757553    1.198    0.165
        25  -8.6535     17.1053      2.3820   8.1257327159e+01   7.6960781237e+01    0.3202128    0.2733815  76.69  0.001975018    1.991    0.498
        26  -9.0831    218.2025      2.0001   3.1844092557e+01   3.0562806613e+01    0.2363045    0.1372938 -73.17 0.0009125751    1.665    0.399
        27  -7.7843     26.6471      2.6946   7.4245136051e+01   7.5618235207e+01    0.1315732   0.08777933  -0.26 0.0007041495    1.711    0.416
        28  -7.2778      1.2828      1.3414   9.4914176832e+01   7.8688180309e+01    0.1280412   0.07023247 -32.51 0.0004860387    1.633    0.387
        29  -9.3258    199.6481     56.3022   4.8092057848e+01   2.8381294227e+01    0.3424208     0.189347 -45.37 0.0006974018    1.658    0.397
        30  -8.3013    138.7982     56.3960   5.8445124846e+01   4.3059971251e+01    0.3089407    0.1114035 -37.20  0.001038129    2.608    0.617
        31  -9.1631     66.1119     53.6078   7.9876425853e+01   5.9733563124e+01    0.4114705    0.2102281 -55.02  0.001664117    2.122    0.529
        32  -8.0898     35.2654     52.9905   9.4043689499e+01   6.4399637348e+01    0.2012984    0.1698939 -51.77   0.00116376    1.061    0.058
        33  -8.3312     23.7714     52.5483   9.9919621023e+01   6.5675420399e+01    0.2642826    0.1668264 -62.04  0.001372722    1.394    0.283
        34  -8.1339     40.6040     52.2255   9.1088865544e+01   6.3935052267e+01    0.2080697    0.1128365 -46.60 0.0009462121    1.674    0.402
        35 -10.4974     81.8356     38.8093   6.7526149684e+01   5.9546756699e+01     1.278634    0.3616019 -41.32  0.004015528    3.445    0.710
        36  -9.5635     87.5029     48.9924   6.9853173540e+01   5.6465120085e+01    0.4303244    0.3240826  45.57  0.001696459    1.355    0.262
        37  -9.6008     83.4939     48.0098   7.0865891240e+01   5.7502174015e+01    0.4603013     0.307369  12.35  0.001782732    2.328    0.571
        38  -8.1525     96.5039     47.0668   6.6094582343e+01   5.4835931359e+01    0.2324137    0.1457442 -35.74  0.001028962    1.587    0.370
        39  -9.5807     91.1551     42.8319   6.6066974934e+01   5.6795296167e+01    0.5145773    0.2431746 -44.75  0.002009188    2.175    0.540
        40 -10.4685      3.7039     39.5664   1.0800335208e+02   7.0171972284e+01    0.7208276    0.4241033 -66.25  0.002832915    1.419    0.295
        41  -9.2632     11.9176     34.1517   1.0121062879e+02   7.0960746313e+01    0.4188125    0.2690998 -46.76  0.001482091    1.316    0.240
        42  -8.9530    108.2301     38.3851   5.9114795911e+01   5.3541326922e+01    0.3034012    0.1960779 -84.63  0.001201173    2.505    0.601
        43  -9.9916    163.8490    244.6852   9.3000098560e+01   4.8346384103e+00    0.2711217    0.1629274 -54.06  0.001701627    2.499    0.600
        44 -10.3218    174.1268    242.9472   9.0937315701e+01   3.7679039617e+00    0.3337559    0.1845175  -5.34  0.001776098    2.784    0.641
        45  -9.3613    210.6833    223.3324   8.1881498629e+01   1.5896399732e+00    0.1503672   0.09130975 -19.84 0.0004569438    1.622    0.383
        46  -8.3974    238.7691    202.7625   7.4102508557e+01   5.3301903245e-01    0.1596736    0.0779344 -39.84 0.0008821777    2.443    0.591
        47  -9.4748     97.2603     36.3486   6.1370089720e+01   5.6487419307e+01    0.3665839    0.2385035 -79.48  0.001447025    2.664    0.625
        48  -8.9688     67.6704     35.8454   7.1652973401e+01   6.2982604059e+01    0.4778119     0.257294  53.42   0.00203906    2.174    0.540
        49 -10.1428     86.2504     31.4547   6.2651595178e+01   5.9803700092e+01    0.3984289    0.3404063 -21.93  0.002171299    1.177    0.150
        50 -11.1832     10.4304    141.6069   1.1793915184e+02   4.4022791017e+01    0.5174859    0.3351471  89.79  0.002969114    1.323    0.244
        51  -7.5967     28.3411     35.2924   9.1376415402e+01   6.9213604017e+01     0.139116   0.09139258 -25.29 0.0006054756    1.653    0.395
        52  -9.2044     43.4361     38.7353   8.4387945228e+01   6.6545416726e+01     0.360121    0.1493265  39.45  0.001463026    2.601    0.615
        53  -9.9397    225.0000     29.1338   3.8254661857e+01   2.6236624679e+01    0.4386027     0.288646  68.06  0.002217551    1.688    0.408
        54  -8.8440     97.2502     28.6511   5.7968264029e+01   5.7665258544e+01    0.5961552    0.2948286 -11.80  0.001968855    3.646    0.726
        55  -9.1055     66.8749     29.4148   6.8879215225e+01   6.4272552230e+01    0.3853312    0.2259077 -27.46  0.001448007    1.836    0.455
        56  -9.2763     41.0750    141.9517   1.0895138450e+02   4.1159378248e+01    0.3933447     0.187169  41.29  0.001803202    1.953    0.488
        57  -8.7652     23.0152    125.5027   1.1277155220e+02   4.7057572015e+01    0.1791665    0.1061588 -23.01 0.0008104145    2.608    0.617
        58 -12.5594    242.0308    132.5251   6.0512291049e+01   9.1159993064e+00     1.239161     1.008159  23.45  0.005540435    1.319    0.242
        59  -9.2520      9.9746    120.9856   1.1658741105e+02   4.9203655664e+01    0.2262019    0.1259956  61.68  0.001143874    1.725    0.420
        60  -9.1485     21.6531    109.6166   1.1148655895e+02   5.1260120477e+01    0.3717429    0.2375205  78.53  0.001915636    1.541    0.351
        61  -9.0306     17.1594    104.4845   1.1249842112e+02   5.2938047124e+01    0.3360772    0.2653004  40.74   0.00199064    1.354    0.262
        62  -9.5861     46.7088    101.2089   1.0107539864e+02   5.0962543244e+01    0.5527947    0.2869706 -80.20  0.002256188    2.215    0.549
        63  -9.4495     30.1527    101.9083   1.0735024876e+02   5.2530309637e+01    0.3680013    0.1752153 -53.81  0.001622122    1.962    0.490
        64  -8.2833     11.9437     23.2389   9.7086637399e+01   7.3397045105e+01    0.3278978    0.1148895 -47.19  0.001419678    2.291    0.563
        65 -10.8362     39.8653     89.6581   1.0142897080e+02   5.4736037659e+01     0.862733    0.4899171   0.13  0.003540609    2.840    0.648
        66 -11.2361     40.2825     83.0873   9.9859617273e+01   5.6380813182e+01     1.045376    0.5249055  37.73  0.004622402    2.097    0.523
        67 -11.3594     46.0129     81.3151   9.7071538546e+01   5.6159328830e+01     1.175749    0.5162233 -63.47  0.004707547    2.115    0.527
        68  -9.4702      2.5040     88.1159   1.1631571880e+02   5.8063940741e+01    0.6696753    0.2202336 -83.57  0.002572361    2.776    0.640
        69 -11.0973      5.0642     76.6341   1.1391867765e+02   6.0884127584e+01    0.7605785    0.4559411  47.70  0.004031469    1.835    0.455
        70 -11.5791     14.4414     73.0275   1.0915676582e+02   6.1267196896e+01    0.8795401    0.7404586  54.00  0.005389762    1.306    0.235
        71  -9.9372     64.4063     16.1486   6.2839622784e+01   6.6844258968e+01    0.4886623    0.2665311  68.93  0.001919272    3.114    0.679
        72  -9.0704     70.4918     16.4694   6.0643869340e+01   6.5506814841e+01    0.2456992      0.20567  34.09 0.0007796222    1.153    0.133
        73  -8.0964    138.4900     79.9764   6.6149704045e+01   3.8854637550e+01    0.2336188    0.1486269 -39.44 0.0007254352    1.526    0.345
        74  -9.5654     75.4088     68.9640   8.1691663146e+01   5.4670469211e+01    0.5378333    0.4328506  11.99  0.002691078    1.502    0.334
        75  -7.6733     10.0240     14.9760   9.4740022706e+01   7.5296411428e+01    0.2780222    0.1015117 -29.56 0.0002747123    4.195    0.762
        76 -10.0390     25.0272     65.7043   1.0269265135e+02   6.2319082102e+01    0.6187068    0.2902852 -57.83  0.001918037    1.771    0.435
        77  -9.4272    248.3471     16.3395   3.3575588742e+01   2.2862836201e+01    0.2054334    0.1644688  13.56   0.00132697    1.757    0.431
        78  -8.8910    227.9150     78.9682   5.0343849519e+01   1.9188605045e+01    0.2967756     0.224682  14.20  0.001656885    1.690    0.408
        79  -8.8865    103.2228     26.2212   5.5243852073e+01   5.6557656747e+01    0.3600134    0.1933413  53.85  0.001081442    1.780    0.438
        80  -9.2342     44.7346     63.1894   9.2685188268e+01   6.0813500585e+01    0.5358865    0.2785535 -37.89  0.002250437    2.164    0.538
        81  -9.2023     14.8328     59.9945   1.0645538803e+02   6.4539632562e+01    0.4756714    0.2507636 -43.01  0.002311559    1.823    0.451
        82  -8.8100     84.0192     69.0862   7.8571212061e+01   5.3025553048e+01    0.3849992    0.2735445  42.08  0.001824606    1.465    0.317
        83  -9.9282    196.1459     56.6177   4.8641673308e+01   2.9134799178e+01    0.3348467    0.2489199 -50.45 0.0007112031    1.263    0.208
