#   1 NUMBER                 Running object number                                     
#   2 MAG_AUTO               Kron-like elliptical aperture magnitude                    [mag]
#   3 X_IMAGE                Object position along x                                    [pixel]
#   4 Y_IMAGE                Object position along y                                    [pixel]
#   5 X_WORLD                Barycenter position along world x axis                     [deg]
#   6 Y_WORLD                Barycenter position along world y axis                     [deg]
#   7 A_WORLD                Profile RMS along major axis (world units)                 [deg]
#   8 B_WORLD                Profile RMS along minor axis (world units)                 [deg]
#   9 THETA_WORLD            Position angle (CCW/world-x)                               [deg]
#  10 FWHM_WORLD             FWHM assuming a gaussian core                              [deg]
#  11 ELONGATION             A_IMAGE/B_IMAGE                                           
#  12 ELLIPTICITY            1 - B_IMAGE/A_IMAGE                                       
         1 -14.4298    157.9916     55.2456   7.9784320105e+01   3.8747772185e+01     1.384678     1.116589  48.01  0.003401889    1.180    0.152
         2 -14.6274    170.5423     39.8115   7.3004047299e+01   3.7778932265e+01     1.129365     1.009012   6.69   0.00399689    1.367    0.268
         3 -14.6564    189.1438      7.5780   6.1874300361e+01   3.6848796171e+01     1.969052    0.7651539  62.48  0.008791071    2.078    0.519
         4 -10.2488    119.2270    243.9804   1.3006161916e+02   7.7530854995e+00    0.1657843    0.1340346  66.16 0.0003553035    1.138    0.121
         5 -18.8898     72.9446    235.0297   1.3820256819e+02   1.6803306989e+01     8.714009     6.732797 -87.41   0.05299436    1.223    0.182
         6 -11.8509    157.5067    199.8315   1.1520815543e+02   9.3860042145e+00    0.3680003    0.2732243 -89.04  0.001393367    1.892    0.471
         7 -12.0390    153.6830    194.9863   1.1518884792e+02   1.1139682525e+01    0.3993599    0.2869966 -72.24  0.001878428    1.789    0.441
         8 -10.0272    132.9592    235.6520   1.2619209107e+02   6.9349507627e+00     0.435362    0.2410717  26.97  0.001025717    2.431    0.589
         9 -10.3083     33.8044    200.6093   1.4272782337e+02   2.9187385813e+01    0.1615259   0.09580638  52.21 0.0006479765    1.556    0.357
        10 -10.0894    219.1932    224.1683   1.0668841787e+02  -6.4387701069e+00    0.1583649    0.1542871  28.44 0.0003633981    1.315    0.239
        11 -10.6912    112.5296    196.5145   1.2490444289e+02   1.8616021976e+01    0.4104382    0.2832563   5.52   0.00171157    2.805    0.643
        12 -10.5285      7.3218    197.0668   1.4767802128e+02   3.2637056819e+01     0.178513    0.1344184  59.08 0.0006463937    1.290    0.225
        13 -10.8053    169.6160    195.2490   1.1166294041e+02   7.9153670479e+00    0.1936747    0.1409563 -35.76 0.0009385834    1.534    0.348
        14 -11.4802    180.6748    193.3607   1.0886924422e+02   6.0830949237e+00    0.3113146    0.2458846  80.28  0.001484739    1.749    0.428
        15 -12.9720    165.8275    188.3780   1.1119350444e+02   1.0077759900e+01    0.6112221    0.3485923  38.13  0.002620678    1.692    0.409
        16 -12.0560    170.1334    183.1039   1.0918334291e+02   1.0290372243e+01    0.4672886    0.2658055  49.89  0.001148723    1.769    0.435
        17 -12.9385    173.1232    189.5096   1.0978051819e+02   8.3676057164e+00    0.4562129    0.4178974 -25.43  0.002111065    1.166    0.142
        18 -11.0207    133.5420    249.7883   1.2794116329e+02   4.2856259544e+00    0.2051175    0.1282019 -53.27  0.001127679    1.935    0.483
        19 -11.6440    153.5150    186.3542   1.1361317055e+02   1.2998860509e+01    0.2744836    0.2349048  53.46 0.0005845453    1.122    0.109
        20 -12.2174    175.4982    185.9975   1.0856020707e+02   8.5968673230e+00    0.5528709    0.2693262 -57.85  0.001980828    2.929    0.659
        21 -12.7871    206.2077    178.2404   1.0037690571e+02   3.8893644794e+00    0.6156772     0.358904 -50.06  0.002685405    1.948    0.487
        22 -11.9358    202.1736    170.1561   9.9502435997e+01   6.2653753162e+00    0.4527739    0.2683151 -51.26  0.001131777    1.913    0.477
        23 -11.5795    204.9270    167.5655   9.8373251318e+01   6.2026346392e+00    0.5883187    0.3730365 -63.93  0.002391189    2.416    0.586
        24 -11.3234     20.1905    219.2833   1.4683219374e+02   2.6694091262e+01    0.1803296    0.1193262  49.60  0.001206472    1.444    0.307
        25 -10.3925    199.4960    179.0143   1.0193578430e+02   5.0907089000e+00    0.2158977    0.1451161 -41.71  0.000435218    1.528    0.345
        26 -11.1295    136.7381    179.5600   1.1626028164e+02   1.7856921630e+01    0.2730068    0.1443503  37.98 0.0006357539    1.894    0.472
        27 -12.6558    143.0618    174.8728   1.1384023759e+02   1.7638175205e+01    0.8738638    0.5598629 -16.77   0.00317819    3.041    0.671
        28 -13.7329    137.9444    171.4949   1.1440544041e+02   1.9439337445e+01    0.9721534    0.4756861  39.68  0.003751121    2.020    0.505
        29 -12.9118    195.0353    168.4749   1.0064764459e+02   8.0830174654e+00    0.5318014    0.4135354 -47.22 0.0009412888    1.344    0.256
        30 -11.5383    192.4224    163.7578   1.0018307596e+02   9.5864086608e+00    0.4030243    0.3034188  -9.87  0.001839751    1.682    0.406
        31 -11.1525     16.7632    217.3258   1.4732144958e+02   2.7456648376e+01    0.1417131    0.1127776 -88.51  0.001034775    1.193    0.162
        32 -11.8637    230.1838    166.7427   9.3205786466e+01   1.3121460939e+00    0.3110231    0.1988123 -51.66    0.0014508    1.808    0.447
        33 -11.7157     25.2083    165.7028   1.4116094687e+02   3.7977717218e+01    0.3534792    0.2243582   7.15  0.001162306    2.636    0.621
        34 -10.9319    130.7343    213.3761   1.2342969932e+02   1.1700375969e+01    0.2228004     0.173823 -80.15 0.0007082184    1.459    0.315
        35 -10.2038    188.7213    158.4226   9.9806361995e+01   1.1475126464e+01    0.2247374    0.1434197  34.02 0.0009506443    1.688    0.408
        36 -14.2687    133.6584    145.5248   1.0998373046e+02   2.6320479179e+01     1.552228    0.5249001 -56.48  0.004288692    4.003    0.750
        37 -11.8865    120.7845    157.0029   1.1576377571e+02   2.6224680102e+01    0.2713072    0.2238977  45.05 0.0005866698    1.199    0.166
        38 -19.1863     54.4739    102.9548   1.2308707801e+02   4.9619317262e+01     17.49195    0.8881686 -57.25   0.02603137   17.450    0.943
        39 -11.2100     14.2224    151.3671   1.4219926879e+02   4.2240954703e+01    0.3582762    0.2442957 -33.34  0.002161902    1.975    0.494
        40 -12.0400     14.7838    146.6012   1.4153890723e+02   4.3291105676e+01    0.2294584    0.1412229  41.54 0.0009882248    1.823    0.451
        41 -11.2239    174.2724    148.5263   1.0078886142e+02   1.6754126026e+01    0.4330927    0.2994594 -66.12  0.001624644    1.862    0.463
        42 -13.7655    143.5953    143.6543   1.0703170613e+02   2.4637579404e+01     1.111161     0.530951 -62.54  0.003454979    3.321    0.699
        43 -12.9620      5.6282    139.6060   1.4301652074e+02   4.5559304365e+01    0.8121978    0.5062605 -76.45  0.002523804    1.264    0.209
        44 -13.7365      2.8500    125.2244   1.4209421493e+02   4.8984214925e+01     1.182983    0.5314431 -73.05  0.004737666    1.764    0.433
        45 -12.2465      2.7969    112.4984   1.4050776633e+02   5.1829984289e+01    0.3115454    0.2031035 -66.86   0.00107658    1.174    0.149
        46 -12.2752    134.6964    108.7512   1.0065515670e+02   3.4410797268e+01     1.599696    0.1804484 -45.01  0.002881498    8.993    0.889
        47 -13.5848    135.6469    127.5771   1.0523820448e+02   3.0029706149e+01     1.928391    0.3566988 -50.86  0.003755178    7.666    0.870
        48  -9.9507    168.5752    134.8673   9.8880751514e+01   2.0997946364e+01    0.2209706    0.1506562 -57.59 0.0005233265    1.644    0.392
        49 -11.7745    160.5367    127.7409   9.9036167752e+01   2.4398584198e+01    0.4490907    0.3005413 -58.19  0.001881099    1.694    0.410
        50 -12.7025    113.8204    118.9543   1.0901143346e+02   3.6528992218e+01    0.4458895    0.2908739 -52.37  0.001972785    1.538    0.350
        51 -12.3891    106.2637    203.8958   1.2744791401e+02   1.8081018125e+01    0.4134262    0.4002619  39.26  0.001517351    1.230    0.187
        52 -11.0089     30.2066    205.5636   1.4387974268e+02   2.8508335275e+01    0.1724049    0.1457372 -59.95 0.0005886799    1.489    0.328
        53 -10.8238    168.3181    113.1910   9.3518260369e+01   2.5661979797e+01    0.4132825    0.2819456  89.71  0.001346251    2.328    0.570
        54 -13.1675    118.5380    110.1771   1.0543682811e+02   3.7554008173e+01    0.6379862    0.3439201  55.42  0.002418165    2.273    0.560
        55 -10.9402    205.4135    110.2820   8.5016000430e+01   1.7378833127e+01    0.3191546    0.2718627  48.44 0.0008489806    1.213    0.175
        56 -12.6347     10.3636    111.0265   1.3814428386e+02   5.1708773454e+01    0.5377709    0.2436107   0.36  0.001810507    3.711    0.731
        57 -10.4147    147.2316     80.5768   8.9582760330e+01   3.7151206290e+01      0.21456    0.1398626  41.76 0.0003500994    1.538    0.350
        58 -10.2933     93.3302     79.1412   1.0418264424e+02   4.8916535516e+01    0.1959201    0.1762392 -35.96 0.0006169295    1.115    0.103
        59 -10.4234    150.7196    248.4492   1.2434470333e+02   1.5587344350e+00    0.2019604    0.1708724 -56.18 0.0009266644    1.438    0.304
        60 -11.4858    125.0147    247.4359   1.2933598221e+02   6.1491064184e+00    0.2779259     0.163113 -58.61  0.001487409    2.017    0.504
        61 -10.7754     13.4618     59.7130   1.2716935900e+02   6.2334114144e+01     0.184285    0.1567317 -30.67 0.0004040287    1.127    0.113
        62 -12.3454    163.2076    202.5892   1.1443876429e+02   7.7132535106e+00    0.4192221    0.2838817  45.02  0.001195935    1.353    0.261
        63 -12.8663    174.5192     32.7815   7.0409942765e+01   3.7676507015e+01    0.3801606    0.3431714  40.67 0.0009213778    1.233    0.189
        64 -10.2723    130.4990     28.5112   7.7472789563e+01   4.8934050018e+01    0.2317346    0.1267043  69.26 0.0007950976    2.113    0.527
