#   1 NUMBER                 Running object number                                     
#   2 MAG_AUTO               Kron-like elliptical aperture magnitude                    [mag]
#   3 X_IMAGE                Object position along x                                    [pixel]
#   4 Y_IMAGE                Object position along y                                    [pixel]
#   5 X_WORLD                Barycenter position along world x axis                     [deg]
#   6 Y_WORLD                Barycenter position along world y axis                     [deg]
#   7 A_WORLD                Profile RMS along major axis (world units)                 [deg]
#   8 B_WORLD                Profile RMS along minor axis (world units)                 [deg]
#   9 THETA_WORLD            Position angle (CCW/world-x)                               [deg]
#  10 FWHM_WORLD             FWHM assuming a gaussian core                              [deg]
#  11 ELONGATION             A_IMAGE/B_IMAGE                                           
#  12 ELLIPTICITY            1 - B_IMAGE/A_IMAGE                                       
         1 -10.9170      2.0300     22.0909   1.0238711089e+02   7.0675854275e+01    0.2725778    0.1482185 -54.39  0.001051299    1.608    0.378
         2 -10.9206     75.4617     20.2753   6.8380926937e+01   6.1970904759e+01    0.4447181    0.2348619 -21.52  0.002161674    1.932    0.483
         3 -11.0085     13.7769     16.0152   9.3684167218e+01   7.0929163574e+01    0.2444869    0.2164455  -4.55  0.001008449    1.339    0.253
         4 -11.3376    234.7645     15.0968   3.8043756701e+01   2.5159131454e+01    0.2310754    0.1923419 -61.64  0.000220915    1.045    0.043
         5 -10.7270     89.5943     13.6992   6.0988368759e+01   5.9966932201e+01     0.385867     0.227565 -39.94   0.00194019    2.036    0.509
         6 -10.0828     85.9615     12.2311   6.1418150917e+01   6.0865266674e+01    0.2054721      0.16895  19.75 0.0004475925    1.052    0.050
         7 -11.2101     65.9270     13.4674   6.8641367197e+01   6.4517173037e+01    0.3416032    0.2929072  77.60   0.00134359    1.945    0.486
         8 -11.5716     34.6908     12.7307   8.1481368723e+01   6.9293588833e+01    0.2809604    0.2429266 -12.46 0.0009011683    1.266    0.210
         9 -11.5349     30.3874      7.4427   8.0914396329e+01   7.0549103986e+01     0.381678    0.2827854   7.83  0.002627522    1.179    0.152
        10 -10.3510    134.9334     11.6336   4.9591484570e+01   4.9841047523e+01    0.2081685    0.1792557  18.30 0.0003062978    1.216    0.178
        11  -9.8600     99.7566     11.5695   5.7284427990e+01   5.8028270720e+01    0.2317224     0.157818  59.14  0.001248883    1.491    0.329
        12 -10.6200    126.3431     10.8307   5.0946153657e+01   5.1993673321e+01    0.3340312    0.1656041  46.50            0    1.810    0.448
        13  -9.8156      3.7765     10.8269   9.6909559712e+01   7.2521711717e+01    0.1312893      0.10525 -35.19 0.0003717382    1.246    0.198
        14 -10.0309     92.9064     10.0604   5.8475357263e+01   5.9648783769e+01    0.2016467    0.1594077  26.69 0.0003982253    1.114    0.102
        15 -10.3958     22.2563      9.5949   8.6169162169e+01   7.1151909052e+01    0.2784403     0.158236   1.93  0.001606889    1.888    0.470
        16  -9.4806     45.8088      9.6436   7.4835872586e+01   6.8211468857e+01    0.1516126    0.1067125  40.67 0.0003672067    1.651    0.394
        17  -9.6161     15.3885      8.8043   8.9464741207e+01   7.1933567662e+01    0.1534256   0.08072043 -30.90 0.0002737383    1.520    0.342
        18  -9.4984     88.6452      7.7785   5.8668616322e+01   6.0763465552e+01    0.1704791     0.112316 -29.46 0.0004861928    1.639    0.390
        19 -10.5569     72.2109      7.3906   6.3553547291e+01   6.4051589036e+01    0.3338455    0.2073321  35.14  0.001271937    1.421    0.296
        20 -10.4040     70.3091      4.6649   6.2887202095e+01   6.4681769230e+01    0.2170159    0.1788802   2.15 0.0007036685    1.108    0.098
        21 -10.3972     37.0350      6.4457   7.7175329524e+01   6.9838439617e+01    0.2867262     0.174067 -39.69  0.001681318    1.919    0.479
        22  -9.6662     64.6479      6.8288   6.5912426740e+01   6.5489513038e+01    0.1661267    0.1043262 -30.32 0.0004553408    1.675    0.403
        23 -10.3226      1.6170      5.4711   9.5727103357e+01   7.3531685691e+01    0.3509279    0.1439802 -51.85  0.001856297    2.470    0.595
        24  -9.8039    218.6579      6.6725   3.7453747435e+01   2.9750423004e+01    0.1261134   0.09201603  42.23 7.174763e-05    1.740    0.425
        25  -9.5938    211.5390      5.9719   3.7915097238e+01   3.1492240290e+01    0.1677978    0.1090173  15.68 0.0008092018    2.568    0.611
        26 -11.7200     57.1310      3.1345   6.6861595469e+01   6.7178243716e+01     0.397814    0.2522205  -0.03 0.0009393697    1.524    0.344
        27  -9.7460    107.7059      4.9441   5.2634384206e+01   5.6872410060e+01    0.1720697    0.1524546  21.95 0.0001574433    1.082    0.076
        28 -11.3179    101.8235      2.5754   5.3025058468e+01   5.8393017127e+01    0.4244101    0.2969974  83.81  0.002256332    1.947    0.486
        29  -9.7706     41.9176      4.9703   7.4153378036e+01   6.9347204994e+01    0.1929804    0.1166403   3.81 0.0008128978    1.673    0.402
        30  -9.7894      8.0969      5.3419   9.1868317429e+01   7.3079390730e+01    0.1309498   0.09186675  20.28 0.0005009416    1.602    0.376
        31  -9.8381    129.9854      3.0552   4.7436616957e+01   5.1802876737e+01    0.1593498    0.1435762  47.98 0.0005450058    1.031    0.030
        32 -10.9453     20.5682      2.0184   8.3141846233e+01   7.2395146996e+01    0.1999204    0.1445798   1.01 0.0004194039    1.149    0.129
        33 -10.4409    243.9928      2.0062   3.4440276912e+01   2.4554555892e+01    0.1801154    0.1399751  44.36  0.001136798    1.741    0.426
        34  -9.2342    176.3022      2.3702   4.0566257614e+01   4.0412302913e+01    0.1373658    0.0908993  38.45 0.0001344433    1.747    0.428
        35 -11.5648     80.5632      1.6472   5.8227141724e+01   6.2976340911e+01     0.307968    0.1487455  50.39 0.0006758635    1.820    0.451
        36  -9.8696     11.1320      1.6366   8.8221426141e+01   7.3372639361e+01    0.1503004    0.1240795  15.93 0.0006043797    1.495    0.331
        37  -9.9751    153.8781      1.3317   4.3095003239e+01   4.6079525455e+01    0.1959461    0.1108724  68.67 0.0004021809    1.563    0.360
        38  -8.9876     67.2571      1.3469   6.2299206664e+01   6.5566636579e+01    0.1285211   0.07882563  16.06 0.0004539668    1.595    0.373
        39  -9.2474     24.6782    138.6799   1.1800814839e+02   4.3356724691e+01     0.127241   0.08207253 -47.45   0.00070446    1.671    0.402
        40 -11.7305     14.0614    238.8176   1.2777919868e+02   2.2938517021e+01    0.2932782    0.1386355  79.63  0.001199326    1.807    0.447
        41 -12.1351      1.6374    225.6906   1.2924550197e+02   2.6557633480e+01    0.7261083     0.124446 -76.57  0.002938363    4.600    0.783
        42 -12.8557      5.7613    239.8649   1.2917911181e+02   2.3558726735e+01    0.5243385    0.4885431  -0.18  0.004476347    1.932    0.482
        43 -12.0585      4.0376    232.5995   1.2914826957e+02   2.5046629437e+01    0.2470561    0.1530427  69.15 0.0005337448    1.161    0.139
        44 -12.7351      9.7098    227.7527   1.2797728118e+02   2.5415223312e+01    0.5236723    0.3072457  75.81  0.001754108    1.302    0.232
        45 -11.0789      3.1798    249.8355   1.2998826076e+02   2.2043268889e+01    0.3695051    0.1837159  40.76  0.002568637    1.850    0.459
        46 -12.2600     16.4960    248.9421   1.2785645996e+02   2.0885632530e+01    0.5920345    0.2142264  30.98  0.002982134    3.654    0.726
        47  -9.3818     96.0293    133.9814   9.7758927400e+01   3.5506503509e+01    0.1773493    0.1661199 -68.28 0.0004629997    1.008    0.007
        48 -10.1852     23.9766    133.9194   1.1762348149e+02   4.4552792189e+01    0.1852505    0.1494575 -83.12 0.0002837239    1.046    0.044
        49 -11.0489      2.5079    132.9482   1.2310796209e+02   4.6360619295e+01     0.281951    0.1915056  69.45  0.001616756    1.451    0.311
        50  -9.0020     30.2941    131.2937   1.1558427315e+02   4.4631296555e+01    0.1262904   0.08492337 -46.78 0.0002275471    1.558    0.358
        51 -10.9775     11.6647    129.5803   1.2039210271e+02   4.6536996299e+01    0.2528688    0.1812542  76.18  0.001071916    1.359    0.264
        52  -8.9863    233.6779    127.7027   6.5040796486e+01   8.5693144889e+00     0.143216    0.1059901   3.68 0.0003800039    1.621    0.383
        53 -11.8791      8.0618    121.3830   1.2045163323e+02   4.8713405590e+01    0.3045902    0.2049913  58.75  0.001153319    1.630    0.387
        54 -11.9040     23.5899    121.0058   1.1606006377e+02   4.7678456393e+01    0.4411417    0.2530586  75.04  0.001042611    2.104    0.525
        55  -9.3075     17.4142    122.2419   1.1796485882e+02   4.7861310257e+01    0.1220037   0.08073714 -40.03 0.0001673846    1.710    0.415
        56  -9.6371     41.9867    117.0294   1.1007391630e+02   4.6965395670e+01    0.1605107    0.1353291 -67.11 0.0003641918    1.004    0.004
        57 -10.7217     65.7431    110.9753   1.0167096427e+02   4.5649764613e+01     0.311334    0.2308338  86.87  0.001227752    1.669    0.401
        58 -11.1990     22.9485    110.2365   1.1469294100e+02   5.0308058319e+01    0.2182344     0.150941 -68.95 0.0003717533    1.173    0.147
        59 -12.2030      3.7347    108.5782   1.2017495831e+02   5.1980319509e+01    0.4502862    0.2677413 -37.65  0.001648642    1.895    0.472
        60  -9.9220     35.5401    109.0221   1.1064565607e+02   4.9527963165e+01    0.2038969    0.1112883 -66.00 0.0003941768    1.545    0.353
        61 -10.9077     57.6261    107.6413   1.0348167780e+02   4.7490428417e+01    0.2818831    0.2203166 -25.86 0.0008741397    1.465    0.317
        62 -10.1425    186.9309    103.0235   6.7517092054e+01   2.3163986288e+01    0.2302443     0.223487 -43.41 0.0005567317    1.031    0.030
        63  -8.8890    135.7048    102.2913   7.9116969647e+01   3.5090498428e+01    0.1535486    0.1258591 -84.44 0.0001733069    1.555    0.357
        64  -9.5339     24.5252    101.3115   1.1277167174e+02   5.2311097000e+01    0.1989186    0.1198011  21.13  0.001087282    2.046    0.511
        65 -10.8490     20.1480     99.1739   1.1380981198e+02   5.3145560661e+01    0.1971297     0.142904 -52.20 0.0004831377    1.198    0.165
        66 -10.0019     61.6840     98.6795   1.0018142974e+02   4.9119225117e+01    0.1456411   0.09870853 -30.54 0.0002777947    1.659    0.397
        67 -12.6060     10.2506     91.6099   1.1578731313e+02   5.5564905615e+01    0.5744864    0.3048073 -84.50    0.0024702    2.014    0.504
        68 -11.6628     11.4371     86.0240   1.1446240545e+02   5.6785441231e+01     0.405941     0.173155 -81.24  0.001711915    2.890    0.654
        69 -11.0704     24.0708     88.3054   1.1056051018e+02   5.5402699288e+01    0.3700454    0.2177267 -52.64  0.001207841    1.366    0.268
        70 -12.4627     20.8560     92.8173   1.1248641616e+02   5.4588503030e+01    0.3551142    0.2879398 -35.59  0.000484385    1.283    0.221
        71 -11.0030     19.2037     86.8744   1.1195743371e+02   5.6088547809e+01    0.3177614    0.1850118 -67.25 0.0009373762    1.437    0.304
        72 -10.7523      3.4971     94.6854   1.1842882992e+02   5.5226611661e+01    0.2756454    0.1790764  62.55  0.001644634    1.874    0.466
        73 -11.6079    125.1742     93.2757   7.9353641420e+01   3.9289443469e+01    0.2608803    0.2460206 -40.22 0.0002295765    1.043    0.041
        74 -10.1256     29.3102     92.4683   1.0959329764e+02   5.4013430913e+01    0.2316556    0.1674374 -57.61 0.0006015676    1.122    0.109
        75  -8.9698    113.3381     92.2362   8.2371163811e+01   4.1974928379e+01    0.1498678    0.1181381   7.33 0.0001313653    1.545    0.353
        76 -10.7693     57.9267     91.7598   9.9759161293e+01   5.1217295752e+01    0.2541451    0.2002288 -35.07 0.0006358363    1.234    0.190
        77 -10.2306     43.5158     89.8787   1.0421396529e+02   5.3296384138e+01    0.4063337    0.2406093 -82.88   0.00158488    2.436    0.590
        78  -9.3799     64.6519     88.8118   9.6742372958e+01   5.1024518609e+01    0.1991698    0.1231812 -61.99 0.0007307978    1.665    0.399
        79 -11.4851     55.5433     85.8104   9.9078337757e+01   5.2883056349e+01     0.255034    0.2294423  29.80 0.0003453232    1.266    0.210
        80  -9.8349     76.7544     82.8904   9.1031832904e+01   5.0597552010e+01    0.1939764    0.1694172 -44.31 0.0003505984    1.068    0.063
        81 -11.3735      3.0671     81.8288   1.1662383324e+02   5.8197780594e+01    0.3686509    0.2163474 -74.53  0.001465376    1.459    0.315
        82  -9.1783     42.0358     81.9839   1.0287259618e+02   5.5268964569e+01     0.154083    0.1280741 -48.81 -0.002661949    1.010    0.010
        83  -9.5719    250.2551     81.0126   5.1683972378e+01   1.2844162481e+01    0.1794882    0.1039523 -35.46 0.0004894751    1.509    0.337
        84  -9.4483     64.8807     80.3651   9.4361544130e+01   5.2898039390e+01    0.1953258    0.1308645  13.78 0.0009513632    1.841    0.457
        85  -9.4646    124.4715     79.0095   7.5232410434e+01   4.2358241684e+01    0.2294927    0.1484383 -40.40 0.0005210348    1.515    0.340
        86  -9.2255     48.2745     79.2922   9.9954727700e+01   5.5211789221e+01    0.1355485    0.0895659 -32.41 0.0002772719    1.520    0.342
        87 -10.3563     77.6531     94.3966   9.3924717847e+01   4.7865078346e+01     0.465958    0.2384234  20.96  0.001466618    2.907    0.656
        88 -10.3631     28.0678     77.1025   1.0677573957e+02   5.7658828232e+01    0.1875694    0.1526696 -47.29 0.0003594049    1.037    0.036
        89  -9.3418    176.6735     76.6901   6.2296230965e+01   3.0433102375e+01    0.1570589     0.120034  18.03 0.0007039529    1.658    0.397
        90  -9.1784    161.2807     76.6289   6.5476067052e+01   3.4206721928e+01    0.1613805    0.1188717 -66.27 0.0006378876    1.696    0.410
        91 -10.2509     55.5291     76.0048   9.6443908496e+01   5.5087351196e+01    0.2417291    0.1832342  -7.44 0.0006068203    1.501    0.334
        92 -10.4447     42.1594     75.7316   1.0125069621e+02   5.6667237655e+01    0.2464561    0.1795629 -47.62  0.001420737    1.144    0.126
        93 -11.1385     14.9858     75.9598   1.1132369992e+02   5.8862982703e+01    0.2274791    0.1698193  41.17   0.00144305    1.695    0.410
        94 -10.4967     20.6543     72.8853   1.0856986750e+02   5.9173188903e+01     0.414243    0.1661184 -44.57  0.001151064    2.088    0.521
        95 -11.1250     35.8847     74.0897   1.0315488412e+02   5.7650882724e+01     0.406832     0.303553  44.37  0.001946062    1.686    0.407
        96  -9.4796     89.5824     80.7915   8.6192101710e+01   4.8929492736e+01    0.2054062    0.1351859 -56.58 0.0005907267    1.675    0.403
        97  -9.7854    216.9389     72.2464   5.4140335937e+01   2.1497669795e+01    0.1895384    0.1828865 -56.97 0.0004152058    1.049    0.047
        98 -10.1641    106.2452     71.7070   7.8111687771e+01   4.7641115168e+01    0.3203822    0.2658131  73.30  0.001608041    1.577    0.366
        99  -9.5899    100.0046     70.7009   7.9686374307e+01   4.9075665042e+01    0.1632659    0.1330256  37.16 0.0004804764    1.263    0.208
       100 -11.2990     10.8649     68.6236   1.1134173174e+02   6.0750571630e+01    0.3421207    0.2162794 -62.40  0.001189715    1.275    0.216
       101 -10.9569     10.8797     60.0546   1.0942287928e+02   6.2620092746e+01    0.2639226    0.2054743  45.51 0.0009798474    1.720    0.418
       102 -11.8786      6.7413     63.7991   1.1190782780e+02   6.2035862410e+01    0.5832523     0.333537  53.65  0.003102442    2.714    0.632
       103 -10.8232      4.5116     57.5110   1.1141741842e+02   6.3506813613e+01    0.2761793    0.1503034 -30.53 0.0008710412    1.800    0.445
       104 -10.1455      8.5604     56.5248   1.0952887024e+02   6.3506538986e+01    0.1925367    0.1109738  21.78  0.001135328    2.100    0.524
       105 -10.1662     16.0260     67.2225   1.0905230935e+02   6.0744072197e+01    0.2666479    0.1834089  70.99  0.001502872    2.167    0.539
       106 -10.1149     14.1886     63.4207   1.0889199930e+02   6.1692599023e+01    0.3730645    0.1676957  20.42  0.001916959    2.640    0.621
       107 -11.1572      5.0988     68.7968   1.1356203945e+02   6.1021689835e+01    0.3308436    0.2085161  75.36  0.001474567    2.281    0.562
       108 -10.8873      1.4217     66.8100   1.1456649370e+02   6.1634013360e+01    0.1989096   0.09370723 -68.93 0.0006032368    1.754    0.430
       109 -10.4367     46.4370     69.3015   9.7894532572e+01   5.7622296550e+01    0.2139786    0.1701893  12.28 0.0006440441    1.396    0.283
       110 -10.2522     77.5769     67.2104   8.5898757057e+01   5.3786969008e+01    0.3183226    0.1958712 -53.77  0.001257072    1.785    0.440
       111  -9.6737     34.5946     64.3018   1.0104363730e+02   5.9914151021e+01    0.2467995    0.1131094 -60.19   0.00112087    2.105    0.525
       112  -9.6562     96.8541     64.1641   7.8478105469e+01   5.0949205646e+01    0.1933259    0.1598508   4.10  0.001011388    1.270    0.212
       113  -9.9486     62.8791     62.4346   8.9593079467e+01   5.6988602242e+01    0.2876016     0.150665 -34.30  0.001262536    1.896    0.473
       114  -9.9878     39.3836     61.3474   9.8296988107e+01   6.0072813794e+01     0.230094      0.22072  74.47  0.001536494    1.359    0.264
       115 -13.6672     20.2243     58.0030   1.0509979717e+02   6.2450662029e+01    0.3686888    0.2922284 -60.21  0.001191303    1.226    0.184
       116  -9.6642    100.3623     60.1020   7.5975267890e+01   5.1015449335e+01     0.216038    0.1284128 -48.71 0.0009375719    1.883    0.469
       117 -10.5310     49.2488     59.6763   9.3889469045e+01   5.9326358796e+01    0.2377169     0.206555 -87.81 0.0009584683    1.625    0.384
       118 -10.2981    194.4094     58.9286   5.4082724186e+01   2.8971244892e+01    0.2545583    0.2028308  58.01  0.001316618    1.270    0.212
       119 -10.9046     84.0229     57.0149   8.0179850079e+01   5.4666298942e+01    0.3436522    0.2461458 -51.15  0.001380925    1.586    0.370
       120 -11.1025     88.4062     52.7121   7.7150242503e+01   5.4646240975e+01    0.3411687    0.2699359  -9.32  0.001177911    1.274    0.215
       121  -9.7378     71.5830     56.3338   8.4305051078e+01   5.6884267722e+01    0.2472996    0.1253777 -46.42  0.001089589    1.931    0.482
       122 -10.4853     32.5452     55.9720   9.9444176731e+01   6.1860711556e+01    0.5054978    0.2707237 -27.35   0.00252006    2.018    0.504
       123 -11.4946    114.6628     53.7948   6.9543684216e+01   4.9113609133e+01    0.3128721    0.2860764  35.02 0.0006514796    1.084    0.077
       124 -12.1681     65.5367     52.4805   8.5155047750e+01   5.8544618284e+01    0.4845861    0.2388738  36.81  0.001860126    2.164    0.538
       125 -10.6782      4.8601     50.8451   1.0969600773e+02   6.4898699158e+01    0.2569912    0.1953881 -16.68  0.001530777    1.383    0.277
       126 -10.2454     13.5615     48.5043   1.0531454224e+02   6.4886158041e+01    0.2204298    0.1671196 -67.34 0.0007291917    1.430    0.301
       127 -11.3598      8.7970     45.8853   1.0667849800e+02   6.5710567689e+01    0.4394504    0.3045133 -73.46  0.002742042    1.686    0.407
       128  -9.8690     19.6502     44.7635   1.0151225919e+02   6.5218432127e+01    0.1905016    0.1325084 -32.94 0.0005718752    1.188    0.158
       129 -11.0968     15.1567     42.9310   1.0296013782e+02   6.5905990359e+01    0.6737807    0.3951232 -82.87  0.003012327    3.702    0.730
       130 -11.5451     77.3519     46.3062   7.8530716364e+01   5.7744803266e+01    0.4751862    0.3642382  -7.03  0.001543325    1.307    0.235
       131  -9.9901     38.6927     48.5903   9.4499871213e+01   6.2736283821e+01    0.2007338    0.1516954 -23.59 0.0003902004    1.173    0.148
       132  -9.9349    154.5947     47.8893   5.7981695269e+01   4.0569300246e+01    0.2000245    0.1793139 -31.09 0.0005533738    1.146    0.127
       133 -11.1910     56.7714     46.3211   8.6268749276e+01   6.0952263658e+01    0.3276156    0.2931096 -61.80 0.0009146977    1.495    0.331
       134 -11.0344     27.3298     43.6993   9.7749353496e+01   6.4798416580e+01    0.4872979    0.1962864 -42.02  0.002329763    1.995    0.499
       135 -10.1690     31.2861     45.6860   9.6683249662e+01   6.4047979137e+01    0.2126171    0.1816363 -74.92  0.001041839    1.625    0.385
       136  -9.2052    135.5587     46.4602   6.1641850371e+01   4.5447180792e+01    0.1434051    0.1413477  45.70 0.0001525227    1.057    0.054
       137  -9.0638     68.6693     46.6767   8.1826606940e+01   5.9118921293e+01    0.1429175   0.09686552  -6.00 0.0002769879    1.700    0.412
       138 -10.4169     35.4298     41.6383   9.3452792781e+01   6.4412549698e+01    0.2836756    0.2378197  35.51  0.001853622    1.534    0.348
       139  -9.2750    183.4987     42.5077   5.1170366844e+01   3.4066433020e+01    0.1432315    0.1357972 -85.09 3.032341e-05    1.009    0.009
       140 -10.8440     69.2685     42.0068   7.9793506148e+01   5.9830585275e+01    0.2259505    0.1863228  22.21            0    1.203    0.169
       141 -10.4461      7.3599     34.1935   1.0384512914e+02   6.8111129722e+01    0.2203691    0.1369837  35.19  0.001353226    2.191    0.544
       142 -10.9253      3.3155     35.8442   1.0629666175e+02   6.8013883578e+01    0.2641701    0.1985331 -81.20  0.001303462    1.822    0.451
       143 -10.2546      3.7283     42.2317   1.0794355893e+02   6.6723772238e+01    0.2630256    0.1295281 -19.37  0.001432143    2.249    0.555
       144  -9.3381      5.5239     39.4513   1.0632901486e+02   6.7186558732e+01     0.118717   0.08778539 -41.64 -0.000100548    1.011    0.010
       145 -10.8334    140.4655     40.5748   5.8530131689e+01   4.5102521962e+01    0.2756454    0.2391603 -71.71 0.0007933763    1.333    0.250
       146  -9.8781     42.8974     40.6653   8.9853810566e+01   6.3765033861e+01    0.2076248    0.1462437 -27.92 0.0006605785    1.210    0.173
       147 -10.6122    128.1326     38.8125   6.0719336628e+01   4.8315469472e+01    0.2181902    0.2135825  33.91 0.0003701334    1.067    0.063
       148 -11.7117    121.5239     37.4677   6.1842849761e+01   5.0049166994e+01    0.3751977    0.3492725  11.27  0.001093331    1.040    0.038
       149  -9.7362     22.2118     38.1946   9.8176793958e+01   6.6296415646e+01    0.1429649    0.1368833 -17.52  0.000619443    1.328    0.247
       150 -11.2818     26.8043     35.6365   9.5134176777e+01   6.6375466909e+01    0.4201616    0.2188269 -38.96  0.001735513    1.548    0.354
       151  -9.9817     16.3933     33.2613   9.9180456815e+01   6.7685010107e+01    0.2264761    0.1289748 -12.02 0.0006930928    1.912    0.477
       152 -10.1963     20.8003     31.1312   9.6281393430e+01   6.7728621152e+01    0.2704182    0.1602794   4.16  0.001048919    1.858    0.462
       153  -9.1283    185.4191     35.4415   4.8846298768e+01   3.4522033654e+01    0.1421316    0.1284516 -75.06  5.57017e-06    1.075    0.070
       154 -10.6273     96.8912     35.0992   6.7704989262e+01   5.5791312741e+01    0.2365546    0.1808063  26.30   0.00128161    1.258    0.205
       155  -9.5678     90.4951     35.4702   6.9834040849e+01   5.7029369928e+01    0.1394528    0.1226204   8.13 0.0002641157    1.013    0.013
       156 -11.2677     39.2519     32.7811   8.8353124125e+01   6.5591158538e+01    0.4801742    0.3212093 -48.18  0.002073068    1.603    0.376
       157  -9.4137    212.4156     34.2024   4.4939722239e+01   2.8048410634e+01    0.1828881    0.1159494 -45.35   0.00028952    1.479    0.324
       158  -9.5399    134.0054     34.4572   5.7832848359e+01   4.7495491796e+01    0.2058929    0.1024266  37.37 0.0007655732    2.289    0.563
       159 -10.2137     72.7687     32.5726   7.4663317675e+01   6.0751358518e+01    0.2810192    0.1882812   5.02 0.0006872261    1.669    0.401
       160 -10.3349    128.7290     30.9685   5.7773333305e+01   4.9209900861e+01    0.3739128    0.2423876 -40.87  0.001214521    1.683    0.406
       161  -9.5031    187.8515     30.8584   4.7195814854e+01   3.4490962318e+01    0.1986814    0.1541174 -72.54 0.0004476943    1.334    0.250
       162 -10.0952     77.0961     30.8524   7.2400505315e+01   6.0238767224e+01    0.1986761    0.1688616   8.60  0.001200499    1.037    0.035
       163 -10.3840     77.1189     26.9318   7.0723900210e+01   6.0788418608e+01    0.2459586    0.1718531 -21.74  0.001362907    1.364    0.267
       164  -9.8256     44.3031     30.3446   8.5110086904e+01   6.5389330750e+01    0.2058469    0.1530035 -14.48  0.001271818    1.164    0.141
       165 -10.1784     47.0702     27.0642   8.2495333573e+01   6.5558205226e+01    0.2656915    0.2201141  47.03  0.001253634    1.731    0.422
       166 -10.7171     43.3950     26.1421   8.3701831200e+01   6.6186060388e+01    0.3087696    0.1880167 -43.80  0.001251735    1.720    0.419
       167 -10.8024      7.8155     28.5239   1.0171419629e+02   6.9155778724e+01    0.3214945    0.2375531  48.26  0.002088041    2.190    0.543
       168 -10.6238     68.9977     26.9764   7.3649665604e+01   6.2220349827e+01    0.3484639    0.2473173 -46.43  0.001136415    1.803    0.445
       169 -10.8338    113.7259     26.0983   5.9534173747e+01   5.3312942303e+01    0.2934521    0.2242013 -40.09  0.001586409    1.465    0.317
       170  -9.9869    100.8061     26.4791   6.3117491257e+01   5.6123928186e+01     0.231558    0.1752125  13.16 0.0009772612    1.341    0.254
       171  -9.6030    146.9866     26.3120   5.2391681654e+01   4.5312064179e+01    0.1940987    0.1614968  58.12 0.0001808183    1.118    0.106
       172  -9.0280    139.0521     27.0000   5.4166751021e+01   4.7192573489e+01    0.2432411   0.07600019  60.74 0.0002338775    2.999    0.667
       173  -9.3285     18.5131     25.9748   9.5405184654e+01   6.8842391723e+01    0.1690923   0.06920099 -32.45 0.0008040962    2.254    0.556
       174  -9.7646    229.6623    247.9948   8.9303738427e+01  -8.6908581080e+00    0.1550226    0.1225286   2.79 0.0007156767    1.132    0.117
       175  -9.9205     59.0299     23.9216   7.6121787704e+01   6.4290640160e+01    0.2356746    0.1432732 -17.18  0.001247106    1.639    0.390
       176  -9.7271     58.7796     19.8089   7.4345274252e+01   6.4904718337e+01    0.1566809    0.1434287 -22.82 0.0003937172    1.345    0.257
       177 -10.6030     82.9399     22.1389   6.6702919017e+01   6.0320621885e+01    0.4414394    0.1767468  31.25  0.001597025    3.359    0.702
       178 -10.8643     35.0469     22.1551   8.5744893630e+01   6.7837591067e+01       0.2224    0.1424978 -28.68 0.0003085186    1.302    0.232
       179  -9.6987    225.1775    246.8588   8.9912534501e+01  -7.9327280281e+00     0.165837    0.1113443   8.34  0.001067586    1.345    0.257
       180 -10.8468     14.4681     21.7249   9.5743012477e+01   6.9909842359e+01    0.3998523    0.2049239  19.94  0.002333277    2.116    0.527
       181  -9.1211    164.7154     21.3150   4.7764499107e+01   4.1429991416e+01    0.1409208    0.1007766 -64.86 0.0003223963    1.581    0.367
       182 -11.0119     41.1747     20.1898   8.2017620892e+01   6.7390036952e+01    0.3385613    0.2011335  19.70  0.001764158    1.714    0.417
       183 -10.4900     30.2029     20.9882   8.7533416555e+01   6.8566244845e+01     0.260258    0.1702518  11.99  0.001117252    1.523    0.343
       184  -8.9308    155.9811     20.6545   4.8951997704e+01   4.3700513373e+01    0.2577159    0.0579159  47.64 0.0007025785    4.683    0.786
       185 -10.3558     20.3233     17.3311   9.0833689882e+01   7.0145620446e+01    0.2132942    0.1463319 -25.39 0.0006177446    1.130    0.115
       186  -9.9362    114.9503     17.4607   5.5907011316e+01   5.4012572872e+01    0.2038148    0.1249632  57.00 0.0003436825    1.525    0.344
       187  -9.4888    170.8309    247.1795   9.9879450865e+01   1.1900977919e-01    0.1676194    0.1235359  18.63 0.0007708127    1.343    0.256
       188 -12.2515      9.3138    245.2312   1.2883877810e+02   2.2257145558e+01    0.4488824    0.2340728  26.64  0.002728621    2.892    0.654
       189  -9.0275    108.5468     16.3747   5.7018424480e+01   5.5587346542e+01    0.1358973    0.1160495  35.33 -5.639368e-05    1.038    0.036
       190 -10.2426    212.6513    133.9248   7.0229155339e+01   1.1722626373e+01    0.2602544    0.2189798  57.82 0.0006924368    1.381    0.276
       191  -9.6174    202.4526    240.4597   9.3014552471e+01  -3.8088549523e+00    0.1222957   0.09631354  20.08 8.748376e-05    1.017    0.017
       192 -10.3117     82.9100     16.0376   6.4040882455e+01   6.1057351976e+01    0.1971797    0.1731799   9.91 0.0004091589    1.064    0.060
       193  -9.8042     44.1548     15.9137   7.8659356420e+01   6.7612436502e+01    0.1739231    0.1176044 -11.01 0.0009435407    1.324    0.244
       194  -9.6312    154.3134     15.0396   4.7416298541e+01   4.4708701450e+01    0.1789202    0.1736682  46.91 0.0003021846    1.077    0.072
       195  -9.3388     61.0967    241.0000   1.1977994150e+02   1.7222014395e+01     0.176963   0.05425284  37.83 0.0007904355    2.860    0.650
       196  -9.6653     72.4696     12.5242   6.5878434431e+01   6.3449534597e+01    0.2363313    0.1358635   6.16  0.000121341    2.092    0.522
       197 -11.6666     25.7742    235.8924   1.2565899875e+02   2.2269327121e+01    0.2548543    0.1943459  36.86  0.001049448    1.596    0.374
       198  -9.1520    204.4876    235.4683   9.1860816043e+01  -3.4487739096e+00    0.1229357   0.09939172  21.26 0.0004519695    1.036    0.035
       199  -9.7454    249.3213    233.9763   8.3636892259e+01  -9.7393133324e+00     0.159323    0.1190599   0.66 0.0004278358    1.074    0.069
       200  -9.0503    243.3286    230.2894   8.4040372660e+01  -8.4801724816e+00     0.122894   0.07412072   7.80 0.0007015627    1.619    0.382
       201  -9.8068    209.5107    229.5343   8.9975538998e+01  -3.4116302293e+00    0.1249605    0.1005563  17.27 4.927579e-05    1.004    0.004
       202 -10.2652    140.5925    228.5726   1.0319349459e+02   7.8357017378e+00     0.251354    0.1234408 -49.80  0.001116689    2.383    0.580
       203  -9.6989    223.3707    226.7732   8.6975688906e+01  -5.1482726892e+00    0.1616874    0.1021681 -18.01 0.0004372184    1.631    0.387
       204  -9.1847    123.5094    222.4766   1.0582470017e+02   1.1661872614e+01    0.1290755    0.1092576  51.76  0.000109294    1.027    0.026
       205 -10.6417      9.3729    218.0242   1.2755006140e+02   2.7314862617e+01     0.206676    0.1588481 -58.03  0.001533934    1.764    0.433
       206 -10.0899    205.5575    212.6638   8.7859393730e+01  -3.5677360970e-01    0.2255182    0.1642622  -5.04 0.0007945858    1.429    0.300
       207  -9.9683     15.2062    213.4123   1.2625452131e+02   2.7668085286e+01    0.1466318   0.07854021  52.42 0.0002761692    1.553    0.356
       208 -10.7804      4.0105    212.0981   1.2819885160e+02   2.8971379431e+01    0.3224826   0.08342575  53.08  0.001530166    2.995    0.666
       209  -9.2563    209.6614    211.2822   8.6834246626e+01  -8.2092857268e-01    0.1169767    0.1013336  58.81 0.0007010774    1.625    0.385
       210 -10.3258     20.2029    209.8407   1.2511903937e+02   2.7895289486e+01    0.1795707    0.1134006  67.80 0.0006738998    1.266    0.210
       211 -10.3843      3.1998    205.6197   1.2801568048e+02   3.0337329925e+01    0.1285228    0.1031136  25.88  0.000959255    1.767    0.434
       212 -10.1612     10.1788    203.3895   1.2660552354e+02   3.0166467346e+01    0.1526328   0.07884432  50.36 0.0004166184    1.669    0.401
       213  -9.1943    193.4933    201.5702   8.8231689856e+01   3.4278374157e+00    0.1351909    0.1169712  17.69 9.700595e-05    1.011    0.011
       214  -9.4749    123.3563    198.2442   1.0246100152e+02   1.6352208747e+01    0.1819487     0.127402 -69.88  0.000943386    1.653    0.395
       215 -10.1591     23.5464    196.8640   1.2360721404e+02   3.0250038487e+01    0.1979479    0.1691601 -58.62  0.001193569    1.504    0.335
       216 -11.0277     13.9309    192.7044   1.2522598559e+02   3.2049882712e+01    0.2133944    0.1415365  66.40 0.0005233231    1.252    0.201
       217 -10.2767      6.1394    191.6077   1.2668363453e+02   3.2972505202e+01    0.1523926    0.1199419  69.98  0.001128949    1.138    0.121
       218  -9.4561      1.1708    191.2812   1.2762467908e+02   3.3458478690e+01    0.1669253   0.06285173  89.93 0.0005886566    2.348    0.574
       219  -9.7085     22.5075    179.9385   1.2253700975e+02   3.4018324123e+01    0.1744664   0.09720662 -77.56 0.0004183795    1.500    0.333
       220 -10.9377      5.3254    167.5870   1.2528026046e+02   3.8250964432e+01    0.2458659    0.1482127  83.21  0.001524728    1.367    0.268
       221  -9.6813    226.4870    163.9686   7.4390314206e+01   3.7962480932e+00    0.2080585    0.1266809 -32.94 0.0007117655    1.538    0.350
       222  -9.1604    247.4616    155.4683   6.8907562845e+01   1.4567140987e+00    0.1360357     0.114958 -14.21 0.0001956951    1.001    0.001
       223  -9.5928     43.8204    153.1940   1.1488184486e+02   3.8022355610e+01     0.166148    0.1376025 -56.13 0.0002731023    1.276    0.216
       224 -10.9359      3.3631    153.5483   1.2466538400e+02   4.1559601316e+01    0.2943838    0.1072468  27.16   0.00144592    3.167    0.684
       225 -10.4975     16.0198    150.4801   1.2142638505e+02   4.1299986499e+01    0.1582261    0.1209943  31.02  0.001033158    1.598    0.374
       226  -9.2487    237.7255    149.6778   6.9301775650e+01   4.1165111583e+00    0.1399527   0.09904037  -3.60 0.0002607258    1.577    0.366
