#   1 NUMBER                 Running object number                                     
#   2 MAG_AUTO               Kron-like elliptical aperture magnitude                    [mag]
#   3 X_IMAGE                Object position along x                                    [pixel]
#   4 Y_IMAGE                Object position along y                                    [pixel]
#   5 X_WORLD                Barycenter position along world x axis                     [deg]
#   6 Y_WORLD                Barycenter position along world y axis                     [deg]
#   7 A_WORLD                Profile RMS along major axis (world units)                 [deg]
#   8 B_WORLD                Profile RMS along minor axis (world units)                 [deg]
#   9 THETA_WORLD            Position angle (CCW/world-x)                               [deg]
#  10 FWHM_WORLD             FWHM assuming a gaussian core                              [deg]
#  11 ELONGATION             A_IMAGE/B_IMAGE                                           
#  12 ELLIPTICITY            1 - B_IMAGE/A_IMAGE                                       
         1 -14.6070      8.0214    152.5884   1.4741871681e+02   4.2675831808e+01     9.896282     3.846984  68.56    0.0477969    2.749    0.636
         2 -12.1250      2.4285     43.6184   1.3458399407e+02   6.6686894095e+01     1.647398   0.07552719 -64.85  0.003573859   11.805    0.915
         3 -12.4753      2.7326     18.2302   1.2701582733e+02   7.1549974175e+01    0.8619296    0.3384499 -53.26  0.004837671    1.875    0.467
         4 -12.6097      3.1660      5.4444   1.2166981024e+02   7.3736224073e+01    0.7916031    0.7350268  88.23  0.006438282    1.758    0.431
         5 -13.2679    208.7246      6.9726   6.4033855820e+01   3.1870654620e+01     1.136014    0.8508761  61.06  0.006283126    1.322    0.244
         6 -13.5072    194.8831     24.8976   7.0694541877e+01   3.3509532918e+01     1.728585     1.536616   7.19  0.008238242    1.328    0.247
         7 -10.8681    108.9303    247.1209   1.3602126456e+02   1.2026850911e+01    0.2434178    0.1466131  63.43  0.001544541    1.497    0.332
         8 -10.2276    174.4986    249.9849   1.2497709489e+02   1.3303925704e+00    0.2590545    0.1142494  53.13  0.001269369    2.407    0.585
         9 -10.4844     99.0936    249.0961   1.3788093629e+02   1.3168979874e+01    0.2290773    0.1370872  63.10   0.00149027    1.426    0.299
        10  -7.9690     67.2960    250.6578   1.4329642909e+02   1.7300563189e+01    0.1139928   0.05804097  65.99 0.0006070611    1.663    0.399
        11 -12.4146    139.7025    249.2284   1.3090924857e+02   6.9778476545e+00    0.7796901    0.2902658  40.91  0.003833437    2.154    0.536
        12 -10.5260     35.0822    244.4612   1.4809746420e+02   2.2241879179e+01    0.2728769    0.1810828 -67.27  0.002065423    1.892    0.471
        13 -10.7273    184.9720    237.7483   1.2154932226e+02   1.1964697689e+00    0.2384306    0.1979903 -80.10  0.001150223    1.819    0.450
        14  -9.4511     82.1957    243.1840   1.4026415414e+02   1.6509861371e+01    0.1609098   0.09902971  65.58 0.0007800791    1.334    0.250
        15 -10.5945     94.9744    239.9448   1.3778741556e+02   1.5224432041e+01    0.2416282    0.1304827 -87.76  0.001356303    2.374    0.579
        16 -10.8521    247.8256    248.4590   1.1253411388e+02  -9.7263836561e+00    0.2952818    0.1974775  50.30  0.001938583    2.038    0.509
        17 -12.2605      9.8432    206.9652   1.5035560746e+02   3.1545580242e+01    0.5734473    0.4022219  31.96   0.00330224    1.934    0.483
        18 -12.6171     37.4228    235.9163   1.4725972373e+02   2.3421383847e+01    0.2612801     0.203678 -88.42 0.0007400399    1.354    0.261
        19  -9.0186    152.4995    212.9982   1.2405731973e+02   1.0374070143e+01    0.1826106    0.1468308  48.53 0.0003767086    1.030    0.029
        20  -8.9911     25.7981    212.8227   1.4790348249e+02   2.8850454665e+01    0.2228093    0.0826941  58.34  0.001218792    2.161    0.537
        21 -11.4620     63.1138    200.9713   1.4013328615e+02   2.6713185405e+01    0.2422211    0.2075942 -75.60 0.0005317063    1.356    0.263
        22 -11.0054     20.7996    200.1761   1.4804816204e+02   3.1770671347e+01    0.2216822    0.1468588  66.67 0.0004368978    1.147    0.128
        23 -10.8611     17.1730    198.1560   1.4858728562e+02   3.2522028122e+01      0.21157    0.1525755  73.06 0.0004244339    1.044    0.042
        24  -9.4336    192.0160    193.0133   1.1324686903e+02   6.3482332142e+00    0.3353066      0.19022 -60.60  0.001413465    3.210    0.688
        25 -11.7584     69.2472    192.4660   1.3809152019e+02   2.7586997760e+01    0.2494569    0.2196811 -74.23 0.0004846562    1.332    0.249
        26 -13.0103     65.9659    177.4946   1.3717448557e+02   3.1129972660e+01    0.4572132    0.2640609 -48.79  0.001659444    2.303    0.566
        27 -10.6858     79.1514    179.2294   1.3453961140e+02   2.8922985820e+01     0.225033    0.2002615  76.15 0.0003444329    1.133    0.117
        28 -13.8876     43.1684    228.5173   1.4586290968e+02   2.4046191072e+01    0.9059783    0.5052253  54.95  0.003368375    1.357    0.263
        29 -11.5231     86.3130    169.8684   1.3175199439e+02   2.9848567332e+01    0.5478871    0.5032274 -47.54  0.003502459    1.399    0.285
        30  -8.4287     24.2550    237.9595   1.4948429501e+02   2.4530874971e+01    0.1223114   0.06856035 -89.61 0.0008114181    1.517    0.341
        31  -9.1103    101.5066    149.1139   1.2496477342e+02   3.1952456202e+01    0.1972719    0.1941079 -54.76 0.0004442495    1.216    0.177
        32 -11.7135     87.3146    152.7709   1.2900127224e+02   3.3448584124e+01    0.2643753    0.2404612 -51.64 0.0005061988    1.298    0.229
        33 -12.2434     67.1389    143.6232   1.3252959045e+02   3.8450020414e+01    0.6849524    0.4211605  67.46   0.00298644    1.771    0.435
        34  -9.6641    109.9680    137.8729   1.2078146287e+02   3.2973775307e+01    0.3797787    0.2658652 -19.32  0.001442757    2.495    0.599
        35  -8.2293    192.2973    144.2654   1.0344725809e+02   1.4545618555e+01    0.1446005    0.1117531  15.69 0.0002421152    1.514    0.339
        36 -10.3191     97.3176    135.3852   1.2349155396e+02   3.5754846357e+01    0.2468911    0.2290113 -45.76 0.0005030343    1.225    0.184
        37  -9.2831     84.0560    134.8249   1.2679481121e+02   3.8026218933e+01    0.2165489    0.1632621  74.02  0.000874601    1.380    0.275
        38  -9.8281     98.6829    153.5081   1.2639720986e+02   3.1452715251e+01    0.3053606       0.2544 -60.61 0.0009117872    1.235    0.190
        39 -11.0597    146.5753    230.1709   1.2746078780e+02   8.6736662645e+00    0.4360232    0.1561428  34.61  0.001654588    3.539    0.717
        40  -8.9718    107.0699    124.3599   1.1871744308e+02   3.6543044136e+01    0.1930398    0.1699428  53.91  0.000360788    1.144    0.126
        41 -12.8419     50.9825    217.4207   1.4374788564e+02   2.5116078688e+01     1.055556    0.9377162  34.85  0.007193873    1.651    0.394
        42  -9.6702    167.7686    112.7574   1.0105902984e+02   2.6105446770e+01    0.3102381    0.2601776  89.44  0.001232643    1.403    0.287
        43  -9.4338    203.1818    111.4836   9.3479072579e+01   1.7960115780e+01    0.2467233    0.2083012   1.84 0.0006630145    1.335    0.251
        44 -10.0904    173.3391    222.6544   1.2151869026e+02   5.2399411264e+00    0.3696858    0.1765957  51.27   0.00179422    2.002    0.500
        45  -9.2992      6.3465     91.3016   1.4172113149e+02   5.6293471738e+01    0.1184826   0.06812754 -47.56 0.0007038818    1.686    0.407
        46  -9.5027     27.7247     60.4228   1.2858390560e+02   6.1578673465e+01    0.2029236    0.1114613  31.35  0.001133396    2.162    0.537
        47 -10.2821    237.4566    247.7198   1.1408984782e+02  -8.1636050636e+00    0.2700718    0.1036307 -33.88  0.001435291    3.117    0.679
        48 -11.3412    124.5577    250.0275   1.3360995489e+02   9.2198667662e+00    0.4863746    0.1288788  44.30  0.002104195    2.774    0.639
        49 -10.0871     81.3601    248.3248   1.4080703326e+02   1.5794426945e+01    0.2191872    0.1336776  74.53  0.001472258    1.521    0.343
        50  -8.7316     46.9517    249.4937   1.4649344532e+02   2.0029700459e+01    0.1483991   0.07700121  47.97 0.0006275842    1.501    0.334
