#   1 NUMBER                 Running object number                                     
#   2 MAG_AUTO               Kron-like elliptical aperture magnitude                    [mag]
#   3 X_IMAGE                Object position along x                                    [pixel]
#   4 Y_IMAGE                Object position along y                                    [pixel]
#   5 X_WORLD                Barycenter position along world x axis                     [deg]
#   6 Y_WORLD                Barycenter position along world y axis                     [deg]
#   7 A_WORLD                Profile RMS along major axis (world units)                 [deg]
#   8 B_WORLD                Profile RMS along minor axis (world units)                 [deg]
#   9 THETA_WORLD            Position angle (CCW/world-x)                               [deg]
#  10 FWHM_WORLD             FWHM assuming a gaussian core                              [deg]
#  11 ELONGATION             A_IMAGE/B_IMAGE                                           
#  12 ELLIPTICITY            1 - B_IMAGE/A_IMAGE                                       
         1 -15.2086      7.1778    147.1074   2.9257490458e+02   5.9583606379e+00    0.3240021    0.1237453 -70.45    0.0235813    3.488    0.713
         2 -13.5122      3.0088      7.2710   2.9180997942e+02   7.5548154103e+00    0.1349689   0.03643292 -61.58  0.009409313    3.555    0.719
         3 -13.5010    193.1253     28.2578   2.8973590301e+02   6.2941189574e+00   0.06532498    0.0569763 -13.36  0.006411882    1.168    0.144
         4 -13.6886    207.6831      8.4965   2.8945235633e+02   6.4371892185e+00   0.07439155   0.04970282 -20.97  0.005649396    1.776    0.437
         5  -9.9212     81.8579    249.1113   2.9230497498e+02   4.4083368240e+00   0.01044003  0.008783083  61.22   0.00123085    1.342    0.255
         6 -10.4452    249.1609    249.8208   2.9038371237e+02   3.4989918827e+00     0.015123  0.007390681  29.64  0.001394733    1.973    0.493
         7 -11.8858    139.4287    248.9013   2.9164076920e+02   4.1010591979e+00   0.02137909   0.01902694  45.98  0.002640729    1.184    0.156
         8 -11.1287    102.1934    247.4507   2.9206112992e+02   4.3177462913e+00   0.01486326    0.0133207 -51.03  0.000848343    1.103    0.093
         9  -8.4259     16.6317    250.6899   2.9306551286e+02   4.7404641217e+00  0.007094253   0.00468332 -24.85 0.0007036442    1.763    0.433
        10 -10.0605      2.3868    249.7886   2.9322441971e+02   4.8268938132e+00   0.01432555   0.01002837 -44.43  0.001115623    1.413    0.292
        11  -9.1387      5.3348    248.3165   2.9318195287e+02   4.8277026856e+00   0.01310138  0.007547147 -25.82  0.001141074    2.229    0.551
        12 -10.6735    238.7179    247.9919   2.9049311408e+02   3.5759462902e+00  0.009270807  0.008841327 -48.77  0.001175554    1.052    0.050
        13 -10.6144     34.7061    245.0535   2.9282469066e+02   4.7071207580e+00   0.02501753   0.01390995 -44.55   0.00217296    1.809    0.447
        14 -10.5421    198.4845    246.0210   2.9094436028e+02   3.8152303277e+00   0.01022842  0.006320785 -61.14  0.000640028    1.615    0.381
        15  -9.5381     12.0202    240.9402   2.9306230569e+02   4.8750321338e+00   0.01038028  0.009662138   1.29  0.001304588    1.060    0.057
        16 -13.1384      9.9422    206.7450   2.9288850685e+02   5.2715257507e+00    0.3074516   0.07202059  31.65   0.01301589    3.595    0.722
        17  -9.3065    215.3290    249.6611   2.9077176595e+02   3.6833929034e+00  0.006862801  0.004865011  60.94 0.0007051806    1.735    0.424
        18 -10.4567    149.9980    229.5100   2.9140648609e+02   4.2625065266e+00   0.01014401  0.006344195  22.94  0.001036357    1.602    0.376
        19 -11.5402     63.9336    199.6425   2.9222481124e+02   5.0619756294e+00   0.01780846   0.01126673 -37.36  0.001125289    1.674    0.403
        20 -11.9679     19.1452    199.3644   2.9273965906e+02   5.3053977724e+00   0.02514252   0.01271421  45.29  0.001526784    2.223    0.550
        21  -9.7915    191.7554    192.8089   2.9071222767e+02   4.4505227007e+00   0.01921808   0.01014043  83.33  0.001337828    4.307    0.768
        22  -8.4953     50.9830    197.2068   2.9236001223e+02   5.1589567649e+00  0.008174967  0.005110416  24.26 0.0003279431    1.591    0.371
        23 -10.5111     10.0220    195.8733   2.9282466094e+02   5.3936173510e+00   0.01866325  0.008149124  29.89  0.001215341    2.183    0.542
        24 -10.4897    173.8499    222.4730   2.9109096664e+02   4.2131784238e+00    0.0205075   0.01378258  58.07  0.002107945    1.837    0.456
        25 -11.8567     69.7811    191.4688   2.9210997100e+02   5.1226561452e+00   0.01517742   0.01167905 -35.30 0.0006027012    1.323    0.244
        26 -12.7164     38.2642    234.2487   2.9272118463e+02   4.8097956578e+00   0.01908301   0.01361655 -42.19 0.0007798214    1.399    0.285
        27 -14.6568     44.0533    226.7278   2.9261093465e+02   4.8634933696e+00    0.2949805   0.09040061  24.67   0.00537206    3.271    0.694
        28 -13.2639     66.5071    176.5727   2.9206127199e+02   5.3080734808e+00   0.02705397   0.01312791 -40.45  0.001905388    2.260    0.558
        29 -10.9683     79.5081    178.5417   2.9192276163e+02   5.2160167553e+00   0.01195104   0.01100517 -24.48 0.0004535199    1.067    0.063
        30  -8.7758    102.0998    178.5312   2.9166219296e+02   5.0946145178e+00  0.009211134  0.006218397  27.49  0.000457842    1.460    0.315
        31 -11.7824     86.8693    169.0452   2.9178270191e+02   5.2834126175e+00    0.0309027   0.02620764 -15.09  0.003722741    1.218    0.179
        32 -10.1069    189.5258    153.0635   2.9050635121e+02   4.9099352458e+00    0.0182542   0.01082173  63.59  0.001542193    2.486    0.598
        33 -10.0179     99.0342    152.7632   2.9154773925e+02   5.4013525350e+00   0.01599317   0.01165833 -41.21 0.0007929981    1.372    0.271
        34  -9.4271    101.9648    148.7007   2.9149030514e+02   5.4313300440e+00    0.0109955  0.008320529 -35.07  0.001233535    1.353    0.261
        35 -12.0894     87.6834    152.1831   2.9167530209e+02   5.4689698969e+00   0.01462399   0.01161726 -27.56 0.0006105019    1.308    0.236
        36 -12.8253     66.2967    142.8059   2.9186755500e+02   5.6895957683e+00   0.06007145   0.03399875  68.05  0.003520754    2.991    0.666
        37  -9.6670    183.3484    146.6242   2.9053997730e+02   5.0157811750e+00   0.01352376  0.009501627  61.14 0.0007506147    1.763    0.433
        38 -10.7555      3.3236    228.6061   2.9309124177e+02   5.0605968208e+00   0.01448221   0.01329417  86.24  0.001808126    1.198    0.166
        39  -9.8202    110.1692    137.6768   2.9133151489e+02   5.5112927650e+00   0.01783736  0.009345528 -32.85  0.001335161    2.361    0.576
        40 -11.0007     96.5425    134.6757   2.9147125613e+02   5.6184690938e+00    0.0218557   0.01085725  34.14   0.00123184    1.955    0.488
        41 -10.0030     84.4177    135.1606   2.9161398422e+02   5.6782608332e+00   0.01432628  0.009292459  46.69  0.001290782    1.692    0.409
        42  -9.2289     94.4206    216.6062   2.9197179728e+02   4.7070086186e+00   0.01254906  0.008269267  67.65 0.0009054648    2.081    0.519
        43  -8.7994    160.8482    126.0067   2.9067908121e+02   5.3693542361e+00   0.01071636  0.007320726  73.01  0.001026547    1.999    0.500
        44  -9.2605    107.1623    124.1739   2.9128759043e+02   5.6795350581e+00   0.00913691  0.008112602 -21.87 0.0003186635    1.127    0.113
        45 -10.8090     53.8800    120.7231   2.9188250102e+02   6.0050392289e+00   0.01937716  0.008996093 -72.96  0.001575299    2.805    0.643
        46  -8.8024    152.5118    213.0229   2.9128173270e+02   4.4346219436e+00  0.009072627   0.00636318 -62.06 0.0004540176    1.437    0.304
        47 -10.4636    168.0287    113.1468   2.9052129624e+02   5.4753009483e+00   0.01470672   0.01140868  58.95 0.0007833667    1.493    0.330
        48  -9.4056    203.2105    111.5920   2.9010676008e+02   5.3025988346e+00  0.009055172  0.006162664   5.74 0.0005427576    1.647    0.393
        49  -9.2239     72.9490     86.1427   2.9146103968e+02   6.2918839042e+00  0.009970482  0.008040027  51.70 0.0006159679    1.361    0.265
        50  -8.8217    184.5303     77.4971   2.9012291814e+02   5.7871441619e+00  0.006492333  0.006164914 -21.69 1.188139e-05    1.022    0.022
        51  -9.4506    156.5124     75.9958   2.9043726575e+02   5.9555058027e+00  0.009851974   0.00634193 -61.53 0.0005827271    1.557    0.358
        52 -10.6720     13.4158     65.1573   2.9202675676e+02   6.8478369152e+00   0.01876767   0.00679753  36.50  0.001503539    2.653    0.623
        53 -10.8689      7.2966     63.0604   2.9208529607e+02   6.9042378840e+00  0.009089733  0.008592066 -56.58 0.0005556224    1.075    0.070
        54 -11.2112     25.0765     59.3523   2.9185816950e+02   6.8506314152e+00   0.04295111  0.008353831  37.73   0.00262163    4.638    0.784
        55  -9.9625    162.7623    249.5784   2.9137609626e+02   3.9677586611e+00  0.009531187  0.005714968  36.28 0.0009544407    1.662    0.398
        56 -11.0872    122.1572    249.8065   2.9184488466e+02   4.1838278257e+00    0.0199594  0.006951743  31.45  0.001590244    2.647    0.622
