#   1 NUMBER                 Running object number                                     
#   2 MAG_AUTO               Kron-like elliptical aperture magnitude                    [mag]
#   3 X_IMAGE                Object position along x                                    [pixel]
#   4 Y_IMAGE                Object position along y                                    [pixel]
#   5 X_WORLD                Barycenter position along world x axis                     [deg]
#   6 Y_WORLD                Barycenter position along world y axis                     [deg]
#   7 A_WORLD                Profile RMS along major axis (world units)                 [deg]
#   8 B_WORLD                Profile RMS along minor axis (world units)                 [deg]
#   9 THETA_WORLD            Position angle (CCW/world-x)                               [deg]
#  10 FWHM_WORLD             FWHM assuming a gaussian core                              [deg]
#  11 ELONGATION             A_IMAGE/B_IMAGE                                           
#  12 ELLIPTICITY            1 - B_IMAGE/A_IMAGE                                       
         1 -12.0592     74.5858     50.7864   9.5479619695e+01   5.7139149994e+01     1.192163    0.7324011 -50.12  0.005931219    1.691    0.409
         2 -12.3160     60.3122     45.2370   9.8732760008e+01   6.0306053206e+01    0.9484832    0.4369544 -44.30  0.004392182    1.935    0.483
         3 -13.3648    118.4943     40.6815   7.8104803471e+01   5.0318162835e+01     1.149908    0.8887795  47.42   0.00352872    1.270    0.212
         4 -12.4094    106.0134     20.1166   7.3458336484e+01   5.5937403957e+01    0.3427789    0.2665484 -24.25 0.0004019416    1.300    0.231
         5 -11.2661     26.3545     27.5731   1.0652507068e+02   6.7451486949e+01    0.4511758    0.2879649 -47.66  0.001973752    1.339    0.253
         6 -12.5836     15.8728     13.0530   1.0591991587e+02   7.0909183741e+01    0.9397676    0.4295917 -35.44  0.002974016    1.809    0.447
         7 -11.8907     22.7111     11.2674   1.0161534926e+02   7.0617187430e+01    0.4995223    0.3630757  -5.83  0.002653593    1.291    0.226
         8 -11.5614     19.9190     22.7559   1.0776414945e+02   6.8876140477e+01    0.5918074    0.2654803 -48.77  0.002923956    1.780    0.438
         9 -10.9204    152.7236     26.5752   6.5266065867e+01   4.3907473053e+01    0.7574461    0.4069765   2.30  0.002751854    3.116    0.679
        10 -12.3714    248.5101     22.5605   5.1478986947e+01   2.0305704885e+01    0.6774518    0.3454207 -57.56   0.00317752    2.040    0.510
        11 -11.4152    178.8988     20.8999   5.9034666429e+01   3.7768859695e+01    0.6214281    0.3357913  34.63   0.00211662    2.347    0.574
        12 -10.2373     86.9942      7.4171   7.3392311785e+01   6.1430035129e+01    0.5816472    0.3191345  53.00  0.002895993    1.824    0.452
        13 -11.2328     91.0921     19.6736   7.7596973336e+01   5.9140365664e+01     0.578053    0.3516423 -27.17  0.002299885    1.613    0.380
        14 -11.5388     85.9149     14.1377   7.6780963625e+01   6.0868936387e+01    0.5583675    0.3125298 -22.36  0.001945235    1.778    0.438
        15 -12.2443     48.0920     13.0559   9.0429189268e+01   6.7397214708e+01    0.7497907     0.546475   8.98  0.003829722    1.313    0.238
        16 -11.6737     35.9654     17.9091   9.8130009388e+01   6.8164480313e+01    0.5952116    0.2629364 -34.28  0.002248024    2.019    0.505
        17 -10.1380    145.6765     16.5267   6.3087213768e+01   4.6854542406e+01    0.2959578    0.2645462  37.60 0.0007119559    1.071    0.066
        18 -11.7605     68.2839     17.7549   8.4493645941e+01   6.3626253038e+01    0.5051648    0.3888093  34.63  0.003076033    1.317    0.241
        19 -11.1533    165.2931     17.2724   5.9959296058e+01   4.1717654550e+01    0.4148073    0.2648984  34.88  0.001140031    1.743    0.426
        20 -12.8173    237.5322     15.0605   5.0657294570e+01   2.3675103554e+01    0.5011035    0.4023651  70.48   0.00211922    1.256    0.204
        21 -12.3973    245.6193      6.2523   4.7875842282e+01   2.2734040341e+01     0.830683    0.4610598 -65.15   0.00422069    1.824    0.452
        22  -9.4738    141.3811     12.7204   6.2526324973e+01   4.8341325826e+01    0.2592704    0.1792633  -7.47  0.001217584    1.630    0.386
        23 -11.8798    133.4735     15.2522   6.5016576775e+01   5.0050914365e+01      1.23683     0.303825  60.79  0.003838553    3.641    0.725
        24 -10.5757    126.5466     11.5069   6.5042604644e+01   5.2139582725e+01    0.4806996    0.2542996  70.70  0.001798292    2.189    0.543
        25 -12.1323    104.7136     12.8391   7.0770969969e+01   5.7077049758e+01    0.5016168     0.427002 -30.89  0.002235519    1.286    0.223
        26 -11.6071    211.8389      9.7010   5.1745318920e+01   3.0489896782e+01    0.5000734    0.3413823   0.75   0.00131642    1.964    0.491
        27  -9.6850     31.8810     12.0614   9.7416304199e+01   6.9558281633e+01    0.1607678    0.1446818 -25.95 0.0005536281    1.314    0.239
        28 -10.3001      5.0982     10.0346   1.1041463112e+02   7.2192389491e+01    0.3631596     0.155771 -40.11  0.001735929    1.744    0.427
        29  -9.5137      5.4405      5.5107   1.0833257080e+02   7.2946398140e+01    0.1899998   0.08040559 -48.65    0.0010708    1.842    0.457
        30 -11.1692    192.3048      7.7542   5.3332877437e+01   3.5659038385e+01    0.4756185    0.3146324   6.07  0.001715777    2.032    0.508
        31 -10.2229    168.8162     10.2739   5.7154531894e+01   4.1520098194e+01    0.3104443    0.2077624  45.47  0.001496173    1.478    0.323
        32 -10.4594     66.3358     10.3427   8.1747910535e+01   6.4947460260e+01    0.2685187    0.2203652  39.32  0.001125741    1.340    0.254
        33 -10.1751     63.0973      6.2658   8.0973434831e+01   6.6004268841e+01    0.2784392    0.1896764  21.02  0.001387449    1.389    0.280
        34 -12.1966    244.0238     14.2890   4.9903402268e+01   2.2249991896e+01    0.3799493    0.2400169 -19.54  0.001410667    1.791    0.442
        35  -9.1259    150.9764      8.2280   5.9234838014e+01   4.6341087412e+01     0.186643     0.108818  65.72 0.0003300842    1.586    0.369
        36  -9.4712    184.8224      6.8472   5.3959188974e+01   3.7683760682e+01    0.1944015    0.1508385 -58.60 0.0004667008    1.336    0.251
        37 -10.7432     77.3412      5.3440   7.5470685710e+01   6.3552814157e+01     0.481894    0.2103522 -29.57  0.002235011    2.232    0.552
        38  -9.8572      1.2639      7.2030   1.1139535151e+02   7.2912283367e+01    0.1393013   0.07736509 -53.85 0.0002869874    1.567    0.362
        39 -10.6407    176.7430      5.6478   5.4611042196e+01   3.9898407397e+01    0.3705761    0.2242945  87.76 0.0005752072    1.798    0.444
        40  -9.9182    162.9935      5.8767   5.6571112102e+01   4.3455828463e+01    0.2398992    0.2044337  23.10 0.0007323736    1.270    0.212
        41 -10.5816     41.7904      3.9749   8.8724527474e+01   6.9532094309e+01    0.4156759    0.2096277 -13.26  0.001978464    2.539    0.606
        42 -12.2075    218.8396      3.1712   4.9355524601e+01   2.9403383657e+01    0.8992955    0.3002355  73.65  0.001223359    2.864    0.651
        43 -10.3552    223.6582      1.6959   4.8555563593e+01   2.8369291693e+01    0.2794436    0.1685055  72.90  0.001213235    1.557    0.358
        44 -10.2224     71.1730      4.0433   7.6929591914e+01   6.4846602087e+01    0.4068441    0.2198249  19.00  0.001935502    2.205    0.546
        45 -11.3701    205.3510      2.3967   5.0425814125e+01   3.2841227439e+01    0.4311943    0.2540995 -85.94 0.0009714573    1.791    0.442
        46 -10.3338    142.0396      3.3939   5.9028171135e+01   4.9063813058e+01    0.3228481    0.2401879  65.13  0.001740383    1.246    0.198
        47 -11.8464    133.7626      2.6120   6.0210985424e+01   5.1209410302e+01    0.4095662    0.2430489  54.21 0.0007868403    1.469    0.319
        48  -9.6517     55.0268      3.9491   8.2979343002e+01   6.7602502446e+01    0.1835654    0.1499284   1.10   0.00038388    1.020    0.019
        49 -10.7840    105.1712      1.5820   6.5840939255e+01   5.8109545871e+01    0.4179769    0.1942071  61.54  0.001504353    2.144    0.534
        50 -10.8425    113.3383      1.6911   6.3988599367e+01   5.6223842391e+01    0.5924549    0.2411999  71.43   0.00211656    3.444    0.710
        51 -11.1480      3.3999      1.7515   1.0783047990e+02   7.3705895833e+01    0.3882589    0.1683826   8.77  0.002133614    2.820    0.645
        52  -9.5832     12.5894      2.1745   1.0276505591e+02   7.2965127915e+01    0.1587061    0.1120785  -2.16 0.0002919825    1.346    0.257
        53  -9.2434    162.6485      1.2705   5.5107788622e+01   4.3958013656e+01    0.1417212   0.09963503 -70.74 0.0001665383    1.630    0.386
        54  -9.4322     82.0249      1.3811   7.2076906814e+01   6.3057217470e+01    0.1840353     0.113944  49.67 0.0004472534    1.551    0.355
        55  -9.5567    123.0923      1.0000   6.1641684399e+01   5.3965898796e+01    0.3668889   0.07143255  63.84  0.001027715    4.722    0.788
        56 -10.0594      2.1601    125.6901   1.3354754766e+02   4.8151154435e+01    0.2486674    0.1322448  77.76  0.001431925    1.788    0.441
        57  -9.7744     80.5381    125.1353   1.1291775990e+02   4.0200085547e+01    0.3550808     0.152968  46.44    0.0014684    2.450    0.592
        58  -9.2834     84.3560    123.3239   1.1154533409e+02   4.0039705626e+01    0.1913233    0.1475542  13.31  0.001000482    1.735    0.424
        59  -9.8419     53.0000    123.9934   1.2015253213e+02   4.4065269701e+01     0.309148    0.1489383 -80.16  0.001327249    2.522    0.604
        60 -10.4380     56.5189    122.5182   1.1896533078e+02   4.3990934017e+01     0.381243    0.2502497  44.94  0.001643334    1.606    0.377
        61 -10.4978    239.5179    124.5186   7.7254547543e+01   8.1849326892e+00    0.1382401    0.1256452  -9.41 7.428505e-05    1.029    0.028
        62 -11.5227    104.6590    121.5713   1.0575057874e+02   3.7104425569e+01    0.4697123    0.4039564 -59.59  0.001462141    1.135    0.119
        63 -10.3011     45.9006    120.7566   1.2158235804e+02   4.5588123185e+01    0.2761465    0.1875382  88.76  0.001317354    1.509    0.337
        64  -8.9493     40.6386    122.2246   1.2322143871e+02   4.5798594339e+01    0.1214527   0.08219339  63.85 0.0005807295    1.573    0.364
        65 -10.1056      4.3095    121.4954   1.3264344780e+02   4.8927566290e+01    0.2541776    0.1352089  64.91  0.001479224    1.950    0.487
        66  -9.7720    220.9984    120.5100   7.9459763992e+01   1.2657759242e+01    0.1869263    0.1318056  82.49 0.0008082198    2.391    0.582
        67 -10.8576     34.2522    119.4519   1.2456101113e+02   4.7046070509e+01    0.2310159    0.2051959  77.92 0.0009504058    1.137    0.121
        68  -9.4650    148.0152    119.7548   9.4384097405e+01   2.8950832011e+01    0.1965262    0.1259824  46.24 0.0003213827    1.529    0.346
        69  -9.1989     72.9274    119.7313   1.1397939395e+02   4.2517141714e+01    0.1572938    0.1187869  34.92 0.0005329493    1.458    0.314
        70  -9.4266    113.8161    116.1367   1.0211244881e+02   3.6636715667e+01    0.1926069    0.1717402 -14.00 0.0002980925    1.297    0.229
        71 -11.7895     35.7382     93.1029   1.1998877655e+02   5.2890133044e+01     1.589905     0.908258 -88.70  0.007153134    2.232    0.552
        72 -11.6987     19.0974    105.6935   1.2692704398e+02   5.1418404142e+01    0.5299054    0.1953628 -52.14  0.001002305    2.437    0.590
        73 -12.2751      9.2119     96.2764   1.2856988436e+02   5.4190629708e+01    0.6947452    0.4441046  68.72  0.004310524    1.736    0.424
        74 -12.1475      7.8292     89.1021   1.2803859454e+02   5.5863358330e+01    0.4365201    0.3673618 -70.98  0.003226283    1.078    0.072
        75 -11.1737     37.6560     85.9858   1.1802465811e+02   5.4315332149e+01    0.3063893    0.2993285  40.95  0.001184545    1.207    0.172
        76 -11.3675     44.1911     85.1653   1.1571960168e+02   5.3857159758e+01    0.4578528    0.3059075   1.89  0.002479868    2.094    0.522
        77 -11.4561     28.4866    113.0350   1.2526892013e+02   4.9014059975e+01    0.4725337    0.3116258  -5.13  0.002667577    2.378    0.579
        78 -12.3278     20.4832     95.4911   1.2508757320e+02   5.3607718688e+01    0.5822152    0.5195345 -27.16  0.004172036    1.344    0.256
        79 -12.7728     17.9850     90.3747   1.2507947424e+02   5.4932271093e+01    0.5754844     0.335595 -38.55 0.0006467523    1.899    0.474
        80 -11.3063     21.4522    114.3540   1.2737691045e+02   4.9293983272e+01    0.3524873    0.2576368 -21.14  0.001365101    1.915    0.478
        81 -12.6352     25.3266    107.7006   1.2542405174e+02   5.0483177533e+01    0.9497977    0.5466478 -37.14  0.005170173    2.182    0.542
        82  -9.9451      7.0395    114.5028   1.3126293887e+02   5.0288056757e+01    0.2217129    0.1550752  58.33  0.001448827    1.499    0.333
        83 -11.5141      2.4212    112.0184   1.3223509072e+02   5.1120109534e+01    0.2914444    0.2012206 -77.46 0.0007953499    1.115    0.103
        84 -11.9930      4.0600    105.2459   1.3109650588e+02   5.2513564401e+01    0.4208696    0.3109709 -74.93  0.001388836    1.050    0.048
        85  -9.4828     87.5520    114.3039   1.0883857471e+02   4.1585717065e+01    0.3003613     0.152495  51.56  0.001263103    2.285    0.562
        86 -10.4373     67.0953    112.1763   1.1418293319e+02   4.5031764544e+01    0.4319825    0.2414603 -66.86  0.002072883    1.753    0.430
        87 -10.5635    170.5135    110.1322   8.6826914801e+01   2.5826185290e+01     0.391528    0.3243092 -39.69  0.001717051    1.225    0.184
        88  -9.8179     48.9133    112.1668   1.1937682912e+02   4.7225197419e+01    0.1954305    0.1610018  80.48 0.0009323065    1.229    0.186
        89 -11.0186     79.3651    108.5988   1.0993762017e+02   4.4128460094e+01    0.5438441    0.3749871  46.14  0.002846825    1.541    0.351
        90 -10.4117     14.6500    109.3534   1.2863546680e+02   5.0919517299e+01    0.2454161    0.1834031  74.14  0.001654534    1.333    0.250
        91 -10.2319    175.3069    107.4416   8.5094970555e+01   2.5223968160e+01    0.3417676    0.2449716 -44.37  0.001570621    1.438    0.304
        92  -9.3254    120.2900    109.3398   9.8776361726e+01   3.6862343957e+01    0.1490514     0.117816 -10.75 0.0004735098    1.644    0.392
        93 -10.9152    101.5240    109.2394   1.0382463418e+02   4.0388993586e+01    0.3213136    0.2065109  46.29  0.001523449    1.610    0.379
        94  -9.7624    157.9639    105.9555   8.8564291808e+01   2.9495243374e+01     0.235303    0.2258128  17.66 0.0005899994    1.044    0.042
        95 -10.0946    143.2918    106.1677   9.2110736816e+01   3.2729893264e+01    0.2863081    0.2269021  54.46 0.0007120151    1.295    0.228
        96 -11.4028     47.8103    103.5088   1.1818865272e+02   4.9323452230e+01    0.3897176    0.2519328 -29.29  0.002035328    2.069    0.517
        97 -10.2093     52.4356     96.3248   1.1540964414e+02   5.0448379145e+01    0.4005106    0.1480594 -59.75  0.001667976    2.318    0.569
        98  -9.9396     85.9413    104.3597   1.0710139968e+02   4.4079388151e+01    0.2753105    0.1903452 -47.95 0.0006454448    1.382    0.276
        99 -10.3117     90.2230    104.4181   1.0588072582e+02   4.3379314371e+01    0.2603707    0.1415354  33.45  0.001136679    2.073    0.518
       100 -10.4704     57.5538    102.2206   1.1503100008e+02   4.8508840687e+01    0.2890914     0.115155 -60.82 0.0006597084    2.233    0.552
       101 -10.4133    145.5729    100.2868   8.9995568706e+01   3.3406614681e+01    0.4192019    0.2563398 -24.74  0.001062462    2.123    0.529
       102  -9.1391     78.3837    100.7847   1.0849816216e+02   4.6039712589e+01    0.1954835    0.1165764 -46.24 0.0006325984    1.615    0.381
       103 -11.5031     68.0902     96.7514   1.1068595584e+02   4.8407422959e+01    0.5558657    0.3054502 -50.15 0.0009416447    1.652    0.395
       104 -10.2390     77.9886     96.9910   1.0773735731e+02   4.6950270048e+01    0.2017022     0.184579 -58.58            0    1.012    0.012
       105 -11.1082     80.8380     92.7032   1.0583855464e+02   4.7475145448e+01    0.6366462    0.4239173  51.45  0.002392162    1.720    0.419
       106 -10.7040     66.7595     81.7997   1.0752767566e+02   5.1917941303e+01    0.3705424    0.2999153  17.01  0.002145004    1.428    0.300
       107 -10.9591     79.5564     83.1374   1.0377013425e+02   4.9769624089e+01     0.601264    0.4954056  86.51  0.002773979    1.521    0.343
       108 -11.2433     73.9193     77.2724   1.0398454894e+02   5.1885132251e+01    0.5810384    0.4269194 -16.52  0.003030067    1.679    0.404
       109 -10.2263     42.6832     94.7657   1.1812940340e+02   5.1846339241e+01    0.2540367    0.2410695  16.04  0.001195769    1.251    0.200
       110  -9.7448    137.5180     93.8480   9.0230897086e+01   3.6479613844e+01     0.348903    0.2349214  21.75 0.0008256841    2.011    0.503
       111 -10.6787    126.2053     93.0273   9.2930194856e+01   3.9084208534e+01    0.3094589    0.3056671  45.47  0.001014671    1.029    0.028
       112 -10.5442    117.4591     93.0275   9.5287087566e+01   4.0883488755e+01    0.2886664    0.2099639  25.21  0.001094792    1.627    0.385
       113 -11.1535    102.1227     90.3889   9.8892909713e+01   4.4390921348e+01    0.4326786    0.3800943 -34.21 0.0006404724    1.132    0.117
       114 -11.1337     89.4191     89.9072   1.0252373886e+02   4.6716886562e+01    0.3965241    0.2541478 -44.82 0.0009489895    1.483    0.326
       115  -9.3860     92.5855     85.5287   1.0039116530e+02   4.7126137199e+01    0.2157389    0.1419738  38.31  0.000515222    1.610    0.379
       116 -10.6626     50.6596     89.8457   1.1462338339e+02   5.2113329143e+01    0.4695829    0.2459418 -38.02  0.002191578    2.212    0.548
       117  -9.5533     67.0802     88.0277   1.0897296935e+02   5.0499044865e+01    0.2155786    0.1496076 -29.53 0.0009532707    1.683    0.406
       118  -9.0697    211.7213     87.6540   7.2872148039e+01   2.0044554814e+01    0.1512848    0.1138983  10.74 0.0007008499    1.634    0.388
       119 -11.1309    143.3322     84.1811   8.6020223910e+01   3.7059872018e+01    0.3387399    0.2935486 -27.34 0.0009948587    1.178    0.151
       120 -10.5398    119.9331     85.4658   9.2477703823e+01   4.1935664717e+01    0.3977559    0.1470279  44.79   0.00136268    2.748    0.636
       121 -10.1659    165.5944     83.4170   8.0633270730e+01   3.1929834783e+01    0.3389124    0.2650633 -64.33  0.001570518    1.537    0.349
       122 -10.3202    113.5202     83.3342   9.3640593707e+01   4.3676761540e+01    0.3160586    0.2559387 -46.26 0.0009716731    1.217    0.178
       123 -10.7215    109.2570     80.4754   9.4016352664e+01   4.5106037988e+01    0.3291629     0.291651   1.54 0.0006036841    1.222    0.182
       124  -9.9843    104.8014     76.7574   9.4204744191e+01   4.6727352802e+01    0.3695334    0.3610093 -60.27  0.002133438    1.086    0.080
       125  -9.6369     60.0157     83.6073   1.1017945137e+02   5.2400444325e+01    0.2405514     0.158301 -36.77   0.00125736    1.585    0.369
       126  -9.6885    127.5173     83.3921   8.9828177671e+01   4.0745328661e+01    0.2561224    0.1451607  46.30 0.0008179306    1.777    0.437
       127 -11.1744    246.4836     78.9852   6.5389231230e+01   1.3440563003e+01    0.3417329    0.1062845 -36.94  0.001223882    2.757    0.637
       128 -11.3781     52.7989     76.4081   1.1082124323e+02   5.4857447491e+01     0.474509    0.3021273 -58.68  0.002539879    1.415    0.293
       129 -10.6078     52.5750     73.1943   1.1008565074e+02   5.5583592460e+01    0.2838933    0.2057972 -37.03 0.0008205316    1.330    0.248
       130 -10.4122     58.5608     78.4007   1.0937342419e+02   5.3728858104e+01    0.2460649    0.2298439 -64.58 0.0007153249    1.103    0.094
       131 -10.5390     93.6214     76.3166   9.7444289598e+01   4.8884019466e+01    0.4333416    0.3030318  14.12  0.001690258    1.900    0.474
       132 -10.2230    142.9745    249.4962   1.1708251921e+02   6.9016812860e+00     0.184603    0.0865035  42.15  0.001039004    1.608    0.378
       133 -11.6154     85.6047     73.7288   9.9190848154e+01   5.0797466744e+01    0.6785833    0.5120802  51.95  0.003582647    1.530    0.346
       134 -11.0353     78.5507     67.2615   9.9536070464e+01   5.3274864287e+01    0.5191962    0.4287446  87.12  0.002412502    1.662    0.398
       135  -9.9529     20.6976     71.5887   1.2090169943e+02   5.8902724253e+01    0.1909414    0.1418176  20.13  0.001162139    1.648    0.393
       136 -11.9010     13.5714     74.6848   1.2394669880e+02   5.8698192433e+01    0.4468326    0.3563759 -37.03   0.00314389    1.308    0.236
       137 -11.3703     14.4509     66.6066   1.2214398500e+02   6.0403467520e+01    0.3084233    0.2169767 -74.84  0.000603923    1.321    0.243
       138 -11.6095      1.9228     71.3719   1.2737513634e+02   6.0060377600e+01    0.5004345    0.1558984 -71.10  0.002273513    2.546    0.607
       139 -12.1025      5.9503     62.3487   1.2442266626e+02   6.1804782441e+01    0.5903759    0.3073954 -44.93  0.002773879    1.666    0.400
       140 -11.0469     12.1169     62.3081   1.2214444498e+02   6.1471750083e+01    0.2605284    0.1782553  -5.20  0.001103697    1.825    0.452
       141  -9.4915      5.2271     78.4385   1.2734485948e+02   5.8354936516e+01    0.1297981    0.1050869  46.77 0.0004072673    1.503    0.335
       142  -9.5387      1.3476     78.2576   1.2858432674e+02   5.8591562151e+01      0.15783   0.08669902 -78.83 0.0004245763    1.557    0.358
       143  -9.6006    126.9520     76.7585   8.7989566176e+01   4.2162530874e+01      0.20369    0.1929231  46.54 0.0002047285    1.079    0.073
       144  -9.4082     32.9782     77.2901   1.1780774788e+02   5.6676378804e+01    0.1612942    0.1466001 -51.12 0.0003066178    1.102    0.093
       145 -11.5388    186.9192     70.7742   7.2671628457e+01   2.8809027180e+01    0.6988912    0.5542993  -6.71  0.003401695    1.453    0.312
       146  -9.6941    123.3316     72.7249   8.7715292434e+01   4.3722564828e+01    0.2220245    0.1926685 -36.05 0.0004104756    1.138    0.121
       147 -11.4634    122.5664     68.4693   8.6576740627e+01   4.4689939623e+01     0.566319    0.3902904  45.88  0.002584225    1.458    0.314
       148  -9.3990     60.9901     72.9758   1.0713148224e+02   5.4597938941e+01    0.1891374    0.1562316  78.94  0.000395689    1.560    0.359
       149 -11.5014     40.8632     70.0005   1.1339774015e+02   5.7538790843e+01      0.53101    0.2518108 -59.11  0.001811964    1.823    0.451
       150 -11.3739     33.3669     72.0384   1.1653289231e+02   5.7797363373e+01    0.5012004    0.2419876  30.18  0.002577662    2.382    0.580
       151  -9.6786    161.4808     70.1572   7.7612855345e+01   3.5258668479e+01     0.252718     0.217496  87.67 0.0007986516    1.346    0.257
       152  -9.4091    208.6860     68.0302   6.8134518213e+01   2.3829401107e+01    0.2080535    0.1880126 -26.12 0.0006426385    1.102    0.093
       153 -10.1158    172.1259     67.2578   7.4509022286e+01   3.3091465768e+01    0.3628429    0.2148584 -39.31  0.001539067    1.692    0.409
       154 -11.1430    219.4573     66.4109   6.6032528801e+01   2.1453678273e+01    0.6064531     0.304078  64.71   0.00248336    2.198    0.545
       155  -9.6724     21.6233     65.3466   1.1927894998e+02   6.0193141269e+01    0.2880296    0.1866544  75.73  0.001472816    2.234    0.552
       156  -9.1437     25.5718     65.4240   1.1784984011e+02   5.9880820988e+01    0.1909984    0.1172422 -40.09 0.0008667837    1.520    0.342
       157  -9.6788     66.6426     74.6099   1.0566170873e+02   5.3493585527e+01    0.2739739    0.1639615 -73.85  0.001175154    2.580    0.612
       158 -11.0119     91.5365     62.4286   9.3761070056e+01   5.2040599472e+01     0.433365    0.3430673 -37.75  0.001375213    1.192    0.161
       159 -10.3020     91.2247     57.6065   9.2247456257e+01   5.3018032137e+01    0.3237879    0.2438996  38.22  0.001075569    1.379    0.275
       160 -10.4631     87.5185     56.9571   9.3227564959e+01   5.3804492896e+01    0.4161312    0.2155911 -42.70  0.001285401    1.829    0.453
       161 -10.9285     58.0718     61.5037   1.0488975949e+02   5.7390873746e+01    0.4160549        0.294 -61.02  0.001636862    1.502    0.334
       162  -9.3280    199.5018    244.5069   1.0666735741e+02  -1.1870644833e+00    0.1160068   0.08745374  32.49 -0.0001123227    1.034    0.033
       163 -11.0862     60.7627     36.2199   9.5200175178e+01   6.1879925071e+01    0.3478256    0.1944185 -37.84  0.001091357    1.603    0.376
       164  -9.6211     98.4409     62.7277   9.1695083211e+01   5.0706015638e+01    0.2020183    0.1317064 -30.52  0.000943872    1.578    0.366
       165 -10.2906     26.0974     48.0797   1.1327587690e+02   6.3487436938e+01    0.3201362     0.180437 -14.97  0.001450252    2.336    0.572
       166 -11.4617     34.2538     42.9466   1.0836072768e+02   6.3797541644e+01    0.5843536    0.4221838 -11.36  0.002990738    1.494    0.330
       167 -10.3230     26.0228     60.0473   1.1642821492e+02   6.0997521968e+01    0.4346571     0.258913  17.43   0.00226164    2.044    0.511
       168 -11.6318     25.6742     54.4384   1.1516119199e+02   6.2207660825e+01    0.7835465    0.3809063   5.33  0.003753751    3.090    0.676
       169 -10.4832     33.8622     57.8975   1.1289351741e+02   6.0788054895e+01    0.3393623    0.1668666 -33.63  0.001638278    2.255    0.557
       170 -11.4000     40.2645     55.9055   1.0988564009e+02   6.0588857781e+01    0.4013425    0.3091567  56.67  0.002225009    1.765    0.434
       171 -11.3821     46.1789     48.9959   1.0548298324e+02   6.1356792539e+01    0.4193359    0.3395788  -8.26  0.001466555    1.284    0.221
       172 -11.2641     42.7127     44.7015   1.0546113703e+02   6.2587206627e+01    0.4235484    0.2707437   8.97  0.001089125    1.907    0.476
       173 -10.3152    159.5508     61.5966   7.5393432343e+01   3.7165651602e+01    0.4392069    0.2500813  42.64  0.001808033    1.815    0.449
       174  -9.9596    113.4910     61.2151   8.6726690414e+01   4.7971471249e+01    0.3906236    0.2235542 -45.00  0.001695528    1.798    0.444
       175 -10.7772    122.4993     58.9563   8.3471018140e+01   4.6425264515e+01    0.3799694    0.3041452 -35.10    0.0011953    1.242    0.195
       176 -10.7802    117.6873     56.1256   8.3823180414e+01   4.7978333461e+01    0.4215629    0.3164704  68.03  0.001523471    1.680    0.405
       177 -10.6451    136.7770     56.2643   7.8893800204e+01   4.3601050466e+01    0.5911517    0.3789389  19.50  0.002421539    2.188    0.543
       178 -10.0666    145.6810     52.2358   7.5445542175e+01   4.2101876715e+01    0.3332081    0.2587457  43.19  0.001411728    1.259    0.206
       179 -10.8458    146.0668     46.5775   7.3464827262e+01   4.2876089667e+01    0.5330279    0.2769612 -26.57  0.002141407    2.075    0.518
       180 -10.8073    157.3438     55.0478   7.3793236787e+01   3.8764139323e+01    0.5050511    0.3402752 -38.83  0.002316949    1.510    0.338
       181 -10.6596    155.1144     49.8127   7.2574370924e+01   4.0129665938e+01     0.389247     0.258123 -27.43 0.0004949815    1.571    0.363
       182  -9.8032     67.1516     54.8890   9.9525357728e+01   5.7483307272e+01    0.1954795    0.1778885 -60.02 0.0006579084    1.260    0.206
       183 -10.9888    247.7173     52.6209   5.8808011225e+01   1.6787903335e+01    0.4384989     0.253271 -75.64  0.001908351    2.506    0.601
       184 -11.2394    240.2615     50.5173   5.9160240364e+01   1.8756604059e+01    0.2671008    0.2348209 -43.29 0.0007633425    1.053    0.050
       185 -11.1075    113.5863     49.7041   8.2722449912e+01   4.9963269687e+01    0.5365901    0.2919818  33.48  0.001892303    2.135    0.532
       186 -11.4282    127.4076    242.4831   1.1906005037e+02   1.0248622849e+01    0.2926674    0.2106235 -64.93  0.002030918    1.757    0.431
       187 -10.0681      2.3793     48.8831   1.2313144705e+02   6.4821161469e+01    0.2070164    0.2042082   5.79  0.001534439    1.312    0.238
       188 -10.1635      3.7292     44.1075   1.2152322921e+02   6.5742676603e+01    0.3858355    0.1628433 -36.88  0.001447537    2.231    0.552
       189 -10.4661    201.6182     47.0086   6.3389410867e+01   2.8627341244e+01    0.4145807     0.210873 -51.83  0.001631736    2.291    0.564
       190  -8.8438     91.3008     48.6577   8.9074423560e+01   5.4636632379e+01    0.1354892    0.1123589 -72.29 0.0007037342    1.674    0.403
       191  -9.9228     51.8573     47.9393   1.0291724058e+02   6.0894152056e+01    0.2033148    0.1498352 -28.15 0.0008135006    1.262    0.208
       192  -9.8160     13.6764     46.6819   1.1801174444e+02   6.4663188408e+01    0.3746872    0.0933557 -41.33  0.001429931    3.792    0.736
       193 -10.5680    233.8303     45.1848   5.8582208262e+01   2.0952725002e+01    0.2970464    0.2064869  70.36  0.001409099    1.500    0.333
       194 -10.3876    174.0621     48.2605   6.8342426595e+01   3.5524873311e+01     0.417588    0.2980738  77.25  0.001938082    1.589    0.371
       195  -9.7770    139.7594     43.8174   7.3951310595e+01   4.4839090271e+01    0.3227015    0.1820987  51.32  0.001386695    1.687    0.407
       196  -9.9843    101.2859     43.9338   8.4209107884e+01   5.3498264910e+01     0.378431    0.2678647 -70.30  0.001691855    2.414    0.586
       197 -10.9340     94.0903     41.3720   8.5471157058e+01   5.5348124812e+01     0.530642    0.2558996  42.96   0.00205652    2.088    0.521
       198 -10.1176    188.9934     42.2301   6.3955953672e+01   3.2509106565e+01    0.2343656    0.2033591 -35.16 0.0004427246    1.168    0.144
       199 -11.3868    156.2713     41.6513   6.9651738105e+01   4.1027253783e+01     0.379081     0.340646   8.59 0.0009181421    1.170    0.146
       200 -10.1083    153.2506     36.0756   6.8395603390e+01   4.2561417112e+01    0.2650555     0.231219  85.24 -0.000275831    1.257    0.204
       201 -12.3984     49.4489     59.9342   1.0758165676e+02   5.8762115646e+01    0.6956334    0.5503376  80.58  0.001839906    1.818    0.450
       202 -10.3999     69.1582     32.5561   9.0551108581e+01   6.1224448917e+01    0.5506955    0.2560679  40.43  0.002159009    2.263    0.558
       203 -11.0614     80.9460     39.7946   8.9206083476e+01   5.8039277073e+01    0.5234487     0.338049  38.41   0.00271054    1.593    0.372
       204  -9.7581     77.9058     34.3255   8.8107907833e+01   5.9475004557e+01     1.070261    0.3838195  32.88  0.003649721    3.889    0.743
       205 -10.5680     81.8568     31.3219   8.5520808140e+01   5.9250549826e+01    0.4537267    0.2712448 -53.42  0.002051094    2.460    0.593
       206 -10.2180     18.4273     41.5816   1.1464117526e+02   6.5383788729e+01    0.2682229    0.1693542 -28.05   0.00143973    1.559    0.359
       207 -10.8211    231.8815     39.7435   5.7423672173e+01   2.2111615954e+01    0.3880024    0.2384413 -67.39  0.001402327    1.924    0.480
       208 -10.7298    176.8097     37.2502   6.4441211774e+01   3.6327966237e+01    0.4156234    0.2613525 -30.27   0.00190526    1.626    0.385
       209 -10.7315     23.1494     37.0373   1.1122207083e+02   6.5928946106e+01     0.336256    0.2356932  54.04  0.001595888    2.216    0.549
       210 -10.9815     20.9724     47.2069   1.1513761454e+02   6.4060900549e+01    0.3678398    0.2166924 -47.91  0.001623661    1.331    0.249
       211  -9.4283    206.8229     36.8938   5.9800439379e+01   2.8640883784e+01    0.2043367    0.1599925 -61.71 0.0008053752    1.321    0.243
       212 -10.8270    137.8665     32.2818   7.0318342676e+01   4.6923714031e+01    0.5665196    0.4239141  81.73  0.002549006    1.654    0.395
       213 -10.7170      4.2799     35.8486   1.1924944180e+02   6.7385822950e+01    0.2384401    0.1814869  23.40 0.0009252718    1.656    0.396
       214 -10.0368      6.6187     30.7740   1.1677641621e+02   6.8263091077e+01    0.2828852    0.1491941 -17.63  0.001636107    2.187    0.543
       215 -11.9286    105.5701     33.0871   7.8795083798e+01   5.4288556909e+01    0.8446744    0.4752463   5.61  0.001594274    3.191    0.687
       216 -12.4643    114.0789     24.6093   7.3130170737e+01   5.3569178368e+01    0.7487358    0.3579201  59.62  0.001784886    2.263    0.558
       217 -10.1999    150.5889    237.2302   1.1433069393e+02   7.4269586878e+00     0.137786    0.1118814 -28.55 0.0008101441    1.661    0.398
       218 -10.1074    172.4895     33.0447   6.3853186581e+01   3.7993419903e+01    0.2575776    0.2036255  80.99  0.000949792    1.336    0.252
       219 -10.5951    176.0710     30.0044   6.2304249473e+01   3.7439635387e+01     0.330801    0.2629158  31.10  0.001467184    1.375    0.273
       220 -11.2653    159.9111     30.1673   6.5137576167e+01   4.1617724776e+01    0.3982874    0.2886343 -36.63  0.000431611    1.433    0.302
       221 -11.2381    164.0287     27.5049   6.3522687191e+01   4.0878770137e+01    0.2817286    0.2686701  63.72 0.0004067204    1.018    0.018
       222 -11.6364    240.9862     30.8442   5.4200550086e+01   2.1064679088e+01    0.3561498    0.2877487 -23.78   0.00166801    1.300    0.231
       223 -10.5050    147.4424     31.7781   6.8101347183e+01   4.4599766871e+01    0.2439993    0.2126146  69.34 0.0003170843    1.179    0.152
       224 -11.4573     56.1400     30.9711   9.4940433909e+01   6.3441772325e+01    0.2781503    0.2376784   9.11 0.0002747631    1.163    0.140
       225 -11.7465     48.0155     30.6917   9.8164799630e+01   6.4566000620e+01     0.663038    0.2945592  27.04  0.003045162    2.637    0.621
       226 -11.5936    199.2984     28.0755   5.8317773228e+01   3.1646364612e+01    0.4697233    0.3863778   2.15 0.0005390999    1.439    0.305
       227  -8.9972    182.6605     31.7230   6.1791809722e+01   3.5510670773e+01    0.1518759    0.1049426  36.35 0.0003641322    1.617    0.381
       228  -9.3841      7.4957     25.0754   1.1460595473e+02   6.9308505565e+01    0.2219537    0.1061778 -43.33 0.0007593328    1.572    0.364
       229 -10.6181     31.3649     29.6404   1.0500860901e+02   6.6606027475e+01    0.3770847     0.165744 -37.26   0.00120607    2.010    0.502
       230  -9.0733     15.2901    234.3367   1.3750628434e+02   2.5785956724e+01   0.08210381   0.06985316 -73.32 0.0007022258    1.638    0.389
       231  -9.6791    131.2218    240.5948   1.1818224040e+02   9.9479094520e+00    0.1550781    0.1250176  30.11  0.001030233    1.348    0.258
       232  -9.0230     23.4964    231.5128   1.3606471826e+02   2.5440938705e+01    0.1033386   0.07058773  67.58 0.0008104506    1.021    0.021
       233  -9.4423    234.6466    222.6711   9.7399316295e+01  -4.1174992611e+00     0.126453   0.07362346  14.64  0.000530215    1.774    0.436
       234 -10.8810     14.9861     22.5088   1.1007245807e+02   6.9298372768e+01    0.2733452    0.1963441  10.98  0.000645873    1.553    0.356
       235 -11.7787    124.9246     27.5331   7.1555463751e+01   5.0674579188e+01    0.5564497    0.4636367  48.78  0.001768685    1.147    0.128
       236  -9.9359     98.5860     28.5993   7.9052375352e+01   5.6401281786e+01    0.4414371    0.2557896 -43.50  0.002051464    1.972    0.493
       237  -9.3684    221.4924     29.4537   5.5951536230e+01   2.5894178921e+01    0.1396624    0.1256582 -67.98 -2.617257e-06    1.049    0.047
       238 -10.2464    189.3172     27.5998   5.9557045419e+01   3.4280970550e+01    0.3578465    0.2581841  34.42  0.001628984    1.580    0.367
       239  -9.2694    165.6427    212.3338   1.0821011200e+02   8.6103168219e+00    0.1273252   0.09093558  66.19 0.0007042162    1.799    0.444
       240  -9.4614    156.9158     24.9950   6.3951470959e+01   4.3019299428e+01    0.2017055    0.1870425  53.12 0.0003809492    1.014    0.014
       241  -8.9428     61.6503     28.2759   9.1644112709e+01   6.3091520714e+01    0.1136884    0.1047649 -87.80 0.0002271285    1.637    0.389
       242 -10.1368    230.3150     26.9365   5.4327474804e+01   2.4048355688e+01    0.1924879     0.167575 -38.34  0.001138331    1.133    0.117
       243  -9.4901    152.5314    207.5110   1.1003209825e+02   1.1611845624e+01    0.1280919    0.1071658  44.15 0.0008097316    1.009    0.009
       244 -11.4724    183.6218     24.8393   5.9550804636e+01   3.6087420422e+01    0.6381658    0.2749259  51.49   0.00251397    2.213    0.548
       245 -10.2351    142.8554     24.6328   6.6523810086e+01   4.6646193049e+01    0.2859408    0.2075161  86.98  0.001370469    1.718    0.418
       246 -10.5083    214.5695     24.4055   5.5402617286e+01   2.8204247170e+01    0.3272023    0.2590368 -31.04  0.001348648    1.285    0.222
       247  -9.5094     59.9792     24.4889   9.0688864583e+01   6.3948534640e+01    0.1992161    0.1460088 -30.77 0.0005234295    1.234    0.190
       248  -9.7418    238.6915    204.4701   9.3643926505e+01  -2.6452090803e+00    0.2025579    0.1039526 -29.37  0.001085689    2.052    0.513
       249 -10.2565      4.2695    204.9362   1.3802241214e+02   3.1959956609e+01    0.1793225     0.110959 -72.69  0.001325931    1.617    0.382
       250 -10.8276    244.2525    198.8928   9.1714026160e+01  -2.8656639140e+00    0.3317054    0.1844492 -51.49  0.001431174    4.103    0.756
       251 -10.3017     81.4425     19.2105   8.0499136095e+01   6.1080170411e+01    0.3582642    0.1848837  46.18 0.0008908024    1.929    0.482
       252  -9.8179    233.7573    197.0159   9.3163787773e+01  -9.2832251335e-01    0.1538087   0.09904319 -26.94 0.0008868506    1.614    0.380
       253  -9.5718    169.0033    191.7208   1.0431792877e+02   1.1275867227e+01    0.1934609    0.1513321  40.37 0.0005082149    1.107    0.097
       254  -9.9532     38.7630     21.9629   9.8602929836e+01   6.7173742354e+01    0.3012453    0.1394046 -37.21  0.001124916    1.853    0.460
       255 -12.3390      4.2043    184.4860   1.3703738451e+02   3.5823743521e+01     0.544619    0.3063519  81.53  0.003410373    1.393    0.282
       256  -9.2802     51.5211    173.4746   1.2669167018e+02   3.3358324726e+01    0.1205579   0.09738038  77.83  9.00011e-05    1.014    0.014
       257 -10.5452    137.9903     21.5257   6.6401423499e+01   4.8229962544e+01    0.3738358    0.1939915  46.73  0.001235509    1.796    0.443
       258  -9.7038     66.3102     22.2808   8.7266534899e+01   6.3297996964e+01     0.209357    0.1635232  10.69 0.0002601861    1.216    0.178
       259  -9.7441     74.3016     19.6875   8.3176240346e+01   6.2317280128e+01    0.2259894    0.1899333  -0.15 0.0008068979    1.036    0.035
       260 -10.0607     39.5329    173.4957   1.2924399729e+02   3.4697008823e+01    0.1168618   0.09325155  80.37 2.494401e-05    1.008    0.008
       261  -9.1386    158.4875     20.4565   6.2144030687e+01   4.3135754445e+01    0.1451824    0.1330487  49.56  0.000162825    1.033    0.032
       262 -10.1931    221.0515     18.9888   5.3250637643e+01   2.7209760089e+01    0.1978452     0.183267 -72.77  0.001205795    1.016    0.016
       263  -9.4360    211.3016     18.9642   5.4302801906e+01   2.9639062734e+01    0.1860966    0.1692549 -47.10 0.0003220029    1.100    0.091
       264 -10.0114     35.8533    169.8481   1.2969998107e+02   3.5842378094e+01    0.1724736    0.1126049  70.66  0.001092613    1.346    0.257
       265 -12.1470      9.8603    166.0425   1.3484218435e+02   3.9039292410e+01    0.4973553    0.2964832 -71.06  0.002983626    1.492    0.330
       266 -11.3867     13.8509    158.3146   1.3346254557e+02   4.0311223969e+01     0.373955    0.1543061 -77.68  0.002016899    1.995    0.499
       267  -9.5569    191.3976     17.0720   5.6162156051e+01   3.4935357530e+01     0.282871    0.1841394   6.66  0.001219714    2.120    0.528
       268  -9.6977    198.1544    167.8012   9.4155881278e+01   9.6738756006e+00    0.1970825    0.1831654  36.58 0.0006332729    1.134    0.118
       269  -8.9320    156.6624    166.3250   1.0237397876e+02   1.8038048630e+01    0.1424958    0.1085081  76.30 0.0007051338    1.721    0.419
       270 -10.3103     18.5480    165.1785   1.3297873367e+02   3.8476142804e+01    0.1974272    0.1682162 -81.67  0.001131019    1.227    0.185
       271  -8.5007      6.3111     16.3255   1.1218536795e+02   7.1000068293e+01    0.1199733   0.06113146 -33.09 0.0002183357    1.659    0.397
       272 -10.0617    186.3379     15.0223   5.6211897980e+01   3.6467159075e+01    0.2624536    0.1881861  60.59 0.0004861809    1.303    0.232
       273 -10.2067    205.2433    163.3559   9.1893138529e+01   9.0036479141e+00    0.2444651    0.2290354  24.53 0.0007019115    1.110    0.099
       274  -9.3911    188.6015    164.1913   9.5319698007e+01   1.2140306557e+01    0.1866677    0.1312672 -23.72 0.0005838726    1.608    0.378
       275 -10.4410    104.3603    154.0367   1.1203035606e+02   3.0050321338e+01    0.5871802    0.2288139 -65.70   0.00202028    3.651    0.726
       276 -10.3749      8.8374    155.9358   1.3436403663e+02   4.1214639679e+01    0.2372996    0.1180117 -67.15   0.00142666    1.751    0.429
       277 -10.4659     31.2242    154.0142   1.2926243547e+02   3.9665417512e+01     0.350967    0.1968468  60.45  0.001970722    1.720    0.418
       278 -10.5122     30.6382    149.3134   1.2893901154e+02   4.0739081886e+01    0.2546051    0.1531848  85.80 0.0007659678    1.532    0.347
       279 -10.2036     72.6123    152.3790   1.1936942217e+02   3.5218448402e+01    0.4347519     0.208797  57.71  0.001929532    2.407    0.585
       280 -11.0435     47.1497    146.5040   1.2472709990e+02   3.9657965114e+01    0.4339904    0.2761531 -70.71  0.002424667    1.386    0.279
       281  -9.3230     47.9755    151.7503   1.2514983006e+02   3.8411407682e+01    0.2365009    0.1666081  38.46   0.00098617    1.531    0.347
       282 -10.3247     44.4686    150.9526   1.2588340435e+02   3.8972603753e+01     0.485353    0.2154391  71.66  0.001990342    3.315    0.698
       283 -12.0783     23.1073    149.1018   1.3065234708e+02   4.1477020960e+01    0.4958802    0.2992549 -34.29  0.002713826    2.777    0.640
       284 -11.6254     15.9085    148.0708   1.3219951434e+02   4.2312807413e+01    0.4509954    0.1669042  48.70  0.002289714    2.584    0.613
       285 -12.1659      4.0344    147.3639   1.3479800776e+02   4.3378678978e+01    0.5869114    0.3313971 -76.40  0.003074308    1.410    0.291
       286 -11.8920      3.5030    142.1163   1.3453487958e+02   4.4528868242e+01    0.3908744    0.3090558  47.22  0.002322765    1.406    0.289
       287 -11.9363      3.9635    136.6735   1.3401370632e+02   4.5660357354e+01    0.2230788    0.1694695 -76.85 0.0003365303    1.137    0.121
       288 -10.6041     62.6030    150.1527   1.2146817785e+02   3.7021878513e+01    0.3771445    0.3105713  84.45  0.002406678    1.081    0.075
       289 -11.0380    249.7295    143.1424   7.9739927213e+01   3.5089965935e+00    0.5466929   0.09427053 -34.90  0.001565211    5.086    0.803
       290  -9.4941    108.1332    146.2930   1.0976717285e+02   3.1076659251e+01    0.1986129    0.1676356  48.95  0.001120334    1.151    0.131
       291 -10.6939     33.1295    144.3326   1.2784188446e+02   4.1588775076e+01    0.2518043     0.197177  79.21 0.0008250403    1.116    0.104
       292  -9.4767    133.7140    140.3099   1.0242772385e+02   2.7648186617e+01    0.2938083     0.173644 -28.35  0.001169145    2.569    0.611
       293 -11.9232     12.1874    138.7463   1.3226236535e+02   4.4617220452e+01    0.5445669    0.2566838  68.85  0.002887283    2.241    0.554
       294 -10.4867     14.1917    133.4230   1.3130407485e+02   4.5623021059e+01    0.2920812    0.1662169  82.83  0.001712121    1.630    0.387
       295 -12.1497     22.8017    135.8814   1.2945052254e+02   4.4387873818e+01    0.6211036    0.3306092  53.38  0.003551322    1.910    0.476
       296 -11.7702     29.8815    132.9802   1.2738592544e+02   4.4407234994e+01    0.6101729    0.3235132  86.63  0.000967273    1.985    0.496
       297 -10.3774     47.0019    134.4867   1.2323948411e+02   4.2357091431e+01     0.322331      0.25373 -81.43   0.00205688    1.097    0.088
       298 -10.3987     71.7022    134.0307   1.1680784232e+02   3.9435286794e+01    0.4296729     0.286809  -0.73  0.001961296    2.868    0.651
       299 -10.4673     92.7587    129.8058   1.1056356917e+02   3.7266901066e+01    0.4233188    0.2811584 -56.79  0.002151774    1.453    0.312
       300 -10.8989     10.5862    127.2491   1.3160771557e+02   4.7242318740e+01    0.4220233    0.1375263 -59.52  0.001596772    2.528    0.604
       301  -9.9570     82.2531    134.8840   1.1422230028e+02   3.7744785400e+01    0.3078197    0.1971508  15.99  0.001195474    2.464    0.594
       302 -10.1860     18.7724    124.4596   1.2925727169e+02   4.7245736298e+01    0.2618072    0.1312893 -65.37 0.0008095923    1.624    0.384
