#   1 NUMBER                 Running object number                                     
#   2 MAG_AUTO               Kron-like elliptical aperture magnitude                    [mag]
#   3 X_IMAGE                Object position along x                                    [pixel]
#   4 Y_IMAGE                Object position along y                                    [pixel]
#   5 X_WORLD                Barycenter position along world x axis                     [deg]
#   6 Y_WORLD                Barycenter position along world y axis                     [deg]
#   7 A_WORLD                Profile RMS along major axis (world units)                 [deg]
#   8 B_WORLD                Profile RMS along minor axis (world units)                 [deg]
#   9 THETA_WORLD            Position angle (CCW/world-x)                               [deg]
#  10 FWHM_WORLD             FWHM assuming a gaussian core                              [deg]
#  11 ELONGATION             A_IMAGE/B_IMAGE                                           
#  12 ELLIPTICITY            1 - B_IMAGE/A_IMAGE                                       
         1 -12.7565     65.7274     10.5729   4.4979308004e+01   6.4139150835e+01     3.434894     1.592237  15.77   0.01162203    4.921    0.797
         2 -12.7686     59.3050     64.5149   6.7295726719e+01   5.5620336081e+01     1.363526    0.5040153 -60.06  0.004949812    3.463    0.711
         3 -13.0229     77.9073     21.7693   4.5807556204e+01   6.0585729683e+01     1.446695    0.7537265  38.59  0.007136358    1.993    0.498
         4 -14.1009     78.6142     43.4958   5.4181082456e+01   5.6952992166e+01     1.329347     1.234262  36.10  0.002058866    1.273    0.214
         5 -14.1825      4.1574     54.1684   8.3285020015e+01   6.2519805965e+01     3.020973    0.8831829 -68.75   0.01311012    3.036    0.671
         6 -13.7482     39.6696     56.3968   7.1577322265e+01   5.9438640992e+01     1.512367     1.084687  46.21  0.009451057    1.821    0.451
         7 -14.5482     54.5776     40.2151   6.1251501463e+01   6.0950628833e+01     3.203112     1.593017 -21.03  0.005119842    3.365    0.703
         8 -14.2337     12.9495     38.8293   7.6474752896e+01   6.5088549419e+01    0.8555609     0.513302 -46.45  0.001586546    1.249    0.200
         9 -12.7563     19.6035     27.8844   7.0493397020e+01   6.6710812264e+01     0.671556    0.3913406  35.13  0.001137864    2.275    0.560
        10 -12.9013    229.5335     48.4433   2.2620267294e+01   2.1003276558e+01     1.608638    0.9261936 -30.83  0.007225827    1.646    0.392
        11 -14.4451    189.9016     65.7542   3.3910719004e+01   2.8615217715e+01      2.75228     1.582324 -36.85   0.01152169    1.712    0.416
        12 -13.4643    172.9118     43.3287   3.0109552827e+01   3.6332304755e+01     1.724697     1.004989 -23.65  0.005596889    1.790    0.441
        13 -12.3456    131.7536     55.1779   4.3078866034e+01   4.4604383944e+01     1.958202    0.8777055  38.19  0.007104523    2.608    0.617
        14 -12.0978    133.2159     36.3214   3.6066082688e+01   4.7207751417e+01     1.162787    0.3597997 -38.65  0.003390011    3.264    0.694
        15 -13.0569    160.0727     37.7854   3.0747581650e+01   4.0402952374e+01    0.9788409    0.7752299  45.12  0.003646268    1.219    0.179
        16 -14.1484      7.2699     67.6165   8.4804039337e+01   5.9567680307e+01     1.538029    0.8596936 -38.90  0.004984859    1.846    0.458
        17 -10.5213    111.7638     34.0246   4.0643382466e+01   5.2330281371e+01    0.7093133    0.3415709 -30.27  0.003004708    1.999    0.500
        18 -11.1290    102.7386     14.9532   3.5382613712e+01   5.6782886520e+01    0.2193426    0.1821471 -10.35  0.000512838    1.119    0.107
        19  99.0000     98.4152     21.6697   3.9423129372e+01   5.6810477184e+01    0.5446945    0.3706289  45.32  0.001825992    1.496    0.331
        20 -11.5761    125.4780     23.6070   3.3116944616e+01   5.0719122666e+01     0.616753    0.3551753  -0.58  0.001996619    2.271    0.560
        21 -12.6528    163.2509     21.5832   2.4603242945e+01   4.1617197756e+01    0.4508841    0.2990414  30.03 0.0006950647    1.639    0.390
        22 -10.6071    223.6379     14.7337   1.4067800622e+01   2.6537518082e+01     0.341852    0.1819483 -35.95    0.0010876    1.785    0.440
        23 -11.0150    222.3937     10.7939   1.3119953664e+01   2.7267653988e+01    0.3419383    0.2215599  33.39  0.001093603    1.884    0.469
        24  -9.9001     84.4547     13.4871   4.0070039843e+01   6.0553051617e+01    0.2253557     0.145917   2.48 0.0009862372    1.654    0.395
        25 -10.3410     88.4924     11.7605   3.8063194575e+01   6.0010324145e+01    0.2150452     0.190652   3.20  0.001223923    1.088    0.081
        26  -9.8069    150.3250     12.7118   2.3799866817e+01   4.5906242961e+01    0.2744077    0.1643083 -56.71 0.0002010283    2.304    0.566
        27  -9.6266    147.7292     10.7081   2.3546620375e+01   4.6768248278e+01    0.1816676    0.1307853 -30.91 0.0001688147    1.457    0.314
        28 -11.1614    116.0593      9.8516   2.9849246383e+01   5.4466965795e+01    0.4304922    0.2686985  -4.09   0.00125456    1.710    0.415
        29  -9.8348    130.0045     11.0262   2.7182453892e+01   5.1100850470e+01    0.1730268    0.1532502   4.07 0.0006595481    1.089    0.082
        30  -9.8587    227.6388     10.2647   1.2435217803e+01   2.5991779860e+01    0.1805089    0.1310533  -8.76 0.0009271219    1.591    0.372
        31 -10.2489     26.4164      9.6255   6.0429111713e+01   6.9283436250e+01     0.216437    0.1190911 -18.55  0.001233069    1.913    0.477
        32 -10.0392     85.1444      7.9269   3.7340838474e+01   6.1099915979e+01    0.3250629    0.1298721 -18.78  0.001295384    2.773    0.639
        33 -10.5457     47.3235      7.6017   5.0551448199e+01   6.7210817495e+01    0.3003561    0.1811598 -38.29  0.001767038    1.595    0.373
        34  -9.6861     46.0000      3.0013   4.8833428771e+01   6.8015570089e+01    0.2370196    0.1232586 -33.57  0.001079221    1.667    0.400
        35 -10.3397    193.4287      8.0209   1.5655194517e+01   3.5091118442e+01    0.2755392    0.1673938  50.04 0.0007416949    1.590    0.371
        36  -9.4462    173.4066      7.1201   1.8082901796e+01   4.0467870597e+01    0.1913014    0.1238023 -39.26 0.0006201923    1.640    0.390
        37 -10.1580    101.7537      6.4160   3.1960295134e+01   5.7951119462e+01    0.3729647    0.1514272  40.83  0.001548423    2.346    0.574
        38 -10.0934      2.8551      6.7330   7.0257318211e+01   7.1597137175e+01    0.1735478    0.1197442  10.36  0.001293669    1.702    0.413
        39  -9.5992    110.6797      6.6997   2.9823796310e+01   5.5996018699e+01    0.1823313    0.1288949  62.57 0.0006160252    1.590    0.371
        40 -10.1767    108.5010      4.2561   2.9311886865e+01   5.6720896600e+01     0.404133    0.1356361  52.15  0.001048094    2.593    0.614
        41  -9.8336     95.5912      6.5991   3.3704066644e+01   5.9205327386e+01    0.3017556    0.1158439  51.20  0.001257111    2.482    0.597
        42  -9.4614     42.6220      5.5360   5.1479058248e+01   6.8104287138e+01    0.1177131   0.09171495 -20.54 -2.376023e-05    1.096    0.088
        43  -9.4544    233.7129      4.7245   1.0384018605e+01   2.5032738523e+01    0.1299657    0.0989162  38.92 0.0003305669    1.512    0.339
        44 -10.5274     56.6520      3.3842   4.4841783678e+01   6.6464227772e+01    0.2559574    0.2130537  47.32  0.001696823    1.667    0.400
        45 -11.6891    208.9896      2.2029   1.2135967389e+01   3.1565909177e+01    0.2076741    0.1972543  -8.73 0.0003642455    1.147    0.128
        46 -11.0040    155.6698      1.8598   1.8988870618e+01   4.5571656604e+01     0.286595    0.1593811  47.71 0.0008001528    1.633    0.388
        47 -10.2601     85.5822      1.4332   3.4193387357e+01   6.1729884960e+01    0.3360799    0.1223602  46.96  0.001372966    2.509    0.602
        48 -12.7170    105.8602     92.8568   6.1338500997e+01   4.2630742788e+01    0.5950316     0.270668  43.53  0.002047148    2.340    0.573
        49 -10.9195    228.9439    249.3408   6.5948258306e+01  -5.5811595520e+00    0.1781147    0.1349472  10.70 0.0003203787    1.297    0.229
        50 -12.1706    165.1980    247.9438   7.5881025243e+01   4.5634713433e+00    0.3713855    0.2033747  38.95  0.002330925    1.498    0.332
        51 -11.3525    154.2072    249.4573   7.7805588248e+01   6.0972581061e+00    0.3130379    0.1565212  36.48  0.001825236    1.897    0.473
        52 -13.5203     40.6192    247.4756   9.4956007338e+01   2.1833042444e+01    0.7628883    0.3691021  45.73  0.005527024    1.752    0.429
        53 -12.1465     12.3233    246.5750   9.8823786295e+01   2.4910710052e+01    0.5340906    0.1697447 -79.78  0.003394963    2.823    0.646
        54 -11.1809     15.8844    238.3037   9.7992001957e+01   2.5821704099e+01    0.1703501    0.1310393 -85.64 0.0007225029    1.466    0.318
        55 -12.5449    107.0261     89.0131   6.0006791578e+01   4.3220758077e+01    0.4831421    0.3550654  74.27  0.002333773    1.883    0.469
        56 -11.1822    152.0340     96.6209   5.0834292149e+01   3.2431522688e+01    0.4336907    0.3451501  55.12  0.001275418    1.305    0.234
        57 -11.2378    140.0853     97.8990   5.3995915804e+01   3.4815822857e+01     0.357245    0.2076741  51.13  0.001215149    1.789    0.441
        58 -11.7731     12.2463     97.0056   8.7884894935e+01   5.3029437143e+01     0.373499    0.1336651 -56.36  0.001023635    2.169    0.539
        59 -11.1073     10.2232     92.6208   8.7830474351e+01   5.4098572743e+01     0.184943    0.1151226  11.85  0.001187515    2.352    0.575
        60 -13.1182     62.6102     94.3444   7.3608108417e+01   4.8863354063e+01    0.6547065    0.4007771  89.65 0.0007492281    2.535    0.605
        61 -11.3910     48.5994     85.2368   7.5687087882e+01   5.2453616768e+01    0.2778588    0.1815435 -59.34 0.0008853344    1.265    0.209
        62 -12.5741     52.7176     89.9331   7.5481402764e+01   5.0986280036e+01    0.3880835    0.2828808  71.93  0.001599151    1.711    0.416
        63 -12.2647     52.8299     86.3608   7.4690301649e+01   5.1749540735e+01    0.4299037    0.2169306  25.11  0.001635341    2.655    0.623
        64 -11.0848    219.4681     93.2809   3.6344284682e+01   1.6952611671e+01     0.428446    0.1546753 -24.60  0.001301519    3.498    0.714
        65 -11.2994    211.0812     94.6824   3.8188942667e+01   1.8735513251e+01    0.5549305     0.224438  56.06  0.001470684    2.612    0.617
        66 -11.8338    213.6495     90.0804   3.6502929118e+01   1.8849408091e+01    0.3758111    0.3021405  -0.64 0.0007466484    1.344    0.256
        67 -10.9592    177.7475     94.4790   4.4593338207e+01   2.6820661537e+01    0.3586806    0.2604626 -25.47  0.001092809    1.442    0.307
        68 -11.1592    174.5522     90.0015   4.4016283249e+01   2.8384715941e+01    0.6851934    0.2580228  45.47  0.002269245    2.683    0.627
        69 -12.0287    175.8875     85.5176   4.2464847205e+01   2.8850625332e+01    0.6735087    0.4589577  19.83  0.001759119    1.919    0.479
        70 -10.4335     68.5919     94.9622   7.2069661806e+01   4.7967224377e+01    0.1840888     0.169721  45.98 0.0004674522    1.236    0.191
        71  -9.6872    246.8064     94.6159   3.2278068542e+01   1.0449292573e+01    0.1815888    0.1410086  68.86 0.0003936276    1.570    0.363
        72  -9.9223    228.8221     93.5492   3.4841807008e+01   1.4706300721e+01    0.2529278    0.1674093 -34.64 0.0007280135    1.454    0.312
        73 -11.5627    188.9119     93.0049   4.1917835503e+01   2.4380755143e+01    0.3151705    0.2920354 -87.49 0.0003089015    1.231    0.188
        74 -11.2696    182.7148     92.1758   4.2933565131e+01   2.6027917123e+01    0.3768948    0.2643993  25.25   0.00152909    1.691    0.409
        75 -11.8434    186.5509     87.0137   4.0720495368e+01   2.5980682131e+01    0.4299208    0.2854662 -31.57  0.001193975    1.504    0.335
        76 -12.2425     95.1954     89.2926   6.3301825162e+01   4.5227514088e+01    0.3625294    0.3291453  77.10            0    1.231    0.187
        77  -9.4824    241.2167     91.1015   3.2241476024e+01   1.2211757653e+01    0.1908211    0.1542666 -47.33 0.0003687909    1.334    0.250
        78 -10.6894    224.7215     91.3602   3.4949158485e+01   1.6002830234e+01    0.2709907    0.2160985 -65.35 0.0007764059    1.577    0.366
        79 -11.5602    224.2176     87.1401   3.3918636957e+01   1.6765989789e+01    0.2672673    0.2489679  21.65 0.0002689142    1.064    0.060
        80 -10.9479     40.0353     90.0178   7.9124399141e+01   5.2281228444e+01    0.1862474    0.1496673 -67.10 0.0003392234    1.039    0.037
        81 -11.6991     38.4646     86.1610   7.8836583759e+01   5.3267028037e+01    0.3022889    0.2500181 -46.29  0.000857584    1.203    0.169
        82  -9.0878    249.2978     89.3049   3.0573689008e+01   1.0651140261e+01    0.1452027     0.105319  14.41  0.000303359    1.587    0.370
        83 -12.5662    177.7549     70.2259   3.7592063912e+01   3.0982263531e+01     1.476799    0.8206795  85.01  0.004154267    4.792    0.791
        84  -9.8615    172.7142     70.9977   3.8850458515e+01   3.2117569177e+01    0.2175149    0.2040273 -12.26 0.0005225192    1.054    0.051
        85 -12.1227    162.6919     84.0849   4.4882652953e+01   3.2291949729e+01    0.8031638    0.5478402 -59.86  0.003439247    1.887    0.470
        86 -12.2016    169.3605     79.5369   4.2104259811e+01   3.1488353030e+01    0.9048829    0.4991328 -36.39  0.003681193    1.790    0.441
        87 -11.1021    164.7624     73.5305   4.1296933424e+01   3.3653947223e+01    0.4487424    0.3074595 -56.54  0.001002296    1.791    0.442
        88 -11.3263    161.7344     66.3117   3.9731302636e+01   3.5624111115e+01    0.5304953    0.3376869 -24.61  0.001229044    1.667    0.400
        89 -10.7033    165.4278     64.4868   3.8370569899e+01   3.5012545537e+01    0.3363931     0.255491 -61.41 0.0008210822    1.616    0.381
        90 -12.0047    149.3358     85.7755   4.8411581735e+01   3.5104102087e+01    0.6582601    0.4744396  75.76  0.002744081    1.907    0.476
        91 -11.6271    148.4685     81.1801   4.7270107197e+01   3.6160475298e+01    0.3754531    0.3358729 -71.99 0.0003237156    1.281    0.219
        92 -12.2228    138.5384     87.9232   5.1609113034e+01   3.7107286876e+01    0.5654519    0.2995628  51.35            0    1.985    0.496
        93 -11.7601    139.7431     80.3684   4.9116211139e+01   3.8288489392e+01     0.547094    0.3208396 -40.17 0.0005230367    1.666    0.400
        94 -12.7170     26.5433     36.0392   7.0378199761e+01   6.4630167974e+01    0.7562684    0.2192067 -44.35  0.000558293    2.621    0.618
        95 -11.4839    112.0027    249.1897   8.4428085388e+01   1.2460406164e+01    0.1810023    0.1458991 -87.82  0.001472544    1.379    0.275
        96 -14.5855     43.2666     75.6760   7.5196634794e+01   5.5058823942e+01     1.200114     0.995649  46.05  0.008067147    1.462    0.316
        97 -13.0091     66.4864     82.7114   6.9840362014e+01   5.0890584693e+01    0.7997704    0.5569957  81.14  0.002007006    2.139    0.533
        98 -13.1558     54.7175     71.7268   7.0683474276e+01   5.4666691192e+01     0.911997    0.3885958 -59.25  0.002217412    2.209    0.547
        99 -11.1671    214.5412    246.7678   6.7853667524e+01  -3.1106935581e+00    0.1733962    0.1352593  16.61 0.0007895053    1.253    0.202
       100 -13.0991     79.0219     59.8749   5.9618665200e+01   5.3829849174e+01    0.7294592    0.6745208  89.05  0.003842338    1.355    0.262
       101 -12.0932     52.6898     55.8594   6.6982283986e+01   5.8164226737e+01    0.4523412    0.2924627 -21.53 0.0005238646    1.858    0.462
       102 -12.6606     27.2463     50.3952   7.4303812171e+01   6.1758391364e+01    0.9377612    0.4149843  24.42  0.004940101    2.834    0.647
       103  -9.7953    235.3115    244.3082   6.4241301316e+01  -6.0878016809e+00    0.1135469   0.06507385  21.89 0.0004957177    1.622    0.383
       104 -11.5404    227.4086    242.7045   6.5251399240e+01  -4.7196623414e+00    0.2128068     0.182748  69.25  0.001487681    1.892    0.472
       105 -12.0920    180.3960    243.0301   7.2839237856e+01   2.7278433730e+00    0.2591247    0.1782315  64.57  0.001352144    1.802    0.445
       106 -11.8821    219.3401    240.3468   6.6196228052e+01  -3.2213984819e+00    0.3206073    0.2453817  23.42  0.002374909    1.132    0.116
       107 -12.2106      3.1842    247.0228   1.0005742583e+02   2.5712100304e+01    0.5206733    0.2069459  82.81  0.003700913    2.055    0.513
       108 -10.6955    110.1937    240.7385   8.3948700795e+01   1.3914611145e+01    0.1338103    0.1139346  47.57 0.0005313873    1.325    0.245
       109 -11.0242    159.8710    219.7143   7.3270804517e+01   9.1183523016e+00    0.1862723    0.1625361  57.13 0.0003380248    1.132    0.116
       110 -11.2997     24.0954     86.3733   8.3022752063e+01   5.4451924613e+01    0.3139066    0.1437471 -68.81  0.001622588    1.794    0.443
       111 -12.3435      5.8028     83.6978   8.7797395708e+01   5.6266003118e+01    0.4178228     0.131682 -64.64  0.001895361    2.153    0.535
       112 -10.0282    233.1213     86.3159   3.2265740274e+01   1.4782547627e+01    0.2804711    0.1953242 -27.33 0.0006642005    1.369    0.269
       113  -9.5738    223.1892    122.8143   4.3154141321e+01   1.1489475056e+01    0.2078649    0.1602533  16.33 0.0005742721    1.356    0.263
       114  -8.9837    226.6735    119.2561   4.1679487385e+01   1.1267523699e+01    0.1347758    0.1167975 -78.96 0.0003195738    1.553    0.356
       115  -9.4404    249.0077    118.0177   3.7659300036e+01   6.6364916138e+00    0.1696419    0.1523152  13.15 0.0009830114    1.060    0.056
       116 -13.1195    203.3064     68.9704   3.2446712079e+01   2.4705646591e+01    0.6857499    0.5969076 -82.04  0.002263294    1.331    0.249
       117 -13.1667    189.1807     46.7486   2.8272719810e+01   3.1613511585e+01     1.301024    0.6472647  56.75  0.004286754    1.932    0.482
       118 -12.9274    196.7030     39.8750   2.4929832133e+01   3.0571932915e+01    0.8491013    0.5468735  60.50  0.001170855    1.523    0.343
       119 -12.5494    188.5658     34.2597   2.4493063369e+01   3.3437804283e+01     1.099169     0.337251  52.86  0.003600108    2.901    0.655
       120 -13.0517    138.5295     71.1595   4.6606045573e+01   4.0269034062e+01     1.376783    0.7463998  36.72  0.005489042    2.106    0.525
       121  -9.5653    164.0243    118.4546   5.3793402426e+01   2.5574261682e+01    0.2216826    0.1448425  49.02   0.00045637    1.507    0.337
       122 -10.0984    204.9596    116.9403   4.5062068484e+01   1.6533203180e+01    0.2216608    0.2160274  30.19 0.0004700742    1.086    0.080
       123 -13.0270    173.0027     55.4734   3.3985363654e+01   3.4529948797e+01    0.6482698    0.5613427  73.53  0.001365152    1.265    0.209
       124 -14.1947    213.6448     61.2575   2.8526117807e+01   2.3231059823e+01     2.091792       1.2634  62.94  0.009127366    1.743    0.426
       125 -10.1115    147.6540     38.8550   3.3698178236e+01   4.3371580133e+01     0.801298    0.3608834 -35.36  0.001091414    2.185    0.542
       126 -12.6306    154.2108     62.4092   4.0153177749e+01   3.8116933412e+01     1.605984    0.8414038 -51.72  0.005925117    2.497    0.599
       127 -12.8434    143.1122     61.8775   4.2539563335e+01   4.0855010796e+01      1.03741    0.7018186  58.95  0.002398142    1.626    0.385
       128 -12.6046    155.0285     42.3563   3.3334177961e+01   4.1038589422e+01    0.9806691    0.4923732  27.05  0.003271728    3.184    0.686
       129 -11.6567    132.7381    111.2931   5.9199585307e+01   3.3652567963e+01     0.358848    0.3118358 -83.81 0.0008366639    1.290    0.225
       130 -12.4803     31.8771     84.4811   8.0435302950e+01   5.4222957989e+01    0.4541587    0.2938652  83.38  0.002608629    1.947    0.486
       131 -11.7256    212.9205     83.5080   3.4850404331e+01   2.0058575075e+01    0.3876115    0.2443846  27.17  0.001553203    1.977    0.494
       132 -11.6949    114.1299     80.8638   5.5818410784e+01   4.3545351168e+01    0.4268263    0.3352591 -22.07  0.001291108    1.391    0.281
       133 -10.3878    118.5062     79.4308   5.4234734890e+01   4.2967711778e+01    0.2361745    0.1911588 -28.60 3.677583e-05    1.240    0.194
       134  -9.4040     81.3973     83.2127   6.5612972925e+01   4.8699424434e+01    0.1888252    0.1195363 -60.07 0.0004364408    1.593    0.372
       135 -10.7176    221.2252     82.4005   3.3145828973e+01   1.8206135395e+01    0.1989024    0.1478688  71.36 0.0002874442    1.595    0.373
       136 -12.3876    100.9639     65.5194   5.4817708615e+01   4.9044589661e+01      0.57873    0.3974787  69.49  0.002635131    2.301    0.565
       137 -11.7328     93.2842     59.4981   5.5127171382e+01   5.1566377117e+01    0.8727269    0.4320365 -45.84  0.002707338    1.916    0.478
       138 -12.1948    104.4058     74.9834   5.6749805544e+01   4.6557631083e+01    0.9577519    0.5997092   5.26   0.00325578    3.148    0.682
       139 -10.5808     99.9901     74.2627   5.7778632422e+01   4.7500540720e+01    0.2610162    0.2260384  10.16            0    1.282    0.220
       140 -10.3303     95.4240     74.7784   5.9233688111e+01   4.8194944598e+01    0.2465327    0.2191571  22.69  0.000514298    1.225    0.184
       141 -11.9909     96.8029     70.0449   5.7424360229e+01   4.8904454287e+01    0.4946806    0.3689673  18.92 0.0007820842    1.615    0.381
       142 -12.4597     94.2288     66.0093   5.6930942329e+01   5.0147564654e+01    0.6815339    0.4153382  52.56  0.003208072    2.021    0.505
       143 -11.5573     23.3303     78.3534   8.1823934758e+01   5.6230702646e+01    0.1898917    0.1383511 -51.53  0.001041556    1.198    0.166
       144 -12.0255     20.2217     74.8368   8.2111101144e+01   5.7209801779e+01    0.3616292    0.1496609 -61.12   0.00190355    1.777    0.437
       145 -10.4726    232.3664     79.0899   3.0483328227e+01   1.6023505732e+01    0.2705548      0.22267  63.34 0.0008300924    1.326    0.246
       146 -10.4839     84.6829     78.3390   6.3355880000e+01   4.9220883503e+01    0.2119303    0.1695645  63.32 0.0007516205    1.547    0.354
       147 -12.2755    220.9633     76.0954   3.1479621165e+01   1.9220933873e+01    0.5359505    0.3468717 -71.99  0.002154586    2.453    0.592
       148 -12.3579     73.0646     75.5660   6.6046818592e+01   5.1517939355e+01    0.7970155    0.3485609  46.25  0.003390615    2.830    0.647
       149 -10.8418     71.1970     71.3851   6.5472251129e+01   5.2648765015e+01    0.2993413    0.1865083  49.86  0.001317733    2.012    0.503
       150 -11.0231    237.6483     86.3627   3.1573170169e+01   1.3720598840e+01    0.2785223    0.2592862  79.76 0.0005395944    1.234    0.190
       151 -11.6322     79.2820     73.0984   6.3495553163e+01   5.1130773573e+01    0.3512481    0.2948527 -25.56 0.0004271081    1.218    0.179
       152 -10.4754    155.2354     76.8944   4.4425736932e+01   3.5359982921e+01    0.3580295    0.2238053  50.88  0.001103087    1.612    0.380
       153 -11.2624    113.3417     73.6518   5.3887213302e+01   4.5123625025e+01    0.3135302      0.24752 -22.06 0.0007577629    1.335    0.251
       154 -12.0591     87.8757     73.0926   6.0937367131e+01   4.9795161015e+01     0.363893    0.2948373  24.25 0.0004383466    1.397    0.284
       155 -11.7940    238.1541     70.2020   2.7270967983e+01   1.5922534731e+01    0.7968796    0.4545105 -11.43  0.003266853    2.204    0.546
       156 -10.3975    250.0839     67.9526   2.5033884747e+01   1.3443900448e+01    0.3186399    0.1921928 -21.55   0.00111468    1.652    0.395
       157 -13.0389    194.0280     54.6322   2.9839840412e+01   2.9228301901e+01     1.262764    0.5996357  56.17  0.002431375    2.040    0.510
       158 -11.8517    108.7000     66.6624   5.2990368832e+01   4.7373313833e+01    0.4172394    0.2929206 -76.96   0.00181263    2.425    0.588
       159 -11.6574    105.3406     60.7655   5.2027897463e+01   4.9127858423e+01    0.3926457      0.25826  44.51  0.001360843    1.624    0.384
       160 -10.1483    245.9365     61.7123   2.3972526341e+01   1.5254007400e+01    0.1854516    0.1791832  82.92 0.0002639423    1.114    0.102
       161 -10.7642    242.2464     61.6488   2.4447996299e+01   1.6134275385e+01    0.4837804    0.2454226 -34.92  0.001672402    1.801    0.445
       162  -9.8873    245.3155     53.7460   2.1976991289e+01   1.6462742038e+01      0.19665    0.1266202 -19.99 0.0009228164    1.587    0.370
       163 -11.5339    101.1461     53.3042   5.0716269335e+01   5.1285615037e+01    0.6785585    0.2741347  41.90  0.002636837    2.646    0.622
       164 -12.3454    127.8609     43.7323   4.0057317455e+01   4.7337353652e+01     1.106312    0.8874941  85.22  0.003271018    1.720    0.418
       165 -10.5813    238.4843     52.0416   2.2405336983e+01   1.8327122092e+01    0.3240218    0.2060853  55.25  0.001541333    1.613    0.380
       166 -10.1583    111.0255     52.4996   4.7623849161e+01   4.9501263489e+01    0.2055258    0.1408248  42.38 0.0007831011    1.514    0.339
       167 -10.9127    160.1445     50.2583   3.4911763476e+01   3.8586621915e+01    0.3598034    0.2651412  -5.57 0.0006377212    1.546    0.353
       168 -11.1011    241.3009     47.9399   2.0957446889e+01   1.8181730288e+01    0.2221317    0.1996548  57.23 0.0004871004    1.165    0.142
       169  -9.2814     90.3062    113.2658   7.0203230491e+01   4.0860551282e+01    0.1259024    0.1046136 -21.62 0.0001720882    1.530    0.347
       170 -10.5039     99.8388     46.3158   4.8625860160e+01   5.2757152970e+01    0.3924131    0.3158484 -50.19  0.001724389    1.400    0.286
       171 -10.5089    104.1641     43.5669   4.6364464899e+01   5.2384779141e+01    0.4301274    0.3129207  68.06  0.002105063    1.990    0.497
       172 -10.9630    214.0230     42.1962   2.3018945674e+01   2.5757090223e+01     0.403227    0.2984292 -44.86 0.0009041814    1.362    0.266
       173 -10.4255    138.4874    112.4951   5.8126503391e+01   3.2231918004e+01    0.2660012    0.1371994  35.66  0.001030361    2.304    0.566
       174 -11.3887    114.2726     28.4095   3.7792973741e+01   5.2596154029e+01    0.3252539    0.2947896 -88.47 0.0004623097    1.446    0.308
       175 -10.5383    112.8067     39.4185   4.2405528222e+01   5.1292634470e+01    0.4064416    0.2635847  27.81  0.001913554    1.715    0.417
       176 -10.6018     40.6863     39.6772   6.6164886597e+01   6.2624997374e+01     0.336625     0.185151  23.20  0.001860299    2.221    0.550
       177  -9.6623    114.9676     47.9460   4.4934112995e+01   4.9466762983e+01    0.1636408    0.1514029  13.03 0.0003503502    1.059    0.056
       178  -9.0907    245.3388     39.3132   1.8210033246e+01   1.8300899028e+01    0.1442594     0.104186  27.77 0.0007046594    1.695    0.410
       179 -12.5303    208.1004     47.7885   2.5515362696e+01   2.6542075305e+01     1.253397    0.8047667  85.48  0.005333054    2.035    0.509
       180 -12.0200    162.3863     57.9390   3.6939574936e+01   3.6830709781e+01    0.6754402    0.5481625   1.77  0.003306444    1.356    0.262
       181 -10.4712    216.4800     23.7671   1.7418473265e+01   2.7377673830e+01     0.488447    0.4279068 -12.71  0.002622222    1.212    0.175
       182 -10.4006    216.2805     35.3584   2.0746706523e+01   2.6045780493e+01    0.2837779    0.2152129   1.59  0.001396257    1.545    0.353
       183 -11.8103    217.7446     30.5992   1.9199168493e+01   2.6250385870e+01    0.4923013    0.4176725  42.35  0.001318009    1.232    0.188
       184 -11.7363     92.0312     33.2528   4.6032108427e+01   5.6355008895e+01    0.4737152    0.3380265 -19.97  0.002553599    1.323    0.244
       185 -11.0847     86.4770     28.5288   4.5863357492e+01   5.8090044112e+01    0.3431534    0.2515331  40.61 0.0005656687    1.452    0.311
       186 -10.0462    206.2339     31.8771   2.1115679253e+01   2.9085164562e+01    0.2177334    0.1913201 -55.11 0.0004393757    1.167    0.143
       187 -10.7046     29.7150     29.4926   6.6925526343e+01   6.5575512682e+01    0.3814633    0.1358248 -52.59   0.00175437    2.446    0.591
       188  -9.5030    154.9066     31.0000   2.9437964853e+01   4.2617186063e+01    0.2443678   0.08286761  59.70 0.0007946953    2.889    0.654
       189 -11.0551    140.6609     29.3831   3.1832112547e+01   4.6372673486e+01    0.2505286     0.237527  29.35 0.0002932893    1.049    0.046
       190  -9.4439    175.3335    111.3399   4.9581850353e+01   2.4343525629e+01    0.1608536    0.1183075  11.83 0.0004198036    1.750    0.428
       191 -10.8500    105.6722     28.2987   4.0074040729e+01   5.4428150516e+01    0.3861063    0.3031428  80.45  0.001789688    1.933    0.483
       192 -11.2889     96.9876    110.0469   6.7803157656e+01   4.0489905210e+01    0.2401232    0.2084195 -51.22            0    1.107    0.097
       193 -10.7619    185.5561     27.0616   2.2703658254e+01   3.5117165462e+01    0.3842109       0.3707 -69.77  0.002163626    1.078    0.073
       194 -10.8932    191.1809     23.9395   2.0871616253e+01   3.3994083011e+01    0.4553316    0.2442633  70.63  0.001404425    1.937    0.484
       195 -10.4167    202.6306     17.7517   1.7413749363e+01   3.1661610015e+01    0.3345721    0.2343616   0.20 0.0008477566    1.715    0.417
       196 -11.1568    197.9485     26.5468   2.0692669301e+01   3.1902042009e+01    0.5363817    0.2735609  49.44  0.002221476    1.925    0.480
       197  -9.9312    198.6483     22.1484   1.9262058324e+01   3.2224297176e+01    0.2876477    0.2254249 -13.27 0.0009408684    1.372    0.271
       198 -10.1304    146.3388     28.3203   3.0233628633e+01   4.5111802798e+01    0.5148677    0.1918987  42.53   0.00175391    2.839    0.648
       199 -11.3969    147.5297     24.9660   2.8778432132e+01   4.5232152528e+01    0.5988833    0.2988445  36.27   0.00235038    2.238    0.553
       200 -10.8439    225.7296     22.9143   1.6080770600e+01   2.5105282614e+01    0.3915665    0.1895046  62.71  0.001237057    1.984    0.496
       201  -9.8197    216.8772    109.1373   4.0902448433e+01   1.5059802035e+01    0.2226171    0.2016491 -55.13 0.0005699909    1.268    0.212
       202 -11.9275    182.4691     35.6278   2.5928750379e+01   3.4869177784e+01    0.5295321    0.3095638 -33.89  0.002299981    1.702    0.412
       203 -10.0729    195.7146    107.3702   4.4412536775e+01   2.0291880219e+01     0.287297    0.1788454 -43.97 0.0009405296    1.700    0.412
       204 -10.1261    155.6583     21.3053   2.5886576046e+01   4.3607315160e+01    0.4297285    0.2705404 -65.44  0.001790782    2.345    0.574
       205 -10.9583     36.4207     24.3913   6.2318818619e+01   6.5835659422e+01    0.3397734    0.2158914  22.45  0.001715093    1.814    0.449
       206 -10.7616    133.0752     23.3724   3.1273500571e+01   4.8963564806e+01    0.3011051     0.218055 -58.78  0.001440798    1.851    0.460
       207 -10.5389    119.4810     22.4522   3.4117718511e+01   5.2232282656e+01    0.2452162    0.2136955  32.53 0.0005633895    1.092    0.084
       208 -11.2803     42.7341     20.6736   5.8269277218e+01   6.5775453029e+01    0.3974264    0.3343528  60.79  0.002601703    2.001    0.500
       209  -9.9907    210.5154     21.2877   1.7448721830e+01   2.9206470467e+01    0.1686564    0.1413714  -3.19 0.0002159156    1.318    0.241
       210 -10.5088     32.0330     19.9236   6.2358778593e+01   6.7044302292e+01    0.2861168    0.1608357 -36.28   0.00117412    1.398    0.285
       211  -9.6891     28.1921     19.0096   6.3616750458e+01   6.7567871256e+01    0.2442356    0.1760062 -41.03  0.001264822    1.175    0.149
       212 -10.3098    113.3268     18.5082   3.4077459642e+01   5.4089020618e+01    0.4355477    0.2806278  85.26  0.001795724    3.035    0.671
       213  -9.4180    238.7120     19.4459   1.3743196719e+01   2.2248872570e+01    0.1574868   0.08663562 -54.34 0.0006901255    1.927    0.481
       214  -9.5746    136.1659     19.2587   2.9037318577e+01   4.8711285266e+01    0.1830651    0.1636971 -55.80 0.0003856049    1.320    0.243
       215  -9.2509    227.2464     18.3628   1.4666565221e+01   2.5228950767e+01    0.1386064    0.1045969  22.68 0.0006942346    1.609    0.378
       216  -9.1761    188.2766     18.3334   1.9542795333e+01   3.5391138493e+01    0.1511919    0.1056796  29.64 0.0006996719    1.603    0.376
       217 -10.2362    139.4401     17.2423   2.7589273234e+01   4.8141510067e+01    0.2411354    0.1407433 -16.93 0.0005384415    1.799    0.444
       218  -9.9626    122.5079     18.5406   3.1835937160e+01   5.2022732544e+01    0.2806395    0.2103495  44.95  0.001425652    1.267    0.211
       219  -9.4949     14.2342     18.6556   6.9544078099e+01   6.8777975650e+01    0.1001098   0.07675505 -62.26 0.0003652699    1.554    0.356
       220  -9.4482    235.3981    107.1761   3.7223183640e+01   1.1154849450e+01    0.1958455    0.1280634 -38.98 0.0002606954    1.544    0.352
       221 -10.7196     92.0015    106.9924   6.8415434175e+01   4.1954398138e+01     0.205206    0.1842827 -69.65 0.0003296229    1.048    0.046
       222  -9.3124    195.2410     16.6315   1.8048632268e+01   3.3731298799e+01    0.1499098    0.1014774 -52.68 0.0003228834    1.611    0.379
       223  -9.6160    189.3301     15.0291   1.8360654872e+01   3.5465604438e+01    0.1806464    0.1776959  11.48 0.0002711983    1.056    0.053
       224  -9.8156     33.0987     14.7947   5.9771337183e+01   6.7788170521e+01    0.1543355    0.1084417 -11.84 0.0004205945    1.346    0.257
       225  -9.9289    199.8398    105.8666   4.3223715543e+01   1.9574608390e+01    0.1992576    0.1729867 -52.92  0.000381607    1.286    0.223
       226 -10.9210    184.2620    105.7146   4.6268979651e+01   2.3277109972e+01     0.265139    0.2553129  28.81 0.0003255227    1.026    0.026
       227  -9.9461    211.2486    104.9952   4.0862197699e+01   1.7033159173e+01    0.3989263    0.1664383  42.54  0.001422629    2.509    0.601
       228 -11.2043    110.4042    103.4624   6.2826705660e+01   3.9578566352e+01    0.2855694    0.2133715  18.21  0.001366361    1.772    0.436
       229 -10.8154    165.7543    102.2990   4.9281893055e+01   2.8222656035e+01    0.2720908    0.2287681 -30.76  0.001114803    1.202    0.168
       230  -9.8048     95.0407     12.5747   3.6503564276e+01   5.8635395073e+01    0.1867064    0.1250255  46.80 0.0004406371    1.507    0.337
       231  -9.0820    179.6447     11.7014   1.8674634020e+01   3.8372701336e+01    0.1581051   0.09872335  37.24  0.000703586    1.700    0.412
       232  -9.7299    143.7809    103.3941   5.4572864412e+01   3.2932599204e+01    0.2145114    0.1403404  38.25 0.0009538811    1.619    0.382
       233  -9.1694    234.4254    101.4425   3.5944815194e+01   1.2229650852e+01    0.1449103    0.1349046 -11.64 0.0001308756    1.035    0.034
       234 -10.6680    226.1134    100.3753   3.7056044841e+01   1.4295174382e+01    0.3918272    0.2054597 -28.37 0.0009406566    1.878    0.467
       235 -11.9973     52.8703    100.0477   7.7445790709e+01   4.8759517558e+01    0.3071699    0.2229801 -22.77   0.00126118    1.918    0.479
       236 -10.1927    208.9178     99.8626   3.9951518082e+01   1.8416132197e+01    0.2359345    0.1937844  13.41 0.0002932218    1.297    0.229
       237 -11.6779     86.8503     98.0030   6.7736379477e+01   4.4704297466e+01    0.3439152    0.3135305  -9.49  0.001295927    1.282    0.220
       238 -11.5399    200.3206     96.8906   4.0762741548e+01   2.0963147874e+01    0.3795566    0.2828002 -38.09 0.0009256501    1.348    0.258
       239 -11.4525    192.2685     99.1329   4.2917748385e+01   2.2520406062e+01    0.4796109    0.2268104  54.77 0.0009654818    2.196    0.545
       240 -11.1803    169.3119     97.4097   4.7188382292e+01   2.8296869923e+01    0.5062103    0.3716036  68.34  0.002306148    1.643    0.391
       241 -13.4842    130.1211     96.9483   5.6173678145e+01   3.7103483074e+01    0.8292326    0.5304649  54.53  0.003760471    1.712    0.416
       242 -11.3745    130.9683     80.9626   5.1467741067e+01   4.0089943399e+01    0.2850754    0.2248438  55.94 0.0006161574    1.375    0.273
       243 -11.7728    115.9999     88.9917   5.7618690073e+01   4.1540333340e+01    0.3134666     0.204859 -41.51  0.001480751    1.469    0.319
       244 -12.1873    127.6187     90.4649   5.5035276934e+01   3.8922499432e+01    0.3644175    0.3226429  23.47 0.0002714906    1.213    0.176
       245 -13.8040    123.8122     84.1492   5.4222783371e+01   4.0961778479e+01      1.40342    0.7240998 -24.67  0.004832217    3.120    0.679
       246 -10.6869    115.0185     56.0592   4.7751225865e+01   4.8064061990e+01     0.270474    0.2267099  21.37 0.0008245638    1.239    0.193
       247 -12.6174    121.5305     67.6962   4.9836767070e+01   4.4602745045e+01    0.6856756    0.4777259  58.91  0.002743353    1.700    0.412
       248 -12.7712    116.4161     63.0528   4.9706276275e+01   4.6517367493e+01    0.7720197    0.5132325 -20.89  0.003216136    1.713    0.416
       249 -12.1433    106.5596     96.4980   6.2091298893e+01   4.1740868074e+01    0.5230293    0.2812486 -26.87   0.00188903    3.235    0.691
