#   1 NUMBER                 Running object number                                     
#   2 MAG_AUTO               Kron-like elliptical aperture magnitude                    [mag]
#   3 X_IMAGE                Object position along x                                    [pixel]
#   4 Y_IMAGE                Object position along y                                    [pixel]
#   5 X_WORLD                Barycenter position along world x axis                     [deg]
#   6 Y_WORLD                Barycenter position along world y axis                     [deg]
#   7 A_WORLD                Profile RMS along major axis (world units)                 [deg]
#   8 B_WORLD                Profile RMS along minor axis (world units)                 [deg]
#   9 THETA_WORLD            Position angle (CCW/world-x)                               [deg]
#  10 FWHM_WORLD             FWHM assuming a gaussian core                              [deg]
#  11 ELONGATION             A_IMAGE/B_IMAGE                                           
#  12 ELLIPTICITY            1 - B_IMAGE/A_IMAGE                                       
         1 -13.5905     35.8225    196.9586   1.1687295715e+02   2.8439978654e+01     7.705485     2.805214  85.21   0.02271807    6.061    0.835
         2 -11.8734    214.8238     34.6326   3.9873638606e+01   2.7678373515e+01    0.8444358    0.6372147  87.28  0.004855179    1.276    0.216
         3 -11.6156    222.8530     27.7050   3.7444478954e+01   2.6751206176e+01    0.8891325    0.4830646  61.01   0.00296684    1.868    0.465
         4 -10.5897      1.8975     23.2023   9.6665481737e+01   7.0542215744e+01     0.616363    0.1044213 -53.56  0.002141557    4.874    0.795
         5 -11.6475    238.2296     13.3455   3.3012901838e+01   2.5131123818e+01    0.6688684    0.5027391 -62.76  0.002669263    1.100    0.091
         6  -9.5225    119.9539    239.3321   1.0348994214e+02   8.3674687645e+00    0.4019786    0.1123269  32.98  0.001365741    3.816    0.738
         7  -9.6415     70.3954    247.1920   1.1422249219e+02   1.3903332017e+01    0.2501667    0.1505755  86.38  0.001446419    1.887    0.470
         8 -10.8911     84.5235    248.1601   1.1157434729e+02   1.1850580620e+01     0.452391     0.318229  44.72  0.001918084    1.190    0.159
         9  -8.8656     72.4787    250.5110   1.1411027973e+02   1.3023293745e+01    0.2435381   0.09877183  36.76  0.001061711    2.144    0.533
        10 -10.0269     77.3025    249.1504   1.1306616578e+02   1.2638395357e+01    0.4413539    0.1280317  39.96    0.0019135    2.672    0.626
        11 -10.4552     60.5852    248.1206   1.1616781488e+02   1.4977489053e+01    0.4321399    0.3455193  58.56  0.003087093    1.032    0.031
        12  -9.0892     49.4884    250.4918   1.1841127642e+02   1.5888571461e+01    0.3796929   0.09025675  35.66  0.001553492    3.553    0.719
        13 -11.5264      6.0064    228.0583   1.2496529976e+02   2.4821709277e+01    0.9639375    0.5132514 -77.54  0.005868071    1.668    0.400
        14  -9.1113      1.5582    224.5081   1.2559030758e+02   2.5930723573e+01    0.3802142   0.08032814 -76.03  0.001566289    3.885    0.743
        15 -10.0924     15.1385    250.4615   1.2449253740e+02   1.9660271301e+01     1.027644          nan  35.79  0.003421736    6.589    0.848
        16 -10.4651      1.8331    249.1744   1.2666697620e+02   2.1185266006e+01    0.5903099    0.2762235 -67.31  0.003716719    2.242    0.554
        17 -10.4643      1.5282    238.4926   1.2625372952e+02   2.3206671663e+01    0.5007398    0.2283038  85.19  0.003000541    1.908    0.476
        18  -8.3890     20.7920    238.7050   1.2287612945e+02   2.1298257195e+01    0.1751756    0.1229098 -79.72 0.0006741309    1.374    0.272
        19 -11.2763     84.2139    229.6606   1.0976826607e+02   1.5407600308e+01    0.7014699    0.4152512 -87.90  0.003619411    2.138    0.532
        20 -10.7403    114.1191    231.5599   1.0372983287e+02   1.0679049836e+01    0.4236703    0.2828995 -53.53  0.002400722    1.696    0.410
        21  -8.3149     60.1932    232.9749   1.1498151321e+02   1.7932389269e+01    0.1909027    0.1316638  66.06 0.0006930097    1.295    0.228
        22  -9.3848    135.4960    231.3431   9.9206576459e+01   7.4198349605e+00    0.2381395    0.1079044  36.59  0.001081214    1.927    0.481
        23 -10.4692    125.2424    229.7697   1.0115118144e+02   9.3078675267e+00    0.4149696    0.1916771  47.72  0.001870815    2.114    0.527
        24  -8.5014    103.6584    229.6658   1.0569746064e+02   1.2608693795e+01    0.1241992   0.09934422  -7.42 0.0007050937    1.756    0.431
        25  -7.8742     96.3424    227.3060   1.0696096965e+02   1.4144899621e+01    0.1212284   0.09979431  -6.07 0.0007042041    1.687    0.407
        26  -7.9007     73.3201    227.3080   1.1178361060e+02   1.7364603850e+01    0.1125783   0.09756423 -19.60  0.000563116    1.640    0.390
        27 -10.0374    120.7925    224.5893   1.0139829779e+02   1.0979254843e+01     0.316291    0.2916042  20.96     0.002031    1.140    0.123
        28 -10.4782     87.2309    225.1806   1.0864453355e+02   1.5877801235e+01    0.5157629    0.3112639  89.68  0.002220624    2.142    0.533
        29 -12.4079      9.6043    207.7525   1.2314527717e+02   2.8663414445e+01    0.9057008    0.7739782  33.72  0.004543504    1.467    0.318
        30 -11.0826     24.7936    207.7466   1.2009215881e+02   2.7213916270e+01     0.359476    0.2691511 -53.36  0.000882601    1.634    0.388
        31  -9.1430     30.5565    246.9484   1.2160867517e+02   1.8700547440e+01     0.181567    0.1504748  29.40 0.0007359756    1.567    0.362
        32  -9.8492      2.3310    180.4740   1.2287129127e+02   3.5264527807e+01    0.2848584     0.154248 -82.82  0.001643293    1.503    0.335
        33  -9.6274      2.4978    168.2328   1.2194833417e+02   3.8051531178e+01    0.2902444    0.1350908 -77.29  0.001065847    1.728    0.421
        34  -9.0816      8.8041    168.2334   1.2049094177e+02   3.7572745662e+01    0.1634617    0.1207726 -62.39 0.0003892323    1.320    0.243
        35  -9.8391     71.7142    164.4835   1.0428716424e+02   3.1727182564e+01    0.2836516    0.2640805 -59.47 0.0002856081    1.105    0.095
        36 -11.7003     58.1666    160.6714   1.0727907979e+02   3.4439437010e+01    0.5583485    0.3034426 -44.79  0.001460642    2.069    0.517
        37  -9.5089      2.1382    160.9855   1.2146493794e+02   3.9763430191e+01    0.2971369    0.1419963 -77.13   0.00128647    1.675    0.403
        38 -10.9592     79.4984    157.6971   1.0111018529e+02   3.2280195443e+01    0.6141197    0.4855233 -21.84  0.001717715    1.600    0.375
        39  -9.8638     73.4959    154.6082   1.0220879094e+02   3.3903235252e+01    0.3780734     0.251816  53.08   0.00183552    1.626    0.385
        40  -8.1111     33.0077    157.5128   1.1345188161e+02   3.8009494291e+01    0.1789884    0.1283558  32.84 0.0005850331    1.566    0.361
        41  -9.8163     20.7757    195.4244   1.1999915621e+02   3.0309755305e+01    0.2360648    0.1466986 -82.57  0.001410022    1.379    0.275
        42  -8.0151    122.9887    151.6699   8.8342137225e+01   2.6433765529e+01    0.2054718    0.1896082  44.04 0.0005620269    1.099    0.090
        43  -9.3103      1.7208    150.1563   1.2065585740e+02   4.2341811655e+01    0.2723024    0.1203296 -79.95 0.0009295982    1.880    0.468
        44 -11.5386     68.2129    144.2298   1.0187645086e+02   3.7207869722e+01    0.7670915    0.5433131  87.09  0.002380456    1.689    0.408
        45  -8.9469     94.2805    143.7065   9.4419619465e+01   3.3413052171e+01    0.2903671    0.2726977  64.90  0.001174491    1.106    0.096
        46  -8.3234     97.5293    140.9534   9.2938983836e+01   3.3542451905e+01    0.3191709    0.1747119 -38.90  0.001266663    2.074    0.518
        47 -10.4023     82.6434    142.0583   9.7368613386e+01   3.5666025261e+01    0.3329825    0.2840526 -46.99 0.0004457906    1.147    0.128
        48 -10.0758     54.9721    180.0330   1.1066629174e+02   3.0156683290e+01    0.4412203    0.2754482 -33.11  0.002088045    2.414    0.586
        49 -10.1663     58.1378    132.5385   1.0269459228e+02   4.1432737649e+01    0.4531124     0.198613 -72.16  0.001636533    2.849    0.649
        50  -7.4617    156.7103    132.3651   7.5423461312e+01   2.4034628579e+01    0.1583228    0.1254061 -78.99 0.0007025182    1.703    0.413
        51  -9.1286    106.8572    131.4933   8.8220100709e+01   3.4191178535e+01    0.3746452    0.3101555  27.81   0.00123731    1.283    0.221
        52  -8.3686     94.4772    128.3105   9.1038295046e+01   3.7131456050e+01    0.2789058     0.206037 -33.18 0.0009466886    1.459    0.315
        53  -7.8898    114.3211    126.3055   8.4894250027e+01   3.4029407788e+01    0.1584662    0.1218563 -11.02 0.0002630678    1.636    0.389
        54 -10.1446     60.7588    174.3611   1.0851753356e+02   3.0787738180e+01    0.3173902    0.2639683 -35.89 0.0005827865    1.453    0.312
        55  -7.8648    105.0185    120.0094   8.5990631159e+01   3.7251518572e+01    0.1792912    0.1708983 -37.29 0.0003095263    1.004    0.004
        56  -8.1304    205.5085    110.5153   5.9794168781e+01   1.7880307939e+01    0.1472639    0.1359982 -34.87 0.0008104349    1.004    0.004
        57  -9.7072      2.5079     90.3093   1.1327299209e+02   5.6535284410e+01    0.4129226    0.1601924 -79.60  0.001674983    3.022    0.669
        58  -8.0151    162.3420     82.6875   6.0920495838e+01   3.2745777225e+01    0.1566513    0.1193586 -76.67 0.0006282329    1.701    0.412
        59  -9.7346      2.3757     80.8410   1.1170664381e+02   5.8718590301e+01    0.3199281    0.0855564 -64.12  0.001300386    2.655    0.623
        60  -9.6831      1.7240     70.4576   1.0997634337e+02   6.1079628938e+01    0.3212642    0.1020763 -71.41  0.001219278    3.442    0.709
        61  -8.8717     13.4088     59.8107   1.0269281935e+02   6.2732412289e+01    0.2250223    0.1049953 -61.17 0.0008469114    1.948    0.487
        62 -10.2369    198.7531     47.6834   4.5049742319e+01   2.9642717995e+01    0.3768574    0.2053677 -54.46  0.001714374    1.955    0.489
        63 -11.5376    208.0268     38.9732   4.1691805799e+01   2.8663089993e+01    0.5345353    0.4792573  12.81  0.002950491    1.438    0.305
        64 -10.5839     99.7358    243.6161   1.0809925267e+02   1.0559131462e+01    0.3982728    0.1836265  46.70  0.001983119    1.873    0.466
        65  -8.9523    113.7768    241.1342   1.0497370481e+02   8.9653100979e+00     0.220244    0.1547017  11.62 0.0007836001    1.935    0.483
        66  -8.5713    129.7251     37.3413   5.4021434213e+01   4.7592274456e+01    0.2722206    0.2130036 -75.13 0.0008389878    1.649    0.394
        67 -10.3348     13.0908    239.0682   1.2426896253e+02   2.2000817242e+01    0.2816744    0.2428343 -50.19  0.002179253    1.714    0.417
