#   1 NUMBER                 Running object number                                     
#   2 MAG_AUTO               Kron-like elliptical aperture magnitude                    [mag]
#   3 X_IMAGE                Object position along x                                    [pixel]
#   4 Y_IMAGE                Object position along y                                    [pixel]
#   5 X_WORLD                Barycenter position along world x axis                     [deg]
#   6 Y_WORLD                Barycenter position along world y axis                     [deg]
#   7 A_WORLD                Profile RMS along major axis (world units)                 [deg]
#   8 B_WORLD                Profile RMS along minor axis (world units)                 [deg]
#   9 THETA_WORLD            Position angle (CCW/world-x)                               [deg]
#  10 FWHM_WORLD             FWHM assuming a gaussian core                              [deg]
#  11 ELONGATION             A_IMAGE/B_IMAGE                                           
#  12 ELLIPTICITY            1 - B_IMAGE/A_IMAGE                                       
         1 -14.9057    159.5965     41.2808   8.4182354779e+01   4.0420404974e+01     1.463864     1.090626 -20.16  0.004188644    1.401    0.286
         2 -14.5307    171.6152      8.4382   7.1186406862e+01   4.1147957734e+01      1.07035    0.9728757  29.72  0.003801766    1.142    0.124
         3 -11.3227    189.8323     14.7174   7.0729531718e+01   3.5744451354e+01    0.2368585    0.2003711  -0.75 0.0007909734    1.333    0.250
         4 -12.1069     22.0852    243.8194   1.5142554409e+02   2.3941267199e+01    0.1950305    0.1039121  89.16  0.001466296    1.569    0.363
         5 -20.2014     80.5311    180.3984   1.3629453669e+02   2.8359694117e+01     15.51699      5.97989 -65.97   0.07022734    2.619    0.618
         6 -10.4394     17.8961    173.7578   1.4809182857e+02   3.7021389352e+01    0.1445461    0.1231911  89.81 0.0006298969    1.258    0.205
         7 -11.1731     26.0841    172.4038   1.4640648225e+02   3.6516590642e+01    0.2239552    0.1711809  68.60 0.0008705055    1.156    0.135
         8 -11.8055    230.1502    166.1566   1.0404710073e+02   3.6296684247e+00    0.1711712    0.1666724 -53.20 0.0006302316    1.339    0.253
         9 -10.1465     20.2865    166.5800   1.4708454809e+02   3.8256119768e+01    0.1198426    0.1074705  35.19 0.0009337207    1.562    0.360
        10 -11.6259    223.9665    164.1112   1.0471338459e+02   5.1115663639e+00    0.2797196    0.1893573 -40.32 0.0007034903    1.633    0.388
        11 -10.0745     13.8671    239.7581   1.5244493438e+02   2.5426905103e+01    0.2338439    0.0532557 -80.12  0.001115751    4.206    0.762
        12 -11.2586     23.7454    215.2576   1.4971361514e+02   2.8584641363e+01    0.1439001    0.1065473 -89.14 0.0005059798    1.242    0.195
        13 -11.2048    237.4377    159.2318   1.0134173909e+02   3.2296096238e+00    0.1799327    0.1211575 -39.42  0.000940229    1.628    0.386
        14 -12.4166    165.9148    158.3775   1.1473470235e+02   1.7750141269e+01    0.2720357    0.2169926 -31.56 0.0007963565    1.389    0.280
        15 -12.5743    161.5053    157.2028   1.1541788274e+02   1.8859453220e+01     0.280036    0.2244153  75.63  0.001107897    1.488    0.328
        16 -10.3581     11.0045    157.7278   1.4825849843e+02   4.0892612574e+01    0.1503494    0.1124533 -39.37  0.001046605    2.047    0.511
        17 -10.3053     23.0513    156.1714   1.4564999487e+02   4.0161481147e+01    0.1589065    0.1287904 -77.32 0.0005395817    1.211    0.174
        18 -14.4282    134.1499    145.9735   1.1911295076e+02   2.6494852382e+01     1.338439    0.5199723 -57.22  0.004596179    3.285    0.696
        19 -12.2730    139.5754    148.8129   1.1846786183e+02   2.4862283268e+01    0.3719043    0.2978098  16.81  0.001416395    1.598    0.374
        20 -14.3180    155.1690    147.2807   1.1473068358e+02   2.2043850686e+01     1.034124    0.6377026  83.51  0.003628903    3.635    0.725
        21 -14.1577    143.3506    144.2755   1.1669992097e+02   2.5032468578e+01    0.8041915    0.4562231 -55.22  0.003390167    1.933    0.483
        22 -11.0769     17.5835    153.5149   1.4656370073e+02   4.1210289233e+01    0.1957944    0.1375525 -86.54 0.0005295544    1.086    0.080
        23 -12.0302    154.4713    152.1755   1.1589362148e+02   2.1235661475e+01    0.2966151    0.1837026  61.46  0.001315869    1.916    0.478
        24 -10.5109    184.4164    151.2921   1.0947983228e+02   1.5213480038e+01    0.2372041    0.1766686  68.90 0.0006758345    1.709    0.415
        25 -14.7902    135.9727    127.1880   1.1466104017e+02   3.0034926205e+01     2.226442    0.5801065 -52.98  0.005592434    5.482    0.818
        26 -10.5297    154.5254    239.9722   1.2973222201e+02   6.5993550918e+00    0.1423371    0.1154211 -58.28   0.00102416    1.580    0.367
        27 -12.5811    174.1536    148.3973   1.1094802169e+02   1.7888580602e+01    0.3879015    0.3266697 -58.29  0.001503351    1.335    0.251
        28 -11.7355     27.6282    145.7304   1.4366723317e+02   4.1959606928e+01    0.2942233    0.2112491 -69.31  0.001229852    1.249    0.199
        29 -11.9081    177.1387    143.4881   1.0925757247e+02   1.8158526956e+01    0.2326611    0.2069314 -77.75 0.0005623688    1.324    0.245
        30 -13.1403     11.3560    206.0845   1.5124188772e+02   3.1449402814e+01     0.371693    0.2420374  35.58  0.002331236    1.931    0.482
        31 -11.0179      8.0054    239.9604   1.5330226695e+02   2.5966632159e+01    0.1169085   0.05839366 -86.94 0.0008628399    1.657    0.396
        32 -13.1632    160.5368    128.1659   1.0928731655e+02   2.4659201925e+01    0.4566396    0.4040963 -44.01   0.00175132    1.148    0.129
        33  -9.6955     23.1116    204.8208   1.4920808013e+02   3.0535207154e+01    0.1972813    0.1433785 -36.40  0.001301457    2.899    0.655
        34 -12.5707    137.5410    197.8822   1.2727471283e+02   1.5952918364e+01    0.6315902    0.3183344  62.98  0.002712126    2.748    0.636
        35 -12.0193    168.1234    244.1293   1.2794231367e+02   3.8792108313e+00    0.1689271    0.1269847  33.61 0.0002965768    1.210    0.174
        36 -13.0439    148.5060    148.3404   1.1640199812e+02   2.3186778254e+01    0.4193738    0.4001454   8.89   0.00079906    1.149    0.130
        37 -11.5723    123.5356    197.0944   1.2987944153e+02   1.8472456661e+01    0.3107391    0.2652249 -23.39  0.001953415    1.681    0.405
        38 -11.8327    153.5198    194.6878   1.2370225767e+02   1.3678752956e+01    0.2543731    0.1736649  65.08 0.0007953266    1.670    0.401
        39 -14.3145    202.8048    166.9276   1.0916800200e+02   8.8376668034e+00     1.865377    0.7031623 -49.17  0.006242684    4.142    0.759
        40 -14.3088    206.2847    179.8552   1.1106528581e+02   6.1724867526e+00    0.8416188    0.5313045  33.97  0.003423694    1.475    0.322
        41 -13.8021    197.2826    173.6845   1.1155356511e+02   8.8558978846e+00    0.7480081    0.4532626 -52.09  0.002260307    2.172    0.540
        42 -10.8745    205.4585    110.1781   9.5627457843e+01   1.7754848379e+01    0.3314258    0.2110894  41.85 0.0009216203    1.608    0.378
        43 -10.4199     25.8190    229.5431   1.5016278003e+02   2.5896002754e+01    0.1573005   0.08010028 -82.42  0.001092868    1.725    0.420
        44 -11.9565    125.6096    186.7733   1.2800353069e+02   2.0010331774e+01    0.5118086    0.2699574  67.15  0.001267186    2.804    0.643
        45 -12.8238     30.8061    182.4776   1.4629551577e+02   3.4019818557e+01    0.5707701    0.2417836  71.00  0.000350423    2.521    0.603
        46 -11.3293     26.6101     97.6948   1.3772619251e+02   5.2674777721e+01    0.3323023    0.2388094 -22.49  0.002071774    1.902    0.474
        47 -11.7359     27.8120    179.8176   1.4665624649e+02   3.4853593194e+01    0.2638455    0.1978453 -46.12  0.001828517    2.008    0.502
        48 -10.8938    219.2740    224.3715   1.1651153741e+02  -2.0220394569e+00    0.1619333    0.1452545 -57.50 0.0005325833    1.697    0.411
        49 -13.9383    178.9788    173.9879   1.1514200977e+02   1.2390442346e+01     0.546068    0.4660532  41.24  0.003213768    1.065    0.061
        50 -12.8697    157.0487    178.3351   1.2029846229e+02   1.5864876010e+01    0.3803876    0.2578041  52.90  0.001629604    1.401    0.286
        51 -10.8767    124.3377     90.8127   1.0826276035e+02   4.0030622760e+01    0.2489953     0.203721  60.51 0.0007136627    1.344    0.256
        52 -12.2378    201.6610    222.1643   1.1916947002e+02   1.1630415998e+00    0.2111979     0.141076  45.46 0.0005885393    1.329    0.248
        53 -13.8139    177.2491    169.9655   1.1471613315e+02   1.3415494017e+01    0.5366539    0.4036637 -55.68   0.00287852    1.578    0.366
        54 -11.2302     22.5057    221.0918   1.5023434582e+02   2.7686871429e+01    0.1561294     0.101044 -72.96  0.001125346    1.613    0.380
        55 -10.8251    142.8529     79.8791   1.0039816235e+02   3.8123375501e+01    0.2334487    0.2086936   1.92 0.0004688628    1.204    0.170
        56 -14.4860    148.6242     56.2195   9.1498433072e+01   4.0915722549e+01     1.242166     1.163502  17.07 0.0009752734    1.066    0.062
        57 -10.6931    159.9946    247.3863   1.2969201134e+02   4.7485322683e+00    0.1742841     0.150286  -0.60  0.000750705    1.546    0.353
        58 -13.2213    163.2264     32.9779   8.0703359430e+01   4.0598704651e+01    0.4474605    0.4123647 -56.62 0.0008353644    1.151    0.131
        59 -10.7828     13.5190     59.9384   1.3477626913e+02   6.1857387165e+01    0.1634662    0.1339003 -54.46 0.0004306343    1.081    0.075
        60 -10.3938    150.8438    244.9441   1.3093616362e+02   6.5094405694e+00    0.1558188    0.1279421  36.71 0.0004452632    1.210    0.174
