#   1 NUMBER                 Running object number                                     
#   2 MAG_AUTO               Kron-like elliptical aperture magnitude                    [mag]
#   3 X_IMAGE                Object position along x                                    [pixel]
#   4 Y_IMAGE                Object position along y                                    [pixel]
#   5 X_WORLD                Barycenter position along world x axis                     [deg]
#   6 Y_WORLD                Barycenter position along world y axis                     [deg]
#   7 A_WORLD                Profile RMS along major axis (world units)                 [deg]
#   8 B_WORLD                Profile RMS along minor axis (world units)                 [deg]
#   9 THETA_WORLD            Position angle (CCW/world-x)                               [deg]
#  10 FWHM_WORLD             FWHM assuming a gaussian core                              [deg]
#  11 ELONGATION             A_IMAGE/B_IMAGE                                           
#  12 ELLIPTICITY            1 - B_IMAGE/A_IMAGE                                       
         1 -13.5838    205.3968     31.0545   6.7545049758e+00   2.8781560773e+01    0.9986199     0.925654 -60.68  0.004123619    1.038    0.037
         2 -11.1292    227.2258      9.5907   3.5833666869e+02   2.5662608675e+01    0.2695335    0.2345425 -61.19 0.0007797231    1.036    0.035
         3 -12.2814     64.6738      6.0361   2.8018154268e+01   6.6803268170e+01    0.4728159    0.1973395  54.77   0.00197788    3.171    0.685
         4 -12.0005     54.2906      4.0658   3.1094649298e+01   6.8799607494e+01     0.330134    0.1828578  50.58  0.001709679    2.249    0.555
         5 -15.5655    116.8330    232.8754   6.8591877934e+01   1.1788075721e+01     4.382704     3.562013 -87.31   0.02790739    1.366    0.268
         6 -13.9881    247.1003    242.3559   4.7824559743e+01  -1.0203673539e+01     1.202319    0.5664944 -21.35  0.007226433    2.496    0.599
         7 -10.5021      7.7429    182.1319   8.4558261254e+01   3.5695674866e+01    0.1379413    0.1160344 -19.30 0.0009904148    2.405    0.584
         8 -12.0183     71.8222    226.6831   7.5913102913e+01   1.9576392189e+01    0.1782168     0.127981  87.24 0.0005540471    1.292    0.226
         9 -12.7997    173.0447    173.8196   4.9568040538e+01   1.1545353221e+01    0.6562874    0.5810959   0.50   0.00267146    1.321    0.243
        10 -11.6451    180.4331    167.7294   4.6948784442e+01   1.1103625493e+01    0.6866263    0.3662881 -59.30  0.002729804    2.922    0.658
        11 -18.7188     35.1900    136.7394   7.5149168001e+01   4.2850885855e+01     15.99161     3.305337 -73.61   0.04981892    4.766    0.790
        12 -12.0676    123.5167    173.7808   5.9852212682e+01   2.1253055666e+01    0.2970648     0.218021  64.39 0.0005660717    1.256    0.204
        13 -10.2429      8.9732    166.6818   8.3459338060e+01   3.8771318796e+01    0.1496844    0.1145223 -85.57 0.0005821291    1.244    0.196
        14 -11.9471    133.7920    146.5141   5.2776783837e+01   2.4945753391e+01       1.0259    0.2852939 -56.64   0.00207176    5.087    0.803
        15 -11.7687    111.3354    149.9258   5.8628465700e+01   2.8584276503e+01    0.3412397     0.267573  78.05  0.001116407    1.234    0.190
        16 -12.2439    108.8381    145.4031   5.8413753114e+01   3.0058107784e+01     0.402278     0.327536  82.15  0.001865011    1.161    0.139
        17 -12.3783     95.1178    147.2231   6.2008182857e+01   3.2084715435e+01    0.3814521    0.3478774  46.22 0.0003604878    1.292    0.226
        18 -13.2988     99.0353    143.3604   6.0408772674e+01   3.2288846930e+01    0.5879675    0.5314438 -22.20  0.002025313    1.561    0.360
        19 -12.5091    106.6906    130.6817   5.6143335324e+01   3.3824337634e+01    0.6085867    0.3667519  52.88   0.00220671    1.647    0.393
        20 -11.9451     99.0345    129.8781   5.7924315661e+01   3.5413035770e+01    0.2804981    0.2542308 -74.20 0.0003392932    1.107    0.097
        21 -11.0968    134.6205    128.4131   4.8778916388e+01   2.8718164724e+01     0.374023    0.3284268 -86.41  0.001952201    1.132    0.116
        22 -10.4498    116.3006    124.9969   5.2532339240e+01   3.3280280100e+01    0.2126517    0.1862401 -63.69 0.0005859166    1.124    0.110
        23 -10.1075    121.3040    123.3501   5.0910693058e+01   3.2646521666e+01    0.1484628    0.1238733 -14.12 0.0001062476    1.701    0.412
        24 -10.5999    104.3514    119.7942   5.4475421666e+01   3.6801849904e+01    0.2440693    0.2339973  -8.25 0.0005952193    1.319    0.242
        25 -10.9841    121.3744    114.9221   4.8945660714e+01   3.4555362602e+01     0.394835    0.2369016 -67.39  0.001101304    2.005    0.501
        26 -11.8890    118.2431    109.3327   4.8402103265e+01   3.6485493176e+01    0.4447721     0.366773 -85.04  0.001431222    1.272    0.214
        27 -12.1827    116.6483    102.8746   4.7196245103e+01   3.8295421401e+01    0.7763489    0.4329371  73.91  0.002350032    3.579    0.721
        28 -10.9383     83.1463    182.6771   6.9604356158e+01   2.6289152776e+01    0.4424157    0.1490333 -59.29  0.001519854    3.027    0.670
        29 -10.6542     86.0978    112.8123   5.7897144932e+01   4.1696559509e+01    0.2281748    0.1792367  82.16   0.00100723    1.303    0.233
        30 -12.1363     86.2410    107.1951   5.6638524637e+01   4.3014006984e+01    0.6056369    0.2416706  46.08  0.001526141    2.638    0.621
        31 -11.2113    108.8538     97.0137   4.7789089821e+01   4.1233696813e+01    0.5657389    0.3198294  72.56  0.001905698    3.294    0.696
        32 -11.4966     75.4307    101.8101   5.8558968145e+01   4.6039496938e+01    0.2687128    0.2254865  73.70 0.0003616319    1.220    0.181
        33 -10.4226    118.0946     91.8940   4.3851935676e+01   4.0473569701e+01    0.2381632    0.2027004 -84.16 0.0002923213    1.254    0.202
        34 -10.3949     95.1803     86.6190   4.8904692477e+01   4.6265514141e+01    0.3480365    0.2103616  64.15   0.00143116    2.248    0.555
        35 -10.0235    210.9262    198.6729   4.6859673548e+01   4.5763555204e-01    0.1792628     0.137047  36.84 0.0004383441    1.112    0.100
        36  -9.7584    110.8350     82.8360   4.3258168807e+01   4.4024494830e+01    0.2064355    0.1753554 -82.74 0.0003292001    1.285    0.222
        37 -10.7980     77.7748    218.5081   7.4200780057e+01   2.0173646734e+01    0.1942511    0.1605026 -81.95 0.0009982691    1.390    0.280
        38  -9.4281     73.2503    218.0000   7.4970956031e+01   2.0911867326e+01    0.2966178    0.0447753  42.66  0.001021069    4.549    0.780
        39  -9.9789    111.5053     72.5259   3.9889816050e+01   4.6111486758e+01    0.2858961    0.1458512  59.79  0.001028483    2.594    0.614
        40 -12.8919    167.3895     69.2513   2.4997761154e+01   3.3085471774e+01    0.5629741    0.4678031  52.39 0.0008945901    1.216    0.178
        41 -13.6859    182.7812     56.4936   1.8017921868e+01   3.1159488856e+01     1.309009     1.000198  27.36  0.004005842    1.620    0.383
        42 -12.0920    188.9263     50.2815   1.5024713477e+01   3.0481623089e+01    0.4584254    0.3925796  55.60  0.000941539    1.195    0.163
        43 -15.8817     68.3219    143.0510   6.7848944288e+01   3.7256891574e+01      2.10042     1.389819 -82.48   0.01137455    1.379    0.275
        44 -10.0511     69.8286    210.5003   7.4966613335e+01   2.2770595116e+01     0.166706   0.09177039  50.07 0.0009852296    1.464    0.317
        45  99.0000     67.4790    246.9077   7.8061558552e+01   1.6810421238e+01    0.1966308    0.1559635 -18.08  0.001144814    4.099    0.756
        46 -10.9515    160.6512    199.7174   5.6333615690e+01   9.5606507905e+00    0.3069362    0.2056134 -59.40  0.001693871    1.871    0.466
        47 -11.5161     63.3715    243.8844   7.8528677040e+01   1.7842434985e+01    0.1702167    0.1574303 -39.78  0.001343457    2.140    0.533
        48 -10.5308     84.5225    242.0696   7.4935217115e+01   1.5218156242e+01     0.126597   0.09712197 -87.02 0.0003927561    1.402    0.287
