#   1 NUMBER                 Running object number                                     
#   2 MAG_AUTO               Kron-like elliptical aperture magnitude                    [mag]
#   3 X_IMAGE                Object position along x                                    [pixel]
#   4 Y_IMAGE                Object position along y                                    [pixel]
#   5 X_WORLD                Barycenter position along world x axis                     [deg]
#   6 Y_WORLD                Barycenter position along world y axis                     [deg]
#   7 A_WORLD                Profile RMS along major axis (world units)                 [deg]
#   8 B_WORLD                Profile RMS along minor axis (world units)                 [deg]
#   9 THETA_WORLD            Position angle (CCW/world-x)                               [deg]
#  10 FWHM_WORLD             FWHM assuming a gaussian core                              [deg]
#  11 ELONGATION             A_IMAGE/B_IMAGE                                           
#  12 ELLIPTICITY            1 - B_IMAGE/A_IMAGE                                       
         1 -12.6489     10.7373     49.8745   9.9667853089e+01   6.5526348151e+01     1.506158    0.7376356 -52.73  0.008123345    1.659    0.397
         2 -13.2411     37.4952     50.4404   8.7579877109e+01   6.2993469943e+01    0.8927392    0.7609153  24.46  0.005747658    1.334    0.250
         3 -11.4077     80.9997     36.5070   6.5101740494e+01   5.8489156083e+01    0.7708798    0.4250703 -13.77  0.003397882    2.399    0.583
         4  -8.7835     14.7756     13.9824   8.3822615095e+01   7.1521873418e+01    0.3593598    0.1410476 -38.36  0.001537499    2.198    0.545
         5 -10.4872     15.3602      5.0743   7.8988725494e+01   7.2698736181e+01    0.2779157    0.1939653   5.64  0.001663418    1.174    0.148
         6 -11.4850     12.2446      2.0661   7.9159320141e+01   7.3419730173e+01    0.3282447    0.1808165  13.64  0.002025324    1.696    0.410
         7 -11.0126     26.2925      2.5362   7.1722191833e+01   7.1695262786e+01    0.2538943    0.1771787  32.25 0.0009751778    1.468    0.319
         8 -10.9331     24.0152      8.2235   7.5927015285e+01   7.1296029541e+01    0.3098713    0.2046675  44.62 0.0004295179    2.253    0.556
         9 -11.5923     20.9575      3.9746   7.5303902185e+01   7.2197721180e+01    0.5320239    0.2540733 -22.55  0.002016985    2.018    0.505
        10 -11.0192     19.8922     16.9265   8.2431994847e+01   7.0566154524e+01     0.436605     0.372524 -11.34  0.003204997    1.251    0.201
        11 -10.4819     22.5726     13.2265   7.9220042647e+01   7.0800561560e+01    0.2509819   0.09611582 -35.08  0.001235652    2.363    0.577
        12 -11.3038    108.3258     17.6863   5.0177492172e+01   5.4930911691e+01    0.4762418    0.2935114   8.21  0.002276949    2.120    0.528
        13 -12.0715    129.2762     19.2762   4.6385585184e+01   4.9903755633e+01    0.2788637     0.249892  48.30 0.0005193828    1.055    0.053
        14 -12.3774      8.4846      8.8867   8.4937404552e+01   7.2857822072e+01    0.4259085     0.214988  30.34  0.002260387    2.165    0.538
        15 -11.8630      4.1506     17.5396   9.1503844312e+01   7.1882929904e+01    0.4286267    0.3425297  41.26  0.002320327    2.006    0.501
        16 -11.7564      9.9662     15.5021   8.7249456196e+01   7.1738625933e+01    0.2441415    0.1578009 -18.16 0.0004186761    1.254    0.203
        17 -11.2571    238.1714     18.1670   3.2929801050e+01   2.4898811637e+01    0.2375273    0.1787841 -35.75 0.0002805632    1.439    0.305
        18  -9.6931     43.5004      8.4145   6.6714162754e+01   6.8556510583e+01    0.3444569    0.2339486 -20.59  0.001081049    1.418    0.295
        19 -11.2060     48.3087     15.5098   6.8141753668e+01   6.6979866179e+01     0.504379    0.3838558  23.69  0.003292223    1.148    0.129
        20 -12.7716     40.5027     16.1573   7.1861024687e+01   6.8082564562e+01    0.4375803     0.368374 -47.11 0.0007404507    1.807    0.447
        21 -10.2595     39.6797     11.2934   6.9848775285e+01   6.8804882812e+01    0.1949858    0.1574751  30.77 0.0005466157    1.342    0.255
        22 -10.1277     61.8298     15.5638   6.2855023874e+01   6.4692879296e+01    0.2916184    0.1724725 -11.33  0.001566256    1.820    0.451
        23 -11.0199    156.9459     11.5908   3.9570493847e+01   4.4019191144e+01    0.2719279    0.2031276 -70.93 0.0009702353    1.399    0.285
        24 -10.1336     74.5313      3.0192   5.2967919228e+01   6.3493878422e+01    0.5446988     0.166919 -23.91  0.002268632    3.418    0.707
        25 -10.3828     74.5900     16.0113   5.8674768994e+01   6.2257829373e+01    0.3413635    0.2639507  52.27 0.0009107392    1.361    0.265
        26 -10.5434     70.7729     13.9505   5.9012772561e+01   6.3211503646e+01    0.3358507    0.2008149   1.23  0.001409616    1.955    0.489
        27 -10.8538     75.6901     11.3248   5.6285844908e+01   6.2517111480e+01    0.3123454    0.2383261  76.04  0.001808136    1.887    0.470
        28 -10.7441     79.0465     10.4965   5.4914388183e+01   6.1923955433e+01    0.2525095      0.16867  39.18 0.0005854554    1.271    0.213
        29  -9.5983     96.5223     14.0111   5.1604154566e+01   5.7913552109e+01    0.2402118    0.2108678 -42.87  0.001525383    1.372    0.271
        30 -10.7705    100.0388     12.0823   4.9994060689e+01   5.7322010788e+01    0.2591265    0.1817079   1.70 0.0003546325    1.616    0.381
        31 -12.1571    128.7425     11.6438   4.3945209819e+01   5.0762495026e+01    0.3776217    0.2657408 -89.68  0.002063296    1.625    0.385
        32 -10.1928    117.8543     11.7505   4.6012028744e+01   5.3306705292e+01    0.4357139    0.2329289 -11.04  0.002077291    2.388    0.581
        33  -9.8896    138.3627     11.4944   4.2278104426e+01   4.8487254427e+01    0.2220085    0.1404126 -50.85  0.001163384    1.817    0.450
        34 -11.6654    233.9850     12.9329   3.2170456764e+01   2.6351180288e+01    0.4053999    0.1463147 -34.60  0.001863375    2.571    0.611
        35 -11.5057    164.1549      8.0197   3.7638339362e+01   4.2627016028e+01    0.3820961    0.2647924  -1.61    0.0012122    2.007    0.502
        36 -11.6676    145.9777      7.3226   3.9836172913e+01   4.7038343493e+01    0.4249123    0.3373114 -15.94  0.001606992    1.499    0.333
        37 -10.7764    148.3599      1.8920   3.7888116488e+01   4.6928022637e+01    0.3384453    0.1665044  83.75  0.001557063    2.182    0.542
        38 -12.6382    213.8114      5.7183   3.2182536893e+01   3.1415492034e+01    0.8255267    0.4538818 -79.89  0.004519295    1.756    0.431
        39 -10.8503    203.8941      2.6987   3.2308914379e+01   3.3906636162e+01    0.3112608    0.2578488  24.99  0.002037911    1.740    0.425
        40 -11.0720    191.3974      6.9890   3.4427517537e+01   3.6323666577e+01    0.3929987    0.3347266 -71.54  0.001511298    1.080    0.074
        41 -11.3545    194.7116      2.4121   3.3026001764e+01   3.6004405092e+01    0.3879762    0.2259519  87.00  0.001764155    1.558    0.358
        42 -11.1235    230.8194      6.3170   3.1039802155e+01   2.7722772462e+01    0.2316432    0.1454315 -65.16  0.001362201    1.348    0.258
        43 -12.3906    179.2000      4.3872   3.4989362943e+01   3.9403264712e+01    0.3196843     0.218575 -76.30 0.0003682594    1.402    0.287
        44 -12.1663     98.1137      4.8069   4.7618647040e+01   5.8373515587e+01    0.3265763    0.2618239   0.84  0.001130372    1.350    0.259
        45 -10.1811     90.8222      7.4102   5.0403462887e+01   5.9744261395e+01    0.2916481    0.1042064  56.79  0.001243111    2.363    0.577
        46  -9.6237     93.4893      4.4977   4.8574024753e+01   5.9410570239e+01    0.2344967     0.126696  23.06 0.0005233632    2.172    0.540
        47  -9.6961    156.4722      6.4667   3.8163179638e+01   4.4602564216e+01    0.1281357    0.1104179  77.10 0.0001074137    1.002    0.002
        48 -10.2598     81.2206      5.1287   5.1986940341e+01   6.1958431661e+01    0.2055113    0.1630628 -43.85  0.001281873    1.631    0.387
        49 -10.7618    243.1108      2.7120   2.9508286997e+01   2.5595502356e+01    0.1957054    0.1569046 -58.42 0.0004977015    1.148    0.129
        50 -11.9441     67.7497      3.7129   5.5357580771e+01   6.4766958145e+01    0.2271234     0.178527  38.32 0.0003021612    1.107    0.097
        51 -10.4874    169.5411      2.6347   3.5556500801e+01   4.1832585159e+01    0.2412329    0.1512559 -73.29 0.0006007215    1.654    0.396
        52 -10.2235    126.4263      2.7499   4.1385631890e+01   5.2059235640e+01    0.2357549    0.1569074  34.12 0.0006101588    1.602    0.376
        53 -10.1851     33.1013      2.0099   6.8084559150e+01   7.0813445616e+01    0.2044707    0.1745742 -20.77  0.001015734    1.455    0.313
        54 -10.6210    230.7401      1.6592   3.0094323283e+01   2.8221431884e+01    0.1828496    0.1306799  74.59 0.0003596687    1.375    0.273
        55 -10.8630    108.1186      1.6462   4.4300104532e+01   5.6378370917e+01    0.2066396    0.1476671  52.49 0.0006536165    1.168    0.144
        56  -9.1646    158.6195      1.7702   3.6568108571e+01   4.4495767311e+01    0.1303048    0.0780888  51.82 0.0003371435    1.617    0.382
        57  -9.0238     82.3189      1.2890   5.0048504767e+01   6.2040738447e+01    0.1314103   0.07554157  33.44 0.0003180124    1.598    0.374
        58 -11.4811     44.8911    163.1604   1.0971364381e+02   3.5626911478e+01     0.324967    0.2388817 -84.20 0.0009567442    1.265    0.210
        59 -10.5722    249.9958    246.9497   7.7675119397e+01  -1.1611689040e+01    0.2002198     0.137772 -17.47  0.001115154    1.237    0.192
        60 -12.3868    226.2508    245.4752   8.1609532553e+01  -8.5036991478e+00    0.5721633    0.3128397  -1.70  0.002983712    2.212    0.548
        61 -11.5096    234.4765    249.4501   8.0779008558e+01  -1.0058701216e+01    0.3601196    0.2122401  12.11  0.002191151    1.539    0.350
        62 -12.2298    232.3023    245.4101   8.0510811334e+01  -9.2675199930e+00    0.4579301    0.2223753 -23.72  0.002454152    2.103    0.525
        63 -11.2869     89.0099    249.6364   1.0937319562e+02   1.0637200811e+01    0.2906016     0.205347  36.84 0.0008190309    1.286    0.222
        64 -10.0477     72.5901    250.1199   1.1267682669e+02   1.2769001716e+01    0.1904562    0.1623268   4.10  0.001264695    1.678    0.404
        65 -12.9959     19.2996    237.9430   1.2202127938e+02   2.1439330274e+01    0.6964466     0.386749  49.65    0.0043913    1.472    0.321
        66 -12.1331     28.8712    247.9818   1.2084121985e+02   1.8462050645e+01    0.5179377    0.2981633  76.65  0.003255646    1.549    0.354
        67 -11.8285      5.1160    235.7111   1.2450610346e+02   2.3281392473e+01    0.5771868    0.2828056  47.74  0.002912752    1.660    0.398
        68 -13.3166      5.7762    245.2205   1.2483668612e+02   2.1364353554e+01     0.892738    0.4878234  41.13  0.004477874    1.644    0.392
        69 -12.2959     22.2893    249.0059   1.2209521873e+02   1.8973685741e+01    0.4324877    0.2467912  38.64  0.001521069    1.637    0.389
        70 -11.0955     17.4823    247.4901   1.2287599611e+02   1.9764542915e+01      0.20812    0.1670129  76.01 0.0006285422    1.132    0.116
        71  -9.9770     99.1482    164.9184   9.5464474080e+01   2.7557873056e+01    0.2211368    0.1934569  79.92 0.0003584716    1.200    0.167
        72 -10.4455     10.1975    162.8295   1.1861485703e+02   3.9018667694e+01    0.3049157    0.1362263  41.78 0.0008493115    2.260    0.557
        73  -8.9521    200.3352    162.6648   7.1044421231e+01   9.1034737019e+00    0.1409835    0.1169635 -79.47 0.0007052067    1.742    0.426
        74 -12.4860     22.2344    156.9196   1.1495422101e+02   3.9456978874e+01    0.5911408    0.5196363  12.00  0.003819959    1.442    0.306
        75  -9.3090    216.3876    155.2106   6.6363215692e+01   7.5598503028e+00    0.1917723    0.1226812 -45.97 0.0003778107    1.554    0.356
        76  -9.4464    157.5094    154.9857   7.8646400600e+01   1.8987220803e+01    0.2303954    0.1288689 -25.07 0.0008104925    2.672    0.626
        77 -10.0054     11.2171    153.4501   1.1747645339e+02   4.1217834737e+01    0.2047591    0.1308528  13.49  0.001137868    2.077    0.518
        78  -9.9260    177.5311    150.8956   7.3196676408e+01   1.5847390898e+01    0.2983047    0.2061443  61.39  0.001318482    1.902    0.474
        79  -9.2924      5.5327    149.9976   1.1862612099e+02   4.2476227607e+01    0.1760845    0.1020048 -76.56 6.248037e-05    1.395    0.283
        80 -10.4909     33.0538    148.0875   1.1095914872e+02   4.0649969449e+01    0.1995071    0.1691222 -73.20 0.0003762697    1.029    0.028
        81 -10.2960     18.0456    146.8559   1.1495799416e+02   4.2301448766e+01    0.2917563    0.1956779 -18.79  0.000927456    2.113    0.527
        82 -10.3920    207.0513    146.3442   6.6162416338e+01   1.0948128427e+01    0.1961025    0.1851442  22.34 0.0007046982    1.132    0.116
        83  -9.2818     41.0273    146.2247   1.0845143672e+02   4.0304036089e+01    0.1570137    0.1151941  27.97 0.0003274996    1.556    0.357
        84  -9.6378    220.4693    143.9839   6.3182434455e+01   8.8650775401e+00    0.2165922    0.1260299 -39.20 0.0007877428    1.535    0.349
        85  -9.9873     10.2330    144.5607   1.1683511823e+02   4.3469911822e+01       0.1557     0.121503 -15.20  0.000947042    1.696    0.411
        86  -9.7313     82.4706    139.9555   9.5301249662e+01   3.6452035915e+01    0.2289275    0.1394738 -55.63 0.0007125189    1.538    0.350
        87 -10.6844      2.8100    137.4286   1.1813005900e+02   4.5720171174e+01    0.2786497    0.1339398 -73.38   0.00100072    1.649    0.393
        88 -10.2311      9.3196    136.8990   1.1625903789e+02   4.5419191513e+01    0.1858979     0.131649 -72.79 0.0003896357    1.143    0.125
        89  -9.9524     32.1517    135.6439   1.0948927830e+02   4.3866338121e+01    0.1965457    0.1573287  64.64 0.0006216536    1.342    0.255
        90  -9.7283    123.1323    135.1832   8.2753621923e+01   3.0380098845e+01    0.2163943    0.1886985  86.11 0.0004738779    1.332    0.249
        91  -9.7940     20.9541    135.2916   1.1273126493e+02   4.4940547090e+01    0.1869958    0.1486875 -68.99 0.0009109928    1.055    0.052
        92 -10.0896    249.4842    134.0010   5.6322701629e+01   5.4718428247e+00    0.2074298     0.111659 -37.53   0.00101909    1.550    0.355
        93  -9.4506     48.9124    134.2820   1.0424818238e+02   4.2453449892e+01    0.2275898   0.07431269  47.44 0.0007014929    4.204    0.762
        94 -10.1308    128.0041    132.7048   8.0859546564e+01   2.9989931551e+01    0.2149808    0.2054981  37.67 0.0003792554    1.069    0.064
        95 -10.4598    111.8080    131.7964   8.5064382103e+01   3.3374267039e+01     0.375131    0.2067929 -52.35  0.001502125    1.786    0.440
        96 -10.4578     55.3469    132.9078   1.0205029241e+02   4.2033570988e+01    0.3264638    0.1714547  41.01  0.001061425    2.050    0.512
        97 -11.2794     73.9777    129.6476   9.5713743551e+01   4.0328734235e+01    0.3458684    0.2893293 -73.21  0.001188504    1.211    0.174
        98 -11.1657     36.9533    130.2141   1.0721070424e+02   4.4767111358e+01    0.3917637    0.3009301 -26.09  0.002176882    1.535    0.348
        99 -10.0984     38.2864    126.6164   1.0620743489e+02   4.5538676476e+01    0.2790091    0.1908248  65.73  0.001369998    1.761    0.432
       100  -9.1866     29.6448    129.7224   1.0936272652e+02   4.5586573370e+01    0.1372115   0.09070947 -38.15 0.0006284565    1.652    0.395
       101 -10.4265     24.2275    126.0121   1.1046520775e+02   4.6986306294e+01     0.193735    0.1858597 -73.40 0.0004000422    1.140    0.123
       102 -11.5869     21.7239    121.1814   1.1052351664e+02   4.8392243542e+01    0.6171939     0.247263 -38.94  0.002430943    3.063    0.674
       103 -11.1661     11.3204    123.3061   1.1403618869e+02   4.8630865384e+01    0.2802737    0.2343611  71.83  0.001283406    1.281    0.219
       104  -9.6280    220.3534    124.2350   5.8788111396e+01   1.2476169164e+01    0.2056772    0.1179647 -45.21  0.000938024    1.609    0.379
       105 -10.6439      2.7387    122.9741   1.1657920572e+02   4.9251176600e+01    0.2384262    0.1947145 -15.69  0.001336951    1.518    0.341
       106  -9.9889      1.3949    119.0308   1.1651934780e+02   5.0286573206e+01    0.1907281   0.09995092 -74.19 0.0003487057    1.545    0.353
       107  -9.4092     32.4470    121.5586   1.0719619230e+02   4.7373750390e+01    0.1374896    0.1151564 -57.09  3.13217e-05    1.060    0.057
       108 -10.1511     72.4222    116.7956   9.3373757663e+01   4.3749755172e+01    0.3935024    0.1288522 -53.76  0.001322114    2.719    0.632
       109  -9.0925    220.6014    117.2989   5.7165105680e+01   1.3674956121e+01    0.1453046    0.1069193 -73.46 0.0007000752    1.816    0.449
       110  -9.7921     56.2922    117.3203   9.8701301700e+01   4.5830353285e+01    0.1484175    0.1006081 -33.87 0.0002636094    1.607    0.378
       111 -10.7878     13.2736    125.9921   1.1379482732e+02   4.7833582496e+01    0.3280246    0.2173519  30.01 0.0006999046    1.763    0.433
       112  -9.9689    213.9895    115.6689   5.7892312784e+01   1.5296722551e+01    0.1893153     0.181689  41.95 0.0004807483    1.154    0.133
       113  -9.9192     85.9867    116.7229   8.9073819380e+01   4.1631246787e+01    0.1865944    0.1354735  33.95  0.000573144    1.458    0.314
       114 -10.5815     15.9952    115.7345   1.1152411309e+02   5.0169921034e+01    0.1727098    0.1544403 -54.31 0.0004739125    1.118    0.105
       115 -11.0273    249.2920    112.1593   5.1721833746e+01   9.1397141094e+00    0.2569093    0.1898526 -47.96 0.0004320425    1.205    0.170
       116 -10.0495     94.8983    112.3677   8.5230528204e+01   4.1132769244e+01    0.2654035    0.2109869 -60.42 0.0009217951    1.305    0.234
       117 -11.6224     55.1871    110.1217   9.7512693734e+01   4.7744942376e+01     0.386083    0.2439353 -47.26  0.001250663    1.432    0.302
       118 -11.4140     36.5221    109.8672   1.0375403704e+02   4.9886007180e+01    0.3657258    0.2870323  75.10  0.001026653    1.524    0.344
       119 -10.5906      1.3332    108.8343   1.1526104184e+02   5.2755755889e+01    0.3610967    0.1873178  84.98   0.00155199    2.283    0.562
       120 -10.6454      2.4860    105.5045   1.1443483333e+02   5.3495456308e+01    0.3781566    0.2117832  43.28  0.001674899    2.176    0.540
       121 -12.3077     14.2781    108.7414   1.1101704382e+02   5.2000910547e+01    0.4183232    0.3547097  -8.88  0.001779167    1.392    0.282
       122  -9.1466     82.6971    108.6563   8.8101879819e+01   4.4110521765e+01    0.1575745    0.1124205 -22.63 7.969648e-05    1.683    0.406
       123 -10.6436     25.1291    107.7089   1.0720680988e+02   5.1440277326e+01    0.2743933     0.208179 -76.21  0.001584579    1.269    0.212
       124 -10.4458     25.9450    102.5166   1.0597310112e+02   5.2636710222e+01    0.2870081    0.1649292 -68.32 0.0009003519    1.583    0.368
       125  -9.8692     24.3336     99.2676   1.0591865648e+02   5.3552237038e+01    0.1997293    0.1628046 -41.42 0.0002505703    1.140    0.123
       126 -10.4610    243.9638    104.7243   5.0849450576e+01   1.1339541931e+01    0.1810877     0.164386 -46.28 0.0005371103    1.074    0.069
       127 -10.0739     51.4632    104.4869   9.7511239158e+01   4.9573192320e+01    0.2643909    0.1724369 -30.15  0.001270694    1.701    0.412
       128  -9.1336    186.4872    104.4343   6.0131454172e+01   2.3263062806e+01    0.1494604    0.1410493 -54.74 0.0001247161    1.033    0.032
       129 -10.8155    120.1530    101.3488   7.4822048685e+01   3.8698841019e+01    0.6978666     0.284323 -31.36  0.001927673    4.193    0.761
       130  -9.5791     88.0063    104.0438   8.5199020653e+01   4.4296768326e+01    0.1822865    0.1688242 -37.89 0.0004333798    1.019    0.019
       131  -9.9310     31.6761    103.6831   1.0420399491e+02   5.1855655959e+01    0.2591372    0.1772236 -83.28  0.001340832    1.668    0.401
       132 -10.3856     36.1532    102.2718   1.0235476459e+02   5.1775868764e+01    0.3740337     0.208082  24.09  0.001816787    2.046    0.511
       133 -11.5422      2.9670     97.3321   1.1308074557e+02   5.5420901826e+01    0.5054275    0.2596889  65.20  0.002294482    2.981    0.665
       134 -11.1669    143.6988     98.9633   6.7985678975e+01   3.4048832865e+01    0.4670967    0.3736308 -61.98  0.001502187    1.398    0.285
       135 -10.0080    139.9945     98.2273   6.8695940730e+01   3.5032911387e+01    0.2482808    0.2144851  14.68 0.0007773322    1.298    0.230
       136 -10.8469     61.9562     98.9879   9.2554129651e+01   4.9537969924e+01    0.3172248    0.2740907 -22.96 0.0008661312    1.159    0.137
       137 -10.8314     66.6517     98.2460   9.0741557701e+01   4.9050536042e+01    0.2528234    0.2212392 -27.34 0.0003913283    1.107    0.097
       138 -10.2870     50.7201     99.0968   9.6513599431e+01   5.0956863846e+01    0.2120638    0.1970498  -9.94 0.0005840341    1.133    0.117
       139 -11.1864     14.8034     97.5384   1.0897216294e+02   5.4669513876e+01    0.6078677    0.1683051 -68.66  0.001681502    3.306    0.698
       140 -10.9539     11.0373     90.9298   1.0913840145e+02   5.6478223709e+01    0.3305091    0.2367183   8.50  0.001108097    1.661    0.398
       141 -10.8389     39.0425     95.7430   9.9905552295e+01   5.3053209694e+01    0.5548225    0.2765572  49.63  0.002298256    2.921    0.658
       142 -10.3922    153.5905     96.2722   6.4890588152e+01   3.2334416070e+01    0.2080289    0.1475448 -30.20 0.0004018805    1.502    0.334
       143 -11.6482     26.3658     91.7033   1.0365198519e+02   5.5187511853e+01    0.6816902     0.352054 -69.47  0.003183586    1.959    0.490
       144 -11.9670     22.0811     87.0168   1.0425213017e+02   5.6629952197e+01    0.7560422    0.1237095 -56.13   0.00251952    3.525    0.716
       145 -12.7887    158.2629     89.9346   6.2081676920e+01   3.2477711871e+01    0.7438623    0.5555953 -54.10  0.003167248    1.408    0.290
       146 -12.3497    165.3188     83.5825   5.8818591677e+01   3.1999356465e+01     1.047813     0.710939  67.39  0.003982812    1.676    0.403
       147 -10.1820    135.1018     93.9999   6.8731693973e+01   3.6990599709e+01    0.3145989    0.2638706 -75.71  0.001531146    1.428    0.300
       148  -9.2604    127.6639     92.7149   7.0300228466e+01   3.8901672454e+01    0.1568915    0.1217706   8.37  0.000357647    1.626    0.385
       149  -9.8873    108.7619     91.9699   7.5386788116e+01   4.3063425857e+01    0.2093382     0.125968 -42.87 0.0008843048    1.627    0.385
       150  -9.5667     46.7136     92.6110   9.6376630828e+01   5.2958657714e+01    0.1686292    0.1292402  37.68 0.0002770932    1.489    0.329
       151 -10.1628    173.3951     83.7459   5.7249646983e+01   3.0073196012e+01    0.2593817    0.1868952 -41.08 0.0008293112    1.348    0.258
       152 -10.2670     58.2120     89.8697   9.1493695642e+01   5.2163124474e+01    0.3610664    0.2042912  28.05  0.001662919    1.928    0.481
       153 -10.4327     96.7285     89.5382   7.8327872197e+01   4.5950939581e+01    0.3616911    0.1466529  43.04  0.001292606    2.551    0.608
       154 -10.3395     82.9638     88.8716   8.2587411171e+01   4.8592129568e+01    0.2251296    0.1865505 -15.58  0.000556092    1.258    0.205
       155 -10.7067     78.5835     88.0590   8.3824753501e+01   4.9510752436e+01    0.3471258    0.2345518 -52.69  0.001418301    1.495    0.331
       156  -9.7829    250.1233     95.8591   4.8133843560e+01   1.1638003171e+01    0.1986182     0.153225 -56.77 0.0005172978    1.221    0.181
       157 -10.0992     64.9856     87.4835   8.8402043158e+01   5.1757292284e+01    0.2440528    0.2072578  29.75  0.001144889    1.262    0.208
       158 -10.3836     67.4811     84.4987   8.6652642484e+01   5.2050355976e+01    0.3292116    0.2045998 -24.17  0.001465151    1.938    0.484
       159 -11.1162     46.2308     87.2837   9.5207641014e+01   5.4248142810e+01    0.4331219    0.2679666 -73.69  0.001912115    2.171    0.539
       160  -9.7316     31.3155     93.0319   1.0211618076e+02   5.4442390595e+01    0.1908628    0.1465662 -58.23 0.0004658205    1.144    0.126
       161 -12.7233     44.7259     75.2915   9.2509478778e+01   5.7102862406e+01    0.3189106    0.2776476  53.74 0.0005625478    1.477    0.323
       162 -12.1691     51.2187     67.8113   8.7679427834e+01   5.7886688072e+01     1.352134    0.5009696 -56.49  0.004770429    3.417    0.707
       163 -11.8453      5.6160     83.6575   1.0981875847e+02   5.8483402935e+01    0.5686342    0.4563892 -50.45  0.003762052    1.042    0.040
       164 -11.4708     43.3191     37.9304   8.0247453014e+01   6.4489358362e+01     0.587785    0.3106337  47.83  0.002309718    2.962    0.662
       165 -12.1027     37.0194    243.9765   1.1907081053e+02   1.8328678416e+01     0.618461    0.2993089 -88.22  0.002974714    2.138    0.532
       166 -12.8981     11.4460     75.3475   1.0586781852e+02   6.0040900347e+01     0.998886     0.537559  27.65  0.004953849    2.176    0.540
       167 -12.1440     31.0391     63.9459   9.4779410388e+01   6.0982197554e+01     1.024693    0.7158282  63.78  0.005215194    2.531    0.605
       168 -13.7573     16.5861     67.6686   1.0193962821e+02   6.1398472890e+01    0.4840285     0.374229  10.54  0.001999218    1.444    0.308
       169 -11.5862     20.0156     61.9453   9.8946076704e+01   6.2368387877e+01    0.4592297    0.2761525 -52.16  0.001759835    1.397    0.284
       170 -10.9912     26.7744     56.1086   9.4235106316e+01   6.2996167496e+01    0.2743528    0.2123031 -32.31 0.0004333259    1.058    0.055
       171 -12.8741     74.5036    238.2088   1.1119626473e+02   1.4807580983e+01    0.8198249    0.4811417 -67.53  0.004616899    1.825    0.452
       172 -11.9559     35.6015     42.6120   8.5554072093e+01   6.4647070737e+01    0.7941344    0.3582112  13.34  0.003219899    3.254    0.693
       173 -11.9083      5.1895     58.8863   1.0466538182e+02   6.4000055294e+01    0.2732167    0.2239022 -55.40 0.0003170466    1.169    0.144
       174 -11.6341      6.2625     67.9663   1.0635492271e+02   6.1983328533e+01    0.2380105    0.1580954 -46.66 0.0003030911    1.177    0.150
       175 -12.6084      3.2136     63.2013   1.0656407876e+02   6.3181398652e+01    0.3960134    0.3296408  79.85  0.002486345    1.595    0.373
       176 -10.5196    114.8760     83.9727   7.1210661950e+01   4.3435605136e+01    0.3300158    0.2112677  56.45  0.001423757    1.804    0.446
       177  -9.0386     56.3067     83.6961   9.0487770861e+01   5.3810447238e+01    0.1314307    0.1114606  79.78 0.0002546951    1.603    0.376
       178 -11.1500     30.0788     81.9463   1.0002135247e+02   5.7129016485e+01    0.3104848    0.2568237   7.44  0.001326611    1.332    0.249
       179 -11.4108    155.6818     83.4850   6.0833850428e+01   3.4283790640e+01    0.7448288    0.3925653  35.48   0.00277285    2.510    0.602
       180 -10.3661     86.3026     80.4010   7.8906831751e+01   4.9807775630e+01    0.2697652     0.227092   2.90 0.0007491253    1.244    0.196
       181 -11.4957     21.3916     79.9947   1.0295703387e+02   5.8299367014e+01    0.4795949    0.3675356 -22.25  0.002580285    1.310    0.237
       182 -10.0501     21.6505     73.4526   1.0128852701e+02   5.9749347593e+01    0.2928379    0.1412883 -66.07  0.001003795    2.155    0.536
       183 -10.8548     60.9807     78.4102   8.7214331940e+01   5.4325421049e+01    0.2638516    0.2130934 -48.91 0.0004235775    1.216    0.178
       184 -11.9909     62.3322     71.6217   8.4606925260e+01   5.5558832173e+01    0.4210869    0.2600623 -31.13 0.0002943472    1.630    0.386
       185 -10.4987     74.1609     75.3939   8.1493754567e+01   5.2936520017e+01    0.2932223    0.1815531 -43.18 0.0006444687    1.529    0.346
       186 -10.4783     76.9943     64.3453   7.6834149320e+01   5.4636109281e+01    0.3876183    0.2691952 -42.49  0.001976327    1.432    0.302
       187 -10.0496     73.8285     71.3950   8.0322402264e+01   5.3803203636e+01    0.2565848     0.176194  23.50  0.001268209    1.552    0.356
       188 -10.6897     77.3321     69.9135   7.8595125835e+01   5.3505352558e+01     0.365978    0.2590976  52.61  0.001800263    1.759    0.431
       189 -10.8202    207.5658     73.3589   4.8774277102e+01   2.3969689928e+01    0.2280815    0.2216462 -48.85   0.00028488    1.125    0.111
       190  -9.7538    145.5347     74.0163   6.0343081498e+01   3.8375631868e+01    0.2302493    0.1472102 -37.18  0.001026862    1.579    0.367
       191 -10.8976    100.7915     72.5196   7.1748984976e+01   4.8594600261e+01    0.3680072    0.2928338  85.58 0.0006663593    1.853    0.460
       192 -10.5517     94.1000     74.0970   7.4355045609e+01   4.9616735236e+01    0.2265895     0.190157  -3.30 0.0004794865    1.248    0.199
       193 -10.1648    129.0987     71.4383   6.3497472463e+01   4.2653883343e+01    0.2373506    0.2081216 -10.80 0.0004229908    1.222    0.182
       194  -9.7409    194.5342     70.0795   4.9932398177e+01   2.7449879909e+01    0.2098166     0.135415 -35.39 0.0008075543    1.534    0.348
       195  -9.7609    154.9418     70.4998   5.7253866072e+01   3.6749592775e+01     0.214692    0.1441884  55.82 -0.0001446393    1.473    0.321
       196  -9.1863    167.6745     69.7366   5.4492630566e+01   3.3833919484e+01    0.1442492    0.1128218  27.54 0.0002745649    1.563    0.360
       197 -10.0279    110.2943     68.9849   6.7776642409e+01   4.7268258613e+01    0.1983107    0.1840202 -14.25 0.0002596655    1.063    0.059
       198  -9.9212     42.5957     68.4103   9.1324061317e+01   5.8820695319e+01    0.2435293    0.2039178 -32.90  0.001474723    1.028    0.027
       199  -9.3271    189.0120     68.5179   5.0411302477e+01   2.8980626367e+01    0.1926384    0.1203104 -85.71 0.0004596488    2.272    0.560
       200  -9.3836    123.0000     67.9408   6.3959575488e+01   4.4656013259e+01    0.2434117   0.08432342 -37.44 0.0008014394    2.936    0.659
       201 -11.1553     93.9446     66.5064   7.1889086837e+01   5.1085708549e+01    0.3754195    0.2687425  10.79  0.000953206    1.698    0.411
       202  -9.6406     99.5419     65.2397   6.9714284964e+01   5.0193977590e+01    0.2693482    0.2054414  -0.40   0.00133303    1.527    0.345
       203  -9.4437    127.5069     66.5093   6.2346157819e+01   4.3878545932e+01    0.1468084     0.142412  28.92 0.0008105852    1.001    0.001
       204  -9.3654    144.0013     64.4867   5.7817733193e+01   4.0358850416e+01      0.21183    0.1422964  55.35 0.0003282077    1.457    0.313
       205 -10.7284    201.8360     62.2215   4.6855350607e+01   2.6997215941e+01    0.2331114    0.1981818 -63.44 0.0005527352    1.092    0.085
       206 -10.2290    108.3970     62.7347   6.6246298594e+01   4.8779165922e+01    0.2773283    0.1831657  57.50  0.001278793    1.702    0.412
       207 -10.4509     84.9005     61.6980   7.3193810091e+01   5.3697373411e+01    0.2362799    0.1731066  19.23  0.001195488    1.456    0.313
       208 -10.8980    155.0855     60.1835   5.4197905432e+01   3.8392929770e+01     0.240694    0.2046528 -46.84  0.001293087    1.195    0.163
       209 -10.6580    119.4702     61.0467   6.2645450564e+01   4.6626568499e+01    0.2231343    0.1928057  40.14 0.0006012893    1.116    0.104
       210  -9.1872    222.7176     62.7451   4.4209601368e+01   2.2290098263e+01    0.1160414    0.1039888  23.33 -0.000275831    1.472    0.320
       211 -12.0409     26.7699     49.6740   9.2137767655e+01   6.4267648860e+01    0.5134464    0.3564962 -54.81  0.001859396    1.530    0.346
       212  -8.8729     98.3040     60.2947   6.8402345673e+01   5.1317690184e+01    0.1459395    0.1082673   9.25 0.0001656695    1.578    0.366
       213 -11.1676     59.5141     58.8008   8.1394802020e+01   5.8509040633e+01    0.3176554    0.2693036 -14.48  0.001262762    1.048    0.046
       214 -10.7772     62.5015     52.7731   7.8064452428e+01   5.9157861573e+01    0.4046421     0.278652 -44.76  0.001992049    1.524    0.344
       215 -10.4104    147.2109     57.2321   5.4918823526e+01   4.0744599564e+01     0.290092    0.2199229 -64.30  0.001248098    1.536    0.349
       216 -11.1636     75.3030     56.2038   7.4563582316e+01   5.6418464923e+01    0.2228654    0.2074806  -3.16  0.000301681    1.087    0.080
       217  -9.9575     68.4610     56.4532   7.7146489406e+01   5.7538784546e+01    0.1375688    0.1227538  -6.81 5.615064e-06    1.021    0.021
       218 -10.1515    132.0100     54.6576   5.7459280297e+01   4.4755444338e+01    0.3233284    0.2013409  37.32 0.0009031628    1.742    0.426
       219 -10.3439    120.2092     52.2436   5.9523600864e+01   4.7860001774e+01    0.2542408    0.1993304  16.24 0.0005484504    1.447    0.309
       220 -11.9215    105.1216     52.6385   6.3713306913e+01   5.1149289942e+01    0.3275089    0.2373029  44.01 0.0001449709    1.317    0.240
       221  -9.6638     56.5722     52.9330   8.0454606221e+01   6.0031348813e+01    0.1925437    0.1002925 -23.50 0.0006032065    2.414    0.586
       222 -11.4314     88.0015     51.3508   6.8465423243e+01   5.4879585052e+01    0.3787442    0.2300805  38.68  0.001094295    1.591    0.372
       223 -11.4316    129.2101     49.0901   5.6299317628e+01   4.6244387552e+01    0.5887892    0.3756142  -2.77  0.002528023    2.361    0.576
       224 -10.3553    199.1104     49.4035   4.4033539104e+01   2.9491873685e+01    0.3073789    0.1894289  76.37  0.001520665    1.699    0.412
       225  -9.9710    181.6489     49.7168   4.6601252650e+01   3.3550061863e+01    0.2396516    0.1610309 -48.16 0.0006310453    1.463    0.317
       226 -10.1477     52.9104     50.1682   8.0917314270e+01   6.1060047310e+01    0.1870244    0.1798487  17.64 0.0006874284    1.295    0.228
       227 -10.2049    152.4042     47.5299   5.0948764552e+01   4.0916865206e+01    0.2712736    0.1089468  48.97 0.0009073662    2.442    0.591
       228  -9.1708    119.7424     47.3327   5.7979575800e+01   4.8696534370e+01    0.1368956    0.1096732 -66.25 0.0006951914    1.568    0.362
       229 -10.5236     77.7880     45.9484   6.9871438736e+01   5.7688408074e+01    0.3409846    0.2192687 -55.86 0.0007695304    2.364    0.577
       230 -10.4035    142.8438     45.4890   5.2193851986e+01   4.3510239786e+01    0.2887716    0.2137909 -72.75  0.001438478    1.670    0.401
       231 -10.1128    111.5654     46.2541   5.9700545256e+01   5.0703050017e+01    0.3712026    0.1679087  43.87  0.001508859    2.125    0.530
       232 -10.2335     57.2543     46.3392   7.7706622537e+01   6.1089756531e+01     0.213259    0.1625514  37.50 0.0007338491    1.433    0.302
       233 -10.8360     91.9913     43.8849   6.4434761416e+01   5.5240676602e+01    0.3889253    0.2812469 -54.18  0.001506686    1.840    0.457
       234 -10.8837     96.1311     42.6422   6.2718729311e+01   5.4566832478e+01     0.486789     0.279651   3.67  0.001877681    3.086    0.676
       235 -10.4628     50.8588     44.8518   7.9750348734e+01   6.2285127172e+01    0.2038143    0.1679249 -39.56 0.0006620241    1.317    0.240
       236 -11.6123     52.1761     40.1375   7.7341744596e+01   6.2884199346e+01    0.4478917    0.3184595  14.33  0.001018322    1.365    0.268
       237 -11.3940     56.8428     33.6300   7.2751970593e+01   6.3182579097e+01    0.4370841    0.2983337 -45.30   0.00242005    1.795    0.443
       238  -9.0574     62.3011     44.2767   7.4914464588e+01   6.0642305929e+01    0.1337634   0.09358093   1.07 0.0002347107    1.540    0.351
       239 -10.2014    125.6007     42.8442   5.5061526492e+01   4.7971457449e+01    0.2713772    0.1647754  77.60  0.001141685    2.360    0.576
       240  -9.8688    107.1744     42.7374   5.9626492338e+01   5.2179634577e+01    0.2533372    0.1594408  42.45 0.0007555538    1.492    0.330
       241  -9.2466     50.3081    240.3165   1.1624351266e+02   1.7487465740e+01    0.1037246   0.09240239 -34.73  0.000670941    1.632    0.387
       242 -10.5892     23.9895     41.9891   9.0748994273e+01   6.5983428734e+01    0.2947628    0.2605911  78.49  0.001596425    1.873    0.466
       243 -10.3990     18.2154     42.2365   9.3621426170e+01   6.6452632884e+01    0.4509577     0.141991 -40.84  0.001622592    2.601    0.616
       244 -10.8865     30.1404     33.0926   8.4349418570e+01   6.6910488205e+01    0.3085203    0.1775985  12.42  0.001092842    1.833    0.454
       245 -11.9604     28.2920     37.9550   8.7176936704e+01   6.6279362021e+01    0.3820054    0.2232969  20.80   0.00124952    1.740    0.425
       246 -11.6043     24.1876     35.1091   8.8057683927e+01   6.7197414021e+01     0.415865    0.2362905  -3.70  0.000816056    1.999    0.500
       247 -10.9904      6.6782     41.4715   9.9047034113e+01   6.7444316475e+01    0.2778089     0.153146 -40.76 0.0007924809    1.397    0.284
       248 -10.2333    142.1472     40.8100   5.0866637908e+01   4.4309794692e+01    0.1917503    0.1521082  40.47 0.0003049117    1.282    0.220
       249 -10.5193    232.2820     39.9373   3.8036824366e+01   2.3446330267e+01    0.1908112    0.1573181 -79.69 0.0003200314    1.101    0.092
       250 -11.0877    152.6376     39.1644   4.8389807427e+01   4.1986474919e+01    0.2536442    0.2385114 -78.49 0.0004178209    1.073    0.068
       251 -11.8735     75.1388     35.6820   6.6756700152e+01   5.9717987080e+01    0.6625681     0.378353   9.19  0.002819757    2.668    0.625
       252 -10.7948    225.1207     38.2994   3.8385461579e+01   2.5179741282e+01      0.22851    0.1805573 -70.83 0.0004472451    1.106    0.096
       253  -9.2949    160.4030     38.4392   4.6836369015e+01   4.0194398118e+01     0.135253    0.1264171  80.40 6.004525e-05    1.012    0.012
       254 -11.9559     69.9988     40.2453   7.0419639884e+01   5.9978650713e+01    0.5585296    0.4268036 -25.22  0.001205157    1.268    0.212
       255 -10.3272      1.6772     37.3905   1.0027168093e+02   6.8523923772e+01    0.2349041    0.1142473 -44.38 0.0008835399    1.533    0.348
       256  -9.8155    134.5375     35.8676   5.0814760558e+01   4.6770713558e+01    0.1990339    0.1380988 -28.29  0.001014898    1.562    0.360
       257 -10.5720    100.2938     36.0222   5.9054120354e+01   5.4595076942e+01    0.2699527    0.1823125  70.73 0.0008604583    1.983    0.496
       258  -9.9367     63.9088     35.3918   7.0722182219e+01   6.1758896849e+01    0.2047877    0.1550596  -0.49            0    1.267    0.211
       259 -10.9859      8.4604     33.9527   9.5598556826e+01   6.8738825893e+01    0.4497228     0.304726 -50.28  0.002016196    1.409    0.290
       260 -11.4248     16.9093     31.6068   9.0342785758e+01   6.8489108712e+01    0.5230393    0.2504719  11.44   0.00173541    2.340    0.573
       261 -11.1899     22.2274     25.4582   8.5065383554e+01   6.9009248109e+01    0.2821426     0.239085 -10.91   0.00117862    1.175    0.149
       262  -9.9401     95.4418     34.5060   5.9855809486e+01   5.5830501536e+01    0.2231926    0.2010578 -22.84 0.0007496998    1.188    0.158
       263 -10.5053     97.3709     31.1056   5.8011123153e+01   5.5852940527e+01    0.3650181    0.2244032  53.78  0.001432649    1.562    0.360
       264 -11.3763    102.0341     28.8278   5.5885197853e+01   5.5117963932e+01    0.3943743    0.3311161  88.88  0.000651539    1.544    0.352
       265 -10.6893    205.8577     32.5990   3.9103453927e+01   3.0163123356e+01    0.1985696    0.1910364  71.79 0.0006052089    1.225    0.184
       266  -9.8167    201.7057     34.0569   3.9923848862e+01   3.0928535008e+01    0.1797351     0.155981 -63.31 0.0004671804    1.068    0.064
       267 -11.0354    221.7663     32.0790   3.7329285197e+01   2.6695010572e+01    0.2136657    0.1661846 -73.35 0.0003003022    1.127    0.112
       268  -9.9862    166.4639     32.9838   4.4308850786e+01   3.9406085775e+01    0.1990633    0.1341083 -31.14  0.001032516    1.598    0.374
       269 -10.5727     89.4054     31.5684   6.0496263865e+01   5.7469677531e+01    0.2625374     0.216803  -4.73 0.0005636936    1.211    0.174
       270 -10.8240     48.1209     31.8055   7.5601969530e+01   6.4788705589e+01    0.3413084     0.172769  37.12            0    1.976    0.494
       271 -10.4631     50.0467     27.9756   7.3121318211e+01   6.5065232777e+01    0.2710972    0.1878633   5.16 0.0009965079    1.406    0.289
       272 -10.5099    236.2401     30.4311   3.5636049091e+01   2.3832438467e+01    0.2193301    0.1844728  46.57 0.0007716533    1.601    0.376
       273  -9.9562    145.4541     30.5015   4.7026950567e+01   4.4795536804e+01    0.2292236    0.1397548 -28.67  0.000846337    1.792    0.442
       274 -11.3490     69.6482     26.7647   6.4983789145e+01   6.1934327109e+01    0.4141962    0.2942161  24.39  0.002204307    1.296    0.229
       275 -11.0322    129.0161     26.9328   4.8989720973e+01   4.9147110739e+01    0.4195174    0.2547963  69.07  0.001474669    1.676    0.403
       276  -9.9459    111.7201     27.7900   5.3076711750e+01   5.3074091552e+01    0.2140754    0.1594486 -17.68 0.0002530438    1.471    0.320
       277 -10.1254     60.1487     27.1403   6.8667001461e+01   6.3558576502e+01    0.1984419    0.1611204 -53.02  0.001174069    1.816    0.449
       278 -10.7566     62.3382     23.8054   6.6370336545e+01   6.3618872231e+01    0.2967276    0.1584544 -20.19  0.001470139    2.018    0.504
       279 -11.1301     59.0499     21.7290   6.6698446450e+01   6.4448067889e+01    0.5688984    0.2875196  25.05  0.002157205    2.228    0.551
       280  -9.8335    203.6161     25.7916   3.7721141017e+01   3.1495667918e+01    0.1882778     0.100316 -45.84 0.0009458348    1.741    0.425
       281 -10.2161    193.4959     25.9848   3.8880699265e+01   3.3802761435e+01    0.1976031   0.08123238 -52.53 0.0008105577    2.595    0.615
       282 -10.2641    169.0715     25.8924   4.1944224178e+01   3.9609955401e+01    0.2005515    0.1621801 -73.41  0.001169604    1.227    0.185
       283 -10.1554      1.5062     25.7578   9.6325137016e+01   7.0668972317e+01    0.2226972    0.1036223 -45.45 0.0005574115    1.662    0.398
       284 -10.7017     32.2434     16.9256   7.6116023928e+01   6.9113247979e+01    0.4638985    0.1928826  20.38  0.001952732    3.286    0.696
       285 -10.0764    195.2169    238.8571   8.6376682211e+01  -3.3039714345e+00    0.2377611    0.1630431  15.82  0.001403553    1.326    0.246
       286 -10.3055      9.9597     24.3277   9.1099980310e+01   7.0316100437e+01    0.7643356    0.3130255   5.48  0.002745017    3.422    0.708
       287 -10.6598    243.9032    237.3397   7.7127767331e+01  -9.6624677878e+00    0.1917686    0.1442376 -26.73 0.0009361485    1.375    0.273
       288  -9.7067    135.3777    237.9274   9.8428534843e+01   5.9433338609e+00    0.2035143   0.09314052 -31.52 0.0007027317    4.554    0.780
       289 -10.6596     24.9412     20.1574   8.1297766099e+01   6.9535945707e+01    0.2536388    0.1790269   7.79 0.0009726887    1.255    0.203
       290 -10.7896     29.7808    232.9655   1.1972275581e+02   2.1330690030e+01    0.2783458    0.1432216  64.25  0.001560426    1.738    0.425
       291 -10.3434    109.4320    242.7650   1.0446376242e+02   8.9841934289e+00    0.2418503    0.1595614  55.82 0.0007595525    1.498    0.333
       292  -9.6575    177.3286    235.3139   8.9365801483e+01  -8.7482170692e-02    0.1326497   0.09043471   2.49 0.0006383789    1.673    0.402
       293  -9.9352     63.0085    242.4760   1.1390751735e+02   1.5478374447e+01    0.1770649    0.1433025  72.55 0.0004423125    1.099    0.090
       294 -10.1531     38.2181    232.7836   1.1805842167e+02   2.0427292034e+01    0.1756829    0.1283573  67.66 0.0006285954    1.118    0.106
       295  -9.3534    214.2971     25.3749   3.6542673506e+01   2.9147049019e+01    0.1183499   0.09618229  31.95 0.0007026368    1.746    0.427
       296 -11.6154    164.8067     23.1064   4.1763968502e+01   4.0948946744e+01     0.286103     0.208666  64.81            0    1.243    0.196
       297 -10.1515     99.0125     20.5302   5.3509310615e+01   5.6713263293e+01    0.2588646    0.1572599  36.70 0.0003839895    1.564    0.360
       298 -10.1617     97.8392     23.8710   5.5105043891e+01   5.6605360994e+01    0.2310162    0.1728895  55.09  0.000648987    1.284    0.221
       299 -10.1757     94.6058     22.1930   5.5319905893e+01   5.7488536507e+01     0.297942    0.2343727  15.76  0.001757877    1.272    0.214
       300 -10.9219    103.5369     19.4990   5.1984627359e+01   5.5822372261e+01    0.2845363    0.2337147 -58.43 0.0009448792    1.543    0.352
       301 -10.0718     23.9868    232.5036   1.2081053913e+02   2.2044901343e+01    0.1942398    0.1393764 -69.61 0.0006295557    1.485    0.327
       302 -10.4474    186.0914     22.9697   3.8979855156e+01   3.5881930696e+01    0.2009655    0.1695623 -79.93 0.0004899445    1.067    0.063
       303  -9.0337     51.3039     23.2919   7.0505803482e+01   6.5517901406e+01    0.1281255   0.08369403   6.96 0.0001847793    1.573    0.364
       304  -9.9978    226.0125     22.3638   3.4799960605e+01   2.6954405206e+01    0.1724381    0.1333695  85.83 0.0007447131    1.199    0.166
       305 -10.1585    192.6540     21.6482   3.7897301103e+01   3.4494780731e+01    0.1992749    0.1440586  41.43  0.001116941    1.736    0.424
       306 -10.3179     68.4875     22.0627   6.3367125127e+01   6.2731561567e+01    0.2521336    0.1636182  50.47 0.0006159958    1.635    0.388
       307 -10.4137     88.8407    241.3013   1.0855941108e+02   1.2230841993e+01    0.2188436    0.1539343 -34.28  0.001222165    2.108    0.526
       308 -10.4796     89.4672     20.9608   5.6255680937e+01   5.8713049909e+01    0.2617504    0.1468131  39.57 0.0008091921    1.615    0.381
       309  -9.9959      5.4092     13.2594   8.8853150674e+01   7.2465365802e+01    0.1642334    0.1303447 -32.56 0.0007754558    1.305    0.234
       310  -9.5102    169.9936    229.2547   8.9906333208e+01   2.0528412087e+00    0.1687713    0.1004822  34.11 0.0004277419    1.491    0.329
       311 -10.9163    154.4044    227.5533   9.2903728756e+01   4.8180071338e+00    0.3205928    0.1873761  52.39  0.001525666    2.064    0.515
       312  -9.7362    190.4277    226.7083   8.5330655380e+01  -6.9108319542e-01    0.1728474    0.1140117 -25.10 0.0009404718    1.586    0.370
       313 -11.1846    120.4084    226.6153   1.0008747311e+02   1.0389354581e+01     0.218691    0.1746252 -60.90 0.0008913412    1.408    0.290
       314 -10.2983    172.8169     20.1109   3.9859531835e+01   3.9349163340e+01    0.2034831    0.1597566 -76.06 0.0005738497    1.239    0.193
       315 -10.1717     65.9921    226.2023   1.1180669565e+02   1.8381399670e+01     0.202658    0.1686514 -84.61  0.000617492    1.192    0.161
       316  -9.8618     17.5079    227.5094   1.2174930325e+02   2.3734428331e+01    0.1173892   0.08899166  71.77 8.046973e-05    1.015    0.014
       317 -11.1839      4.5950    226.6169   1.2414982243e+02   2.5162088241e+01    0.2940784    0.1581782  53.93  0.001840987    1.519    0.342
       318 -11.4963     21.0485    222.3192   1.2073419048e+02   2.4457468147e+01    0.2712732    0.1630389  88.03 0.0009905366    1.457    0.314
       319 -10.1719    151.4951     18.5113   4.2381058645e+01   4.4650666758e+01    0.2216816    0.1073711 -41.22  0.001017396    2.180    0.541
       320  -9.5492     54.6870     18.9893   6.7162529537e+01   6.5522173317e+01    0.1687472    0.1404709   3.20 0.0009450268    1.062    0.058
       321  -9.7649    143.1719     17.1428   4.3270756230e+01   4.6794751056e+01     0.177053    0.1440346 -79.39 0.0002636523    1.306    0.234
       322  -9.8361    126.5517    221.5586   9.8033247416e+01   1.0410574514e+01    0.1781529    0.1306155 -72.42 0.0004909365    1.694    0.410
       323  -9.7462    142.6492    220.6946   9.4374267800e+01   7.9808305676e+00    0.1379286    0.1018646   0.75 0.0007041781    1.706    0.414
       324 -11.5504      9.7049    217.1987   1.2265600190e+02   2.6649599069e+01    0.3130031    0.1945561  57.24  0.001692149    1.351    0.260
       325  -9.8161     37.9948    217.5280   1.1693472959e+02   2.3659162810e+01    0.1740257    0.1109774  37.61 0.0006807231    1.553    0.356
       326 -11.4527     30.1004    215.8239   1.1844594311e+02   2.4897554328e+01    0.3621026    0.2618035  26.03  0.002265736    1.698    0.411
       327 -11.8529    237.7428    213.1799   7.3983568577e+01  -5.4988385924e+00    0.6067519    0.3444048   5.83  0.002302419    2.141    0.533
       328  -9.8907     67.2271    215.0498   1.1040369558e+02   2.0599059401e+01    0.2417619    0.1739557 -46.56  0.001361297    1.722    0.419
       329 -10.7083     21.5376    212.6647   1.1998571339e+02   2.6474460516e+01    0.2846271    0.1098503  57.86  0.001313434    2.486    0.598
       330  -9.9896    208.9415    212.0132   7.9111746322e+01  -1.1368049174e+00    0.2030145    0.1639785  -1.68 0.0005408158    1.085    0.078
       331 -12.2096      4.8167    207.9385   1.2308662892e+02   2.9081035573e+01    0.5872359    0.2629234  85.02  0.003047826    2.045    0.511
       332 -10.4373     10.9181    208.4850   1.2188409856e+02   2.8411494898e+01    0.2177162    0.1505755 -58.59 0.0005368525    1.655    0.396
       333  -9.8176     26.0844     14.4040   7.7971157523e+01   7.0226558708e+01     0.149178   0.08252159   4.72  4.19388e-05    2.041    0.510
       334  -9.8057     30.9814     12.8093   7.4719563635e+01   6.9825805053e+01    0.1770356    0.1248877   1.42 0.0005032093    1.198    0.165
       335  -9.5103    188.3874    205.4678   8.2022224410e+01   3.2415718552e+00    0.1350676    0.1194434  -0.58 9.741731e-05    1.024    0.024
       336 -10.6598     19.6702    200.8514   1.1952696236e+02   2.9274294148e+01    0.3089831    0.1104689 -67.49  0.001334132    2.414    0.586
       337 -10.3400    175.4102    202.7807   8.4249614718e+01   5.9021247697e+00    0.2415389    0.1812706  33.78  0.000514975    1.264    0.209
       338 -10.2015    243.7047    202.3760   7.0951215173e+01  -4.7099048469e+00    0.1675414    0.1057283  20.75 0.0009459122    1.598    0.374
       339 -10.3041    107.8640    209.8556   1.0056013333e+02   1.5789478137e+01    0.1954513    0.1531142  63.88 0.0005419917    1.325    0.245
       340  -9.1972    223.6157    201.3156   7.4348014524e+01  -1.6350027412e+00     0.117937    0.1072389  84.79 0.0007019246    1.824    0.452
       341  -9.6493    215.5033    194.5559   7.4581930407e+01   7.3692903047e-01    0.1362837    0.1140961  -5.30  4.82185e-05    1.039    0.038
       342 -10.8454     16.7170    193.2473   1.1959758157e+02   3.1282058244e+01    0.2748698    0.2446195  21.22  0.001295639    1.475    0.322
       343 -11.0356     16.5276    184.5399   1.1895599378e+02   3.3315096032e+01    0.4004326    0.1875464 -78.21  0.001963537    1.839    0.456
       344 -10.0370     14.7022    180.6645   1.1906016121e+02   3.4387423768e+01    0.1971387    0.1555571 -64.28 0.0006771926    1.296    0.228
       345  -9.4693     62.0000    185.0110   1.0814247857e+02   2.8181194424e+01    0.2228255   0.07282486 -65.86 0.0007995938    2.923    0.658
       346 -10.1689    167.7944    183.5944   8.2273898036e+01   1.0979262649e+01    0.2077409    0.1334287  47.44 0.0007441554    1.675    0.403
       347  -9.7381     58.7922    182.1874   1.0858050090e+02   2.9274765326e+01    0.1830012    0.1559657 -46.43  0.001056885    1.344    0.256
       348  -9.3320      1.5405    180.5121   1.2204501289e+02   3.5510996861e+01    0.1219162   0.09491081  86.84 0.0001485286    1.003    0.003
       349  -9.7411    244.3636    178.4172   6.6232907467e+01  -1.0644171343e+00    0.2546967   0.09778376 -27.57  0.000944813    3.130    0.681
       350 -10.8199     46.4405    177.8223   1.1112649724e+02   3.1838865296e+01    0.3141508    0.2309051 -84.01  0.001265008    1.244    0.196
       351  -9.6607     69.6017    178.2106   1.0532864964e+02   2.8804110083e+01    0.1892735    0.1200159 -54.41 0.0004555839    1.576    0.366
       352 -11.2006     34.2333    174.1339   1.1375239052e+02   3.4079092435e+01    0.2540581    0.1947564 -70.74 0.0003389795    1.181    0.153
       353 -10.8450     18.0074    173.0360   1.1762166157e+02   3.5907625907e+01    0.3884497    0.2039957  65.04  0.001944755    1.976    0.494
       354  -9.3729     74.4966    171.4657   1.0307501549e+02   2.9767798475e+01    0.1409843    0.1322878 -83.12 1.474956e-05    1.038    0.037
       355 -12.2158     36.2577    165.8096   1.1230379477e+02   3.5907912233e+01    0.9245562    0.4473918 -76.11    0.0042206    1.935    0.483
       356 -11.2318     40.1133    162.4019   1.1088188595e+02   3.6343163532e+01    0.4104421    0.2767358 -76.28  0.001362786    1.329    0.247
       357 -12.0614     50.1066    161.6652   1.0812161516e+02   3.5397287553e+01    0.5815068    0.3863792  65.01  0.001258826    1.634    0.388
       358  -9.2704    177.2768    168.6899   7.7141262935e+01   1.2243572671e+01    0.1390726    0.1195821 -83.88 0.0001938338    1.557    0.358
