#   1 NUMBER                 Running object number                                     
#   2 MAG_AUTO               Kron-like elliptical aperture magnitude                    [mag]
#   3 X_IMAGE                Object position along x                                    [pixel]
#   4 Y_IMAGE                Object position along y                                    [pixel]
#   5 X_WORLD                Barycenter position along world x axis                     [deg]
#   6 Y_WORLD                Barycenter position along world y axis                     [deg]
#   7 A_WORLD                Profile RMS along major axis (world units)                 [deg]
#   8 B_WORLD                Profile RMS along minor axis (world units)                 [deg]
#   9 THETA_WORLD            Position angle (CCW/world-x)                               [deg]
#  10 FWHM_WORLD             FWHM assuming a gaussian core                              [deg]
#  11 ELONGATION             A_IMAGE/B_IMAGE                                           
#  12 ELLIPTICITY            1 - B_IMAGE/A_IMAGE                                       
         1 -12.9609      2.3578     11.5668   1.1929103818e+02   7.2731358208e+01     1.550467    0.4366796 -48.49  0.007574914    2.625    0.619
         2 -13.1988    193.8530     30.3141   6.7721950591e+01   3.2400463835e+01     1.206824     1.105402  88.33  0.006383189    1.025    0.024
         3 -13.7447    207.7802     12.7540   6.1485732202e+01   3.0869452282e+01      1.51677     1.096545  31.85  0.008133796    1.876    0.467
         4 -14.0672      8.6266    208.4079   1.4754912333e+02   3.1038998944e+01      2.69371    0.8073128 -82.57   0.01119856    3.068    0.674
         5 -10.4653    249.2905    249.5531   1.0685124178e+02  -1.1010187394e+01    0.2504363    0.1312534  34.53   0.00156109    1.561    0.359
         6 -11.2468    139.1093    248.6209   1.2638640138e+02   6.0828565847e+00    0.3632143    0.1978181 -46.62  0.002050164    2.419    0.587
         7 -11.3206    124.9385    250.0270   1.2917882559e+02   8.1186768276e+00    0.4725329    0.1439353  38.45  0.001954374    2.840    0.648
         8 -11.3859     82.9590    248.7406   1.3675390452e+02   1.4626871013e+01     0.376271    0.2296243  30.87  0.002221496    1.998    0.499
         9 -10.3952     66.4675    250.0360   1.3979796959e+02   1.6673551490e+01    0.2376307    0.1263328  45.97 0.0004031284    1.464    0.317
        10 -13.4596     33.8000    246.7545   1.4521782658e+02   2.1294226674e+01     1.644698    0.5970685  43.44  0.009352244    2.094    0.522
        11 -14.6873     52.4531    210.1459   1.3925104304e+02   2.5858363937e+01     7.966551    0.5928258  46.13   0.02420709    5.729    0.825
        12 -12.4800     37.7186    229.7552   1.4351333190e+02   2.3883997197e+01    0.2985933      0.25258  67.49 0.0007687432    1.244    0.196
        13  -8.4301     76.2962    235.6345   1.3685110021e+02   1.7835622904e+01    0.1261564   0.07024561  66.78 0.0007031084    1.719    0.418
        14 -13.7923     44.1639    221.0617   1.4172450131e+02   2.4753233832e+01    0.9450315    0.6017911  64.77   0.00421444    1.247    0.198
        15 -15.1934      9.9301    152.5758   1.4352779459e+02   4.2600436823e+01     5.681315     1.590546 -82.26   0.02134425    3.807    0.737
        16 -10.5428     82.5846    243.4208   1.3636481388e+02   1.5582262845e+01    0.2322207    0.1430896  51.25  0.001070927    1.241    0.194
        17  -8.7851    152.7423    212.9823   1.1895492312e+02   9.4970954614e+00    0.1715757     0.153778  47.65 0.0003231137    1.077    0.071
        18 -10.9958    238.5007    247.7669   1.0837097838e+02  -9.3311192849e+00    0.1924817    0.1392736  21.88  0.001052509    1.046    0.044
        19 -13.3412      3.8041    246.1356   1.5008770989e+02   2.4594419255e+01     1.378069    0.9749504 -83.88   0.01064104    1.443    0.307
        20 -11.4191     63.8826    196.2751   1.3557756258e+02   2.7189055220e+01    0.3234986    0.2499753 -46.10  0.001221989    1.767    0.434
        21  -9.8077    192.5044    193.8327   1.0770637704e+02   5.3855200953e+00    0.5043384    0.2819405 -65.39   0.00164922    5.360    0.813
        22 -11.5519     69.4545    188.5408   1.3351665407e+02   2.8051503760e+01    0.2677243     0.239062 -65.61 0.0007530075    1.308    0.235
        23 -10.7280     79.0597    176.3194   1.2980097685e+02   2.9306727040e+01    0.2345926    0.2279089  65.98 0.0003540493    1.223    0.182
        24 -12.9929     66.1874    173.8948   1.3250103874e+02   3.1692273663e+01    0.4906079    0.2890069 -44.96   0.00187158    2.267    0.559
        25 -11.7091     86.3359    166.8626   1.2671026723e+02   3.0286947535e+01    0.6504778    0.5293218  64.53  0.003758253    1.136    0.120
        26 -11.0717     51.3270    232.6741   1.4124148272e+02   2.1696178391e+01     0.455604    0.1080765  45.14  0.002010019    2.911    0.656
        27  -9.8044     98.7983    151.1884   1.2098811672e+02   3.1769083502e+01     0.294826    0.2441135 -46.80 0.0007635869    1.325    0.245
        28  -9.1981    101.9819    147.0270   1.1939599195e+02   3.2157960388e+01    0.2225523    0.1795868 -18.38 0.0007694258    1.706    0.414
        29 -11.7865     87.5759    150.4412   1.2373881158e+02   3.3816145207e+01    0.2895067    0.2509398 -45.22 0.0005087003    1.304    0.233
        30 -12.4155     67.4417    143.9926   1.2793673566e+02   3.8341168894e+01     0.793304    0.5147259  70.89  0.002902355    1.770    0.435
        31 -11.6429     57.7031    132.1755   1.2865715835e+02   4.2405771239e+01    0.6649607    0.2728572 -74.51  0.002422838    3.202    0.688
        32  -8.0532    134.3071    148.6234   1.1159426914e+02   2.5615894040e+01    0.1576141    0.1168479  84.79 0.0007028777    1.778    0.437
        33 -10.4368     39.5763    146.6642   1.3561062337e+02   4.1160357925e+01     0.236519    0.1557779  39.67  0.001361864    1.599    0.375
        34  -8.3925    192.3537    144.2062   9.7604031832e+01   1.4049666401e+01    0.1954677    0.1367209 -47.52 0.0004107061    1.543    0.352
        35  -9.3431    229.4975    229.4961   1.0701170702e+02  -5.9300704542e+00    0.1201251   0.09540161  19.75 -6.305174e-05    1.049    0.047
        36  -9.6276    110.2084    136.7623   1.1519188670e+02   3.2984579839e+01    0.3796935    0.2573202 -24.81  0.001460251    2.228    0.551
        37 -10.3490     97.5544    133.7262   1.1793573883e+02   3.5985339132e+01    0.2663604    0.2422119 -17.00 0.0007738072    1.315    0.240
        38 -10.8077     50.2355    129.6826   1.3034110223e+02   4.3907093968e+01    0.2717495     0.219683  66.14 0.0006350956    1.258    0.205
        39  -8.5265    116.2912    129.3423   1.1196670299e+02   3.3482132107e+01    0.1498276    0.1206837 -12.75 0.0007026315    1.653    0.395
        40 -10.7613     53.5595    118.3040   1.2744137355e+02   4.6173632621e+01    0.3779469    0.1302076 -68.30  0.001309515    3.353    0.702
        41  -8.9615    107.0916    123.3705   1.1308249768e+02   3.6608123943e+01    0.1995816    0.1771757  49.37 0.0003902042    1.122    0.109
        42 -10.6322    149.7385    229.4269   1.2192158695e+02   7.3026660452e+00     0.260097    0.1003619  44.46    0.0010517    2.110    0.526
        43 -10.1746    168.1421    113.1248   9.5255112695e+01   2.5475711869e+01    0.3537895    0.2865997 -83.11 0.0009114691    1.530    0.347
        44  -8.8833    157.3174     77.3031   8.7789085805e+01   3.4843132798e+01    0.1577792    0.1206241  21.19 0.0003545253    1.624    0.384
        45 -11.4483      2.0000     47.4953   1.3099711101e+02   6.6147120498e+01    0.9515843          nan -63.14  0.001937055   13.241    0.924
        46 -10.6720     50.3067    235.3326   1.4161732795e+02   2.1339824598e+01    0.1742866    0.1589023 -77.19  0.001059711    1.489    0.328
        47 -12.2596     99.9917    247.2323   1.3350802072e+02   1.2397267511e+01     0.484838    0.3527668  54.43  0.003300321    1.046    0.044
