#   1 NUMBER                 Running object number                                     
#   2 MAG_AUTO               Kron-like elliptical aperture magnitude                    [mag]
#   3 X_IMAGE                Object position along x                                    [pixel]
#   4 Y_IMAGE                Object position along y                                    [pixel]
#   5 X_WORLD                Barycenter position along world x axis                     [deg]
#   6 Y_WORLD                Barycenter position along world y axis                     [deg]
#   7 A_WORLD                Profile RMS along major axis (world units)                 [deg]
#   8 B_WORLD                Profile RMS along minor axis (world units)                 [deg]
#   9 THETA_WORLD            Position angle (CCW/world-x)                               [deg]
#  10 FWHM_WORLD             FWHM assuming a gaussian core                              [deg]
#  11 ELONGATION             A_IMAGE/B_IMAGE                                           
#  12 ELLIPTICITY            1 - B_IMAGE/A_IMAGE                                       
         1 -14.5066    196.9947     16.5487   6.7142839793e+01   3.3111719016e+01     2.861999     1.733589  31.68   0.01018453    2.141    0.533
         2 -13.6481    201.8638      9.3028   6.4540137275e+01   3.2569174595e+01     1.396881     0.725525  46.39  0.001537082    2.207    0.547
         3 -10.6669     33.0000      3.5321   1.0926206486e+02   7.4848166707e+01    0.3577642   0.09526876 -47.84  0.001183949    4.188    0.761
         4 -11.1132     37.4441    226.5059   1.4739689089e+02   2.4935408906e+01    0.2404606    0.1609155  83.17  0.001119928    1.522    0.343
         5 -10.3263    248.8811    250.3069   1.1025601336e+02  -4.7790232886e+00    0.1932604    0.0685702  37.34  0.001086006    2.547    0.607
         6 -12.4531    140.5365    248.6310   1.2884604305e+02   9.1278971805e+00    0.3887752    0.3264936  42.44  0.003105502    1.296    0.228
         7 -12.0478    120.0275    238.5389   1.3180013263e+02   1.3199000365e+01    0.3165494     0.222383 -80.69  0.001806442    2.208    0.547
         8 -12.1790    124.6292    243.7228   1.3139560618e+02   1.1874505598e+01     0.381058    0.2357688  61.71  0.002372955    2.159    0.537
         9 -12.2107    128.7116    243.8653   1.3062383844e+02   1.1314208625e+01    0.2684339    0.2175649  16.56  0.002043414    1.313    0.239
        10 -13.0218    106.2832    247.0438   1.3521477741e+02   1.3796076234e+01    0.7241296    0.3201316  47.16  0.004194092    1.842    0.457
        11 -12.2448     98.0406    248.4819   1.3690321641e+02   1.4627268270e+01    0.5586723    0.3138464  73.56  0.002929026    2.702    0.630
        12 -11.3942    101.2937    246.0334   1.3609156807e+02   1.4567233891e+01    0.2603592    0.2036527  82.73 0.0003977013    1.648    0.393
        13 -12.4761     65.4090    249.5195   1.4314250417e+02   1.8324642360e+01     1.216771    0.2112905  32.13   0.00460596    4.425    0.774
        14 -11.5698     87.0351    248.1980   1.3897942102e+02   1.6010802035e+01    0.3657131    0.2011088  27.92  0.002323528    1.646    0.393
        15 -12.7786     72.0456    241.9096   1.4144323720e+02   1.8711944994e+01    0.5012746    0.4163929 -59.03  0.004032005    1.689    0.408
        16 -11.7906     80.0774    247.2614   1.4024118717e+02   1.6974961470e+01    0.5323679    0.1953766  52.47  0.002814989    2.460    0.594
        17 -12.0178     81.5915    242.3147   1.3962357477e+02   1.7527578192e+01     0.349752    0.2190762  62.80  0.001829088    1.609    0.378
        18 -15.1967      3.9589     16.4766   1.3862541488e+02   7.4472891312e+01     21.69318     1.523792 -72.36   0.03490503   18.826    0.947
        19 -14.1310     32.4071    246.0848   1.4908878171e+02   2.2285167062e+01     1.940417    0.5466998  33.49   0.01044577    2.448    0.591
        20 -15.8865      7.9570    240.5761   1.5334569044e+02   2.5360880679e+01      7.34474      1.14616 -75.10   0.03174973    6.291    0.841
        21 -15.5364     56.4732    216.5514   1.4301849511e+02   2.4626884838e+01       7.0074     0.496383  36.98   0.01932212    4.103    0.756
        22 -11.4280     32.7260    205.6278   1.4744762509e+02   2.9071493011e+01    0.2763641    0.1869871  67.15  0.001499356    1.254    0.203
        23 -10.8481    193.1534    195.3060   1.1164704113e+02   8.4042708692e+00    0.6614431    0.3861692 -60.63  0.002318393    6.810    0.853
        24 -11.6534     71.7262    195.2836   1.3811319994e+02   2.6696856989e+01    0.3390957    0.2372802 -42.23   0.00199991    2.015    0.504
        25 -11.7445     76.3323    188.3048   1.3640208531e+02   2.7451113441e+01    0.2586963    0.2361477 -26.98 0.0005468992    1.445    0.308
        26  -9.4613    125.1684    185.3438   1.2454311862e+02   2.0912994847e+01    0.2737955    0.1096165  29.49  0.001074846    2.613    0.617
        27 -11.2602     84.9009    176.0688   1.3303394192e+02   2.8729021097e+01     0.315867    0.2388695  23.41 0.0004573143    1.406    0.289
        28 -13.2971     72.5002    173.5945   1.3586871756e+02   3.0898680579e+01    0.4453455    0.2784546 -41.75  0.001738429    2.223    0.550
        29 -13.0714     91.0238    167.6269   1.3045549179e+02   2.9582390057e+01     2.910807    0.3283869  41.45  0.003316118    5.522    0.819
        30 -10.3181    102.6624    150.8900   1.2495663011e+02   3.1309727527e+01    0.2944122    0.2795281 -16.88 0.0007869583    1.206    0.171
        31  -9.5135    105.1748    146.6913   1.2357842574e+02   3.1795618055e+01    0.3239513    0.1829098 -33.14  0.001318393    2.691    0.628
        32 -12.1019     91.5712    150.3383   1.2788885340e+02   3.3180473711e+01    0.2772821    0.2512638  12.52 0.0007363388    1.244    0.196
        33 -12.3809     46.1597    148.7531   1.4038963728e+02   3.9442231519e+01    0.4858211    0.3091472 -84.48  0.002494731    1.553    0.356
        34 -10.0470    134.2987    147.7556   1.1612931265e+02   2.6421520086e+01    0.4659697    0.1381024 -52.70  0.001426045    4.383    0.772
        35  -8.7958    192.0215    144.0736   1.0226494582e+02   1.5999657114e+01    0.1647299    0.1426429   5.86 0.0003970031    1.045    0.043
        36 -13.7526     66.9249    143.8784   1.3393116577e+02   3.8121864780e+01     2.837965     1.238492  77.55  0.003826518    5.928    0.831
        37 -10.0965    112.4127    136.3629   1.1971475330e+02   3.2774639945e+01    0.3031093    0.2406505   1.71 0.0009777213    1.584    0.369
        38 -14.0891     11.4461    207.1529   1.5192631066e+02   3.0710807598e+01     1.162234    0.7751267  38.76  0.004758344    1.286    0.222
        39 -10.7819    100.1310    133.5588   1.2265897003e+02   3.5527908873e+01    0.2951663    0.2404685 -17.56 0.0006491052    1.547    0.354
        40 -12.1092     50.4529    130.4315   1.3716690493e+02   4.3259612380e+01    0.3796917    0.2647879  65.64  0.000882446    1.412    0.292
        41 -11.1651    168.2998    113.4499   1.0024762478e+02   2.6013342717e+01    0.3869177    0.3316817 -80.55  0.001006096    1.580    0.367
        42  -9.5342    108.9282    123.5124   1.1811081655e+02   3.6229191845e+01    0.2029522    0.1970129  40.10 0.0003881235    1.036    0.035
        43  -9.0237    184.6515     77.6698   8.7184773262e+01   2.8271656765e+01    0.1625278    0.1130133  19.98 0.0007048983    1.764    0.433
        44 -11.8218     35.0422    230.1831   1.4801592424e+02   2.4561741750e+01    0.2807297    0.1998806  51.23 0.0007824532    1.015    0.015
        45 -10.4191    172.4948    247.0074   1.2274766127e+02   5.0603349416e+00    0.1310644    0.1079747 -23.77 0.0009463953    1.585    0.369
        46 -13.0866     47.8590    229.1438   1.4546220935e+02   2.3424966581e+01    0.4406301    0.3133074  35.39 0.0009994311    1.262    0.207
