#   1 NUMBER                 Running object number                                     
#   2 MAG_AUTO               Kron-like elliptical aperture magnitude                    [mag]
#   3 X_IMAGE                Object position along x                                    [pixel]
#   4 Y_IMAGE                Object position along y                                    [pixel]
#   5 X_WORLD                Barycenter position along world x axis                     [deg]
#   6 Y_WORLD                Barycenter position along world y axis                     [deg]
#   7 A_WORLD                Profile RMS along major axis (world units)                 [deg]
#   8 B_WORLD                Profile RMS along minor axis (world units)                 [deg]
#   9 THETA_WORLD            Position angle (CCW/world-x)                               [deg]
#  10 FWHM_WORLD             FWHM assuming a gaussian core                              [deg]
#  11 ELONGATION             A_IMAGE/B_IMAGE                                           
#  12 ELLIPTICITY            1 - B_IMAGE/A_IMAGE                                       
         1 -15.8440    200.7686    102.4059   5.4947965058e+01   2.0666914616e+01     9.759317     5.495021 -66.11   0.02715434    2.727    0.633
         2 -14.4707    221.3937     56.9490   4.1328047438e+01   2.3759672318e+01     1.306762    0.9965352 -48.63  0.007812718    1.177    0.150
         3 -15.7717    232.4758     23.7537   3.3083604046e+01   2.5859765880e+01     9.899709    0.5093983  61.19    0.0276639    7.812    0.872
         4 -15.9688    232.3446     51.1933   3.8860038880e+01   2.2297272326e+01     11.08138          nan -40.94   0.01080517    9.550    0.895
         5 -10.1879    190.6984     14.8846   3.4925588115e+01   3.5984738006e+01    0.3114098    0.1739667 -88.80  0.001326208    1.786    0.440
         6 -10.7784    233.4712      9.0348   3.0034686344e+01   2.7348517411e+01    0.2331045    0.1562852 -48.82 0.0009217174    1.320    0.242
         7 -10.2614     81.7924     10.0175   5.2090630853e+01   6.1528798832e+01    0.2079207    0.1568845  47.44 0.0004325406    1.152    0.132
         8 -13.0803    248.7166      3.9174   2.8078386171e+01   2.4888690617e+01    0.3391222    0.2494504 -53.82  0.001212154    1.199    0.166
         9  -9.2856    139.2668      8.6440   3.9628483962e+01   4.8689814585e+01    0.1278227   0.08853896 -65.17 0.0006989572    1.632    0.387
        10 -10.3011    220.6506      6.8388   3.0508269819e+01   3.0242006396e+01    0.1607639    0.1122949 -53.79 0.0006529883    1.256    0.204
        11  -9.7327    157.0162      4.0448   3.5884431077e+01   4.4898202813e+01    0.1821964    0.1631132 -85.47  0.001225014    1.089    0.082
        12 -10.3729    180.2249      2.2318   3.2893124501e+01   3.9649570399e+01    0.2918312    0.1030089  81.98   0.00115693    3.029    0.670
        13 -11.9198     66.4764    144.5124   9.8860874561e+01   3.7723074063e+01    0.5187248    0.3328873 -74.07  0.001458978    1.631    0.387
        14 -14.3990     43.3304    164.8979   1.0859535504e+02   3.5369197330e+01     1.086455     1.007633 -59.30   0.00251814    1.167    0.143
        15 -11.0028    208.7392    186.2597   7.1915063522e+01   3.1627126206e+00    0.3074962     0.192133 -59.86   0.00136228    2.509    0.601
        16 -12.4497    228.3057    172.2590   6.5493831278e+01   2.4992043180e+00    0.4581122    0.2479649 -21.07  0.001992784    2.327    0.570
        17 -12.3809    230.2662    167.3102   6.4151435137e+01   3.0570821558e+00    0.4058132    0.2729637 -50.20   0.00167413    1.621    0.383
        18 -10.0921    175.6518    173.6879   7.6205780594e+01   1.1400290752e+01     0.154454    0.1128777  -3.78 0.0005182081    1.716    0.417
        19 -12.4540    248.3910    164.9395   6.0660068967e+01   6.3663424942e-01     0.594449    0.3571532 -59.94  0.002720111    2.794    0.642
        20 -10.7650    242.6136    230.7991   7.3843998145e+01  -8.8352572031e+00    0.1523083   0.09996609 -37.50 0.0004260333    1.603    0.376
        21 -10.8161    248.3653    221.6252   7.1267367697e+01  -8.2438524523e+00    0.2703435     0.139027  46.13  0.001315429    3.183    0.686
        22 -12.4977    188.9556    131.2047   6.3998518831e+01   1.7575298343e+01    0.3732522    0.2811338 -41.84  0.001850555    1.237    0.192
        23 -11.8189    160.9003    128.6667   6.9422025436e+01   2.4024569537e+01      0.43621     0.353698 -53.48  0.001622075    1.237    0.192
        24 -12.4689    183.4246     33.6737   4.0430141632e+01   3.5492360863e+01    0.6667126    0.4792182 -47.76  0.003792184    1.358    0.264
        25 -11.8601    227.7845    122.1254   5.5014664795e+01   1.1624814314e+01    0.2723176    0.2024566  42.41  0.001009871    1.570    0.363
        26 -12.3934    159.3062    116.0391   6.6638269212e+01   2.7078419474e+01    0.8242869    0.4633354 -69.15  0.002610018    3.579    0.721
        27 -12.2804    167.6814    114.0658   6.4268586974e+01   2.5640745949e+01    0.4800512    0.4146116 -24.60 0.0007338414    1.235    0.190
        28 -12.1451    214.5861    118.0477   5.6248535918e+01   1.4917266217e+01    0.3558904    0.2490116 -41.20  0.001089821    1.273    0.215
        29 -14.0795    179.0159     67.2622   4.9841501793e+01   3.1713911443e+01    0.8734661    0.6809152 -89.51  0.002600576    1.367    0.268
        30 -11.6781    230.4666    116.4951   5.3370186594e+01   1.2125326436e+01    0.2764141    0.1821661 -68.47 0.0008479358    2.032    0.508
        31 -11.5222    134.8991    110.1144   7.1038736440e+01   3.3717494780e+01     1.073725    0.1773066 -45.55  0.002339131    5.988    0.833
        32 -10.0150    143.2021    104.0875   6.7319794115e+01   3.3182542430e+01    0.2435205    0.2121795   3.25 0.0008193597    1.341    0.255
        33 -10.0389    228.8086    186.8250   6.8280580827e+01  -1.0556729888e-01    0.1629976    0.1507148 -38.21 0.0003317943    1.300    0.231
        34 -12.4630    228.5502    101.4834   5.0353638318e+01   1.5120437476e+01    0.4704592    0.2987427  24.35  0.002048516    2.914    0.657
        35 -11.7721    150.7351     99.5128   6.4274258096e+01   3.2430014944e+01     0.492112    0.3390608  34.04  0.001440285    1.682    0.405
        36 -10.6412    135.7440     96.2071   6.7011032822e+01   3.6489528974e+01    0.2881877    0.2271426  79.21 0.0007393821    1.581    0.368
        37 -12.5950    161.8092     92.7211   5.9961545462e+01   3.1232756122e+01    0.6714081    0.3987381  36.92  0.002764104    2.055    0.513
        38 -11.6356    227.1107     94.1257   4.8924913552e+01   1.6664522348e+01    0.2360681    0.1888596  75.02  0.001357581    1.400    0.286
        39 -11.6079    247.9250    210.4240   6.9354518090e+01  -6.5516756031e+00    0.3512717     0.213577  46.64  0.001792604    2.463    0.594
        40 -11.6334    144.2619     89.2066   6.2943425490e+01   3.5960951188e+01    0.3199777    0.3056649 -67.90 0.0007073227    1.052    0.049
        41 -10.6692    189.7636    148.7557   6.7844421678e+01   1.3847843829e+01    0.2425802    0.1128658 -51.92 0.0008851634    2.436    0.589
        42 -13.1777    160.4520     82.9888   5.7597838129e+01   3.3373086893e+01    0.5001661    0.4305287 -32.04  0.001059777    1.217    0.179
        43 -10.3015    184.5375    211.4801   8.1540538862e+01   2.4982568723e+00    0.1373113    0.1192995   2.06 4.204098e-05    1.037    0.036
        44 -12.2913    197.4101     70.7616   4.7784903726e+01   2.6906495051e+01    0.3639186    0.2423475  49.46  0.001339013    1.673    0.402
        45 -12.5361    203.3318     67.4452   4.6106604674e+01   2.6105940290e+01    0.4172852    0.2724967  43.77  0.001627529    1.910    0.476
        46 -11.6728    217.5516     78.5720   4.6735471822e+01   2.1225063769e+01      0.29976    0.2411356  29.73  0.001656421    1.717    0.418
        47 -11.5585    149.3333     62.5103   5.4088399407e+01   3.9534426988e+01    0.5393339    0.2085029 -49.10  0.001833727    3.137    0.681
        48 -12.1519    146.5094     63.5154   5.4978067878e+01   4.0043611223e+01    0.4817393    0.3858227 -29.31  0.002095689    1.348    0.258
        49 -11.7214    137.6809     61.3807   5.6271635266e+01   4.2479928353e+01    0.4506115    0.2239618 -49.34  0.001791043    2.315    0.568
        50 -10.0396    195.7195     61.1748   4.5666018178e+01   2.8799457446e+01    0.2019249    0.1625982 -67.67 0.0006117108    1.174    0.148
        51  -9.8610    134.0000    148.5064   8.0689647495e+01   2.5075583481e+01    0.3358493   0.08811063 -49.45  0.000846132    3.747    0.733
        52  -9.1348     86.3082    146.2287   9.3348249461e+01   3.4309631440e+01    0.1418286    0.1171253 -14.31 0.0002478385    1.481    0.325
        53 -13.8364    179.5969     81.8639   5.3565026197e+01   2.9112293581e+01     1.185099     1.119446 -22.87  0.004683151    1.177    0.150
        54 -10.4651    248.7870     45.0555   3.6014381378e+01   1.9867430913e+01    0.2105501     0.161827 -26.81 0.0009917364    1.651    0.394
        55  -9.8982    206.1762     43.8700   4.0113120429e+01   2.8935608207e+01    0.3817345   0.08002606 -45.44   0.00121838    4.128    0.758
        56 -11.7514    249.8045     34.7429   3.3886303728e+01   2.1032274807e+01    0.4375114     0.249359 -27.34   0.00175634    2.275    0.560
        57 -10.6581    237.8301     36.5020   3.5248693173e+01   2.3170453332e+01    0.3359789     0.251334  25.68  0.001514855    2.475    0.596
        58 -10.4425    240.0575     32.4658   3.4232883732e+01   2.3241389951e+01     0.241537    0.1380136 -76.78  0.001002801    1.741    0.426
        59 -10.6678    102.9826     37.9955   5.7078782166e+01   5.3870193560e+01    0.1669377    0.1545666  26.84  0.001008442    1.032    0.031
        60 -12.1343    114.3110     37.1498   5.3868912757e+01   5.1452767458e+01    0.4391091     0.186209  57.36  0.001791466    2.230    0.552
        61 -11.5566    143.8959     31.1283   4.5727883535e+01   4.5243684515e+01    0.2138862    0.1782802 -81.26 0.0007530936    1.252    0.201
        62 -12.3615    186.7507     77.1779   5.1102103023e+01   2.8273500775e+01    0.3491644    0.2935206  65.24 0.0004308499    1.211    0.174
        63 -11.9432    232.3855    207.8730   7.1602901977e+01  -4.0841903010e+00     0.305122    0.2020496 -21.06  0.001643906    1.360    0.265
        64 -12.1923      9.1305    207.5618   1.2074809190e+02   2.8520677394e+01    0.4930936    0.2225164  17.59   0.00225995    3.455    0.711
        65 -11.3727    225.3993    203.8443   7.2128680825e+01  -2.4457955711e+00    0.4122368    0.1961661 -25.69  0.001825739    2.356    0.576
        66 -12.4919    240.0719    199.5235   6.8706539261e+01  -3.8272202748e+00    0.3157475     0.270469  28.35  0.001441327    1.378    0.275
        67 -12.4296    234.6125    196.6665   6.9127443192e+01  -2.6003444485e+00    0.4633623    0.3145584  14.50  0.002646152    1.546    0.353
        68 -11.4526    192.3807    194.4356   7.6772427663e+01   4.3590898613e+00    0.8851494     0.457375 -63.72  0.002529123    6.183    0.838
        69 -11.7135     69.3210    145.6668   9.8226513753e+01   3.7027010298e+01    0.3802739     0.319097  73.34  0.001189881    1.269    0.212
        70 -13.2185      2.4436    192.7501   1.2124908448e+02   3.2485911819e+01    0.7714342    0.2685553 -74.01  0.002878798    2.336    0.572
        71 -15.2074     31.0304    172.5433   1.1273749071e+02   3.4755652878e+01     2.047603     1.537299 -15.63  0.001833954    1.918    0.479
