#   1 NUMBER                 Running object number                                     
#   2 MAG_AUTO               Kron-like elliptical aperture magnitude                    [mag]
#   3 X_IMAGE                Object position along x                                    [pixel]
#   4 Y_IMAGE                Object position along y                                    [pixel]
#   5 X_WORLD                Barycenter position along world x axis                     [deg]
#   6 Y_WORLD                Barycenter position along world y axis                     [deg]
#   7 A_WORLD                Profile RMS along major axis (world units)                 [deg]
#   8 B_WORLD                Profile RMS along minor axis (world units)                 [deg]
#   9 THETA_WORLD            Position angle (CCW/world-x)                               [deg]
#  10 FWHM_WORLD             FWHM assuming a gaussian core                              [deg]
#  11 ELONGATION             A_IMAGE/B_IMAGE                                           
#  12 ELLIPTICITY            1 - B_IMAGE/A_IMAGE                                       
         1 -10.6956     65.7667    234.0416   1.2104561896e+02   1.9656763448e+01    0.1466255    0.1014014  66.53 0.0003291618    1.143    0.125
         2 -16.1911    243.0764    227.6663   8.9196168421e+01  -5.5209250625e+00     3.334386     1.124941 -30.77   0.01663247    3.190    0.687
         3 -21.2152    129.5216    171.9136   1.0129625175e+02   2.1603995745e+01     10.53048     7.773321  43.38   0.04839157    1.257    0.205
         4 -11.1359     92.8902    232.4527   1.1612472593e+02   1.6355881041e+01    0.1700099    0.1196395  71.64 0.0003749731    1.340    0.254
         5  -9.9907    189.3046    232.2585   9.8853107893e+01   1.8984293047e+00    0.1131027   0.07432611  20.04  0.000691337    1.516    0.340
         6 -11.2751     55.9233    232.2735   1.2263509415e+02   2.1158478209e+01    0.1531322    0.1003521  58.61 0.0002703172    1.125    0.111
         7 -11.5895     85.2955    230.2525   1.1729695546e+02   1.7753556314e+01    0.1629528    0.1422684  67.34 0.0009397492    1.196    0.164
         8 -11.7986     79.5001    230.4648   1.1835296978e+02   1.8491775332e+01    0.1847651     0.149901  48.37  0.001069093    1.235    0.190
         9 -10.7486    214.0897    227.0344   9.3849619120e+01  -1.2472646225e+00    0.1627285    0.1252757  22.80  0.001146624    1.005    0.005
        10 -10.3575    208.9194    226.5625   9.4654368110e+01  -4.1188426073e-01    0.1847331     0.132797   0.20 0.0005951999    1.446    0.309
        11 -10.0857     76.7019    227.0621   1.1858026271e+02   1.9435742917e+01    0.1344572    0.1064178  63.54   0.00023219    1.060    0.056
        12 -11.7157     64.8365    226.8017   1.2069082832e+02   2.1003098175e+01    0.1717859    0.1674747   4.04 0.0008295487    1.623    0.384
        13 -10.2335     35.7940    227.1959   1.2580286755e+02   2.4340331004e+01    0.1892442   0.09627604  52.32  0.001252303    1.458    0.314
        14 -10.3555    158.8815    248.4305   1.0615845035e+02   4.4591885467e+00   0.08567727   0.07081094 -72.53 0.0006197862    1.725    0.420
        15 -11.2049     35.2596    221.0503   1.2555859451e+02   2.5484347826e+01    0.3250272    0.1848838 -74.98  0.001711469    1.752    0.429
        16  -9.8097    215.0025    222.2054   9.2953662577e+01  -8.2690957124e-01      0.15768    0.1124828  29.44 0.0003553068    1.122    0.109
        17  -9.7403    218.1580    216.8184   9.1566427525e+01  -6.7613567748e-01    0.1553976    0.1296643  23.68 0.0003083235    1.143    0.125
        18 -10.7351     49.1046    213.0401   1.2256676682e+02   2.5376566815e+01    0.1694592    0.1248771  67.12 0.0006362499    1.013    0.013
        19 -10.5968    223.6302    210.8957   8.9669584728e+01  -8.1738094387e-01    0.1971487     0.143482  33.98 0.0003707047    1.236    0.191
        20 -10.1777    155.4155    248.5697   1.0676685068e+02   4.9520823853e+00    0.1109321   0.08423299  37.92  0.000124384    1.045    0.043
        21 -13.0888     15.3523    167.2029   1.2614487703e+02   3.8101084896e+01    0.3809302    0.2770385 -54.35  0.002078418    1.755    0.430
        22  -7.6961    208.6449    249.5676   9.7966093925e+01  -2.9134282401e+00    0.2674011    0.1753395  63.16  0.001462996    3.383    0.704
        23  -9.8232    124.2813    246.1546   1.1187510717e+02   9.8240694286e+00    0.1643425   0.09284243 -46.69 0.0006577354    2.456    0.593
        24 -11.4759    135.6001    249.4593   1.1025756135e+02   7.7311410664e+00    0.1300244    0.1105002  67.84 0.0005524714    1.289    0.224
        25 -11.8787    235.0299    161.0583   7.8404645840e+01   3.7612617184e+00    0.2878796    0.1879762  48.62   0.00109618    1.745    0.427
        26 -11.1454     21.8586    159.0180   1.2414149429e+02   3.9286369124e+01    0.1888514    0.1520515  66.01 0.0007810414    1.167    0.143
        27 -11.3675     10.5216    158.2134   1.2660019656e+02   4.0453826920e+01    0.1719248    0.1393858  59.91 0.0004193728    1.251    0.200
        28 -11.1047    138.1356    244.8757   1.0934088475e+02   7.9880119132e+00    0.1881595    0.1150765  49.71  0.001176681    1.341    0.254
        29 -10.7589    141.5680    244.5164   1.0870571635e+02   7.5317066801e+00      0.11246   0.08666838  43.45 0.0001470775    1.015    0.014
        30  -8.2826    130.3503    245.6083   1.1076885992e+02   9.0240064640e+00    0.3253443    0.1359534  39.38  0.001755358    1.899    0.473
        31 -12.2275    217.0320    140.1651   7.6989225483e+01   1.0250544192e+01    0.3275378    0.2874809 -13.19 0.0008049854    1.055    0.052
        32 -12.8314    216.8483    133.8884   7.5582254604e+01   1.1285512802e+01    0.3986486    0.3296956 -56.70  0.001982445    1.522    0.343
        33 -11.6246    127.5353    242.4848   1.1093988607e+02   9.8776938121e+00    0.1705631    0.1369951  67.67 0.0002599197    1.287    0.223
        34 -11.1948     26.9929    139.0606   1.2116448722e+02   4.3316275050e+01    0.1827286    0.1447708 -88.61 0.0003357347    1.020    0.020
        35 -11.2940    124.5673    240.0000   1.1120691557e+02   1.0672054521e+01    0.3349943    0.1326341  38.45  0.001540784    2.108    0.526
        36 -10.7720    107.8765    245.8189   1.1467883551e+02   1.2197647534e+01    0.1137168   0.06625279  41.22 0.0003199696    1.385    0.278
        37  99.0000    107.0660    240.1236   1.1430232098e+02   1.3167954106e+01     0.300358     0.166778  42.56  0.001881987    1.423    0.297
        38 -10.5875     34.3260    128.7897   1.1813123232e+02   4.5020625804e+01     0.189256    0.1796789  58.19 0.0004600226    1.277    0.217
        39  -9.7295    117.8355    242.0981   1.1260014069e+02   1.1338498176e+01    0.2620672    0.1853446  63.12  0.001833477    1.346    0.257
        40 -10.3277     19.1986    125.8325   1.2182608365e+02   4.7075473548e+01    0.1781333    0.1301604  87.07 0.0003554515    1.129    0.114
        41 -11.9410     37.6617    120.5202   1.1614553202e+02   4.6658105614e+01    0.3283643    0.2062238  79.85 0.0009180088    1.637    0.389
        42 -10.6746     84.8540    244.5105   1.1852405369e+02   1.5518698760e+01     0.126959   0.08309425  47.04 0.0008885805    1.202    0.168
        43 -10.6874     76.3714    244.3110   1.1995293988e+02   1.6650047931e+01    0.1015975   0.07596844  52.96 0.0002372622    1.114    0.102
        44 -11.4645    111.5830    250.4947   1.1446097863e+02   1.0999879144e+01    0.1796593    0.1602342  21.95  0.001044062    1.486    0.327
        45 -10.3583    239.7971    114.1871   6.7108891577e+01   9.6815243655e+00    0.2050692    0.1771722 -37.60 0.0008667184    1.191    0.160
        46 -10.8062    190.2914    243.1781   1.0016395421e+02   4.4470494522e-01    0.1323198    0.1076352  33.21  0.000233168    1.125    0.111
        47  -9.9869     23.0521    111.6832   1.1913736085e+02   5.0107719868e+01    0.1628233    0.1395154 -89.05 0.0003424388    1.099    0.090
        48 -11.3933     46.1302    242.4394   1.2489324325e+02   2.0613981173e+01    0.1403955    0.1073351  69.92 0.0003818369    1.138    0.121
        49 -10.9914     47.9446    104.9505   1.1065211427e+02   4.9323613161e+01    0.2014802    0.1706269 -77.22 0.0003466196    1.033    0.032
        50 -11.9562    113.8347    246.5825   1.1372076048e+02   1.1250145377e+01    0.2809761    0.1742685  63.98  0.001842566    1.629    0.386
        51 -10.9474     27.2054    105.1087   1.1701591677e+02   5.1333194078e+01    0.2353367      0.16631  52.43 0.0003895166    1.544    0.352
        52 -12.1554    195.5923    240.4085   9.8898005652e+01  -2.0261123652e-02    0.1799655    0.1351334  32.51  0.000399878    1.058    0.055
        53  -9.8626    131.5222    240.0824   1.0998824798e+02   9.6381803246e+00    0.1449803    0.1085285 -79.27 0.0009445637    1.745    0.427
        54 -11.2070     95.5089    239.1935   1.1624791168e+02   1.4918813354e+01     0.240867    0.1283892  65.47  0.001409849    1.976    0.494
        55  99.0000     73.2795    240.2011   1.2018507608e+02   1.7699050248e+01    0.1507306   0.08172006  38.64 0.0009437171    1.687    0.407
        56 -11.1422     76.7351    238.9309   1.1949682874e+02   1.7460797019e+01    0.1565385    0.1185985  40.30 0.0006506673    1.385    0.278
        57  -9.8245     84.9118    239.2984   1.1810706616e+02   1.6331439271e+01    0.1696036    0.0802358  61.01 0.0009508791    2.020    0.505
        58 -11.7479    162.2880     91.3815   7.5350698202e+01   3.1149933336e+01    0.4397109    0.2937785  55.04  0.001921555    1.571    0.364
        59 -10.9402     54.0999     91.6646   1.0602639415e+02   5.1812953755e+01    0.1804499     0.171074 -61.84 0.0008418805    1.117    0.105
        60 -11.2790    189.7399    237.8491   9.9546046287e+01   1.1539977652e+00    0.1567239    0.1235406  18.23 0.0004344024    1.171    0.146
        61 -12.2513    156.2548     87.8161   7.5655679560e+01   3.3280777719e+01     0.321627    0.2913288  11.39 0.0002396247    1.193    0.162
        62 -11.0650     45.5997     88.1093   1.0808297486e+02   5.3645624073e+01    0.2268629     0.198599  12.89 0.0006088082    1.410    0.291
        63 -11.9139     78.0953     85.8152   9.6719333580e+01   4.9843152630e+01    0.3338301    0.2534434  -2.04  0.001647004    1.833    0.455
        64  99.0000     89.0224    237.8927   1.1727525169e+02   1.6006054305e+01    0.2014328    0.1814605  80.98  0.001621418    1.291    0.225
        65 -12.3509    139.3536     80.6901   7.7498923374e+01   3.8685630551e+01    0.4807915    0.3393995  58.44   0.00138845    1.544    0.352
        66 -12.1276     96.5936     80.4704   8.9324953074e+01   4.7850834675e+01     0.320712    0.2493045 -29.90 8.891308e-05    1.365    0.267
        67 -10.9613     69.9824    238.4297   1.2062525907e+02   1.8403879120e+01    0.1404006   0.09276652  49.39 0.0009959419    1.195    0.163
        68  -9.6129     45.1535    250.2783   1.2546582984e+02   1.9470524497e+01   0.07649954   0.06104915 -87.96            0    1.418    0.295
        69 -10.2808     44.6649    237.5708   1.2486854271e+02   2.1582397891e+01    0.1003325   0.07404689  67.79 0.0001803664    1.074    0.069
        70 -10.9438    214.6542    234.3137   9.4839563711e+01  -2.1475312756e+00      0.18304    0.1756056  84.08  0.001261596    1.728    0.421
        71 -10.0506    203.0278    236.3385   9.7078926482e+01  -6.5758369007e-01    0.1423887    0.1117093  23.89  0.001031796    1.043    0.041
        72 -11.8643     60.6570     81.2775   1.0132046678e+02   5.3445704244e+01    0.2512005    0.2203428 -55.45 0.0002248097    1.012    0.012
        73 -11.4127    181.4130    246.5183   1.0209514259e+02   1.3655828820e+00    0.3243524    0.2047694  62.44  0.001864812    2.582    0.613
        74 -12.1856    129.3596     38.8312   6.5325631143e+01   4.8481230978e+01     0.406543    0.2861107  38.54 0.0008890396    1.473    0.321
        75 -10.4729    106.1689    234.8449   1.1396687547e+02   1.4112700116e+01    0.1203464    0.1047108  52.02            0    1.176    0.150
