#   1 NUMBER                 Running object number                                     
#   2 MAG_AUTO               Kron-like elliptical aperture magnitude                    [mag]
#   3 X_IMAGE                Object position along x                                    [pixel]
#   4 Y_IMAGE                Object position along y                                    [pixel]
#   5 X_WORLD                Barycenter position along world x axis                     [deg]
#   6 Y_WORLD                Barycenter position along world y axis                     [deg]
#   7 A_WORLD                Profile RMS along major axis (world units)                 [deg]
#   8 B_WORLD                Profile RMS along minor axis (world units)                 [deg]
#   9 THETA_WORLD            Position angle (CCW/world-x)                               [deg]
#  10 FWHM_WORLD             FWHM assuming a gaussian core                              [deg]
#  11 ELONGATION             A_IMAGE/B_IMAGE                                           
#  12 ELLIPTICITY            1 - B_IMAGE/A_IMAGE                                       
         1  -9.4472    229.4901     20.8523   6.0580111334e+01   2.5580132235e+01    0.3499899    0.2219532 -37.85  0.001572352    1.672    0.402
         2  -7.5349    174.0945      6.8969   6.3582940805e+01   3.9959539489e+01    0.1611315     0.132235  51.63 0.0002763461    1.244    0.196
         3  -7.2612    250.2971    247.6284   1.0432191561e+02  -1.3747867627e+01   0.09737696   0.09659113  89.62 0.0007028542    1.737    0.424
         4  -7.5289    113.0000    243.5894   1.3013207514e+02   9.2131663381e+00     0.244829   0.07254229 -57.48 0.0009264502    3.868    0.741
         5  -8.1789    236.0010    242.7993   1.0606273370e+02  -1.1075726992e+01    0.1773406    0.1373187  54.01  0.001078144    1.935    0.483
         6  -7.0339     31.4704    240.5130   1.4502429530e+02   2.1339831648e+01    0.1115002   0.08704326  77.41 0.0008085034    1.081    0.075
         7 -11.8934    250.1018    233.1309   1.0184353215e+02  -1.1848175853e+01    0.2186601    0.1726997 -17.92 0.0004020227    1.211    0.174
         8  -8.4801     16.9865    233.0913   1.4700513028e+02   2.4392187835e+01    0.1627232    0.1239879  78.85 0.0004806881    1.064    0.060
         9  -7.2422     14.9329    219.9659   1.4646792226e+02   2.7214448404e+01    0.1374606   0.09949294  86.22 0.0005523384    1.066    0.062
        10 -10.0780    163.5608    212.0385   1.1503106768e+02   6.2282100770e+00    0.2540741    0.2293064  40.19  0.000354683    1.017    0.016
        11  -7.5589     37.4401    211.6521   1.4158817881e+02   2.6474124837e+01    0.1562172   0.09748723 -66.05 0.0009335002    1.538    0.350
        12  -7.8439    164.7037    197.1742   1.1211844967e+02   8.8828281164e+00    0.2350367    0.1835741  50.67 0.0004826027    1.260    0.206
        13  -7.4607     39.9434    170.0332   1.3662535603e+02   3.5398283767e+01    0.1809766    0.1357331 -46.12 0.0003655496    1.536    0.349
        14  -7.2285    180.9637    162.0160   1.0144671650e+02   1.2685199731e+01    0.1802769    0.1709424  34.42 0.0004130959    1.034    0.033
        15  -9.3813    111.2274    155.1218   1.1652103339e+02   2.8399491442e+01    0.2932916    0.2434675 -59.83 0.0003623505    1.193    0.162
        16  -6.6768    119.3359    154.2988   1.1430286350e+02   2.7070370287e+01    0.1502829    0.1212187  -6.87 0.0003587356    1.655    0.396
        17  -8.6127    177.0307    149.3379   9.9486432012e+01   1.6133476193e+01    0.2602617    0.2162803 -53.81 0.0002734695    1.261    0.207
        18 -10.1655    223.3401    143.6119   8.8872589611e+01   7.3877393373e+00    0.2695775    0.2612922 -70.42 0.0003667425    1.118    0.105
        19  -6.7535    213.6574    143.3014   9.0605002911e+01   9.4482546242e+00    0.1470699    0.1171468 -81.89  0.000703804    1.676    0.403
        20  -8.7509    109.4525    140.0463   1.1380640316e+02   3.2214862547e+01    0.2512296    0.2099826  42.08 0.0002006004    1.219    0.180
        21  -7.2875    152.8330    132.1999   1.0101677456e+02   2.5079874270e+01     0.206167    0.1812573  12.86  0.000392956    1.283    0.221
        22  -7.8472    170.2014    126.8128   9.5695922353e+01   2.2316640574e+01    0.2225286    0.2076757  84.33 0.0004240216    1.134    0.118
        23  -9.0548    241.8781    125.2487   8.1661154100e+01   6.9466378815e+00     0.238629    0.2117222 -33.81  0.000248569    1.069    0.064
        24  -7.9250    227.8416    124.8639   8.3896646637e+01   9.8844182458e+00    0.2532741    0.1838378 -45.42  0.001284477    1.305    0.234
        25  -7.1937     33.5997    124.1809   1.3160568936e+02   4.6615551760e+01    0.1749254   0.09670873 -53.68 0.0001222903    1.521    0.343
        26  -7.8971    174.8123    121.8999   9.3475320851e+01   2.2263641403e+01    0.2351529    0.2084868  -4.07 0.0004533001    1.285    0.222
        27  -7.1105    127.4322    115.5283   1.0322053176e+02   3.4147975595e+01    0.1526258    0.1465829  -7.14  0.000171937    1.069    0.065
        28  -7.4152     34.8591    119.9197   1.3051376764e+02   4.7461851556e+01    0.1668041    0.1358808 -86.29            0    1.300    0.231
        29  -7.5097     13.5571    113.9984   1.3560961131e+02   5.0559376969e+01    0.1824235   0.09722762 -66.12 0.0004575558    1.526    0.345
        30  -7.0287    153.0000    103.0034   9.3582280523e+01   3.1084472156e+01     0.240921   0.08823596 -41.11 0.0003647811    2.778    0.640
        31  -7.3187    196.4911    102.0611   8.4164121347e+01   2.1045870736e+01    0.2129263     0.146684 -37.72  0.000522099    1.464    0.317
        32  -7.9537    144.1309     81.1845   8.9697016666e+01   3.7237981343e+01    0.2173153    0.1951574  25.06 0.0002730932    1.153    0.133
        33  -8.8636    181.0748     79.9579   8.1494685261e+01   2.8639288825e+01    0.2138789    0.2037666  79.35            0    1.001    0.001
        34  -7.4502    161.0000     78.9835   8.5287570146e+01   3.3647139486e+01    0.2414666    0.0860365 -37.23 0.0007997103    2.924    0.658
        35  -7.7167      5.5293     74.5993   1.3099823377e+02   5.9382575475e+01    0.1123143   0.08992475 -47.38 0.0001637811    1.049    0.046
        36  -7.2939    141.6572     73.2675   8.8015766531e+01   3.9183846415e+01     0.145982    0.1163272  89.16  0.000224872    1.605    0.377
        37  -6.9264     31.0404     73.7765   1.2190236069e+02   5.7669145112e+01    0.1390731   0.09747386  18.94 0.0004026864    1.584    0.369
        38  -9.7229    236.9220     69.4859   7.0144770267e+01   1.7293262761e+01    0.2546147    0.2256764  74.77 0.0004852733    1.158    0.136
        39  -9.1514    240.9294     65.7624   6.8831264031e+01   1.6987777266e+01    0.2850989    0.2279467 -12.06  0.001044762    1.772    0.436
        40  -8.6791    122.7274     64.7854   9.0150809673e+01   4.4842123315e+01    0.3030949    0.2416978  89.56  0.001523942    1.753    0.429
        41  -7.8316    238.2720     58.5724   6.7611262980e+01   1.8634981345e+01    0.1771356    0.1171627  56.58 0.0009458729    1.611    0.379
        42  -7.0545     48.2090     55.9952   1.1060751325e+02   5.9163120901e+01    0.1549297   0.08840261 -41.96 0.0008326831    1.591    0.372
        43  -7.8599    179.1960     53.3777   7.4870115008e+01   3.3260901689e+01    0.2092937    0.1949382 -13.08 0.0006447371    1.252    0.201
        44  -8.3425    152.9252     44.0439   7.7101872005e+01   4.0918445303e+01    0.3912599    0.2367028  27.31 0.0007237195    2.292    0.564
        45  -7.1472     97.5544     45.5730   9.0816138879e+01   5.2947423115e+01    0.1323953    0.1189755  20.86 5.772425e-05    1.042    0.041
        46 -10.2379    134.6426     42.0124   8.0287111250e+01   4.5485213445e+01    0.2663476    0.2207587  45.96 0.0003471397    1.086    0.080
        47  -7.5368    145.6924     38.0236   7.6772873944e+01   4.3410455767e+01    0.1834055    0.1687102  45.90 0.0005184257    1.052    0.050
        48  -7.0437    107.0955    248.0450   1.3180785794e+02   9.3507371988e+00    0.1478043    0.1208779  57.00 0.0003289811    1.013    0.013
        49  -7.7950    202.0776     15.0525   6.2182813241e+01   3.2518421910e+01    0.1860902    0.1569687  85.49 0.0002967021    1.024    0.023
