#   1 NUMBER                 Running object number                                     
#   2 MAG_AUTO               Kron-like elliptical aperture magnitude                    [mag]
#   3 X_IMAGE                Object position along x                                    [pixel]
#   4 Y_IMAGE                Object position along y                                    [pixel]
#   5 X_WORLD                Barycenter position along world x axis                     [deg]
#   6 Y_WORLD                Barycenter position along world y axis                     [deg]
#   7 A_WORLD                Profile RMS along major axis (world units)                 [deg]
#   8 B_WORLD                Profile RMS along minor axis (world units)                 [deg]
#   9 THETA_WORLD            Position angle (CCW/world-x)                               [deg]
#  10 FWHM_WORLD             FWHM assuming a gaussian core                              [deg]
#  11 ELONGATION             A_IMAGE/B_IMAGE                                           
#  12 ELLIPTICITY            1 - B_IMAGE/A_IMAGE                                       
         1 -14.7738    184.2954     43.1819   5.2643885543e+01   3.3539397040e+01     1.241423    0.9711922  18.33  0.004096371    1.613    0.380
         2 -14.6785    207.0366     12.3992   4.1143133756e+01   3.1550122359e+01    0.9026288    0.8320479 -71.09  0.004313598    1.083    0.077
         3 -10.3911    167.8834    248.4653   1.0216160970e+02   3.2048443544e-01    0.1695386    0.1329962 -34.51 0.0007704786    1.588    0.370
         4 -16.2812     53.6185    228.3282   1.2161251453e+02   2.0731071682e+01      8.98207     7.729208  71.70   0.06769286    1.206    0.171
         5 -11.3358    167.1502    226.1808   9.9164747541e+01   3.7653633318e+00    0.1899456    0.1560171  22.34 0.0004882193    1.168    0.144
         6 -12.8273     75.5095    248.0087   1.1918153682e+02   1.4326841130e+01    0.3860955    0.1506792 -63.58  0.002029223    2.849    0.649
         7 -12.0560    192.1650    193.2512   8.8584384294e+01   4.7496143679e+00    0.5742178    0.3165011 -63.44  0.001921832    4.857    0.794
         8 -11.9820     82.3255    194.9360   1.1261954352e+02   2.3594605768e+01    0.3105459    0.2507242  71.52  0.001476609    1.092    0.084
         9 -12.2156     89.9950    212.8840   1.1307884649e+02   1.8767132514e+01    0.3406245    0.2119474  59.20  0.001073264    1.468    0.319
        10 -12.7250    151.5753    193.3176   9.7136229745e+01   1.2259692784e+01    0.3007954    0.2610367  84.80  0.001694888    1.364    0.267
        11 -13.0011    148.9450    187.2377   9.6657781306e+01   1.3927619875e+01    0.3114271     0.278367  73.83  0.001783056    1.226    0.184
        12 -12.8331     67.6023    206.5721   1.1700664171e+02   2.3221142655e+01    0.3996047    0.3014144  -9.57  0.002176276    2.630    0.620
        13 -18.7791     27.6052     99.2222   1.1322677586e+02   5.2550242767e+01      14.4787      1.18841 -66.14    0.0289617   10.381    0.904
        14 -12.6572     66.3936    192.1377   1.1576147110e+02   2.6431527493e+01    0.3651869    0.2520686 -46.51  0.001279434    1.903    0.474
        15 -11.9502    187.1335    175.6969   8.6203909184e+01   8.7826390676e+00    0.3389258     0.297159 -40.26 0.0009999493    1.236    0.191
        16 -12.1528    149.4695    177.0338   9.4690230693e+01   1.5871327150e+01    0.2576829    0.1912398  55.96 0.0003637408    1.404    0.288
        17 -11.7021     83.5967    239.2976   1.1697600610e+02   1.4734537669e+01    0.1881299     0.148867  55.58 0.0003228609    1.081    0.075
        18 -10.5635    185.4870    169.4760   8.5276038905e+01   1.0254690818e+01    0.1460115    0.1355717  17.66 0.0001451315    1.011    0.011
        19 -12.5516     67.8897    248.1797   1.2054077446e+02   1.5310420379e+01    0.2040953    0.1621881 -61.80  0.001056466    1.657    0.396
        20 -11.1961      5.7008    161.8018   1.2625221306e+02   3.9628663958e+01    0.1555705    0.1408212  80.30  0.000325488    1.258    0.205
        21 -12.7285     94.4931    155.8574   1.0407297962e+02   3.0527795809e+01    0.2913762     0.250276 -52.73 0.0004325466    1.217    0.178
        22 -14.1471     99.5979    149.8520   1.0168510857e+02   3.1095299443e+01    0.6221373    0.4935681 -26.94  0.001918197    1.619    0.382
        23 -13.4847    133.8727    145.5784   9.2066015590e+01   2.5715258577e+01     1.204431    0.3189709 -55.17  0.002844172    5.806    0.828
        24 -11.2563     49.2530    206.1528   1.2067626952e+02   2.5651499601e+01    0.2611919    0.1842837 -72.09   0.00105193    1.407    0.289
        25  99.0000     13.1033    205.7586   1.2758791698e+02   2.9631564758e+01    0.3995341    0.1498159  36.58  0.002164774    2.553    0.608
        26 -13.1838    109.7644    136.6869   9.6378292536e+01   3.2415123577e+01    0.5302297    0.3028995 -37.73  0.002147308    2.117    0.528
        27 -13.0282     98.5729    135.9726   9.9244181097e+01   3.4572765330e+01    0.3885251    0.3012088 -48.26  0.001972289    1.289    0.224
        28 -12.4311    113.4606    151.6250   9.8465572172e+01   2.8242440724e+01    0.3348303    0.2309589  83.49  0.001220317    1.986    0.497
        29 -12.8007    106.0497    130.8905   9.6125914352e+01   3.4464393381e+01    0.4277106    0.3504968 -67.48  0.001175577    1.235    0.190
        30 -12.1297    116.4064    128.1600   9.2695821224e+01   3.3167250348e+01    0.2875538    0.2434703  -5.61 0.0007259916    1.454    0.312
        31 -11.6081    104.3893    123.6051   9.4946582919e+01   3.6493973983e+01    0.2869388    0.2448561 -21.78 0.0004742282    1.357    0.263
        32 -10.8602    111.0906    117.6864   9.1662374885e+01   3.6636449953e+01    0.2081464    0.1957019  40.92 0.0004189325    1.100    0.091
        33 -10.7816    231.1445    113.8376   6.3686496905e+01   1.0839441103e+01    0.2165827    0.1922435 -50.99 0.0008013292    1.180    0.152
        34 -10.9873    167.3945    112.3892   7.5847758853e+01   2.5592297215e+01    0.3044468    0.2204513 -80.32  0.001240203    2.078    0.519
        35 -12.0285    119.8593    110.9277   8.7506044318e+01   3.6461696709e+01    0.2962225    0.2429546  62.46  0.001434056    1.361    0.265
        36 -10.7634    205.8026    110.2162   6.7279146516e+01   1.7062481231e+01    0.2102129    0.1784803   8.01 0.0005536499    1.316    0.240
        37 -10.4684     73.3501    103.2909   9.9408972330e+01   4.6434500034e+01    0.1459865    0.1067815 -23.35 0.0004832348    1.670    0.401
        38 -13.6851    169.5788     57.1733   5.9452282430e+01   3.5252678995e+01    0.4884126    0.4620395  86.42 0.0008544447    1.066    0.062
        39 -12.7846     71.5841    240.6110   1.1929089180e+02   1.6148491281e+01    0.2242495    0.1804504 -72.07 0.0009553058    1.449    0.310
        40 -12.2595    248.9053    248.4820   8.7627784065e+01  -1.1714097807e+01    0.2380979    0.1485832 -25.66  0.001594385    1.690    0.408
        41 -13.3298    189.3781     36.7734   5.0004424007e+01   3.3101259917e+01    0.5357043    0.4383369  18.84  0.001352096    1.513    0.339
