#   1 NUMBER                 Running object number                                     
#   2 MAG_AUTO               Kron-like elliptical aperture magnitude                    [mag]
#   3 X_IMAGE                Object position along x                                    [pixel]
#   4 Y_IMAGE                Object position along y                                    [pixel]
#   5 X_WORLD                Barycenter position along world x axis                     [deg]
#   6 Y_WORLD                Barycenter position along world y axis                     [deg]
#   7 A_WORLD                Profile RMS along major axis (world units)                 [deg]
#   8 B_WORLD                Profile RMS along minor axis (world units)                 [deg]
#   9 THETA_WORLD            Position angle (CCW/world-x)                               [deg]
#  10 FWHM_WORLD             FWHM assuming a gaussian core                              [deg]
#  11 ELONGATION             A_IMAGE/B_IMAGE                                           
#  12 ELLIPTICITY            1 - B_IMAGE/A_IMAGE                                       
         1 -10.5936    110.4012     40.7762   2.2702555500e+01   5.1762252212e+01    0.7142118    0.5738243   2.88  0.003683181    1.484    0.326
         2 -11.2508     78.7547     35.4949   3.0367610697e+01   5.9930168361e+01    0.7717063    0.4780017 -26.59  0.003661467    1.780    0.438
         3 -11.9176    104.4810     13.2471   1.3374389489e+01   5.6593862818e+01    0.4850881    0.3518381   0.31  0.002570212    1.679    0.404
         4 -12.3020    105.5748     20.1895   1.5931745026e+01   5.5592543389e+01    0.3879614    0.3381214  -2.70 0.0003941288    1.292    0.226
         5 -11.8434    164.3163     27.6629   7.9945606371e+00   3.9745630549e+01    0.4265687       0.3275 -61.97 0.0004599587    1.283    0.220
         6 -11.7369     20.3132     21.8518   5.3316416495e+01   7.2045910011e+01    0.5866729    0.3301653 -29.62   0.00168208    1.716    0.417
         7 -11.9845     35.8716     19.1720   4.2178673800e+01   7.0462157348e+01    0.7805535    0.4664302 -28.65  0.003888722    1.678    0.404
         8 -11.5428      7.0794     10.2002   5.7104235914e+01   7.5418374028e+01    0.5425398    0.3773805  34.14  0.003364058    1.746    0.427
         9 -12.2372     22.6955     11.1741   4.6020204019e+01   7.3575357238e+01     0.608753    0.4003011   2.32  0.002576233    1.526    0.345
        10 -11.4619     13.1318      8.7363   5.1543604111e+01   7.5092090958e+01    0.6871627    0.2502509 -52.01  0.002879703    3.427    0.708
        11 -11.4488     15.1691     15.8020   5.3876292971e+01   7.3671313749e+01    0.3908618    0.2328335 -21.00  0.001645839    1.653    0.395
        12 -11.2370     17.1465     10.6354   4.9631644911e+01   7.4337675597e+01    0.2948425    0.2150404 -33.40  0.000881946    1.300    0.231
        13 -12.2145    164.7857     18.0844   5.1404439264e+00   4.0685638458e+01    0.5729851    0.2819659  46.96  0.002511853    2.350    0.574
        14 -11.3839     86.1348     14.0368   1.8373005627e+01   6.1007674982e+01     0.666106    0.3561525  14.85  0.002662317    2.980    0.664
        15 -10.5381     89.3737      8.5282   1.4988311652e+01   6.0778637174e+01    0.3263938    0.2264857 -18.88  0.001199655    1.633    0.388
        16 -11.7137    128.4282     12.2070   8.3739084108e+00   5.0577121252e+01    0.4710715    0.2653274 -69.41  0.002055462    2.306    0.566
        17 -11.2740    133.0197     15.4737   8.7605238008e+00   4.9072642333e+01    0.4090057    0.2629184  41.03  0.001623676    1.696    0.410
        18 -11.2999    137.2312     14.5935   7.7949351597e+00   4.8073331746e+01    0.3771503    0.2433296  59.74  0.001234684    1.382    0.276
        19 -11.5770    227.9347     15.1272   3.5872019511e+02   2.6445543831e+01     0.397767    0.2006813 -68.65   0.00135274    1.942    0.485
        20 -12.2393     49.0641     13.0286   3.1787570402e+01   6.9100223157e+01    0.6299066    0.2497092  45.85  0.002709064    2.304    0.566
        21 -11.9973    191.9636      9.4138   6.1413498629e-02   3.4966781716e+01    0.5790167    0.3015516  -8.65  0.002540478    3.241    0.691
        22 -12.0452    212.1381      9.2257   3.5847946404e+02   3.0415551202e+01    0.5238299    0.3399743 -14.79    0.0029652    2.066    0.516
        23 -11.6355    168.8041      9.6329   2.2691911431e+00   4.0532467271e+01    0.4434515    0.2505875  58.82  0.001433755    1.706    0.414
        24 -10.7461    163.5857      9.2640   2.7166015032e+00   4.1867644722e+01    0.2385926    0.1681545 -24.26  0.001321961    1.626    0.385
        25 -11.1067    164.8081      4.4811   1.2109246826e+00   4.2004009474e+01    0.3634695    0.2170567  38.48  0.001626539    2.195    0.544
        26 -10.9984     64.2987     10.1540   2.3684624443e+01   6.6375078359e+01    0.2610004    0.2354708  45.67 0.0003522102    1.149    0.130
        27 -10.5770     62.9057      6.5043   2.2268095288e+01   6.7061316736e+01    0.3748223    0.1969547  56.23  0.001811757    1.783    0.439
        28 -10.5286    145.3742      9.1812   4.8626111596e+00   4.6495488321e+01    0.2940522    0.1775909   4.47  0.001352976    2.524    0.604
        29 -10.2066      1.1960      8.6179   6.1124200579e+01   7.6155305008e+01    0.3222463   0.07631457 -54.77  0.001252127    3.711    0.731
        30 -11.9617    184.5424      6.1662   3.5985362651e+02   3.7033963739e+01    0.4330551    0.2315021 -59.84  0.002194817    1.796    0.443
        31 -11.6117    156.4962      7.5179   2.9886299218e+00   4.3814835519e+01    0.3171225    0.1962783  61.93  0.001351569    1.479    0.324
        32  -9.7467     78.0329      7.5292   1.7695017998e+01   6.3568089911e+01    0.2035785    0.1205456  60.75  0.000594277    1.553    0.356
        33  -9.6358    231.6468      6.2582   3.5659264034e+02   2.6597692280e+01    0.1654463     0.127299 -49.90 0.0005259436    1.140    0.122
        34 -10.5536    233.4284      2.6013   3.5572818192e+02   2.6599050218e+01    0.3333408    0.1406522 -58.29  0.001260932    2.029    0.507
        35 -11.3329    176.0541      5.7507   4.9030700655e-01   3.9118068880e+01     0.312889     0.194471 -82.55  0.001117612    1.513    0.339
        36 -11.9558    137.8518      4.1636   4.2175722622e+00   4.8871832507e+01    0.5845782    0.2263962  63.92 0.0004284527    2.103    0.525
        37 -11.8672    133.1058      2.5554   4.3146883152e+00   5.0226385465e+01    0.3553757     0.292763  58.69   0.00157476    1.152    0.132
        38 -11.4096    114.4438      2.7940   7.2659795495e+00   5.5000411059e+01    0.4749737    0.2929342 -88.85  0.001895029    1.787    0.440
        39 -10.8322     41.7479      3.6648   2.9952974640e+01   7.1598839964e+01    0.3814253    0.2149251  18.74  0.001880358    2.054    0.513
        40 -10.4713    218.5387      3.4981   3.5676875190e+02   2.9598733090e+01    0.2150382    0.1716353 -73.14 0.0008074379    1.046    0.044
        41 -10.3158    223.6362      2.9065   3.5633684656e+02   2.8579302550e+01    0.2114722    0.1428267 -78.20 0.0004319714    1.282    0.220
        42 -11.0669    207.4950      2.5120   3.5724213567e+02   3.2095949767e+01    0.3523282    0.1708425  79.55  0.001841301    1.909    0.476
        43 -10.2282    204.1858      1.5815   3.5724303231e+02   3.2921390680e+01     0.280751    0.1213928  71.96 0.0009809642    2.123    0.529
        44 -10.3594     72.8397      3.1721   1.7115218986e+01   6.5170473883e+01    0.2676782    0.1308019  50.98  0.001207622    1.675    0.403
        45 -10.7181     68.1671     19.3965   2.6908647892e+01   6.4454629544e+01    0.3265586    0.3008592 -49.73   0.00192693    1.343    0.255
        46 -10.5594      2.0774      2.0742   5.6776310336e+01   7.7237261536e+01    0.2446324     0.144401 -25.62  0.001133382    1.470    0.320
        47 -10.4572    105.3918      1.8782   8.5467259581e+00   5.7374916980e+01    0.2597285    0.1723203  85.97 0.0008596906    1.587    0.370
        48  -9.8426     64.3808      2.0754   1.9335486393e+01   6.7170101548e+01    0.1687548    0.1489662   9.77 0.0005269359    1.159    0.138
        49  -9.3289    245.7936      1.3173   3.5484424225e+02   2.4297478858e+01    0.1336831   0.08925635  76.80 0.0002562117    1.565    0.361
        50  -9.3642    160.3373      1.3107   7.4056753561e-01   4.3398042043e+01    0.1338304   0.08836486  47.57 0.0007044689    1.686    0.407
        51  -9.8057    152.0252      1.4480   1.6472193001e+00   4.5480339647e+01    0.2026302    0.1139999  75.56 0.0005582497    1.539    0.350
        52  -9.4983     82.0169      1.1535   1.3483202852e+01   6.3194409770e+01    0.1875331   0.08264493  62.16 0.0004931516    1.948    0.487
        53  -9.9771    122.9727      1.0000   5.2216053779e+00   5.2956941832e+01    0.3845834   0.06716182  70.66  0.001046765    4.893    0.796
        54 -11.1760     17.2906    100.7028   7.6569496479e+01   5.4291257689e+01    0.3423472     0.242868  41.87  0.000492643    1.521    0.343
        55  -9.1952    249.3396    250.3216   4.2075285370e+01  -8.1801988956e+00    0.1125919   0.05927213   0.36 0.0007050449    1.718    0.418
        56 -12.0586     25.9499    105.8861   7.3960616526e+01   5.2290083272e+01    0.8511346    0.5790821 -66.47  0.004461368    1.339    0.253
        57 -11.2562     28.2026    113.0040   7.4200098166e+01   5.0264851950e+01    0.3393643    0.2929446  11.54 0.0009988438    1.275    0.215
        58 -10.3610      7.5146    114.4937   8.1967512876e+01   5.1409446412e+01    0.2771074    0.1930079 -52.97 0.0008443776    1.369    0.269
        59 -12.1978      2.5921    111.6673   8.3457217100e+01   5.2396847724e+01    0.4362345     0.330452 -86.49  0.001363753    1.191    0.160
        60 -11.4138      4.2319    105.6213   8.2243969212e+01   5.3840045704e+01     0.410977    0.3199371  17.46  0.002017688    1.452    0.311
        61  -9.7635     12.8825    115.0000   8.0090224777e+01   5.0943645851e+01    0.2007227   0.07652329  16.60 0.0008001709    2.927    0.658
        62  -9.8788     48.9057    112.1460   6.6339636860e+01   4.8293655911e+01    0.2237745    0.1907251  59.11  0.000725315    1.244    0.196
        63 -11.1151     16.2613    109.6303   7.8193898945e+01   5.2084751605e+01    0.3740892    0.2191404  34.48 0.0007723296    1.785    0.440
        64 -11.5561     80.1181    108.1807   5.4184130637e+01   4.4666828427e+01    0.3857344    0.3074314  18.20 0.0007454627    1.363    0.267
        65  -9.3132     45.5126    105.5684   6.6329976101e+01   5.0381303403e+01    0.1413696    0.1358027 -51.54 6.637024e-05    1.014    0.014
        66  -9.5958     85.8806    103.3403   5.0969996122e+01   4.4805988807e+01    0.2150093    0.1906053  28.93 0.0005133084    1.125    0.111
        67 -10.8319     51.5083     99.9134   6.2803770382e+01   5.1066805723e+01    0.5413615      0.27492 -39.80  0.002168936    2.210    0.548
        68 -12.3260    246.8370     96.7456   1.4505621619e+01   1.2419112053e+01    0.5874867     0.379845  -4.19  0.003027379    2.370    0.578
        69 -11.4089     22.1589    114.3707   7.6630109329e+01   5.0425068218e+01    0.5052493    0.2674997   1.94  0.002212269    2.501    0.600
        70 -11.7583      8.9747     96.8925   7.9364605883e+01   5.5789418554e+01    0.4087584    0.3310269  29.13 0.0005109759    1.366    0.268
        71  -9.7319    210.1149     98.3334   1.9784084350e+01   1.9029360744e+01    0.1720151    0.1696094 -82.42 0.0004230739    1.103    0.094
        72 -11.2253     79.1832     92.2331   5.0329420100e+01   4.8634973052e+01    0.6896001    0.5433465 -66.79  0.003355818    1.445    0.308
        73 -12.1035     67.1660     95.0012   5.5553027261e+01   5.0014298569e+01    0.4317116    0.3586858  26.20  0.001084378    1.220    0.181
        74 -10.5263     30.4303     96.5336   7.0566833718e+01   5.4276068598e+01    0.3040238    0.2351216  63.55  0.001017111    1.473    0.321
        75 -11.9655    126.0230     94.5742   3.6126902708e+01   3.8420973621e+01    0.2637464    0.2520725 -39.75 0.0001966192    1.071    0.067
        76 -11.7675     43.0890     91.1691   6.4216413902e+01   5.4292833739e+01    0.4864063    0.2747177 -67.40 0.0004480526    1.850    0.460
        77 -10.0987     39.3606     90.3017   6.5578905262e+01   5.4933826707e+01    0.2264095    0.1802848 -30.91 0.0008968832    1.280    0.219
        78 -11.1072     23.2097     94.3954   7.3157899127e+01   5.5445470354e+01    0.3503382    0.2939891   3.23  0.001537327    1.301    0.232
        79 -10.7618     19.1915     91.8292   7.4398050314e+01   5.6403520032e+01    0.2482078    0.1786754 -61.00  0.001360482    1.234    0.190
        80 -10.8933     26.8025     85.8520   7.0018141261e+01   5.7289230404e+01    0.5654209    0.4614047 -44.29  0.002130809    1.138    0.121
        81 -10.6108     19.0980     86.1741   7.3450167693e+01   5.7829871869e+01    0.4241873    0.2160604   2.93  0.001875556    2.428    0.588
        82 -10.3414     35.6009     92.6548   6.7661797653e+01   5.4747325293e+01    0.2675576    0.2303481 -88.77  0.001236171    1.253    0.202
        83 -10.8340     98.2449     90.9773   4.3385492314e+01   4.5233065260e+01    0.2624267    0.2165088  34.78 0.0002694971    1.196    0.164
        84 -10.0905     50.8075     91.4055   6.1093570726e+01   5.3273001531e+01    0.2000785    0.1395514   9.94 0.0009444626    1.652    0.395
        85 -11.7354      6.4940     88.2588   7.9220949821e+01   5.8093726861e+01      0.63393     0.374183   0.46  0.003246193    1.972    0.493
        86  -9.8210     67.1079     88.2079   5.3745735398e+01   5.1647003807e+01    0.2329166    0.1971816 -19.94  0.000754566    1.253    0.202
        87 -10.0577     90.3468     85.8624   4.4513824871e+01   4.7961466099e+01    0.3735068    0.2629824 -68.84  0.001619167    1.895    0.472
        88 -10.1615     52.0750     87.0682   5.9483441597e+01   5.4163254087e+01    0.2119894    0.2000768 -43.98 0.0003333773    1.032    0.031
        89 -11.5907     45.0462     84.3634   6.1753504587e+01   5.5731100504e+01    0.4943256    0.4251212  19.81  0.001847584    1.198    0.165
        90 -10.1724     37.0437     85.6003   6.5501082352e+01   5.6351773190e+01    0.3469534    0.1914649  19.72  0.001114713    1.964    0.491
        91 -10.3595    143.1172     84.2206   2.8802935006e+01   3.6468124676e+01    0.2398679    0.2120561 -40.98 0.0004489425    1.151    0.131
        92 -12.6314     75.7874     79.4360   4.7817596665e+01   5.2166562373e+01    0.7382215    0.5232835  66.63  0.003253773    2.001    0.500
        93 -12.0733    247.7491     77.0686   1.0292316729e+01   1.4986021794e+01    0.3519269    0.2623426 -64.26  0.002239963    1.406    0.289
        94  -8.3239    113.6456     83.2993   3.6292756727e+01   4.3525246171e+01    0.1590088    0.1246571  85.36 0.0004676367    1.700    0.412
        95  -9.6252     92.5170     71.4782   3.9189713915e+01   5.0555499199e+01    0.2123789    0.1485912 -52.33 0.0006968433    1.585    0.369
        96 -10.5825     89.1303     77.7098   4.2400910982e+01   4.9968470637e+01     0.442735    0.2784852  45.70  0.001285911    1.581    0.367
        97 -10.1026     94.3522     76.1687   4.0112207067e+01   4.9209965101e+01    0.2822669    0.2540736  39.11 0.0008227556    1.078    0.072
        98 -10.9510     53.5836     76.7832   5.6021975966e+01   5.6398191154e+01    0.4147328     0.300994 -54.66  0.002088418    1.373    0.272
        99 -10.5951     52.4942     72.7707   5.5303343453e+01   5.7480777073e+01    0.3102178    0.2416965 -37.71 0.0009043521    1.243    0.195
       100  -9.8156     58.0694     77.5438   5.4338546061e+01   5.5559642273e+01    0.2218092    0.1907664 -44.06 0.0006160999    1.134    0.118
       101  -9.9608     46.8468     75.3574   5.8557732187e+01   5.7655739376e+01    0.2990893    0.1576525 -41.79 0.0009318604    1.889    0.471
       102 -10.9901     13.9828     74.6573   7.3611625348e+01   6.1027813831e+01    0.3465885    0.2606091 -84.72  0.001963955    1.426    0.299
       103 -11.1616     27.3695     73.2600   6.6967316707e+01   6.0323693805e+01    0.4880117    0.3122932 -12.87  0.001183822    1.813    0.449
       104 -10.5491     34.7129     71.6907   6.3099944540e+01   5.9967359635e+01    0.4459994    0.1854006  39.58  0.001765983    2.685    0.628
       105 -10.2818     40.7654     72.9814   6.0637929064e+01   5.8975565164e+01    0.3364899    0.2104539   7.06  0.001311921    1.901    0.474
       106 -11.0944     40.5663     68.9859   5.9592260382e+01   5.9931851671e+01    0.3129326    0.2816189  34.77 0.0006661694    1.207    0.171
       107 -10.0230     67.4720     80.8667   5.1486321122e+01   5.3295538612e+01    0.3534004    0.2432744 -15.42  0.001558653    1.911    0.477
       108 -10.0460     80.6634     72.2377   4.3669828063e+01   5.2808256741e+01    0.3825436    0.1804659 -48.10  0.001470255    2.207    0.547
       109 -10.3180    122.6601     68.8524   2.9211367224e+01   4.4189968004e+01    0.4062929    0.2037115  51.90  0.001589023    1.915    0.478
       110 -10.7077      2.0931     71.3356   7.8667630301e+01   6.2469239428e+01    0.3482425    0.1950028 -64.55  0.001543642    1.496    0.332
       111  -9.9860     13.7559     67.4105   7.2239913297e+01   6.2794962678e+01    0.3107468    0.1295766  10.99  0.001315537    2.718    0.632
       112  -9.8016     96.4212     65.7661   3.5936755206e+01   5.0835883485e+01    0.2407385    0.1903885 -41.59 0.0004155682    1.320    0.242
       113 -11.0499     92.4507     62.4908   3.6114216965e+01   5.2327392125e+01    0.4146153    0.2922814  58.55 0.0006726452    1.587    0.370
       114 -12.4447      5.8094     61.8083   7.5102207557e+01   6.4584213950e+01    0.6555842    0.3953465 -12.39  0.003503596    1.789    0.441
       115 -10.5112      9.5287     56.5287   7.1982038586e+01   6.5622142460e+01    0.2770516    0.2241453  45.87  0.001084442    1.495    0.331
       116  -8.9501     51.6587     65.7394   5.3468324562e+01   5.9185566871e+01    0.1452065    0.1053578 -10.83 0.0003369368    1.590    0.371
       117  -9.6166    201.7802     64.5914   1.2875030905e+01   2.5937556657e+01    0.1829847    0.1268209  82.48 0.0004984508    1.633    0.388
       118  -9.8991    158.7760     62.9144   1.9259673433e+01   3.6316433273e+01     0.252373    0.1818272  49.99 0.0003771726    1.394    0.283
       119  -9.6719    105.0225     63.5055   3.2432846453e+01   4.9320182660e+01    0.2325912    0.1454551  50.37 0.0005781251    1.540    0.351
       120 -11.8271     41.5581     58.3206   5.5779659223e+01   6.2209432182e+01    0.6592923     0.439335 -84.06  0.002263156    2.673    0.626
       121 -11.8751     46.4756     59.4654   5.3786825113e+01   6.1299555852e+01      0.79717    0.3764338  37.30  0.003391896    2.166    0.538
       122  -9.7156     84.5057     62.0034   3.8722125723e+01   5.4107408827e+01    0.2234921    0.1478838 -42.76 0.0009448998    1.571    0.363
       123  -9.9258    113.8253     60.6847   2.8897331737e+01   4.7754734902e+01    0.2604601    0.2066891 -21.97 0.0007623474    1.412    0.292
       124 -10.6341     31.4774     53.2024   5.9207656556e+01   6.4535228440e+01    0.4447947    0.1883452  22.66  0.001364301    2.485    0.598
       125 -10.1643     29.7481     59.9933   6.2238245456e+01   6.3203164907e+01    0.3308365    0.2008355 -64.18  0.001620347    1.752    0.429
       126 -10.3851     25.9818     59.5017   6.4031951273e+01   6.3684333875e+01    0.3726028    0.2093581  21.22  0.001781869    1.844    0.458
       127 -10.9704     25.4098     55.7694   6.3235403382e+01   6.4585255103e+01    0.3341553    0.2075693 -43.30 0.0008998524    1.440    0.306
       128 -11.4427     72.6914     47.2145   3.7578022658e+01   5.9259446908e+01    0.6853994    0.3152126 -51.58  0.001381436    3.007    0.667
       129 -10.0210    118.7168     56.6824   2.6203156985e+01   4.7251202333e+01    0.3002872    0.1841024  77.13  0.001131865    2.429    0.588
       130 -10.5345     14.0335     56.2976   6.9489805407e+01   6.5390151944e+01      0.29451      0.18965 -26.12 0.0004472583    1.528    0.345
       131 -10.2599     88.0038     55.3985   3.5060309865e+01   5.4604443945e+01     0.468264    0.1789723 -32.08  0.001507902    3.432    0.709
       132 -11.9061     76.4899     52.9468   3.8350671852e+01   5.7458918858e+01    0.5709586     0.400465 -26.14 0.0009061387    1.562    0.360
       133  -9.5586    124.5306     56.5077   2.4660551246e+01   4.5851288746e+01    0.1503911    0.1424378  54.87  0.000407585    1.005    0.005
       134  -9.2961    100.6753     55.3503   3.0878222383e+01   5.1775083258e+01    0.1529875     0.119811 -81.40 0.0003241462    1.754    0.430
       135 -10.9498     60.8015     48.8165   4.3213659963e+01   6.1203687781e+01    0.8035597    0.3244256 -39.32   0.00307439    2.580    0.612
       136  -9.5850     55.6625     50.4013   4.6157610687e+01   6.1776540314e+01    0.1846688     0.128653  22.76 0.0003444674    1.456    0.313
       137 -11.1348    154.9741     49.0780   1.5845944419e+01   3.9336508463e+01    0.3069477    0.2149822 -20.87 0.0004297947    1.691    0.409
       138 -10.6366     47.0006     48.7039   4.9626228755e+01   6.3473486097e+01    0.5395119     0.317483 -17.57  0.002317006    2.340    0.573
       139 -11.9860     43.2567     44.3346   4.9789351485e+01   6.4889667421e+01    0.5753013    0.4184588  31.00 0.0007446228    1.367    0.269
       140  -9.8773     10.9752     51.6295   6.9967514655e+01   6.6660339314e+01    0.2008061     0.161879 -69.53 0.0003691472    1.301    0.231
       141 -10.1597    243.5351     51.4615   5.3051973983e+00   1.9114208686e+01    0.1213608   0.09859791 -52.30 0.0001011553    1.009    0.009
       142 -10.2031     50.3226    249.6710   8.1143636365e+01   1.6654104247e+01    0.1263821   0.06412306  54.25 0.0007049225    1.694    0.410
       143 -12.0548    117.2101     45.6158   2.2717629468e+01   4.9366680406e+01    0.8135328    0.5598889  10.56  0.003593825    2.093    0.522
       144 -10.8614    120.3005     40.3712   2.0088541421e+01   4.9353366510e+01    0.3301355    0.1923607  37.30 0.0005750128    1.960    0.490
       145 -11.8648    119.1164     36.9031   1.9117855758e+01   5.0128882464e+01    0.4509036    0.3547776 -68.32  0.001569882    1.488    0.328
       146 -10.0576    122.8065     44.8573   2.1082762711e+01   4.8081062545e+01    0.3867361    0.1754546  54.47  0.001211166    1.995    0.499
       147  -9.4009    189.0571     49.6824   1.0775649947e+01   3.0930116629e+01    0.1831811    0.1644924  88.53 0.0003356105    1.073    0.068
       148  -9.3089    144.8352     50.3975   1.8156855921e+01   4.1703066270e+01    0.2004354    0.1278477  50.54 0.0003881256    1.525    0.344
       149  -9.8667      2.0239     48.9866   7.4404988203e+01   6.7740498359e+01    0.1925652    0.1639597 -43.40 0.0007097311    1.024    0.024
       150  -9.7944     52.0963     48.2036   4.6963815830e+01   6.2787499851e+01    0.2127044    0.1748535  -1.40 0.0004621549    1.201    0.168
       151 -10.2434     13.1648     46.5202   6.7293054288e+01   6.7661508110e+01    0.3591486    0.1650352 -28.97  0.001598886    2.335    0.572
       152  -9.9297     17.8821     41.0130   6.2737155640e+01   6.8490407960e+01    0.3174381    0.1555115 -45.55   0.00115067    1.756    0.431
       153 -11.2044     20.8384     45.7967   6.2615469374e+01   6.7206885806e+01    0.3601648    0.2395064 -31.60 0.0008494993    1.387    0.279
       154 -10.8379     31.0047     44.9214   5.6560387767e+01   6.6355336026e+01    0.4342884    0.2605029   3.93  0.002100432    1.947    0.486
       155 -10.6518     26.1653     42.7515   5.8488004995e+01   6.7337843166e+01    0.3247791    0.2666266 -75.91   0.00116242    1.613    0.380
       156 -10.4174     23.2725     37.2442   5.8110073877e+01   6.8770265287e+01    0.4535333    0.1707376  37.10  0.001853031    3.027    0.670
       157  -9.1423    146.7769     45.9515   1.6382221771e+01   4.1850397877e+01    0.1783928    0.1212107 -31.28  0.000435554    1.575    0.365
       158  -9.8610    200.6522     45.3046   8.2203495176e+00   2.8836177723e+01     0.143023   0.08927099 -65.68  0.000704135    1.696    0.411
       159 -10.0409    156.1424     42.2529   1.3577953582e+01   3.9985582441e+01    0.2321051    0.1996661 -14.34 0.0009601601    1.363    0.266
       160  -9.3084    140.4871     43.5751   1.6832225888e+01   4.3782095819e+01    0.1471069    0.1332888  86.05 9.098715e-05    1.077    0.072
       161 -10.7198     98.1716     41.5321   2.6432001645e+01   5.4604451739e+01    0.2571524    0.2398599  50.58 0.0002339956    1.052    0.050
       162 -10.1544     56.8897     41.9390   4.2152709996e+01   6.3167517221e+01    0.2685507    0.1937953  41.88 0.0009114624    1.411    0.291
       163 -10.7127      9.7388     30.4715   6.4134580521e+01   7.1329647212e+01    0.5545627    0.2840044   3.11  0.002782071    2.110    0.526
       164 -11.0039      4.3059     35.7577   6.9498666443e+01   7.0561483091e+01    0.4615913    0.3528565 -75.32   0.00286024    1.521    0.343
       165  -9.8198    229.3347    248.3214   4.5073440489e+01  -5.8454773396e+00    0.1167438   0.06423792   1.55 0.0007050045    1.705    0.414
       166 -11.0202     60.7248     36.6000   3.8100383296e+01   6.3406388134e+01    0.3711894    0.2738566 -11.52 0.0007960619    1.486    0.327
       167 -10.5231    153.2129     35.9017   1.2120030488e+01   4.1556314462e+01    0.2612667    0.1890186  60.99 0.0003174039    1.293    0.227
       168 -11.4369    175.5519     31.9709   7.7537836466e+00   3.6447086329e+01    0.5745019    0.4429446 -13.72  0.002712095    1.613    0.380
       169  -9.5015    219.3216    248.3353   4.6800940152e+01  -4.7190803492e+00    0.1183961   0.06659509   1.19  0.000705019    1.707    0.414
       170 -10.2714    131.8722    240.9056   6.2887751089e+01   7.6721851997e+00    0.1917526    0.1475341  13.32  0.000725548    1.240    0.194
       171 -12.4714    104.4997     32.6003   2.1135206739e+01   5.4347875349e+01    0.7616049    0.3581463  48.27  0.003150468    1.928    0.481
       172 -12.4227    113.9664     25.0014   1.5877103314e+01   5.2931823126e+01     1.341195    0.3076469  58.08  0.004204397    3.378    0.704
       173  -9.6754     70.5514     33.4670   3.2583598298e+01   6.1976932750e+01    0.2223024    0.1945629  34.80 3.191771e-06    1.069    0.065
       174  -9.9370     67.3773     32.3078   3.3336289966e+01   6.2803380417e+01    0.2853649    0.1913839  17.43  0.001378912    1.737    0.424
       175 -10.1080    217.0048     32.0902   3.3740959036e+00   2.6855651364e+01    0.1874714    0.1571647 -60.57 0.0003476039    1.018    0.018
       176 -10.3115     59.8642     22.8988   3.2029888351e+01   6.5691430342e+01    0.3345685    0.1867781 -28.22  0.001175546    1.918    0.479
       177 -12.2643     58.1063     29.8748   3.6189749561e+01   6.4989908863e+01    0.3908627    0.3004569   0.68  0.001153366    1.360    0.265
       178 -11.6307     49.1063     30.3641   4.0695208309e+01   6.6520055673e+01    0.6829225    0.3362975  39.62  0.002807612    1.946    0.486
       179 -11.3775    158.7677     29.2985   9.2547760063e+00   4.0953549297e+01    0.5483931    0.2322869  73.80  0.002135515    2.460    0.594
       180 -10.9137     67.7438    240.7718   7.6814657299e+01   1.6215318002e+01    0.2122313    0.1730052   8.47  0.001028527    1.503    0.335
       181  -9.9004    135.3416     30.3650   1.3439348640e+01   4.6822769353e+01    0.2361725    0.1843183  -0.81  0.001223171    1.617    0.382
       182 -11.7999     26.5735     28.3257   5.2329231997e+01   7.0144465974e+01    0.4490499    0.3442103 -62.72  0.002010202    1.773    0.436
       183 -10.7238    147.4275    239.0619   5.9364698596e+01   5.7989583113e+00    0.2511022    0.1877756  53.77  0.001412377    1.723    0.420
       184 -11.3225    188.6946     27.4430   5.0000483513e+00   3.3808469632e+01    0.3465423    0.2869586  35.58  0.001355757    1.534    0.348
       185 -12.4978    125.5403     27.5082   1.4342088190e+01   4.9684562574e+01    0.4509144    0.3604194 -78.67 0.0008527373    1.373    0.271
       186 -10.7159    230.4114     27.0144   1.1304727958e+00   2.4633753010e+01    0.2427578    0.1695462  72.42   0.00102794    1.501    0.334
       187 -11.6842    183.0470     25.5636   5.1190875619e+00   3.5373323803e+01    0.2972925    0.2404827 -79.70  0.001086614    1.123    0.110
       188 -10.3605    150.7534     27.1407   9.7863930061e+00   4.3246052584e+01    0.2866105    0.1511897  45.09  0.001240508    2.116    0.527
       189 -10.6926     72.5066    237.5179   7.5505930305e+01   1.6224491213e+01    0.2324701    0.1839077  42.36  0.001535668    1.009    0.009
       190 -10.9778    143.2254     25.3984   1.0419449610e+01   4.5377684515e+01    0.2933294    0.1655999  71.30 0.0009621424    1.662    0.398
       191 -10.1871    155.5313     24.5250   8.2720448700e+00   4.2325182336e+01    0.3293891    0.1324374  79.70  0.001156314    3.080    0.675
       192 -10.7788    155.2579     21.0086   7.2357284816e+00   4.2782169233e+01    0.3370966      0.22689  32.51  0.001670239    1.929    0.482
       193  -9.7927    170.7943     23.3883   5.9368988080e+00   3.8613988565e+01    0.1887977    0.1124038  61.47 0.0004725726    1.586    0.370
       194 -11.4380    134.4683     22.2423   1.0837008094e+01   4.7987747592e+01    0.5241344    0.2142665  69.86  0.002023295    2.360    0.576
       195  -9.8714     13.9573     22.6893   5.8059242568e+01   7.2525382857e+01    0.1711162    0.1386355   0.34 0.0002652573    1.138    0.121
       196 -11.3199    179.0684     20.7061   4.2462412229e+00   3.6875986916e+01    0.5392039    0.2317662  47.55   0.00218995    2.907    0.656
       197 -11.2691    148.6981     22.2293   8.5512125437e+00   4.4325554685e+01    0.3171793    0.1690792  58.54  0.001463589    1.696    0.410
       198  -9.2334     15.6682    233.6601   8.7518440723e+01   2.3244578694e+01    0.1009645    0.0852556 -34.28 0.0007051639    1.745    0.427
       199  -9.8592    248.7599    223.9641   3.8120507188e+01  -5.1991573078e+00     0.140052   0.07570316 -26.82  0.000735925    1.612    0.380
       200  -9.3546     44.5451    215.4761   8.0102038153e+01   2.3908893502e+01    0.1244922    0.1037478  52.38 0.0002822483    1.024    0.024
       201 -10.0614      5.5454     22.4460   6.3958221979e+01   7.3236364502e+01    0.2011607    0.1668155  14.86 0.0009103052    1.311    0.237
       202 -11.0922      8.8888     19.8702   6.0418694123e+01   7.3492125908e+01    0.3393924    0.2001068  -7.03  0.001356737    1.715    0.417
       203  -9.2905    164.4673    211.5253   5.1762875825e+01   7.7410471015e+00    0.1322928    0.1101263  17.12 0.0004156411    1.019    0.018
       204 -10.6780      8.7175    211.0260   8.8056680835e+01   2.8417474395e+01     0.169725    0.1334988  69.55  0.001108891    1.081    0.075
       205 -10.2140    216.5735     20.0225   6.3066600348e-01   2.8318099814e+01    0.1830726    0.1468894 -79.54 0.0004015155    1.113    0.102
       206  -9.4182    171.5104    208.5416   4.9795068236e+01   7.1642700754e+00    0.1333114    0.1088483  12.29 0.0003536043    1.031    0.030
       207  -9.7743     46.0762     20.0486   3.7076844188e+01   6.8664164523e+01    0.1887682    0.1680189  75.35   0.00112591    1.691    0.408
       208  -9.6536    143.6564     19.6938   8.4968096942e+00   4.5894103066e+01    0.1453479   0.09591323  41.62 0.0004931964    1.690    0.408
       209  -9.8437     74.7403     19.2835   2.4447240707e+01   6.3036775914e+01    0.1925404    0.1433628  22.98  0.000960513    1.364    0.267
       210  -9.7632     78.9850    204.9573   7.0813149727e+01   2.1826809843e+01    0.3295057    0.1632001  82.46  0.001161588    4.183    0.761
       211 -11.1416      5.3892    200.8147   8.8372532384e+01   3.0866321011e+01    0.2375444    0.0855076 -71.64    0.0011128    2.659    0.624
       212 -12.5727      4.7495    183.9031   8.7746371394e+01   3.4659985410e+01    0.5843557    0.4123549  87.64  0.003077026    1.268    0.211
       213 -11.4671    126.9998     16.7186   1.0218398876e+01   5.0500113440e+01    0.4148177    0.2003515  57.37  0.001096006    1.780    0.438
       214  -9.7409     28.0161    175.9964   8.1204210888e+01   3.4468682170e+01    0.1609025    0.1376046  77.18  0.000610648    1.057    0.054
       215 -10.4774     16.0451    174.4697   8.4298476516e+01   3.5922210412e+01    0.2586686    0.1526674  74.93  0.001377092    1.607    0.378
       216  -9.9214    190.4901    171.0005   3.9125542736e+01   1.0422179349e+01    0.1770282     0.119851 -61.81 0.0008099739    2.503    0.600
       217 -10.1175    211.0610     16.0511   1.3996186294e-01   2.9946756470e+01    0.1835425    0.1505185 -64.52 0.0003075438    1.024    0.023
       218 -11.2781    186.5544     15.0958   1.9967732118e+00   3.5668682662e+01    0.2425379    0.1880785 -88.62 0.0004022103    1.149    0.130
       219  -9.3606    199.2917     17.6652   1.4929244208e+00   3.2420416359e+01    0.1371681   0.07888741 -60.60 0.0005731999    1.637    0.389
       220  -9.9311    218.3855     13.8159   3.5908583669e+02   2.8591406872e+01    0.1553309    0.1125788 -20.90 0.0009441047    1.668    0.401
       221 -10.9577     18.2531    165.6450   8.3071691774e+01   3.7838702334e+01    0.3720906    0.1705427 -68.00   0.00175583    2.030    0.507
       222 -12.0878      9.4222    155.1837   8.4809381408e+01   4.1084675861e+01    0.6659282      0.19647 -84.85  0.002362265    3.552    0.718
       223 -12.8074      8.9895    167.0202   8.5711757181e+01   3.8260405782e+01    0.7092899     0.420156 -65.39  0.003894383    1.656    0.396
       224 -11.5011     14.4548    159.4668   8.3678679759e+01   3.9652225066e+01    0.3400246    0.2619488 -67.13  0.001109396    1.290    0.225
       225 -10.8442     13.6694    156.2879   8.3665859728e+01   4.0491362456e+01    0.2676391    0.1844137  52.22 0.0003316866    1.353    0.261
       226 -10.5524    205.0987    163.3505   3.4803548914e+01   9.2587853689e+00    0.2521912    0.1817757 -35.70 0.0007704168    1.346    0.257
       227 -10.6111    120.7387     11.7189   9.5203082091e+00   5.2603982263e+01    0.3247562    0.1147818  69.62 0.0009704607    2.643    0.622
       228 -10.2242     28.8071    160.8115   7.9666079401e+01   3.8060556166e+01    0.1956693    0.1392182  64.20 0.0007879931    1.335    0.251
       229 -12.8768     22.7839    148.7629   8.0320581823e+01   4.1603775582e+01    0.6308225    0.3170296 -40.95  0.001625745    2.539    0.606
       230 -11.2166     16.8109    148.0458   8.2070642721e+01   4.2280968099e+01     0.342942    0.2097076 -79.53 0.0004489585    1.502    0.334
       231 -10.5553      4.0803    153.4779   8.6228781283e+01   4.1877995331e+01    0.2680961   0.09912867  28.81  0.001196209    2.528    0.604
       232  -9.4717     55.5272    152.5706   7.0723592178e+01   3.7153138678e+01    0.1384002    0.1338987  68.46 0.0002060105    1.047    0.045
       233 -11.2246     46.8585    147.5706   7.2725525656e+01   3.9463546478e+01    0.6574609    0.4044122 -44.18  0.003096424    1.842    0.457
       234 -12.1217      4.3707    142.7839   8.5426328641e+01   4.4485186263e+01    0.7343698    0.3138942  49.89  0.002630252    2.280    0.561
       235  -9.6124    104.0364    147.2270   5.5245679141e+01   3.1011361367e+01    0.2066263    0.1844542  33.28  0.001079395    1.076    0.070
       236 -10.6869     33.0564    144.4447   7.6677540549e+01   4.1739913267e+01    0.2675588    0.2464418  57.81 0.0008266273    1.069    0.065
       237 -10.4106     40.6885    139.0544   7.3556063960e+01   4.2323293468e+01    0.4215195    0.2320303 -69.30  0.001932997    1.737    0.424
       238 -11.1089     80.4566    138.7443   6.0684590676e+01   3.7057936941e+01    0.2703363    0.2417533  48.13 0.0002560806    1.091    0.083
       239 -11.2642     30.2968    132.5402   7.6140664514e+01   4.5044274624e+01    0.4002648    0.2937377 -32.13  0.001391215    1.594    0.373
       240 -11.7457     23.5274    137.0487   7.8897936036e+01   4.4499127508e+01    0.3776449    0.3359426 -18.97  0.001083648    1.308    0.236
       241 -10.2325     20.3378    134.3143   7.9645418511e+01   4.5460953280e+01    0.2631002    0.1975211 -38.84  0.001389287    1.494    0.330
       242 -11.6342     12.4152    135.7066   8.2350139606e+01   4.5710864390e+01    0.5720879    0.2896449 -47.75  0.002686481    2.116    0.527
       243  -9.7538     25.7085    131.6610   7.7569525266e+01   4.5686139804e+01    0.2210423    0.1510436 -57.10 0.0005332399    1.409    0.290
       244 -11.0668     10.2027    126.6932   8.2241539496e+01   4.8143636373e+01    0.2862205    0.2309879 -20.95  0.001705739    1.459    0.315
       245  -9.3510     23.1197    126.6433   7.7849441736e+01   4.7193658484e+01    0.1715869    0.1275103  -3.17 0.0003392534    1.627    0.385
       246 -10.0328      2.0515    126.0383   8.4899304365e+01   4.8804094477e+01    0.2176707    0.1297972  61.80   0.00113399    1.694    0.410
       247 -11.0633    104.3847    122.4714   4.9763144475e+01   3.6788452574e+01    0.3093268    0.3071226  49.93  0.000803031    1.028    0.027
       248  -9.8147     33.4667    126.0090   7.4193719049e+01   4.6420040408e+01    0.2127131    0.1295196 -71.63 0.0007947508    1.553    0.356
       249 -12.0553    245.4713    118.5472   1.9183606793e+01   9.5202481461e+00    0.4492323     0.245086 -54.61  0.002169763    2.474    0.596
       250  -9.4466     55.9916    121.7697   6.5606854531e+01   4.4928580525e+01    0.1903667    0.1212047  28.44 0.0005145312    1.607    0.378
       251  -9.8814     44.6072    119.8460   6.9303510416e+01   4.6826309286e+01    0.2727655    0.1452903 -74.79 0.0007097839    2.021    0.505
       252  -9.8828     43.0340    116.0361   6.9216068739e+01   4.7985965852e+01    0.2278134    0.1610833  64.87 0.0005252322    1.620    0.383
       253  -9.5393     78.7992    115.1807   5.6301128665e+01   4.3176174314e+01    0.2054229    0.1787674 -12.18 0.0006231905    1.282    0.220
       254 -10.6882     35.8471    102.6747   6.9536900742e+01   5.2184681242e+01    0.4786102    0.2561378  -8.12  0.001843107    2.936    0.659
