#   1 NUMBER                 Running object number                                     
#   2 MAG_AUTO               Kron-like elliptical aperture magnitude                    [mag]
#   3 X_IMAGE                Object position along x                                    [pixel]
#   4 Y_IMAGE                Object position along y                                    [pixel]
#   5 X_WORLD                Barycenter position along world x axis                     [deg]
#   6 Y_WORLD                Barycenter position along world y axis                     [deg]
#   7 A_WORLD                Profile RMS along major axis (world units)                 [deg]
#   8 B_WORLD                Profile RMS along minor axis (world units)                 [deg]
#   9 THETA_WORLD            Position angle (CCW/world-x)                               [deg]
#  10 FWHM_WORLD             FWHM assuming a gaussian core                              [deg]
#  11 ELONGATION             A_IMAGE/B_IMAGE                                           
#  12 ELLIPTICITY            1 - B_IMAGE/A_IMAGE                                       
         1 -14.4819    160.7293     54.0583   7.8881046284e+01   3.8244426324e+01     1.786739      1.28749  16.28  0.005943311    1.933    0.483
         2 -14.1468    172.9176     38.1099   7.2127482983e+01   3.7404751967e+01    0.8819458    0.8286173  84.80  0.003095495    1.076    0.070
         3 -14.3644    190.3832      6.5748   6.1485776084e+01   3.6646791834e+01    0.9691732    0.7824739  70.67  0.004653564    1.110    0.099
         4 -12.2026    158.8335    234.6763   1.2070090497e+02   2.4996960026e+00    0.3546352    0.2525676  44.64  0.001119205    1.200    0.167
         5 -18.5768     69.0677    238.8922   1.3931521757e+02   1.6593313883e+01     8.558011     6.192317 -83.74    0.0550672    1.321    0.243
         6 -11.6008     36.3545    183.9284   1.4057813680e+02   3.2641437006e+01    0.1947219    0.1629736  63.84 0.0004248139    1.186    0.157
         7 -12.7859    192.8054    194.1120   1.0640744667e+02   3.5376410214e+00     1.086804    0.5307434 -59.74  0.003595549    3.972    0.748
         8 -11.0704    207.8175    177.7373   9.9940723562e+01   3.6633931512e+00    0.5872343    0.3434764  15.66  0.002196015    2.865    0.651
         9 -12.4709    195.7061    169.5611   1.0073834401e+02   7.7257116449e+00    0.4788465    0.4361869 -44.63 0.0008423136    1.145    0.127
        10 -11.5868    193.2905    164.4085   1.0013875457e+02   9.2696820125e+00    0.4324011    0.3784094  42.74  0.001774034    1.129    0.114
        11 -10.7060    202.8453    171.3391   9.9615534192e+01   5.8965635967e+00    0.2426413    0.2060264 -49.29 0.0005448507    1.263    0.208
        12 -11.4209    229.9846    166.5303   9.3198125831e+01   1.3888731012e+00     0.391238    0.1720107 -53.99  0.001281443    3.768    0.735
        13  -9.4932     11.8011    168.3917   1.4444612484e+02   3.8562202402e+01     0.117775     0.107796 -60.92 0.0002734161    1.341    0.254
        14 -11.4915    121.9594    165.0178   1.1707433537e+02   2.4107008501e+01    0.2876526    0.2112916  55.00  0.000298583    1.366    0.268
        15 -10.7465    118.7144    162.6877   1.1743447004e+02   2.5280502257e+01    0.2161192    0.1760508  76.24 0.0002696538    1.328    0.247
        16 -10.3862    163.6737    203.0819   1.1442471569e+02   7.5242382678e+00    0.1940251     0.187163 -40.29 0.0004797854    1.138    0.122
        17 -10.0932    222.5198    161.9525   9.3638789176e+01   3.6946362581e+00     0.218576    0.1378484 -41.07 0.0006721536    1.544    0.352
        18 -11.0792    164.4381    170.6841   1.0794214613e+02   1.4110546939e+01    0.3499047     0.252159  89.70  0.001471466    2.097    0.523
        19 -11.2545    120.6674    156.9083   1.1577440058e+02   2.6269869708e+01    0.2197326    0.1989463 -69.63  0.000742107    1.099    0.090
        20 -13.3056    134.0079    146.0309   1.1000785409e+02   2.6129787530e+01     1.426325    0.3633333 -54.90  0.003219524    5.924    0.831
        21  99.0000     10.4637    206.8708   1.4776663465e+02   3.0263670389e+01    0.3476246    0.3128901  89.73  0.002720129    1.350    0.259
        22 -11.4317    174.2838    148.6365   1.0081166547e+02   1.6727863685e+01    0.3755807    0.2925679 -75.20  0.001388004    1.620    0.383
        23 -12.7791    144.2612    146.2591   1.0746191104e+02   2.3898050574e+01    0.6167582    0.3644105 -70.27  0.002186585    2.672    0.626
        24 -13.8317    112.1682    139.2245   1.1424329204e+02   3.2111586071e+01      1.02062    0.6753305   9.33  0.003939956    2.625    0.619
        25 -12.6913    103.4662    137.9684   1.1633998830e+02   3.4030225670e+01    0.3451087    0.3093454 -43.89 0.0004472835    1.142    0.124
        26 -10.1262    168.3140    134.6872   9.8898107445e+01   2.1096993518e+01    0.1623994    0.1275207 -88.94 0.0003311583    1.637    0.389
        27 -12.3945    135.2309    121.6402   1.0386566988e+02   3.1458981965e+01    0.6135446    0.2117454 -50.43  0.001857566    3.149    0.682
        28 -12.9411    105.9707    130.5320   1.1398500930e+02   3.5338473305e+01     0.641148    0.3978273 -52.69  0.001449929    1.573    0.364
        29 -11.5713    107.4424    125.0161   1.1228363638e+02   3.6358672022e+01    0.2891339    0.2340776 -13.23 0.0007593808    1.538    0.350
        30 -12.5742    118.8524    129.4399   1.1017653815e+02   3.3107682683e+01    0.4651488    0.3138649 -32.25  0.001329422    1.767    0.434
        31 -11.6995    160.2578    127.6822   9.9088532370e+01   2.4475764115e+01    0.4314347    0.2899251 -53.28  0.001700556    1.578    0.366
        32 -19.1679     48.9957     99.5657   1.2408691334e+02   5.1001798025e+01     16.87918    0.9744833 -57.88   0.02707951   15.533    0.936
        33 -11.2244    113.3652    118.4814   1.0902113103e+02   3.6726761617e+01    0.2604164    0.2550016  62.72   0.00015505    1.038    0.036
        34 -11.0475    168.3236    113.3724   9.3563801116e+01   2.5623108117e+01     0.407878    0.2966841 -88.34  0.001227284    1.933    0.483
        35 -11.5022    134.6875    105.6515   9.9824262185e+01   3.5076044655e+01    0.6053068    0.1492802 -44.90  0.001610062    4.112    0.757
        36 -12.1854    167.9394    232.9712   1.1855487820e+02   1.1569817530e+00    0.3555285     0.244687  47.63 0.0009018354    1.319    0.242
        37 -10.9048    205.4729    110.1698   8.4977404410e+01   1.7386346780e+01    0.3314399    0.2196406  44.25  0.001038733    1.604    0.376
        38 -12.7436    165.7916    188.1866   1.1116446305e+02   1.0124641209e+01      0.48436    0.3811035  26.64  0.001665574    1.335    0.251
        39 -13.5568    156.4872    200.2864   1.1551800757e+02   9.4932333535e+00    0.7471592    0.4628786 -75.52  0.002975392    2.760    0.638
        40 -11.9146    175.3603    185.8948   1.0857040661e+02   8.6458605303e+00    0.5074064    0.2565135 -59.48   0.00182252    2.949    0.661
        41 -10.2241    148.0183     79.9945   8.9224963296e+01   3.7069255731e+01    0.1837625    0.1801756  50.59 0.0004335331    1.024    0.023
        42 -11.4981     88.9895     78.2317   1.0528671747e+02   4.9861729025e+01    0.3152478    0.2303244  44.69  0.001264438    1.474    0.321
        43  -9.8239    117.4124     78.2228   9.6699086122e+01   4.4356389202e+01    0.2026625    0.1411066 -49.79 0.0007994408    1.583    0.368
        44 -11.5269    248.9457    248.9242   1.0543013379e+02  -1.4466521349e+01    0.2554713    0.1641969   6.65  0.001564009    1.460    0.315
        45 -13.1662    177.2514     30.8606   6.9459391541e+01   3.7228041729e+01     0.476401    0.4167348  11.50  0.001402538    1.454    0.312
        46 -10.3970     13.5385     59.7750   1.2715536880e+02   6.2317381398e+01    0.1769847    0.1442381 -12.94  0.000326702    1.242    0.195
        47 -12.0977    153.6528    195.3140   1.1525561025e+02   1.1077276802e+01    0.3011925    0.2499629 -80.70 0.0009524438    1.423    0.297
        48 -10.1494    125.7560     26.6105   7.7915029231e+01   5.0246283931e+01    0.1916245    0.1207738  66.62 0.0005157718    1.667    0.400
