#   1 NUMBER                 Running object number                                     
#   2 MAG_AUTO               Kron-like elliptical aperture magnitude                    [mag]
#   3 X_IMAGE                Object position along x                                    [pixel]
#   4 Y_IMAGE                Object position along y                                    [pixel]
#   5 X_WORLD                Barycenter position along world x axis                     [deg]
#   6 Y_WORLD                Barycenter position along world y axis                     [deg]
#   7 A_WORLD                Profile RMS along major axis (world units)                 [deg]
#   8 B_WORLD                Profile RMS along minor axis (world units)                 [deg]
#   9 THETA_WORLD            Position angle (CCW/world-x)                               [deg]
#  10 FWHM_WORLD             FWHM assuming a gaussian core                              [deg]
#  11 ELONGATION             A_IMAGE/B_IMAGE                                           
#  12 ELLIPTICITY            1 - B_IMAGE/A_IMAGE                                       
         1 -10.4457     47.3843    213.4864   1.3089387424e+02   2.6015991582e+01    0.1774864    0.1558368  61.19 0.0005901957    1.296    0.228
         2 -21.2742    150.9639    163.1154   1.0300471617e+02   1.9741687188e+01     10.05314     9.060668  57.37   0.04956212    1.093    0.085
         3 -10.4236     40.6342    213.0305   1.3207997812e+02   2.6865184816e+01    0.1726095    0.1241769  56.04 0.0001553372    1.173    0.148
         4 -10.5495     31.6638    212.4179   1.3363968080e+02   2.7949415637e+01    0.1784023    0.1483159  82.33 0.0002206774    1.228    0.186
         5 -10.3385     63.4321    211.9346   1.2781995013e+02   2.4359870715e+01    0.1775336    0.1350065 -85.99  0.001054381    1.268    0.211
         6  -9.5338     58.2417    211.2152   1.2872829792e+02   2.5137608131e+01    0.1385177   0.09616868  68.58 0.0002876898    1.168    0.144
         7  -9.0699     52.5395    208.9412   1.2960955670e+02   2.6246720313e+01    0.1525814    0.1111232  57.32 0.0002568698    1.137    0.121
         8 -10.8591     56.3966    205.6082   1.2861978683e+02   2.6404345884e+01    0.2708627    0.1342736  56.52  0.001461028    1.720    0.419
         9 -10.6483     41.6877    194.4150   1.3054443500e+02   3.0257776413e+01    0.3004661    0.1626349  80.35  0.001381132    1.758    0.431
        10  -9.6374     34.2790    189.9593   1.3164523253e+02   3.1929741605e+01    0.1766228    0.1352469  60.19 0.0005264047    1.158    0.136
        11 -13.2565     64.0603    184.5146   1.2515936699e+02   2.9558320191e+01    0.4389998    0.2495455 -79.48  0.002474755    1.749    0.428
        12 -10.1252    101.9506    246.2995   1.2387524950e+02   1.3392256419e+01    0.1425261    0.1015303  51.56 0.0003203476    1.057    0.054
        13  -9.4637     57.7522    185.3358   1.2654726259e+02   3.0181988414e+01    0.2009365    0.1410302  49.86  0.001296004    1.298    0.230
        14 -12.0297     56.7053    180.6710   1.2630862205e+02   3.1255323489e+01    0.2706445    0.1845185 -77.09 0.0003352283    1.362    0.266
        15 -10.0366     35.0782    183.9587   1.3103129718e+02   3.3037220003e+01    0.1676417    0.1304326  76.17 0.0003540632    1.010    0.009
        16 -11.3367     39.6315    175.7205   1.2941964892e+02   3.4227216092e+01    0.2200579    0.1618564  81.03 0.0002479574    1.118    0.106
        17 -11.8346     43.5584    172.2363   1.2827561238e+02   3.4521137321e+01     0.475498    0.2347504  83.70  0.002226552    2.236    0.553
        18 -10.4756     56.6790    173.7843   1.2561318272e+02   3.2678753320e+01    0.1699142    0.1423244 -85.47 0.0003535321    1.124    0.110
        19 -10.4506    209.0011    250.8108   1.0591936793e+02  -3.3238149941e+00    0.1639113   0.08320054  38.03 0.0009797695    1.481    0.325
        20 -10.5516     33.8289    167.2712   1.2990527847e+02   3.6588511531e+01    0.1907117    0.1563146 -86.92 0.0002198281    1.114    0.103
        21  -9.8015     47.7425    165.3008   1.2668461673e+02   3.5512847647e+01    0.2673722    0.1987734  -3.32  0.001105035    2.399    0.583
        22 -10.5474     49.3058    158.5983   1.2561677916e+02   3.6771389316e+01    0.3750834    0.2106692 -89.91   0.00200211    1.826    0.452
        23 -10.5961     34.8544    154.1115   1.2844599864e+02   3.9287203999e+01    0.2757042    0.2390891 -50.53 0.0009370139    1.440    0.306
        24 -11.4546     45.4317    151.1294   1.2567698714e+02   3.8828953782e+01    0.4544801    0.2532729  80.65   0.00236975    1.961    0.490
        25 -12.0196     37.1306    146.9409   1.2717132582e+02   4.0620641934e+01    0.2194865    0.1826512  84.69 0.0003283021    1.034    0.033
        26 -11.3647     35.9271    142.8372   1.2700833790e+02   4.1644560921e+01    0.2658257    0.1860142 -63.71 0.0005771192    1.338    0.252
        27 -11.5031     47.4968    142.9997   1.2421401289e+02   4.0396886587e+01    0.2560641    0.1807524 -67.13 0.0008938859    1.280    0.219
        28 -11.7360     49.0765    139.2887   1.2335029804e+02   4.1049717892e+01    0.4408192    0.1938406  45.61  0.001646108    2.282    0.562
        29 -11.1048     57.1128    141.7831   1.2168068752e+02   3.9558939624e+01    0.2201855    0.1740143 -73.64 0.0002555224    1.134    0.118
        30 -10.6492     41.8516    136.4749   1.2479968157e+02   4.2458896902e+01    0.2168471    0.1759935 -79.34 0.0004506439    1.054    0.052
        31 -10.0573    205.7281    250.3142   1.0640103773e+02  -2.7816615163e+00    0.1842155    0.1168901  36.85 0.0002116571    1.196    0.164
        32 -10.9383     33.0936    128.7074   1.2606366677e+02   4.5066340752e+01    0.2320152    0.1862987  80.84 0.0004190916    1.143    0.125
        33 -10.8497     55.0151    126.5462   1.2000709801e+02   4.3249948397e+01    0.2328177    0.1633929 -72.72 0.0005489516    1.279    0.218
        34 -10.2975     47.6238    125.9421   1.2188559497e+02   4.4222644537e+01    0.3158748    0.2093334  88.34 0.0008957284    1.555    0.357
        35 -10.2253     41.5802    121.0705   1.2280263359e+02   4.5965661645e+01     0.306655    0.1743043 -57.96  0.001503751    1.562    0.360
        36 -11.5424     55.6765    115.1423   1.1796587855e+02   4.5777137446e+01    0.2224848    0.1979351 -86.91 0.0002107809    1.065    0.061
        37 -10.3977     35.4646    241.9376   1.3466358761e+02   2.2443288953e+01    0.1674575    0.1121573  53.24 0.0003513827    1.207    0.171
        38 -11.1207     22.4289    112.2706   1.2684645873e+02   4.9685232715e+01    0.2249909    0.1764983  85.85  0.000287727    1.181    0.154
        39  -9.5114     43.9764    111.6765   1.2070346958e+02   4.7861760456e+01    0.1641944    0.1544559  65.06 0.0005218284    1.176    0.150
        40 -10.1401    110.9703    250.5841   1.2271271263e+02   1.1474240829e+01      0.15426   0.08389854  42.62 0.0005377588    1.434    0.303
        41  -9.9461     95.6243    240.6599   1.2447449633e+02   1.5150538369e+01    0.1371912    0.1255044   8.83   0.00104588    1.660    0.398
        42  -9.7231    107.9800    239.8406   1.2222945530e+02   1.3521247335e+01    0.1274996   0.09827761  71.50 0.0003777141    1.254    0.203
        43 -16.3156     11.6710    188.2048   1.3584647803e+02   3.4461246270e+01     6.867147     1.273831 -76.79   0.02690026    4.557    0.781
        44 -10.6699    217.5677    246.6266   1.0390652460e+02  -4.1503241064e+00    0.1951964    0.1447289  26.59 0.0004311627    1.015    0.014
        45 -11.9298     53.1022     92.8180   1.1447871276e+02   5.1166643824e+01    0.5179797    0.1889717 -51.95   0.00168802    2.323    0.570
        46 -11.8693     58.9209     91.7094   1.1240764030e+02   5.0726023700e+01    0.4386151    0.2152696 -50.49 0.0007965458    1.800    0.444
        47 -10.4508     44.5143     92.9953   1.1721522234e+02   5.2060858725e+01    0.1748963    0.1672046 -66.71 0.0003358208    1.117    0.105
        48  -9.1456     54.2332    237.9626   1.3136066292e+02   2.0956008694e+01    0.1040995   0.07281767  84.05 0.0007755827    1.291    0.225
        49 -10.1152    209.6197    246.5605   1.0523124354e+02  -2.9556412791e+00    0.1823965    0.1388447  20.23 0.0008986981    1.126    0.112
        50  -9.8082     71.1473    225.8598   1.2755296054e+02   2.0897588474e+01    0.1480957    0.1090005  67.03 0.0003060599    1.083    0.077
        51  -8.5132     67.4358    222.5872   1.2795656637e+02   2.1943882228e+01    0.1121816   0.08428472  63.54 0.0001904654    1.013    0.013
        52  -9.6299     55.9144    221.8798   1.2996729400e+02   2.3501007066e+01    0.1493689    0.1198802  42.03  0.001114924    1.421    0.296
        53 -11.7040     53.0579    216.5196   1.3008674387e+02   2.4799695331e+01    0.1766598    0.1311313  85.87 0.0003054169    1.202    0.168
        54  -9.5620     45.9783    217.6543   1.3143738401e+02   2.5424360073e+01    0.2119161   0.06723112  44.61  0.001086281    2.391    0.582
