#   1 NUMBER                 Running object number                                     
#   2 MAG_AUTO               Kron-like elliptical aperture magnitude                    [mag]
#   3 X_IMAGE                Object position along x                                    [pixel]
#   4 Y_IMAGE                Object position along y                                    [pixel]
#   5 X_WORLD                Barycenter position along world x axis                     [deg]
#   6 Y_WORLD                Barycenter position along world y axis                     [deg]
#   7 A_WORLD                Profile RMS along major axis (world units)                 [deg]
#   8 B_WORLD                Profile RMS along minor axis (world units)                 [deg]
#   9 THETA_WORLD            Position angle (CCW/world-x)                               [deg]
#  10 FWHM_WORLD             FWHM assuming a gaussian core                              [deg]
#  11 ELONGATION             A_IMAGE/B_IMAGE                                           
#  12 ELLIPTICITY            1 - B_IMAGE/A_IMAGE                                       
         1 -16.2670    190.7631    152.8486   4.3041268638e+01   1.3563836210e+01     8.446854     5.028379 -68.88   0.02581187    5.833    0.829
         2 -18.6410    240.0833     83.5858   1.9384054465e+01   1.4993218481e+01     7.778594     6.775167  30.36   0.04932607    1.336    0.251
         3 -16.8876    245.3311     39.7773   8.8145223622e+00   1.9721487583e+01     3.780679     1.786078 -59.53   0.01712531    2.331    0.571
         4 -12.4199    192.5986     30.7803   1.1840948739e+01   3.2677041298e+01    0.5264412      0.35231   5.38  0.001558371    2.271    0.560
         5 -12.0052    151.1120     22.5937   1.4993730505e+01   4.4215351111e+01     0.270963    0.1908324   5.25 0.0006792246    1.887    0.470
         6 -11.5075    204.3362      8.9525   4.7988145116e+00   3.2259907657e+01    0.3690756      0.27247  40.85   0.00191269    1.716    0.417
         7  -9.9610    246.4370      9.4589   1.9728446663e+00   2.2900518666e+01    0.1201868   0.09607009 -56.27 0.0002076331    1.006    0.006
         8 -11.1923    224.8558      7.7541   2.9622457103e+00   2.7670072700e+01    0.1958824    0.1687655 -63.90 0.0004657452    1.047    0.045
         9 -11.7951    189.7396      7.0668   5.5535525666e+00   3.5978748333e+01    0.3554422    0.1812317 -60.66  0.001631958    2.015    0.504
        10 -10.5562    249.8930      4.4045   6.8272152090e-01   2.2715280183e+01    0.2682475    0.1524745 -55.31  0.001597715    1.441    0.306
        11 -12.1553    182.0032      3.1924   5.1713857104e+00   3.8268647918e+01    0.5176582    0.2608237 -81.72 0.0005302103    2.163    0.538
        12 -11.7608    134.4271    148.7588   5.4681117905e+01   2.5144583966e+01    0.5356161    0.2695881 -56.45  0.002055184    2.373    0.579
        13 -10.9470    133.0000    143.0034   5.3846337994e+01   2.6637372989e+01     0.357055    0.2102397 -51.85  0.001110264    1.812    0.448
        14 -15.0117      7.4448    140.9438   8.8934163926e+01   4.4560898223e+01     0.984513    0.7314214 -84.64   0.00371612    1.148    0.129
        15 -11.5621    143.8704    145.8602   5.1783363798e+01   2.3923712872e+01    0.6556084    0.3440055 -66.50  0.002118936    3.962    0.748
        16 -12.1676     66.7056    143.6254   7.2125714231e+01   3.7753986159e+01      1.88306     1.198405 -80.90  0.006367153    1.709    0.415
        17 -15.1731     46.2153    131.8324   7.6516289659e+01   4.3236883271e+01     2.223192      1.29865   5.99  0.005573077    2.680    0.627
        18 -14.1885     54.2682    131.4970   7.3986421808e+01   4.2359298880e+01    0.8623639     0.690949 -33.38   0.00196382    1.503    0.335
        19 -13.4835     27.2408    144.8433   8.3673571405e+01   4.2005728438e+01    0.5692121    0.3346725  77.01  0.002944679    1.693    0.409
        20 -12.0783    211.7479    144.4201   3.7339279762e+01   1.1096818281e+01     0.363539    0.2740512  29.50  0.001202366    1.331    0.249
        21 -11.7053    233.9723    215.1693   4.6704076185e+01  -2.2488098939e+00     0.337328    0.1776371  20.20  0.001938894    1.783    0.439
        22 -12.2887    204.2777    200.2022   4.9402060431e+01   3.8783731984e+00     0.289968    0.2100807  22.69  0.001530793    1.184    0.155
        23 -13.3064    161.3639    128.3854   4.3808142141e+01   2.3886505831e+01    0.5870914    0.5061032  51.86  0.001989365    1.204    0.170
        24 -12.8414    192.0496    193.9974   5.0637670572e+01   6.6837747233e+00    0.8770393    0.4918844 -61.57  0.003138991    5.366    0.814
        25 -11.5473    153.1722    127.3406   4.5440116246e+01   2.5810916883e+01     0.450164    0.2416704 -23.33  0.001542265    3.141    0.682
        26 -15.0115    172.6349     92.0507   3.2190285605e+01   2.8245490553e+01     1.715942     1.127897 -17.06  0.003691986    1.965    0.491
        27 -13.4069     37.9237    133.7711   7.9310536198e+01   4.3661088547e+01    0.4142654     0.325491  15.94  0.001025735    1.524    0.344
        28 -10.2005    113.3313     95.0712   4.7528950259e+01   4.1139435998e+01    0.2128034    0.1977562 -48.84 0.0004211815    1.081    0.075
        29 -12.4087    239.0219    188.3058   4.1273090748e+01   3.8509779020e-01    0.3202092    0.1966686  48.86  0.001786775    2.329    0.571
        30 -12.3469    232.9858    182.9461   4.1294490694e+01   1.9568128195e+00    0.3435384     0.165768  39.67  0.001172167    2.101    0.524
        31 -12.3907    185.1150    170.2469   4.7658438194e+01   1.1637494589e+01    0.3616379    0.2416894 -61.62  0.001697359    2.445    0.591
        32 -12.4259    157.4426     88.4434   3.4381317293e+01   3.2463358413e+01    0.4277545    0.2416198 -28.98    0.0014895    2.020    0.505
        33 -12.8351    191.0734     76.2943   2.4571819944e+01   2.6606210102e+01    0.4511202    0.3999302 -57.25   0.00148419    1.122    0.109
        34 -11.8004    188.2843     73.6500   2.4322332635e+01   2.7680722537e+01     0.307947    0.1907787 -42.01 0.0007145017    1.539    0.350
        35 -12.8612    177.1390    170.3688   4.9306146811e+01   1.3030093586e+01    0.4412037    0.3625052  -1.85  0.002113545    1.231    0.188
        36 -11.2917    158.8332     77.0438   3.0809846866e+01   3.4192803567e+01    0.2767579    0.2144134 -31.05  0.001028173    1.326    0.246
        37 -13.2263    194.5375     66.7290   2.1450171766e+01   2.7281670359e+01    0.5123767    0.4411963 -37.31  0.001739061    1.114    0.103
        38 -12.0147    205.5711     66.3346   1.9723971828e+01   2.4784012363e+01    0.4047292    0.2426907 -45.43  0.001029507    1.575    0.365
        39 -11.0161    106.0102     62.7546   3.9608411213e+01   4.9382336670e+01    0.6198079    0.1815051 -40.11  0.001874804    3.454    0.710
        40 -11.8877    143.8042     62.4679   2.9613356513e+01   4.0411948303e+01    0.2952875    0.2116944 -35.91  0.001382488    1.414    0.293
        41 -12.7052    184.0000     59.0282   2.0971234554e+01   3.0964792402e+01    0.5052571    0.2872553 -28.88  0.001066331    1.815    0.449
        42 -12.9536    184.8676     53.7936   1.9356299700e+01   3.1521119707e+01    0.6959834    0.2696525 -27.45  0.001822577    2.865    0.651
        43 -11.4006    209.5037    164.2504   4.1815967988e+01   8.3725527263e+00    0.2247678    0.2109977  62.92 0.0004081737    1.452    0.311
        44 -11.2497    205.0454     52.5230   1.6184421129e+01   2.6872248894e+01    0.3264072    0.1851868 -30.62  0.000850163    1.709    0.415
        45 -12.6565    178.4648     50.5537   1.9414767089e+01   3.3568335835e+01    0.5512177    0.3434229   3.81   0.00217296    2.814    0.645
        46 -11.8839    199.2724     50.6634   1.6443832680e+01   2.8485443874e+01    0.4473752     0.239503 -18.60  0.001032485    2.402    0.584
        47 -11.7702    140.8639     51.5846   2.6704987589e+01   4.2924732995e+01    0.2878654     0.235734  20.23 0.0006821319    1.432    0.302
        48 -10.0824    110.8266    168.1289   6.4142385959e+01   2.5253235281e+01    0.2083059    0.1769391  65.17 0.0004618249    1.212    0.175
        49 -10.7539    177.9948    156.9196   4.6464623732e+01   1.5235378501e+01    0.2060244    0.1912877  10.36  0.000320112    1.031    0.030
        50 -10.2971    202.9629     36.3575   1.2157152409e+01   2.9487977988e+01    0.2082362    0.1711393 -40.15 0.0005282051    1.161    0.139
        51 -10.4793    123.1254     43.1538   2.7856687131e+01   4.8681629227e+01    0.2009476    0.1743228 -67.90 0.0004784968    1.282    0.220
        52 -10.4056    193.7130     36.7033   1.3347671305e+01   3.1670759379e+01    0.2208686     0.196464  59.69 0.0003831692    1.197    0.164
        53 -10.5801    190.1359     36.8017   1.3823107496e+01   3.2533874896e+01    0.2053583    0.1909139   9.82 0.0004144375    1.269    0.212
        54 -11.0378    237.8657    205.8278   4.4512589887e+01  -1.6442491672e+00    0.1823808    0.1254025   7.89 0.0007524014    1.224    0.183
        55 -12.4430    168.8157     38.8086   1.7413784482e+01   3.7625706724e+01    0.3605475    0.3105581  23.69 0.0009794107    1.367    0.268
        56 -12.1693    180.9960     35.7100   1.4713441155e+01   3.4943734698e+01    0.4888582    0.2902554 -12.00  0.002119838    2.292    0.564
        57 -11.4198    184.8253     28.8591   1.2234330266e+01   3.4831899265e+01     0.317939    0.2640038  12.22 0.0008250753    1.524    0.344
        58 -11.6106    191.0466     40.7820   1.4819547149e+01   3.1796877327e+01    0.3928548    0.3021054  44.04  0.001094211    1.478    0.323
        59 -10.9413    181.4468     41.7267   1.6400853409e+01   3.4045731537e+01    0.1880924    0.1403818 -15.77 0.0009417043    1.563    0.360
        60 -10.9014    173.6267    220.7657   5.8505987301e+01   5.5515154808e+00    0.1431298    0.1181518 -48.63 0.0004141093    1.604    0.376
        61 -10.6207    189.6213     15.1060   7.7996704042e+00   3.5190110992e+01    0.2215485    0.1718188 -80.32 0.0007204635    1.208    0.172
        62  -9.8373    136.1832    221.1662   6.6103891143e+01   1.1126140305e+01    0.1640751    0.1254403  48.68 0.0003448935    1.276    0.216
        63 -10.5236    210.5786    155.3379   3.9826241112e+01   9.5771533630e+00    0.1716373    0.1180115 -22.16 0.0003707063    1.416    0.294
        64 -12.4915    172.3929    150.4845   4.6306383835e+01   1.7463641841e+01    0.3934164    0.2570737 -26.18  0.001804215    1.717    0.418
        65 -11.6945    166.0638    152.0692   4.8003854303e+01   1.8387481099e+01    0.2177766    0.2023893  13.44 0.0004166154    1.008    0.008
        66 -11.3793    132.2188    138.0234   5.2980245184e+01   2.7854812922e+01    0.5342234    0.2545981 -59.83   0.00187549    2.939    0.660
