#   1 NUMBER                 Running object number                                     
#   2 MAG_AUTO               Kron-like elliptical aperture magnitude                    [mag]
#   3 X_IMAGE                Object position along x                                    [pixel]
#   4 Y_IMAGE                Object position along y                                    [pixel]
#   5 X_WORLD                Barycenter position along world x axis                     [deg]
#   6 Y_WORLD                Barycenter position along world y axis                     [deg]
#   7 A_WORLD                Profile RMS along major axis (world units)                 [deg]
#   8 B_WORLD                Profile RMS along minor axis (world units)                 [deg]
#   9 THETA_WORLD            Position angle (CCW/world-x)                               [deg]
#  10 FWHM_WORLD             FWHM assuming a gaussian core                              [deg]
#  11 ELONGATION             A_IMAGE/B_IMAGE                                           
#  12 ELLIPTICITY            1 - B_IMAGE/A_IMAGE                                       
         1 -12.9977    203.9909     35.8188   5.6920124373e+01   3.0825290830e+01     1.162889    0.9872344 -42.82  0.006242381    1.317    0.241
         2 -13.6327    221.4967     18.7543   5.1037730138e+01   2.8992101553e+01     1.318182     1.026104  28.96  0.007875129    2.035    0.509
         3 -13.4545      2.1299      5.5268   1.0142957618e+02   6.9919810153e+01     2.145785    0.6859481 -45.49   0.01153682    3.085    0.676
         4 -12.2379      2.9289     18.7049   1.0572300896e+02   6.8095161464e+01    0.4956381    0.3098496 -37.82  0.003078434    1.303    0.232
         5 -10.0788      2.2883     14.1415   1.0444839856e+02   6.8772238602e+01    0.2641605    0.1500512 -41.71  0.001519685    1.542    0.351
         6 -11.1029    100.9112    248.6204   1.2214025389e+02   9.3938632427e+00    0.3391667    0.2189941 -46.36  0.001872166    2.139    0.533
         7 -12.0027    160.1057    249.5047   1.1088898638e+02  -6.4767568204e-01    0.7781608    0.1873808  41.65  0.002644134    3.554    0.719
         8 -14.1528      8.9066    243.2205   1.3758068960e+02   2.2557096710e+01     6.075336     2.043093  32.28   0.02779508    4.587    0.782
         9 -14.9760      6.4135    144.9104   1.2986000698e+02   4.3608545571e+01     9.247048     1.451457 -72.09   0.02431447    7.323    0.863
        10 -14.1610     58.3384    212.8880   1.2638548220e+02   2.3003423117e+01     4.972101    0.9905048  52.74   0.01184093    8.990    0.889
        11 -12.3008    126.4700    231.7006   1.1505413223e+02   8.4734906940e+00    0.8130696    0.2613492  42.01  0.003068715    2.784    0.641
        12  -9.7161    224.9476    199.2820   8.9433829428e+01  -3.2481371452e+00    0.2947997    0.2019959 -60.89 0.0008224106    2.029    0.507
        13 -11.3848     51.9994    191.4156   1.2526767770e+02   2.8598639761e+01     0.278102    0.2294016 -54.71 0.0004951719    1.403    0.287
        14 -12.9767     39.0910    206.0969   1.2944269301e+02   2.6878909323e+01     1.086201    0.6700518 -73.03  0.004187772    1.381    0.276
        15 -12.7583     21.9008    222.5887   1.3402766781e+02   2.5298518520e+01    0.3401717    0.2556247 -78.72 0.0007812702    1.241    0.194
        16 -11.6359     59.0916    183.7534   1.2280219422e+02   2.9456000379e+01    0.2749428    0.2249191 -59.79 0.0004265492    1.274    0.215
        17  -7.8711    181.6734    192.2900   9.6859329733e+01   6.2197069308e+00    0.1451332      0.11458  77.93 0.0006290355    1.616    0.381
        18 -10.5975     70.6895    171.9473   1.1853924501e+02   3.0661164992e+01    0.2475922    0.2098584 -69.58 0.0003750255    1.092    0.084
        19 -12.8955     56.6773    169.2968   1.2140056931e+02   3.3125612892e+01    0.5360873      0.27558 -46.30  0.002278204    2.247    0.555
        20 -11.6449     79.1051    163.7160   1.1525194267e+02   3.1410838676e+01    0.6066031    0.5614313 -59.05  0.003677572    1.153    0.133
        21 -13.8213     27.7890    215.9871   1.3245256376e+02   2.6035285570e+01    0.8316076    0.6149038  74.56  0.002319065    1.112    0.100
        22  -9.8470     93.1887    149.0470   1.0914588120e+02   3.2738259551e+01    0.3095579    0.2615855  61.90 0.0008854419    1.236    0.191
        23 -11.6967     81.4964    147.5773   1.1184505083e+02   3.4891193175e+01    0.3129105    0.2280792 -52.11 0.0006209182    1.292    0.226
        24 -11.9571     67.9194    143.8062   1.1463716885e+02   3.7686627392e+01    0.6455455    0.4521004  76.08   0.00233942    1.747    0.428
        25 -11.7060    103.7898    238.4938   1.2041964515e+02   1.0904801658e+01    0.3362599    0.2705145 -34.85  0.001985273    1.860    0.462
        26  -8.9075     96.8672    144.9891   1.0741414744e+02   3.3100465853e+01    0.2109629    0.1854136 -35.11 0.0003495931    1.252    0.201
        27  -9.5541    106.7722    134.0109   1.0255637543e+02   3.3984948734e+01    0.4850684    0.2474695 -46.41  0.001996405    1.913    0.477
        28  -9.9259     93.5257    131.9888   1.0561548184e+02   3.6693483754e+01    0.2321305    0.2125297  25.46 0.0004236157    1.214    0.176
        29  -8.9039    104.8921    122.2585   1.0041699274e+02   3.7009175887e+01    0.1852559    0.1797651 -16.52 0.0002424623    1.083    0.077
        30  -9.0793    167.6013    112.5934   8.2453788787e+01   2.6254992538e+01    0.3070011      0.21654 -82.15 0.0008636149    2.009    0.502
        31 -10.0228    243.5198    112.4913   6.8074671938e+01   9.4544100557e+00    0.1412693     0.126059 -58.58  8.14794e-05    1.002    0.002
        32  -8.6604    203.4381    111.4973   7.4785364374e+01   1.8321761244e+01    0.1481434    0.1427974 -60.06 8.139008e-05    1.056    0.053
        33 -10.9190    242.7636     93.4768   6.4132326256e+01   1.3034328625e+01    0.2976824    0.1716093 -29.72  0.001313179    2.212    0.548
        34  -9.4474    161.2113     79.3674   7.5374997172e+01   3.4137296499e+01    0.1974377    0.1909718 -15.53 0.0009111452    1.119    0.106
        35 -11.7463     12.6218     60.6551   1.1393047248e+02   6.0681087662e+01    0.3497262    0.2751611 -78.27  0.002456132    1.769    0.435
        36 -11.1876    247.2584    248.0681   9.4098184517e+01  -1.4483543780e+01    0.3724589    0.2764767  16.33  0.002456796    1.163    0.140
        37 -11.8153    139.6284    248.8223   1.1477587960e+02   2.9782536847e+00    0.4320631    0.3602187 -81.18  0.002727683    1.331    0.249
        38 -13.9645      9.6107    208.1278   1.3508570017e+02   2.9555551884e+01     2.570535     1.439625 -46.40   0.01342052    2.776    0.640
        39 -11.8751     83.5861    248.0163   1.2527513311e+02   1.2166613605e+01    0.5197748    0.3121302  57.24  0.003018299    1.409    0.290
