#   1 NUMBER                 Running object number                                     
#   2 MAG_AUTO               Kron-like elliptical aperture magnitude                    [mag]
#   3 X_IMAGE                Object position along x                                    [pixel]
#   4 Y_IMAGE                Object position along y                                    [pixel]
#   5 X_WORLD                Barycenter position along world x axis                     [deg]
#   6 Y_WORLD                Barycenter position along world y axis                     [deg]
#   7 A_WORLD                Profile RMS along major axis (world units)                 [deg]
#   8 B_WORLD                Profile RMS along minor axis (world units)                 [deg]
#   9 THETA_WORLD            Position angle (CCW/world-x)                               [deg]
#  10 FWHM_WORLD             FWHM assuming a gaussian core                              [deg]
#  11 ELONGATION             A_IMAGE/B_IMAGE                                           
#  12 ELLIPTICITY            1 - B_IMAGE/A_IMAGE                                       
         1 -15.3506      6.6383     68.8337   8.7360840586e+01   6.5488695579e+01      1.70445    0.9703288 -77.63   0.00570525    1.668    0.401
         2 -12.7515      7.9550      2.6220   5.6330729434e+01   8.0827918614e+01     0.603991    0.4054354  44.97  0.003426008    1.653    0.395
         3 -15.9403     10.6496     24.3150   6.9882281243e+01   7.6308964531e+01     2.186266     1.275376 -31.96   0.01007864    1.842    0.457
         4 -14.2380     27.0265     11.8037   4.6654727000e+01   7.6179498575e+01    0.9418293    0.6722383   4.45  0.004972095    1.748    0.428
         5 -13.6964    122.2668     36.9198   2.6277856659e+01   4.9642111307e+01    0.9071891    0.5633192  39.96  0.003387357    2.112    0.526
         6 -13.8826    166.3623     29.6729   1.7939618709e+01   3.9584778413e+01      0.84609    0.5540241  81.93  0.003692288    1.518    0.341
         7 -13.7882    146.4094     30.0089   2.0245978179e+01   4.4394627584e+01     1.044409    0.6719218  74.41  0.003923675    1.517    0.341
         8 -13.2076    188.7582     25.4685   1.4850947983e+01   3.4991705624e+01     0.894298    0.2327767 -52.40  0.003230579    3.404    0.706
         9 -15.0410     98.7679     11.4792   1.9979027486e+01   5.8855001058e+01     1.429906     0.934019  72.04  0.003900352    1.385    0.278
        10 -12.3612     85.7515     14.0020   2.3714301009e+01   6.2036861092e+01    0.5052635    0.3687148 -58.07  0.001819196    1.426    0.299
        11 -11.9504     60.4223     15.2701   3.1633915360e+01   6.8348044869e+01    0.5052041    0.2930549  42.10  0.002147378    1.786    0.440
        12 -11.8613    188.1176      9.8416   1.0769291724e+01   3.6816028903e+01    0.2945169    0.1893725 -54.08  0.001616028    1.216    0.178
        13 -11.7019     46.7270     12.7549   3.5641669574e+01   7.1899333089e+01    0.3223624    0.2526482  75.84  0.001712675    1.423    0.297
        14 -12.3978    214.7742     10.0639   9.5370380271e+00   3.1257946396e+01    0.3109216    0.2441277 -51.36  0.001446041    1.093    0.085
        15 -11.7785    123.4260     11.0827   1.6337168875e+01   5.2386829373e+01    0.2483567    0.1983482  88.73 0.0003697309    1.122    0.109
        16 -13.7928     41.8578      4.3571   3.1649309195e+01   7.3980607023e+01    0.7324001    0.5742651  29.94  0.003438744    1.292    0.226
        17 -11.5878     75.1403     10.0723   2.4124278719e+01   6.5199099008e+01    0.3169835    0.2191208 -13.53  0.001248929    1.705    0.413
        18 -10.7949    152.8069      8.3865   1.2618672799e+01   4.5179298241e+01     0.186641    0.1082933  68.47 0.0009471033    1.725    0.420
        19 -11.6096    117.9212      2.1582   1.3465127325e+01   5.4620839746e+01    0.5016656    0.1962457 -80.31  0.001853471    2.916    0.657
        20 -11.1669     67.7555      2.6687   2.1640964588e+01   6.7768964689e+01     0.296898    0.1851738  41.87  0.001464296    1.664    0.399
        21 -10.4208    232.5257      1.5016   6.9863392681e+00   2.8746427499e+01    0.1158501   0.07839088 -51.44 0.0008099817    1.027    0.026
        22 -11.2827     81.5292      1.2198   1.7927356115e+01   6.4298826793e+01    0.4641818   0.02967239  67.12  0.001198432    5.346    0.813
        23 -11.0226     61.3321      1.4368   2.2524009242e+01   6.9507005414e+01    0.3684318    0.1204582  69.54  0.001356625    2.746    0.636
        24 -11.0638    200.5756    191.6983   5.0345113779e+01   7.6320690307e+00     0.176319    0.1420601  44.45    0.0011832    1.779    0.438
        25 -12.4275     51.0954    248.5003   8.8932446963e+01   1.5822462251e+01    0.3734523    0.3279659  -2.71   0.00270701    1.370    0.270
        26 -12.3372      2.8632    249.6203   9.9673127070e+01   2.0018131262e+01    0.3933858    0.2289578  45.21  0.001950131    1.228    0.186
        27 -14.0850      9.6171    245.5452   9.8100117798e+01   2.0221863255e+01    0.9843258    0.3641205  43.16  0.004140899    1.819    0.450
        28 -12.8014    124.1871    166.6562   6.1550449576e+01   2.3025408943e+01    0.5955867    0.4026382 -67.69  0.002831747    1.915    0.478
        29 -11.0558    222.3384    166.6860   4.2564962044e+01   8.5786984704e+00    0.1041024   0.08700141 -53.68 0.0004979227    1.696    0.410
        30 -11.0070    193.4859    164.9887   4.6835538143e+01   1.2664897638e+01      0.16393    0.1027416 -57.50  0.000809397    2.455    0.593
        31 -11.5724    206.4980    190.9474   4.9237091415e+01   7.0321534821e+00    0.1753359    0.1388624   4.44 0.0008246136    1.151    0.132
        32 -12.3622     76.8639    156.8416   7.2892419716e+01   3.2808399360e+01    0.5234884    0.3235957  27.00  0.001547133    1.643    0.391
        33 -13.3532     73.9592    153.4843   7.3249838231e+01   3.4097297972e+01    0.8201619     0.552587  26.04  0.002941643    1.525    0.344
        34 -12.3077    111.0357    155.2743   6.2818592646e+01   2.7705175054e+01    0.5392126    0.3626576 -88.09  0.002266531    2.372    0.578
        35 -12.1952    189.1921    155.9939   4.5863273579e+01   1.4760496153e+01    0.2157357    0.1855895  20.88  0.001157707    1.235    0.191
        36 -12.2269    189.2464    149.8900   4.4651781083e+01   1.5772451756e+01    0.2643048    0.1431227 -36.09  0.001308561    1.629    0.386
        37 -11.2919    103.5633    149.5952   6.3776658552e+01   3.0294564359e+01    0.3218988    0.2486226 -25.38   0.00116733    1.540    0.351
        38 -12.3774      8.1866    149.7957   9.4814168080e+01   4.2610440750e+01     0.545687    0.3333497  62.76  0.002651758    1.488    0.328
        39 -11.8065    246.2961    148.9893   3.6143345798e+01   8.0865600782e+00     0.169707    0.1148807 -29.24  0.001184968    1.095    0.087
        40 -12.2283     60.1982    147.3744   7.6720219305e+01   3.7687974420e+01    0.4140199    0.3040368  12.13  0.001758625    1.602    0.376
        41 -11.8948    148.3988    141.1853   5.0810716540e+01   2.4200439314e+01    0.2091544     0.130238 -54.19 0.0009589948    1.735    0.424
        42 -14.4356    106.0821    104.2478   5.2572849191e+01   4.0631466901e+01     1.210144     1.137947 -61.93  0.005936595    1.037    0.036
        43 -12.6182    101.4806    118.8315   5.7703669404e+01   3.8097399034e+01    0.8853775    0.4717141  28.16  0.003222763    2.480    0.597
        44 -13.3754     28.8181    119.9374   8.4267365444e+01   4.9192272994e+01     1.290065    0.8737578 -53.48  0.006035186    1.508    0.337
        45 -12.3391     42.6345     90.6010   7.2708103460e+01   5.5806515626e+01    0.5454477     0.361129 -83.30  0.002358392    1.714    0.416
        46 -12.5120      4.6188    119.4038   9.4176399701e+01   5.1332152451e+01    0.5673586    0.4238934  -4.80  0.002049212    1.585    0.369
        47 -13.7754      2.2333     96.8337   9.3381893146e+01   5.7889919324e+01     1.563639    0.4089548 -83.52  0.004698118    3.729    0.732
        48 -15.0464     24.4143     93.6352   8.2096582724e+01   5.7139652372e+01     2.066725     1.455582   7.33  0.009769264    1.639    0.390
        49 -14.3649     18.5284    111.7048   8.7530651253e+01   5.2518854027e+01     1.310341    0.6383559   8.83  0.005082743    2.514    0.602
        50 -14.5819     13.1710    103.5497   8.8933798959e+01   5.5283827527e+01     1.339342    0.7389935  22.34  0.005898426    1.875    0.467
        51 -11.8304    180.3976    122.0114   4.0272911096e+01   2.2055667981e+01    0.3369518    0.2271029 -13.52  0.001649473    1.953    0.488
        52 -12.4742     78.9797    110.4902   6.2942798706e+01   4.4481627784e+01    0.4450873    0.3715865 -85.32  0.001474347    1.273    0.215
        53 -12.3824     86.7165    114.8480   6.1378080051e+01   4.1923535934e+01    0.6403843    0.4031384   3.02  0.002129086    3.377    0.704
        54 -12.8963     81.7729    114.8928   6.3049229229e+01   4.2831022038e+01     0.489295     0.483768  48.71  0.002602452    1.070    0.066
        55 -11.2427    121.7067    112.0803   5.0342137434e+01   3.5576817110e+01    0.2742184    0.2170582  76.45 0.0008131016    1.509    0.337
        56 -12.0728     62.0924    108.7772   6.8771406301e+01   4.7877705871e+01    0.7252868    0.4405787 -78.63  0.002869644    1.988    0.497
        57 -12.5179     49.3485     98.5862   7.1612794464e+01   5.2648541739e+01     1.042809    0.5530704  25.83  0.004064078    2.073    0.518
        58 -12.3137     49.0570     93.1416   7.0413363051e+01   5.4178606586e+01    0.5148584     0.360056  51.49  0.002327869    1.490    0.329
        59 -11.2599     42.4438    106.5970   7.6325661307e+01   5.1387425059e+01     0.306773    0.1925007 -31.34  0.001241473    2.093    0.522
        60 -12.2314    136.8223    103.1521   4.4297019318e+01   3.4289822719e+01    0.4526515    0.2838953  64.03  0.001909792    1.960    0.490
        61 -10.8224     64.5070    101.5348   6.6072255335e+01   4.9416287036e+01    0.2782142     0.200862 -61.44 0.0006020265    1.363    0.266
        62 -12.0841     61.5000     97.5232   6.6242425382e+01   5.0997097129e+01    0.5355899    0.3672642  85.17  0.001890054    1.890    0.471
        63 -11.6692    163.9381     98.0502   3.7431248405e+01   2.9537769797e+01    0.2173306    0.1932978 -47.21 0.0004164228    1.010    0.010
        64 -12.3956    136.9132     94.8705   4.2020764418e+01   3.5949530536e+01    0.4806581    0.3436006  72.85  0.002225647    1.686    0.407
        65 -13.5840    111.7411    116.3306   5.4115173989e+01   3.6651944683e+01    0.5984678    0.5265892  48.30  0.002620958    1.154    0.133
        66 -13.3977    105.9016    123.9508   5.7630751376e+01   3.6006609507e+01     1.259911    0.5861859  38.33  0.004683357    2.210    0.547
        67 -12.7035    187.8666     84.2476   3.0143357597e+01   2.7014206098e+01    0.3675308    0.2242669  41.61  0.001783716    2.165    0.538
        68 -13.2251    163.8574     71.5542   3.0353253285e+01   3.4153819366e+01    0.4526653    0.4388109 -53.47  0.002734941    1.146    0.127
        69 -13.9720    169.3794     77.0829   3.1004124874e+01   3.2025513468e+01       1.0333    0.4899513  53.87   0.00307887    2.324    0.570
        70 -11.5209    158.2239     83.5803   3.4622688714e+01   3.3355902180e+01    0.2655232     0.221746  60.46 0.0006909498    1.298    0.229
        71 -12.9967    161.5213     79.8130   3.3018006258e+01   3.3285571677e+01    0.6046281    0.4020503  26.65  0.001850037    2.453    0.592
        72 -10.4257    125.5876     84.1746   4.1547448231e+01   4.0659027896e+01    0.2157596    0.1451501 -31.58 0.0009395313    1.682    0.406
        73 -13.1184     65.9426     49.0135   4.7390926372e+01   6.1641793393e+01    0.9720649    0.7302504 -30.63  0.004703077    1.502    0.334
        74 -13.7289     73.9684     73.8867   5.4009843904e+01   5.4551694971e+01      1.50538     0.788149  24.47  0.004621699    3.759    0.734
        75 -12.9389     87.4402     65.2870   4.6001770629e+01   5.3463978090e+01    0.5443667     0.475926   6.55 0.0009698042    1.446    0.308
        76 -13.2124     91.8772     57.3280   4.1525482908e+01   5.3996722492e+01    0.5693048    0.4982688 -63.90  0.001926532    1.138    0.121
        77 -13.9470     54.0271     67.0332   6.0153160429e+01   6.0086724066e+01     1.390763     1.104802 -10.55  0.006607216    1.628    0.386
        78 -12.9169     54.8604     79.8498   6.4069105696e+01   5.6753839428e+01    0.8709444    0.5146495 -51.00  0.003665019    1.665    0.399
        79 -13.7748     61.2230     75.5003   5.9827313033e+01   5.6699386317e+01    0.7664833    0.5371073 -38.83   0.00160238    1.578    0.366
        80 -11.6867     42.5111     79.4829   6.9824416207e+01   5.8822338149e+01    0.4407195    0.3283592 -73.86  0.002088508    1.395    0.283
        81 -11.2182     41.7626     75.9810   6.9177901943e+01   5.9855427545e+01    0.3134245    0.2705647 -65.17 0.0007496247    1.132    0.117
        82 -12.1352    216.3008     81.4427   2.5991194637e+01   2.2088609741e+01    0.2045963    0.1600195 -86.08  0.001145135    1.535    0.349
        83 -11.8927    114.1397     79.8725   4.3094273135e+01   4.4196428370e+01     0.449471    0.3378945 -53.34    0.0015497    1.298    0.230
        84 -11.5146    109.8003    249.6078   7.6131332867e+01   9.3676506889e+00    0.1777797    0.0825292  33.97  0.000958383    1.711    0.416
        85 -12.2167    135.4889     79.4273   3.7869478255e+01   3.9281881601e+01    0.7121357    0.3342453  59.90  0.002722112    2.346    0.574
        86 -11.7761     27.1125     74.8548   7.6649254308e+01   6.2067523492e+01    0.6639292    0.3386746 -83.30  0.002472926    2.529    0.605
        87 -12.6620    199.1433     69.9150   2.5197404539e+01   2.6964940735e+01    0.4082522     0.335408  27.02  0.002272586    1.697    0.411
        88 -10.6046    117.5760     71.4948   3.9498685976e+01   4.5047632876e+01    0.1535828    0.1441301 -69.97 4.304374e-05    1.023    0.023
        89 -12.5230     39.1993     68.0389   6.8035315726e+01   6.2288248913e+01     0.823487     0.287808  35.28  0.002822709    2.750    0.636
        90 -12.3110    134.5679     66.4151   3.4042493324e+01   4.1872561418e+01    0.5555748    0.3383431  51.75  0.001877742    1.746    0.427
        91 -10.7337     99.7943     65.0467   4.2045916687e+01   5.0591757930e+01    0.2306935    0.1729138  88.69  0.001041749    1.585    0.369
        92 -12.8449     78.8758     59.8783   4.6917719672e+01   5.6548993674e+01    0.7127941    0.4613521 -52.34  0.003141042    1.597    0.374
        93 -12.1737     34.4579     60.5848   6.8153734399e+01   6.4856380868e+01    0.5812365    0.2225006 -49.38  0.002088076    2.514    0.602
        94 -13.1356    177.8488     58.0346   2.4674252230e+01   3.3141315801e+01    0.6168748    0.4520035 -56.57   0.00211141    1.205    0.170
        95 -11.7165     24.7845     58.6884   7.3380319677e+01   6.6590626566e+01    0.5667716     0.278593 -51.94  0.002373782    1.897    0.473
        96 -11.4639    111.0855     58.6920   3.6693507874e+01   4.9021683522e+01    0.2693107    0.2508706  10.89 0.0006196186    1.306    0.234
        97 -14.1646    119.8969     54.8087   3.3244126665e+01   4.7492853018e+01    0.7816803    0.5906889  49.18  0.002695878    1.435    0.303
        98 -11.6913     17.5018     55.4247   7.7114866316e+01   6.8208754800e+01    0.3518267    0.2492119 -69.70  0.001743785    1.402    0.287
        99 -11.4800    109.6998     53.6046   3.5172417052e+01   5.0262540823e+01     0.366019    0.2208434 -26.67    0.0015225    2.033    0.508
       100 -13.2177    103.4895     50.4115   3.5523202444e+01   5.2373424955e+01    0.7702492    0.4274312 -45.12  0.001069976    1.782    0.439
       101 -13.1878     97.9779     49.9923   3.6833316773e+01   5.3829620903e+01    0.9181765    0.4480617 -38.57  0.003127312    2.064    0.515
       102 -12.6339     38.6878     59.7133   6.5414778936e+01   6.4445081994e+01    0.5512876    0.3412479  76.61  0.002083268    2.827    0.646
       103 -11.6828    136.0882     49.8307   2.8352609199e+01   4.4230631021e+01     0.314984    0.2694693  28.93 0.0007321811    1.509    0.337
       104 -10.4397     23.5219     49.9339   7.1145861616e+01   6.8928584179e+01    0.2042748    0.1354067 -58.55 0.0004309864    1.460    0.315
       105 -11.8829    152.6192     46.5940   2.4704524089e+01   4.0641272399e+01    0.4443926    0.1997175  53.16   0.00140567    2.492    0.599
       106 -11.9153    159.0845     42.9244   2.2714571841e+01   3.9601603893e+01    0.3997904    0.2644755  79.84  0.001480018    1.546    0.353
       107 -11.3136     38.7068     46.0333   5.9744240127e+01   6.7630434752e+01    0.2049706    0.1846026 -43.70 0.0006890742    1.108    0.098
       108 -10.7388     30.0470     45.9667   6.5152272584e+01   6.9005030650e+01    0.2428801    0.1678918 -22.94  0.001140028    1.764    0.433
       109 -12.7710    204.9658     39.8615   1.7267013641e+01   2.9862586999e+01    0.7210671    0.2903896 -81.25   0.00273745    4.069    0.754
       110 -12.5567    212.7483     43.1079   1.7440339613e+01   2.7919546262e+01     0.439611    0.2388123  64.66  0.002440833    2.157    0.536
       111 -12.8616    219.6580     41.5153   1.6555457894e+01   2.6795085334e+01    0.5723312    0.3191053 -78.00  0.002482766    2.015    0.504
       112 -13.4355      5.7899     42.9353   8.1976551580e+01   7.2349424870e+01       1.0368     0.480186  15.58  0.004522763    2.233    0.552
       113 -13.4362     28.3449    246.1236   9.3931704437e+01   1.8458194686e+01    0.4596105     0.339404  52.12  0.002699132    1.157    0.136
       114 -12.3404     16.6042    235.9139   9.6230084531e+01   2.1479389029e+01    0.2412424    0.1407769  50.07  0.001453414    1.345    0.256
       115 -11.2798     27.6574    235.3148   9.3630721071e+01   2.0595117193e+01     0.207948   0.09886343  50.61  0.001105982    1.721    0.419
       116 -11.6814    134.8459     39.6324   2.5109308882e+01   4.6040419733e+01    0.4332307    0.2777257 -85.16  0.001648437    1.691    0.409
       117 -11.8209    109.7515     41.9542   3.0713624173e+01   5.2142254728e+01    0.4347274    0.2095061  65.83 0.0008332294    2.064    0.516
       118 -12.9274    113.8165     37.6722   2.8180074710e+01   5.1724561613e+01    0.4422121    0.3622786 -57.20  0.001326776    1.171    0.146
       119 -12.5808     23.7145    216.3815   9.3730608024e+01   2.4871381518e+01    0.8306314    0.3809258  38.62  0.004195792    1.650    0.394
       120 -12.4779    131.4655     33.4427   2.3480656080e+01   4.7742669505e+01    0.4135553    0.3877645  61.79  0.001345949    1.208    0.172
       121 -12.2422     40.3321     40.3423   5.6028879448e+01   6.8566224576e+01    0.6069345    0.3574562  48.12  0.002734961    1.784    0.439
       122 -12.5155     32.8749     40.2411   6.0633194515e+01   6.9856314947e+01    0.3789003    0.3124742  10.01 0.0006941879    1.307    0.235
       123 -12.5965     44.3766     33.5159   5.0054164356e+01   6.9145819723e+01     1.088179    0.4523565  43.97  0.004226352    2.335    0.572
       124 -12.3162     42.6135     29.2297   4.8581747275e+01   7.0276776793e+01    0.3680514     0.262195 -45.49  0.001147596    1.477    0.323
       125 -11.9578     30.5476     25.4774   5.3945494138e+01   7.3224781473e+01    0.4127702    0.2765452  20.93   0.00193219    1.736    0.424
       126 -12.6700     35.3921     23.4587   4.9365261214e+01   7.2699394476e+01    0.5542358    0.3030312  49.83 0.0008454833    1.874    0.466
       127 -12.3388     75.9719     37.0066   3.7933384335e+01   6.1464724272e+01    0.4282939    0.2675794  50.18 0.0007618194    1.549    0.354
       128 -11.4608     70.6775     36.1152   3.9390286367e+01   6.2888008329e+01    0.3210628    0.2635623  64.35 0.0008132408    1.191    0.160
       129 -12.3455    242.0781     36.2781   1.3985239304e+01   2.3397253061e+01    0.3666635    0.2014823  83.15  0.002131083    2.170    0.539
       130 -11.0424    104.7566     36.4101   2.9614484568e+01   5.4257397827e+01    0.2877848    0.1653223 -44.95   0.00126531    1.720    0.419
       131 -13.7255     26.5443    225.9833   9.3476655811e+01   2.2580564635e+01    0.7522016    0.3963175 -52.47  0.003889594    2.502    0.600
       132 -11.9938    139.3976     21.6368   1.8283197781e+01   4.7155798950e+01    0.8960109    0.3540159  79.91  0.002011229    2.625    0.619
       133 -12.3034    152.4940     31.0237   1.9842192810e+01   4.2761130337e+01    0.3245508    0.2435801 -39.66  0.001146887    1.265    0.209
       134 -13.9609     20.7779    223.9895   9.4792375319e+01   2.3526501503e+01     0.684447    0.5477732  25.35  0.003528054    1.230    0.187
       135 -11.4285    113.4781     32.0234   2.6034638515e+01   5.2594814880e+01    0.2829973    0.1916722 -85.74 0.0006900348    1.560    0.359
       136 -13.4384     91.0427    231.0516   7.8430991009e+01   1.4653172134e+01    0.4517424    0.2702528  73.47  0.002239047    2.758    0.637
       137 -12.5405    120.0516     26.3814   2.2678681387e+01   5.1597358220e+01     0.589162    0.3925578  53.84  0.002905258    1.583    0.368
       138 -13.2463     57.5272     26.7146   3.9637056124e+01   6.7470416875e+01     1.109309    0.3382014  52.27  0.003326985    2.991    0.666
       139 -13.4654     64.3692    223.9512   8.4108930095e+01   1.9079123436e+01    0.7893074    0.5139072  24.51  0.004502449    1.350    0.259
       140 -10.7211      5.5972    219.2256   9.8337728720e+01   2.5841663469e+01    0.1530015    0.1089415 -76.48 0.0006211604    1.602    0.376
       141 -10.8191     51.2153     20.4074   3.8657257226e+01   6.9849175862e+01    0.3448401    0.1345923  58.35  0.001278435    2.629    0.620
       142 -11.4164     46.1178     20.2200   4.1026164451e+01   7.1013416596e+01     0.421844    0.2026779  38.23  0.001438995    2.349    0.574
       143 -11.4581     71.1189     16.4375   2.8789407443e+01   6.5547865576e+01    0.2540806    0.2020432 -41.42 0.0006067509    1.328    0.247
       144 -14.1420     64.2039    214.3596   8.3331742714e+01   2.1060604822e+01    0.7479426     0.438834  47.75  0.003938366    1.548    0.354
       145 -11.4511    249.0133    215.9938   4.6832549724e+01  -5.2618041948e-01    0.1344915    0.1161065 -26.10  0.001149978    1.737    0.424
       146 -12.6885     72.2409    207.0840   8.0597614047e+01   2.1645567569e+01    0.3453956    0.2886249  78.21  0.002094993    1.326    0.246
       147 -12.4036     57.4597    203.0155   8.4064401748e+01   2.4292936054e+01    0.4793858    0.2482411  81.64  0.002075686    2.653    0.623
       148 -12.1555     17.1631    195.7155   9.4474871407e+01   3.0139913827e+01    0.3750165    0.2261001 -72.99  0.001835996    1.767    0.434
       149 -11.2007    249.5027    199.0115   4.4173873080e+01   1.3981603935e+00    0.1599737   0.07715543 -32.11  0.001039381    1.611    0.379
       150 -12.6455     40.2646    194.7511   8.8037319266e+01   2.8107579080e+01    0.4075383    0.3165099  79.63  0.002304864    1.299    0.230
       151 -13.2671     29.9840    169.2529   8.9050682881e+01   3.5498337944e+01     1.089315    0.8063201  17.40  0.005724914    1.446    0.308
       152 -13.1115     22.3032    180.8556   9.2205118175e+01   3.3284569947e+01    0.6548836    0.3665736 -68.25  0.002560849    1.859    0.462
       153 -14.9975      8.8797    183.0399   9.6233011128e+01   3.3905311170e+01     1.404039     1.136341  19.90  0.008376505    1.319    0.242
       154 -14.9052     15.0981    174.5490   9.3986711489e+01   3.5520278871e+01     2.123296    0.6952693  40.60  0.008392814    2.360    0.576
       155 -11.1416    249.3327    182.3288   4.1516405342e+01   3.4431291901e+00    0.1109429   0.06368946 -10.45  0.000705184    1.719    0.418
