#   1 NUMBER                 Running object number                                     
#   2 MAG_AUTO               Kron-like elliptical aperture magnitude                    [mag]
#   3 X_IMAGE                Object position along x                                    [pixel]
#   4 Y_IMAGE                Object position along y                                    [pixel]
#   5 X_WORLD                Barycenter position along world x axis                     [deg]
#   6 Y_WORLD                Barycenter position along world y axis                     [deg]
#   7 A_WORLD                Profile RMS along major axis (world units)                 [deg]
#   8 B_WORLD                Profile RMS along minor axis (world units)                 [deg]
#   9 THETA_WORLD            Position angle (CCW/world-x)                               [deg]
#  10 FWHM_WORLD             FWHM assuming a gaussian core                              [deg]
#  11 ELONGATION             A_IMAGE/B_IMAGE                                           
#  12 ELLIPTICITY            1 - B_IMAGE/A_IMAGE                                       
         1 -14.1541    203.4117     17.2365   6.3978363490e+01   3.2612451378e+01     2.364873     1.443522  31.75   0.01072337    2.709    0.631
         2 -13.4201    208.3392     10.7363   6.1906004074e+01   3.2156595476e+01    0.9964417    0.6403464  39.27  0.001412309    2.174    0.540
         3 -12.9654      2.0020     12.6409   1.1657847033e+02   7.0839130714e+01     1.502287    0.4793944 -32.48  0.007626737    2.750    0.636
         4 -11.0352    189.8940     15.7539   6.5232755583e+01   3.6048493307e+01    0.2619174    0.1844054 -42.54 0.0008318661    1.502    0.334
         5 -10.5875    222.5193    244.9382   1.1132852967e+02  -9.6034724725e+00      0.23991    0.1459583  24.14 0.0006787999    1.552    0.356
         6 -10.1261    205.4757    250.3260   1.1532315037e+02  -7.6232795654e+00    0.2242117   0.09649084  39.71  0.001075314    1.955    0.489
         7  -9.7141    189.0073    250.5319   1.1842007552e+02  -4.9440397134e+00    0.1950464    0.1039681  40.97 0.0005038005    1.564    0.361
         8  -9.8853    184.2797    250.2408   1.1926379732e+02  -4.1093537644e+00    0.2201604    0.1462362  31.01 0.0008125934    1.365    0.268
         9 -10.7698    169.6783    248.6211   1.2178689724e+02  -1.3835715003e+00    0.3149213    0.2201006  13.98   0.00081634    1.905    0.475
        10 -11.5480    150.2511    248.6722   1.2548904669e+02   1.9376344069e+00    0.4279034    0.3253931  57.48   0.00264804    1.222    0.182
        11 -11.3325    133.5716    249.2560   1.2872831618e+02   4.6747729729e+00    0.6893075    0.2354244  52.05  0.002696797    2.954    0.661
        12 -10.0951    122.9779    249.9944   1.3081136428e+02   6.3165507614e+00    0.2799523     0.237943  12.97  0.001778294    1.689    0.408
        13 -10.2416    126.9964    249.0177   1.2993926282e+02   5.8189241553e+00    0.2973054    0.2012619  52.68  0.001032421    1.219    0.180
        14 -11.2569    121.9403    244.8836   1.3039311580e+02   7.3937253217e+00    0.4597385    0.1983197  49.11  0.001771535    1.953    0.488
        15 -11.7618    126.3711    240.5153   1.2900086216e+02   7.4362378524e+00    0.4450881    0.3800904  77.01  0.002044127    1.151    0.131
        16 -11.0142    115.1831    250.2756   1.3229871635e+02   7.5472844642e+00    0.5561494    0.2948187  39.10  0.002706971    1.791    0.442
        17 -12.0252    109.5106    246.9076   1.3297387899e+02   9.0716459026e+00    0.5998703    0.5096027 -68.54  0.003230401    1.366    0.268
        18  -9.0620    100.6881    250.3170   1.3497851841e+02   9.8612639414e+00    0.2088083    0.1243162  60.00 0.0008424601    1.456    0.313
        19 -11.5920     98.3351    246.6108   1.3501866619e+02   1.0907457930e+01    0.6653185    0.2389902  42.73  0.002977356    2.379    0.580
        20 -10.8656     81.1130    246.1122   1.3811737542e+02   1.3630869090e+01     0.569056    0.2726852  87.90  0.002560617    3.013    0.668
        21 -10.0797     83.7883    242.1906   1.3724477590e+02   1.3973220184e+01    0.1838096    0.1439974 -53.19 0.0008327548    1.717    0.417
        22 -10.1484     88.2798    250.6239   1.3726252351e+02   1.1720215215e+01    0.4656105    0.1062284  40.62  0.001446818    3.990    0.749
        23 -10.5024     88.8523    247.1419   1.3681385314e+02   1.2275412577e+01    0.4794183    0.1990407  46.44  0.001814412    1.975    0.494
        24  -9.5620     63.2938    249.9709   1.4161639000e+02   1.5458621974e+01    0.1935461    0.1553575 -87.94  0.001387728    1.252    0.201
        25 -11.3412     59.8939    245.2270   1.4181216448e+02   1.6818001475e+01    0.4551194    0.2877312 -73.27  0.001754714    1.562    0.360
        26 -12.5622     69.2805    216.8345   1.3738394262e+02   2.1203357958e+01     1.311698    0.7829359 -86.23  0.003522213    1.654    0.395
        27 -14.8482     20.1740    154.4589   1.4097121840e+02   4.1017716749e+01     2.811405     2.155637 -89.65   0.01878672    1.105    0.095
        28 -11.3203    122.3733    232.7891   1.2878567670e+02   9.5494591580e+00    0.4067149    0.3515655  63.65  0.001587996    1.040    0.038
        29 -12.7157    135.5358    241.0358   1.2729598495e+02   5.7764820279e+00    0.9180742    0.5004773  49.20  0.004734491    1.560    0.359
        30 -11.6032    135.5570    236.3408   1.2666397832e+02   6.6165247284e+00    0.4285932    0.3237437 -16.86  0.001201851    2.217    0.549
        31 -10.4680    134.0124    232.7157   1.2647409501e+02   7.5506557902e+00    0.2277813    0.2091292  60.59 0.0004490731    1.101    0.092
        32 -11.9674    244.8605    241.3004   1.0671151878e+02  -1.2522972893e+01    0.2738812     0.204326  -2.89  0.001812986    1.225    0.183
        33 -10.8157    104.3115    237.9214   1.3292982267e+02   1.1581940615e+01    0.2286891    0.1921389  52.97 0.0007278009    1.166    0.142
        34 -11.4630     89.9225    237.7877   1.3564766176e+02   1.3883312966e+01    0.4424785    0.2202273 -71.84  0.001856756    2.208    0.547
        35  -9.8411     82.9693    238.1608   1.3698901669e+02   1.4870745458e+01    0.2742385    0.1259729  42.53  0.001195237    1.974    0.493
        36 -11.2309    172.8434    239.6850   1.1986126769e+02  -5.0234695109e-01    0.3670749    0.2355182 -57.96  0.001970985    2.027    0.507
        37 -11.0771    144.4943    240.6975   1.2551311144e+02   4.2866704180e+00    0.3006183    0.1292006  51.64  0.001305896    2.226    0.551
        38 -10.6839    115.8042    239.7860   1.3094634339e+02   9.3458599514e+00    0.2296057    0.1952362  60.06 0.0006524582    1.062    0.058
        39 -11.0449     66.9960    244.1478   1.4046735610e+02   1.6041598416e+01    0.4575761    0.2250876  35.62  0.002345916    2.424    0.587
        40 -11.2970    164.8087    241.7462   1.2172289757e+02   5.6407268311e-01    0.3624916    0.2368809  59.53   0.00158797    1.694    0.410
        41 -10.5797    165.6987    234.9712   1.2053920436e+02   1.5411125340e+00    0.2414441    0.2015522 -45.09  0.001095941    1.395    0.283
        42 -10.6346    162.4418    232.9779   1.2087794347e+02   2.4629193893e+00    0.3395627    0.2251026  84.35  0.001380781    2.628    0.620
        43  -9.7285     55.5943    235.7702   1.4177272324e+02   1.9229864922e+01    0.3059457    0.1529977  72.63  0.001293771    2.009    0.502
        44  -9.2191     93.8257    217.0145   1.3249199424e+02   1.7443787762e+01     0.263014    0.1514886  80.41     0.001229    2.161    0.537
        45 -10.7129     92.6357    226.0163   1.3381218473e+02   1.5784962583e+01    0.2913198    0.1868044  59.75 0.0009433845    1.370    0.270
        46 -11.2794     99.2647    223.4973   1.3219679088e+02   1.5233771264e+01    0.4865877     0.293946  50.35  0.001130539    1.443    0.307
        47 -11.1819     98.3627    231.7990   1.3336625909e+02   1.3722581474e+01    0.3751754     0.266234 -81.64 0.0005354664    1.438    0.304
        48 -11.0793    112.6461    230.1828   1.3037144794e+02   1.1696683423e+01    0.3706232    0.3245268   7.25  0.001532456    1.682    0.405
        49 -11.3591    105.8719    229.2102   1.3158753436e+02   1.3012380348e+01     0.640507     0.260163  48.73  0.001785193    2.133    0.531
        50 -10.1075     77.7696    233.0511   1.3744139393e+02   1.6648293198e+01    0.3496504    0.1944272  89.25  0.001816085    2.003    0.501
        51 -11.1868    156.4630    231.7722   1.2188017168e+02   3.7427783325e+00    0.2624626    0.2373261  28.32 0.0006719315    1.170    0.145
        52  -9.0822     62.7944    233.1458   1.4023377868e+02   1.8771845030e+01    0.1443359    0.1259307  68.67 0.0003649643    1.254    0.202
        53  -8.9337     92.4439    232.5065   1.3459056154e+02   1.4520923330e+01    0.1274317    0.1044365  68.82 3.919225e-05    1.025    0.025
        54 -11.3934     96.7539    239.3180   1.3452489452e+02   1.2523489902e+01    0.4100971    0.3042895  79.32  0.001815271    1.252    0.201
        55 -10.5682     84.7606    229.3860   1.3572449944e+02   1.6329187713e+01    0.5004544    0.2185601  40.19   0.00235319    2.212    0.548
        56 -10.8463     77.5826    221.0082   1.3620383415e+02   1.9119794546e+01    0.3027747    0.1924157  68.41 0.0004539519    1.448    0.309
        57 -10.3114     78.6957    224.7015   1.3638862618e+02   1.8193170490e+01    0.2451406    0.2239437  30.46  0.000774143    1.530    0.346
        58  -9.3518    190.8242    228.1576   1.1452577421e+02  -1.7928547725e+00    0.1743552     0.142626  11.90  0.000285396    1.281    0.220
        59  -9.1997    179.4444    227.9286   1.1672144793e+02   2.7678074771e-01    0.1653148    0.1174194 -79.93 0.0006338066    2.346    0.574
        60 -10.2423    141.7035    230.4786   1.2463008204e+02   6.6092339473e+00    0.3067895    0.2246803 -16.70  0.001512818    2.295    0.564
        61  -9.8731    197.6656    226.6820   1.1294705189e+02  -2.7619915614e+00    0.2612806    0.2124376  72.32   0.00146614    1.700    0.412
        62 -10.4214    165.8574    226.7172   1.1922792832e+02   2.9418966147e+00     0.232922    0.2027454 -64.72 0.0008041403    1.338    0.253
        63 -11.1724    160.5574    223.6152   1.1980253377e+02   4.4627273985e+00    0.3826503    0.2281631  36.00 0.0005614951    1.612    0.380
        64  -9.8775    129.4780    220.9981   1.2574005967e+02   1.0585870760e+01    0.2995926    0.2016119  85.01  0.001179544    1.911    0.477
        65 -10.2971    147.9806    224.3214   1.2245901271e+02   6.6243324770e+00    0.4142968    0.2792619   0.86   0.00148699    3.140    0.682
        66 -11.5712    141.9369    221.7548   1.2330191102e+02   8.2038882064e+00    0.3890333    0.3649136  31.61 0.0003576959    1.192    0.161
        67 -11.0601    137.9132    214.3655   1.2300683682e+02   1.0375533219e+01    0.5324226    0.3529475  36.65  0.001243048    1.518    0.341
        68 -10.7955    117.3474    224.2957   1.2866586018e+02   1.2053423166e+01    0.2370866    0.2070963  62.84 0.0002762531    1.051    0.049
        69 -10.8337    132.4246    224.3045   1.2561377873e+02   9.4197358707e+00    0.3246455    0.2360279 -47.09  0.001531112    1.634    0.388
        70 -10.2551    110.7850    221.2699   1.2959215124e+02   1.3775615017e+01    0.3277796    0.1787728 -59.43  0.001525798    1.959    0.490
        71 -10.6284    105.2352    219.1173   1.3043850052e+02   1.5144992532e+01    0.4040669    0.2303032  78.25 0.0005110427    2.387    0.581
        72  -9.9395     35.1704    219.4545   1.4410571051e+02   2.5104463628e+01    0.3264327     0.182645 -69.88  0.001725523    1.640    0.390
        73  -9.5626     31.0205    218.5118   1.4478511649e+02   2.5782583206e+01    0.3140113    0.1060946  60.78  0.001343061    3.166    0.684
        74  -9.7591    245.9900    218.5026   1.0247594261e+02  -9.6003641957e+00    0.1807363   0.09412537  18.78 0.0008101306    2.506    0.601
        75  -8.7360    119.2750    217.3329   1.2731639239e+02   1.3113726635e+01    0.1219744    0.1085138 -12.84 0.0002297833    1.599    0.375
        76  -8.8736    190.6651    215.2970   1.1234897702e+02   3.9510926176e-01    0.1325086    0.1054428  70.87 0.0006924057    1.649    0.394
        77  -9.8643     88.1558    212.8380   1.3313171888e+02   1.9221131724e+01    0.2534682    0.1733962 -76.39 0.0007644448    1.429    0.300
        78 -10.6955     80.6062    227.2387   1.3629250324e+02   1.7390743508e+01    0.2908632    0.2409084   1.66 0.0008547682    2.203    0.546
        79  -8.6652    152.6327    212.3121   1.1960850808e+02   8.0515963718e+00    0.1466361    0.1026554  71.08 0.0007037622    1.766    0.434
        80  -9.8868    101.5700    211.8318   1.3023245027e+02   1.7269810759e+01    0.3094404    0.1467309  56.63  0.001340175    2.167    0.538
        81  -9.4629     33.5460    211.3736   1.4373952273e+02   2.6981917912e+01    0.1637818    0.1032921  44.00 0.0002782096    1.640    0.390
        82  -9.3262    134.8207    208.2012   1.2269509617e+02   1.2184637441e+01    0.2477103    0.1838758 -23.78  0.001205821    2.051    0.512
        83  -9.8933    108.9614    207.3899   1.2806690185e+02   1.6964818110e+01    0.2731745    0.1820651 -63.28 0.0009032372    1.545    0.353
        84  -8.9030    120.1783    208.6101   1.2586552489e+02   1.4749869982e+01    0.1867131     0.125422  34.18 0.0003026044    1.648    0.393
        85 -12.0486     93.5015    203.1192   1.3076017997e+02   2.0464269309e+01     0.579118     0.473212 -83.74  0.003104462    1.145    0.127
        86 -10.5484    102.5632    202.6027   1.2875094805e+02   1.9081563526e+01    0.4328797    0.2433954  59.92  0.001761917    1.838    0.456
        87  -9.9476     98.6510    196.7642   1.2876112104e+02   2.1018734743e+01     0.469844    0.2479088  61.11   0.00126685    2.123    0.529
        88  -9.5768    102.6966    195.6898   1.2771774843e+02   2.0577414151e+01    0.1826548     0.126052 -74.57 0.0003725439    1.477    0.323
        89 -10.3027    175.2690    205.3211   1.1369766845e+02   5.0886084189e+00    0.3638573      0.23361 -25.62   0.00155305    2.133    0.531
        90  -9.3964    178.2852    204.6916   1.1296141349e+02   4.6284214398e+00    0.2221633    0.1983737  31.22 0.0002351373    1.068    0.063
        91 -10.6459    143.2337    249.0727   1.2687531997e+02   3.0689521773e+00    0.2625225    0.2043674  74.03 0.0006210762    1.403    0.287
        92 -11.0458    247.4863    205.4980   9.9778836494e+01  -7.9292243825e+00    0.4864084    0.2013396  28.72  0.001930161    3.136    0.681
        93  -9.3897    125.9438    205.7377   1.2420147576e+02   1.4316461431e+01    0.2014139    0.1664334  55.81 0.0005017095    1.091    0.083
        94  -9.5494    166.9687    203.2603   1.1505845268e+02   7.0787573869e+00    0.1959178    0.1662665  46.15  0.001087193    1.087    0.080
        95  -9.4001    133.1166    202.8385   1.2220234381e+02   1.3607287604e+01    0.2135868    0.1792056  76.00 0.0004046988    1.189    0.159
        96  -9.7186     63.9890    202.0783   1.3682614606e+02   2.5130043877e+01    0.2441299    0.1766104  41.34 0.0008640277    1.510    0.338
        97 -11.1692     32.8605    201.8758   1.4304737091e+02   2.9090115810e+01     0.192868    0.1557614  87.94 0.0002771092    1.106    0.096
        98  -9.7955    197.0442    200.6607   1.0839489313e+02   1.7836730389e+00    0.2071933    0.1695055  35.39 0.0006131793    1.144    0.126
        99 -10.0787    115.1343    200.3266   1.2569942280e+02   1.7404810201e+01    0.2370622    0.1891889 -75.58 0.0002405813    1.262    0.208
       100  -9.0383    169.5348    200.4342   1.1401147665e+02   7.1299807827e+00    0.1421727    0.1310343  43.98 5.739531e-05    1.006    0.006
       101 -10.1625    120.1599    199.4447   1.2446934691e+02   1.6697867362e+01    0.3247016    0.2194074  66.25  0.001209725    1.570    0.363
       102  -9.9546     43.9771    199.2287   1.4060007644e+02   2.8361736892e+01     0.275203    0.1971829  48.85  0.001111071    1.419    0.295
       103 -10.9808    248.9817    194.4583   9.7381703818e+01  -6.4799524389e+00    0.3385532    0.2924713 -73.87  0.002021053    1.775    0.437
       104 -10.0237     86.0460    196.8162   1.3150853185e+02   2.3043751555e+01    0.3959594    0.1774861 -64.31  0.001451644    2.192    0.544
       105 -10.4163     53.1317    198.0172   1.3861259982e+02   2.7480984266e+01    0.3503443    0.1691878  47.99  0.001353971    1.942    0.485
       106 -10.4672     57.0356    193.9286   1.3734666342e+02   2.7882795704e+01    0.3928005    0.3303533 -82.39   0.00254772    1.134    0.118
       107  -8.4838    149.6917    198.7438   1.1793809645e+02   1.1317078809e+01    0.1348666    0.1118574  12.79 0.0001790776    1.519    0.342
       108  -9.6905    134.0553    197.8292   1.2117563077e+02   1.4485813772e+01    0.2186884    0.1778356  72.26 0.0004484321    1.245    0.196
       109  -9.1592    133.4246    194.2572   1.2071238434e+02   1.5365831285e+01    0.2419201    0.2046532  22.95 0.0007274672    1.424    0.298
       110 -11.6432     65.8435    195.0379   1.3561464732e+02   2.6437204420e+01    0.3976738    0.2851214 -49.74  0.001474583    1.714    0.417
       111 -11.2079     76.3329    186.3353   1.3221466178e+02   2.6900378565e+01    0.3996339    0.2292606 -80.50  0.001417183    1.854    0.461
       112 -11.8314     71.4624    187.5311   1.3345327709e+02   2.7339966022e+01    0.3347937    0.2856867 -43.63 0.0007723506    1.524    0.344
       113 -10.1567    112.9616    193.8044   1.2516430719e+02   1.9214790951e+01    0.4822825    0.2540285 -62.28  0.001182635    1.990    0.497
       114 -12.2206     29.4493    227.6250   1.4575403946e+02   2.4108542173e+01    0.7809901    0.4121019  61.68  0.002422063    1.573    0.364
       115 -10.3706     38.6176    192.6630   1.4103050884e+02   3.0449403694e+01    0.3159356    0.1681628 -63.71  0.001727386    1.717    0.418
       116  -9.4529     40.9142    187.8454   1.4006161292e+02   3.1257983527e+01    0.2899039    0.1496427 -72.46  0.001529916    1.655    0.396
       117  -9.5604     31.3494    195.2711   1.4274514657e+02   3.0697489173e+01    0.2937109    0.1218363  50.80  0.001469631    2.263    0.558
       118 -10.0496     20.3840    192.3044   1.4464607746e+02   3.2506673209e+01    0.3864171    0.1629091 -89.47  0.001827714    2.403    0.584
       119  -9.3632    159.7226    194.0677   1.1493888388e+02   1.0317127192e+01    0.1955274    0.1897191 -78.63 0.0004482397    1.082    0.076
       120 -10.4270    119.9271    192.8467   1.2346525557e+02   1.8175203533e+01    0.3577911    0.3354785 -31.95  0.001216713    1.317    0.241
       121  -9.3340    117.9974    190.0094   1.2343116686e+02   1.9152084083e+01    0.2113111    0.1898247  77.06  0.001203323    1.016    0.015
       122  -8.7025     82.2427    194.3533   1.3200146696e+02   2.4185524170e+01    0.1251904   0.09979765 -46.03 0.0001828225    1.584    0.369
       123  -9.7694     57.5539    199.0119   1.3781018007e+02   2.6681028515e+01    0.2187395    0.1459584  69.29 0.0003383789    1.364    0.267
       124  -9.6609     72.9203    193.0817   1.3385537138e+02   2.5867617984e+01     0.194649    0.1660667  83.02 0.0003036693    1.035    0.034
       125  -9.2236     26.3345    192.5872   1.4349705288e+02   3.1828983173e+01    0.2034779   0.09033637 -72.78 0.0008070869    1.855    0.461
       126 -10.1154    191.4681    191.4155   1.0774813031e+02   4.5622848921e+00    0.2447807     0.234249  13.51 0.0006541295    1.027    0.026
       127  -9.2381    172.9801    192.0558   1.1172819706e+02   8.0967653738e+00    0.2255945    0.1770968  -1.27 0.0007492212    1.673    0.402
       128  -9.3193    135.1859    190.0035   1.1958864701e+02   1.5947680491e+01    0.2164667    0.1814019  80.59 0.0004227771    1.234    0.190
       129 -10.2706     32.5794    189.5160   1.4195284646e+02   3.1831933306e+01    0.3252779    0.2337103  28.39  0.002027808    1.888    0.470
       130 -11.0996    249.8036    187.6146   9.5885702975e+01  -5.5363551402e+00    0.3703446    0.2301636 -26.91  0.001940177    1.552    0.356
       131 -10.6259     30.0668    183.5409   1.4188413565e+02   3.3438069397e+01    0.3738782    0.2524352 -88.74  0.002044727    1.211    0.174
       132 -10.8881    141.6862    182.8705   1.1684702943e+02   1.6236406962e+01    0.4835785    0.3741286  36.48  0.001116074    1.344    0.256
       133 -10.3822     25.0506    184.3225   1.4299520984e+02   3.3788766897e+01    0.2224209    0.1809037  57.44  0.001075741    1.306    0.235
       134  -8.7285     86.3446    183.3952   1.2954633589e+02   2.6043080287e+01    0.2476488    0.1344233  22.71 0.0009428171    3.390    0.705
       135 -10.6386    250.2543    181.2666   9.4534116170e+01  -4.5903803715e+00    0.3155176    0.1613955 -42.79  0.001476466    1.948    0.487
       136  -9.4466     65.9329    182.0091   1.3395209992e+02   2.9391848358e+01    0.1985179     0.168031  85.71  0.000338453    1.019    0.019
       137  -9.0004    125.9677    180.3706   1.1996568003e+02   1.9828024290e+01    0.2778765     0.162616 -74.72  0.001094168    2.347    0.574
       138 -10.1407    175.2160    179.7185   1.0883845113e+02   1.0125069370e+01    0.3518704    0.1273881  41.88   0.00119559    2.723    0.633
       139 -10.2924    108.7011    178.1600   1.2356984831e+02   2.3501829516e+01    0.3697746    0.2381425  60.39  0.001213569    1.630    0.387
       140  -9.1695     48.0294    179.6102   1.3761751742e+02   3.2279180225e+01    0.1694438    0.1181504  43.52 0.0004837867    1.538    0.350
       141 -11.4413     79.9517    175.5861   1.2985012706e+02   2.8847631120e+01    0.4554012    0.2758722  47.19  0.001420306    1.638    0.389
       142  -9.3669    115.0175    176.9597   1.2189211481e+02   2.2640250101e+01    0.2383782    0.1680233  82.35  0.001115675    1.689    0.408
       143 -11.6975     67.9661    173.5117   1.3232681892e+02   3.1085117009e+01    0.4870404    0.2881574 -55.63  0.001108103    1.660    0.398
       144  -8.6739    121.5706    175.5558   1.2011386324e+02   2.1747522823e+01    0.1489189    0.1336765  79.99 6.093664e-05    1.054    0.051
       145 -10.6830    236.5522    145.9547   8.9471967301e+01   4.0506635886e+00    0.3929751     0.227829  38.65  0.001376919    1.948    0.487
       146 -12.1459    248.1556    172.0995   9.3025863179e+01  -2.7110307879e+00    0.5997747    0.4667292  11.81  0.003375402    1.390    0.281
       147 -12.5511    248.2385    101.4343   7.7689299778e+01   9.6152214793e+00    0.8454843    0.4481523 -36.57  0.003822521    1.782    0.439
       148 -12.4451    245.4568    163.7143   9.1745397390e+01  -7.9847695690e-01     0.680281    0.3887486 -47.45  0.003201023    1.833    0.454
       149 -12.9859    244.9616    156.1035   9.0218209136e+01   6.1565449383e-01     1.528064    0.9398376 -60.02  0.006777334    2.347    0.574
       150 -13.1358    248.3816    114.0884   8.0480566857e+01   7.3788170822e+00     1.475897    0.9022957 -26.92   0.00683878    1.869    0.465
       151 -11.3455    248.5735    142.3231   8.6649400442e+01   2.3522300033e+00    0.6881673    0.4114641 -20.11  0.002555521    2.172    0.540
       152 -12.8219    248.2493    134.3903   8.4976035445e+01   3.8162711174e+00     1.221888     0.833364 -32.46  0.006263065    1.391    0.281
       153  -9.4755     90.9003    172.8248   1.2685367023e+02   2.7773203436e+01    0.2840394    0.2108159 -30.54  0.000957714    1.956    0.489
       154 -10.3669     89.9117    160.6214   1.2503283644e+02   3.0819893473e+01    0.2611227    0.2122149 -76.66 0.0005516159    1.151    0.131
       155  -9.6867     93.5005    169.4100   1.2567175446e+02   2.8149885974e+01    0.2343507    0.1823447  32.72 7.572272e-05    1.500    0.333
       156 -12.5465     87.2666    166.7286   1.2671896037e+02   2.9795225168e+01    0.8228647    0.5770591 -52.89   0.00424345    1.444    0.308
       157 -11.2859     28.4993    171.2242   1.4094845958e+02   3.6386514420e+01    0.4283931    0.1868335 -64.56  0.001687106    1.883    0.469
       158 -14.9469      8.1120    207.5062   1.4810118852e+02   3.0482891282e+01     3.564362     1.380766 -77.62   0.01907104    2.063    0.515
       159  -8.5789    167.0000    170.0516   1.0865224269e+02   1.3840715226e+01      0.24503   0.08655099 -46.61 0.0007968936    2.904    0.656
       160  -8.8683    100.5098    170.4947   1.2418394945e+02   2.6713816335e+01    0.1463858    0.1302332  85.81 -0.0001923278    1.028    0.028
       161 -11.0491     44.2877    168.7561   1.3713788855e+02   3.5233101444e+01    0.4835143    0.3376711  41.65  0.002699737    1.579    0.367
       162  -9.2968    126.5663    167.7110   1.1746936104e+02   2.2590954513e+01    0.2052511    0.1415472 -67.76 0.0009380066    1.568    0.362
       163  -9.0354    107.2723    168.3892   1.2219724825e+02   2.6024319724e+01    0.1934148    0.1304224  53.80 0.0003182706    1.482    0.325
       164  -9.3104     58.7191    167.7008   1.3366273521e+02   3.3701313192e+01    0.1844069    0.1340572  80.16 0.0006463184    1.336    0.252
       165 -10.5173     68.7774    166.7369   1.3114905973e+02   3.2566407701e+01    0.2691187    0.2271078 -48.38 0.0003425996    1.365    0.267
       166  -8.5758    136.3085    165.6509   1.1476283694e+02   2.1140837528e+01    0.1590526    0.1168649  84.57 0.0007043967    1.709    0.415
       167  -8.9584     77.2451    165.3978   1.2891591993e+02   3.1657050390e+01    0.1387146   0.09861744 -43.01 0.0006936026    1.680    0.405
       168  -9.5163     54.0173    164.7130   1.3435304551e+02   3.5004952850e+01    0.2196242    0.1517795 -79.92 0.0003979094    1.288    0.224
       169  -9.6435    107.8320    173.1359   1.2290627777e+02   2.4817883972e+01    0.2209145    0.1791211  78.97  0.000463974    1.237    0.192
       170 -13.0606     38.1077    244.3807   1.4547725625e+02   1.9798872261e+01      1.00554    0.5362839 -70.97  0.006273666    1.797    0.444
       171 -10.5764     95.9166    157.3501   1.2295934467e+02   3.0604473172e+01     0.417419     0.204963 -60.23  0.001073201    1.976    0.494
       172  -9.1921     78.8696    158.8474   1.2745041276e+02   3.2972184487e+01    0.1921931    0.1507777  84.03 0.0005990677    1.275    0.215
       173  -8.9730     52.4701    158.4569   1.3384425064e+02   3.6671727117e+01     0.133105    0.1116164 -81.60  0.000218524    1.002    0.002
       174 -10.8997     73.6659    158.0369   1.2860059962e+02   3.3935667615e+01    0.4679494     0.313417 -68.97  0.002001242    1.368    0.269
       175  -9.2000    228.3664    155.3051   9.2978382360e+01   3.9724482993e+00    0.1982413    0.1271714 -46.54 0.0004813002    1.556    0.357
       176  -8.5310    175.7205    155.2640   1.0354852021e+02   1.5115853028e+01    0.1471984    0.1205718  87.73 0.0006874477    1.481    0.325
       177 -10.0857     53.0117    146.2961   1.3188732104e+02   3.9487116540e+01    0.2552358      0.19774 -86.12  0.000790173    1.210    0.174
       178 -10.1654     60.4002    151.2332   1.3080318609e+02   3.7384996853e+01    0.4711577    0.2650077  82.83   0.00188863    2.521    0.603
       179 -10.7847     56.1553    150.0736   1.3168551224e+02   3.8202656727e+01    0.3139063     0.267903 -75.96  0.001273504    1.017    0.016
       180 -10.2658    113.8921    150.8380   1.1719812286e+02   2.8944484524e+01    0.3831055    0.2483874 -57.50 0.0006766083    1.508    0.337
       181 -11.0266     99.9585    151.3566   1.2081046207e+02   3.1339838338e+01    0.4806018    0.4404933  -1.90  0.002233836    1.368    0.269
       182  -9.6197    103.1948    145.9820   1.1891518272e+02   3.2049815082e+01    0.3208722    0.2459456 -30.10  0.001117746    1.645    0.392
       183 -12.6798     10.6597    186.4555   1.4606448990e+02   3.4718038061e+01    0.8728381    0.5157503  29.30 0.0005170499    2.240    0.554
       184 -14.0765      5.9864    245.5518   1.5071685510e+02   2.3203959766e+01     1.136105    0.5918335  78.47  0.003929569    1.448    0.310
       185  -9.8691    138.6956    138.7765   1.0838596027e+02   2.6786157328e+01    0.2530819     0.235569  -7.67 0.0005808135    1.235    0.190
       186 -10.5044    134.0000    145.0046   1.1095246681e+02   2.6340743026e+01    0.6923907    0.2003554 -52.44  0.001967713    3.715    0.731
       187 -10.3861    133.2363    140.2822   1.1007757748e+02   2.7584455758e+01    0.3742841    0.3319612 -46.19    0.0014326    1.146    0.127
       188 -11.5809     60.6433    137.4801   1.2843351953e+02   4.0628978141e+01    0.5360417    0.3139978 -84.19  0.001870085    2.137    0.532
       189 -12.9702     67.5018    144.2154   1.2781923865e+02   3.8110349103e+01    0.8117122    0.5644844  86.17  0.003893122    1.636    0.389
       190 -12.8117     13.8360    238.8306   1.4910822055e+02   2.3646067163e+01    0.5538327    0.2966705  57.28  0.003704886    1.488    0.328
       191  -9.4112    158.9931    145.0731   1.0500590023e+02   2.0985921794e+01    0.2251095    0.2177558 -86.78  0.001185341    1.016    0.016
       192  -8.8696     92.9352    145.0712   1.2137570371e+02   3.4034819248e+01    0.2231831    0.1629562  75.21 0.0006582466    1.603    0.376
       193 -11.8138     72.6938    139.6518   1.2563499284e+02   3.8471696392e+01    0.5460168    0.3920785  52.42  0.002889948    1.498    0.333
       194 -12.7789     40.5361    228.5587   1.4386899768e+02   2.2600298402e+01    0.3522777    0.2667768 -68.67 0.0008143002    1.484    0.326
       195 -13.9799     27.7343    247.1889   1.4737423216e+02   2.0508310174e+01     1.962208    0.9189611  40.01    0.0116214    2.211    0.548
       196 -10.3333    111.2128    136.0754   1.1473053854e+02   3.2924932180e+01    0.4071968     0.309094  11.33  0.001126038    1.871    0.466
       197  -9.5291    136.9327    134.0496   1.0771542451e+02   2.8234742602e+01    0.2280384    0.1910672  -4.38            0    1.544    0.352
       198 -12.0405     45.4121    131.7559   1.3151144453e+02   4.3801107960e+01    0.4603583    0.3282202 -86.86  0.002121544    1.446    0.308
       199 -14.5205     46.8946    218.9872   1.4189814846e+02   2.3767687419e+01     1.585736     1.309993  79.08   0.01115339    1.136    0.119
       200 -11.3067     33.3232    127.6704   1.3409093415e+02   4.5996770930e+01    0.2318776    0.1770323  75.40  0.001416959    1.430    0.301
       201 -11.5734     30.1956    126.6264   1.3476707999e+02   4.6531250519e+01    0.2606892    0.1895304   9.87  0.001249866    1.884    0.469
       202  -9.3060     95.5426    172.7322   1.2574179796e+02   2.7030317566e+01    0.2154116     0.152553  79.12  0.001057356    1.558    0.358
       203  -9.8207    117.0398    128.7626   1.1153655448e+02   3.3511010667e+01    0.2502523    0.1858658   4.42   0.00108456    2.055    0.513
       204  -8.9824    109.8440    129.1020   1.1351125298e+02   3.4812655714e+01    0.1972302    0.1754235 -21.76            0    1.294    0.227
       205 -11.7939     67.6412    127.9166   1.2474784740e+02   4.1966841742e+01    0.4593385    0.3792733  68.48  0.001167821    1.333    0.250
       206  -9.7945    122.9175    128.0670   1.0984277738e+02   3.2503264584e+01    0.2270744    0.2181659 -73.26 0.0003124797    1.002    0.002
       207 -12.8630      9.1846    127.2067   1.4036550558e+02   4.8100199345e+01     0.720885    0.3598248  12.46  0.003800102    3.054    0.673
       208 -12.0108     23.3708    121.3153   1.3579047646e+02   4.8346907761e+01    0.4010569    0.2372363 -27.85  0.001822343    2.362    0.577
       209 -13.1025     20.3229    121.3050   1.3661573392e+02   4.8598080597e+01    0.6036955    0.3490348 -37.48  0.002652123    2.018    0.504
       210 -10.4371    209.8280    125.7481   8.9699919229e+01   1.3539842555e+01    0.2980841    0.2523006 -40.23 0.0004909935    1.142    0.125
       211 -11.2319     36.6932    124.6945   1.3269442696e+02   4.6358553806e+01     0.417167     0.208358  71.24  0.001576351    3.966    0.748
       212 -11.1906     38.1993    121.5845   1.3175144703e+02   4.6928196430e+01    0.2696458    0.2154642  66.96  0.001669044    1.419    0.295
       213  -8.6331     85.4555    126.5703   1.1954749807e+02   3.9647721959e+01      0.14308    0.1318382 -65.59 0.0002304392    1.007    0.007
       214 -10.5952     59.0297    125.0097   1.2656956851e+02   4.3781268585e+01    0.4059305    0.1833525  32.15  0.000929054    2.552    0.608
       215 -10.3243     54.6242    120.7904   1.2699071633e+02   4.5308456771e+01     0.249581     0.198896  17.41   0.00115945    1.552    0.356
       216 -11.3184    136.4071    227.7015   1.2529430650e+02   8.0661072615e+00    0.4732727    0.3521571 -18.14  0.002444278    2.235    0.552
       217  -9.6126     86.3666    116.3683   1.1699744097e+02   4.1876650900e+01    0.3125855    0.1763633 -61.49  0.001097604    1.848    0.459
       218 -11.2673     32.1450    116.4164   1.3255727775e+02   4.8696342667e+01    0.3809706    0.1772907 -45.78  0.001836258    2.065    0.516
       219 -12.5508     14.9809    114.9212   1.3711661683e+02   5.0447067051e+01     0.367945    0.2810745 -70.76  0.001310974    1.070    0.066
       220  -9.5506    231.8062    116.5869   8.3669031015e+01   1.0417254818e+01    0.1912892    0.1408569  70.79 0.0005352719    1.590    0.371
       221 -10.9024    168.0513    113.2244   9.5164168616e+01   2.5775361380e+01    0.3675252    0.3022544 -82.36 0.0008865873    1.402    0.287
       222  -9.8106     50.0387    112.7569   1.2672028659e+02   4.7698492283e+01    0.1741811    0.1601623 -55.03 0.0003374926    1.080    0.074
       223  -9.3414    203.5171    111.5283   8.7461310410e+01   1.7744018231e+01    0.1506946    0.1470246 -47.64 0.0008090677    1.059    0.055
       224 -11.2041     57.6242    110.4149   1.2400308129e+02   4.7335740989e+01    0.3954352    0.2232349  19.24  0.001842318    2.426    0.588
       225 -12.0378    129.0409    234.1231   1.2764714328e+02   8.1532736547e+00    0.5990391    0.3690418  57.69  0.003168892    1.529    0.346
       226 -10.4412     31.5021    110.9962   1.3178663809e+02   4.9986424874e+01    0.2068907    0.1922552  20.02 0.0005992539    1.314    0.239
       227 -10.7351     27.7061    106.6673   1.3211370907e+02   5.1293315886e+01     0.221907    0.1879071 -79.02  0.001484273    1.185    0.156
       228 -11.4085     19.3911    104.0847   1.3410499168e+02   5.2535073712e+01    0.3403841    0.1861213 -34.29  0.001828818    2.096    0.523
       229  -8.6457     77.5692    103.4330   1.1645026389e+02   4.6179446016e+01    0.1394552    0.1263016 -44.52 9.000485e-05    1.017    0.017
       230  -9.7781     30.9407     90.3131   1.2788014106e+02   5.4603783644e+01    0.1655158    0.1419084 -43.07  0.000402827    1.081    0.075
       231 -11.1121    249.5438    151.0051   8.8356756620e+01   6.4816639583e-01    0.5732619    0.3027398 -40.09   0.00253353    1.713    0.416
       232  -9.7868     24.2422     87.9623   1.2953076506e+02   5.5665431450e+01    0.1787085    0.1630507 -33.12 0.0003552507    1.170    0.146
       233 -10.6206    193.8762    245.3177   1.1670724748e+02  -4.9902299965e+00    0.2189996    0.1987857 -47.75 0.0003629329    1.368    0.269
       234  -9.7538     69.0420    247.1891   1.4037347155e+02   1.5177118826e+01     0.242728   0.08837045  36.32 0.0009071457    3.305    0.697
       235  -9.9510    199.9017    245.9002   1.1566631689e+02  -6.0813092616e+00    0.1787083    0.1469674  66.03 0.0005597366    1.634    0.388
