#   1 NUMBER                 Running object number                                     
#   2 MAG_AUTO               Kron-like elliptical aperture magnitude                    [mag]
#   3 X_IMAGE                Object position along x                                    [pixel]
#   4 Y_IMAGE                Object position along y                                    [pixel]
#   5 X_WORLD                Barycenter position along world x axis                     [deg]
#   6 Y_WORLD                Barycenter position along world y axis                     [deg]
#   7 A_WORLD                Profile RMS along major axis (world units)                 [deg]
#   8 B_WORLD                Profile RMS along minor axis (world units)                 [deg]
#   9 THETA_WORLD            Position angle (CCW/world-x)                               [deg]
#  10 FWHM_WORLD             FWHM assuming a gaussian core                              [deg]
#  11 ELONGATION             A_IMAGE/B_IMAGE                                           
#  12 ELLIPTICITY            1 - B_IMAGE/A_IMAGE                                       
         1  -9.5411    119.9748      9.4926   1.1766942904e+01   5.2913784339e+01    0.3280739    0.2774397 -18.02  0.001978776    1.436    0.303
         2  -8.9424     94.0352     10.8617   1.6200394732e+01   5.9257208709e+01    0.2008692    0.1863294 -59.09 0.0002491727    1.150    0.131
         3  -8.8034    110.3622      9.7498   1.3124274207e+01   5.5268986611e+01    0.2174503    0.1689438 -66.59 0.0003409391    1.213    0.175
         4  -9.3167      8.0701      8.5263   5.5609173209e+01   7.8425464598e+01    0.3040293    0.1026404  37.13  0.001223813    2.742    0.635
         5 -12.0974     21.8159    222.3107   8.8418592634e+01   2.3270248449e+01       1.4367    0.6200532  12.57  0.005349752    2.370    0.578
         6 -10.7289    248.8922    248.4596   4.3976128182e+01  -2.2665146648e+00    0.3842994    0.2884786 -38.89  0.003230165    2.135    0.532
         7  -8.1016     30.7879    250.4044   8.7534026148e+01   1.6869330306e+01    0.1660018   0.09817415  12.31 0.0004989241    1.590    0.371
         8  -9.3362      2.9349    249.8366   9.3987739655e+01   1.9124233857e+01    0.2565354    0.2273863  32.96  0.001348264    1.161    0.139
         9  -9.6387      7.0146    248.9857   9.3027295835e+01   1.8992272940e+01    0.2836491    0.1788992  44.10 0.0003326637    1.257    0.205
        10 -10.7638      9.0597    223.4637   9.1747444818e+01   2.4010353657e+01    0.8315641     0.327501  70.81  0.002777789    2.813    0.645
        11  -7.1820    108.5316    243.4066   6.8824503276e+01   1.0799119418e+01    0.1227062   0.09579061  11.45 3.867491e-05    1.028    0.027
        12  -8.1397     38.7603    240.5331   8.5117910314e+01   1.8086503815e+01    0.2362575   0.09028999  83.30 0.0008962982    4.488    0.777
        13  -9.1242    237.2478    249.6283   4.5777963517e+01  -1.5849835394e+00     0.173676   0.08196923 -19.00 0.0008868062    1.690    0.408
        14  -9.9811      2.3646    220.9665   9.3376757171e+01   2.5027486172e+01     0.409811    0.2602426  77.78  0.001475727    1.608    0.378
        15 -11.1062      3.2809    227.1065   9.3319606808e+01   2.3652633183e+01    0.6701964    0.5159249  81.81  0.004083252    1.378    0.274
        16 -10.5385     47.0805    218.0101   8.1524482496e+01   2.1961387656e+01    0.3370377     0.310446  38.35 0.0008013407    1.088    0.081
        17 -10.2074     43.4075    216.2330   8.2367536735e+01   2.2695633956e+01    0.2670137    0.2108967  45.50  0.001609483    1.164    0.141
        18 -11.3991     58.1320    213.7350   7.8238816934e+01   2.1790440481e+01     0.909205    0.3595789  30.60  0.003948765    2.016    0.504
        19 -10.4019     39.6419    209.6690   8.2906946000e+01   2.4503430859e+01    0.3330019    0.2484613 -34.78   0.00187558    1.585    0.369
        20  -8.1784    106.1295    208.5590   6.5268364475e+01   1.7485730263e+01    0.2371847    0.1808894  -6.24 0.0007912982    1.310    0.237
        21  -9.7674    100.0732    210.1788   6.6975919890e+01   1.7879354001e+01    0.2472872    0.1944857 -33.04  0.000285906    1.334    0.250
        22  -8.8699     78.1782    201.4076   7.1588194881e+01   2.2290856231e+01    0.4417517    0.2146757 -78.59  0.001743342    3.235    0.691
        23  -9.4536     24.2035    203.2653   8.6763865906e+01   2.7342249664e+01    0.2671422    0.1762192  75.55  0.001425869    1.608    0.378
        24  -8.0519     71.5448    200.8032   7.3320795610e+01   2.3186880844e+01    0.2910834    0.1415247 -81.06  0.001142196    3.173    0.685
        25  -7.7184     69.5001    196.2934   7.3379516750e+01   2.4436063342e+01    0.1683542    0.1347587  82.76 0.0005389455    1.490    0.329
        26 -11.4628      5.0128    143.0066   8.9205204411e+01   4.4258106677e+01      1.79675    0.4819371  82.55  0.004618286    5.555    0.820
        27 -12.6339     15.3143    182.8978   8.8176845197e+01   3.2991294452e+01     1.469613    0.9941738  47.89   0.00572175    1.333    0.250
        28  -8.8317     43.9808    190.5068   8.0121376186e+01   2.8556063259e+01    0.2201134    0.2026079 -72.19  0.000363349    1.186    0.157
        29  -7.7830    190.4068    194.3077   4.5180662173e+01   9.9399474773e+00    0.1432517   0.09994294 -40.07 0.0002633512    1.432    0.302
        30  -9.0385     33.3520    172.3947   8.1750886991e+01   3.4126672210e+01    0.2868687    0.2050876  36.63  0.001134884    1.275    0.215
        31  -8.9764     10.9661    169.0104   8.8738298749e+01   3.6871667608e+01    0.2074788     0.188563  49.14 0.0003045746    1.012    0.012
        32  -9.6258     40.7645    167.2836   7.8849564821e+01   3.4718077979e+01    0.3721829    0.2680169 -10.37 0.0006968667    1.638    0.390
        33  -7.0882    110.5293    167.5500   5.7932419999e+01   2.5555137115e+01    0.1406861    0.1332997  22.15 0.0001277244    1.074    0.069
        34  -7.5636     56.5113    167.5151   7.3795768552e+01   3.2911039511e+01    0.1453669    0.1384209  22.30  0.000674159    1.034    0.033
        35  -9.5731     48.3535    162.2783   7.5786894661e+01   3.5204856559e+01      0.30579    0.2492643 -14.15 0.0006649909    1.377    0.274
        36  -8.6130    117.6760    166.7542   5.5932616404e+01   2.4671373053e+01    0.3217371    0.2136206 -23.16  0.001462763    1.773    0.436
        37 -12.4573     22.5371    177.6912   8.5609690659e+01   3.3730417114e+01     2.199464    0.6755081  58.28  0.006605982    4.338    0.769
        38  -8.1383    230.4536    159.4832   3.3063521166e+01   1.0544892769e+01    0.1116977   0.08393019 -27.87 1.377751e-05    1.034    0.033
        39  -9.0325     71.4450    154.1769   6.7089388740e+01   3.4401244480e+01    0.4610118    0.3722652  53.35  0.001734302    1.291    0.226
        40  -9.5860     69.4587    149.5045   6.6969741247e+01   3.5870640050e+01     0.387858    0.3109836  41.57 0.0007190821    1.216    0.178
        41 -10.6949     69.4759    144.9596   6.6195437335e+01   3.7039634597e+01     1.018554      0.48763  52.60  0.002920594    2.675    0.626
        42  -8.9995     61.4559    154.4160   7.0382987426e+01   3.5673442325e+01     0.273462     0.240742 -28.81 0.0005322005    1.216    0.178
        43 -11.1396     46.2036    149.7747   7.4918931802e+01   3.8761842225e+01    0.5292572    0.3436618 -13.50  0.001397148    1.991    0.498
        44  -7.5661     23.8239    148.1767   8.2726098295e+01   4.1452505784e+01    0.1987266    0.1677527 -34.55  0.000419267    1.294    0.227
        45  -8.6090     39.9157    144.0760   7.6406520440e+01   4.1006342106e+01    0.2870376    0.1963086  19.64  0.001334391    1.469    0.319
        46 -11.0833      5.6551    189.1927   9.1377743155e+01   3.2131234623e+01    0.4911273    0.3727065 -23.47 0.0007196794    1.580    0.367
        47  -8.3520     87.9038    138.5988   5.9041730291e+01   3.5850418747e+01    0.2760034    0.1998358 -42.43  0.001298124    1.431    0.301
        48 -10.0980     75.7010    135.4605   6.2372710921e+01   3.8562789342e+01    0.3532431    0.3105105  49.58 0.0006030178    1.150    0.131
        49 -10.1096     59.9543    133.5235   6.7485010016e+01   4.1379551578e+01    0.7169611     0.422978  78.38  0.002668746    2.596    0.615
        50  -7.8772     38.0819    134.9801   7.5854357039e+01   4.3701910536e+01    0.1794657     0.168178  35.21 0.0004981867    1.048    0.046
        51 -10.4361     27.4193    131.0257   7.9472746090e+01   4.5881820350e+01    0.2784973    0.2562853 -14.73  0.001511012    1.158    0.136
        52  -7.6215    103.4979    128.4601   5.2178802329e+01   3.5643306660e+01    0.1527671    0.1415149 -12.16  0.000109269    1.122    0.109
        53  -7.3746     79.5371    127.4208   5.9455103689e+01   3.9998493593e+01     0.151613    0.1480772  21.28 8.934588e-05    1.018    0.018
        54  -9.8889     50.6592    120.4544   6.8582170896e+01   4.6163019561e+01     0.947887    0.4479901  67.87  0.002588491    4.738    0.789
        55  -8.8073     89.2359    124.1161   5.5554819436e+01   3.9185053576e+01    0.2688511    0.2412554  13.76 0.0005296483    1.169    0.145
        56 -12.0812     13.7978    162.9011   8.7421350533e+01   3.8275467465e+01     1.539826    0.6477143  73.81  0.005712822    2.795    0.642
        57  -7.3373    102.4307    117.5547   4.9965788222e+01   3.8369179957e+01    0.1484223    0.1464107 -27.50  9.16838e-05    1.014    0.014
        58  -8.0240    175.6775    115.9500   3.2895993813e+01   2.5141063180e+01    0.1781367    0.1469734 -39.72 0.0002910711    1.062    0.058
        59  -7.4308    188.9290    114.0891   3.0346941505e+01   2.3223191845e+01    0.1489541    0.1218664 -39.79 0.0003380398    1.041    0.039
        60  -7.7875      5.3542    113.3040   8.6775414150e+01   5.2542481751e+01    0.1586054   0.09779155 -39.25 0.0007040272    1.711    0.415
        61  -8.0129    102.9775    105.2875   4.6729982812e+01   4.1060059396e+01    0.1991879    0.1877011  36.80 0.0002682394    1.079    0.073
        62  -9.2596     21.9290    101.0853   7.7585261186e+01   5.4774821545e+01    0.4673579     0.276224  67.86  0.001934513    2.062    0.515
        63  -7.8655     36.5086    101.4655   7.0855823088e+01   5.3140170402e+01    0.1502909     0.147582 -30.93  0.000250142    1.025    0.024
        64  -8.4551     76.5903     88.4149   5.0743639994e+01   5.0109056224e+01    0.2450354    0.2420269  16.76 0.0002139923    1.041    0.039
        65  -7.8233    128.0497     72.9284   3.1149485720e+01   4.2250889910e+01    0.2048858    0.1733968 -71.93            0    1.194    0.162
        66  -8.3100    167.1529     57.1546   2.0046202804e+01   3.6213660862e+01    0.1762811    0.1669669 -38.57 0.0003724963    1.203    0.169
        67  -7.7237    249.2274     56.0262   1.2076779660e+01   2.1785889823e+01    0.1453195   0.09954701 -43.25            0    1.053    0.051
        68 -11.9638    235.6354     47.2574   1.1292765646e+01   2.4872366484e+01    0.7401177    0.6318559  53.69  0.005916055    1.648    0.393
        69  -8.4603    207.1378     29.3312   9.4547800166e+00   3.1802414849e+01    0.1757286    0.1322349 -36.92 0.0005124129    1.270    0.213
        70  -7.6065     73.3642     25.8828   2.8061839163e+01   6.2664998264e+01    0.1769888    0.1354832 -13.13  0.000318449    1.632    0.387
        71  -7.2794     89.6064     22.5147   2.2104878552e+01   5.9105465020e+01    0.1364728    0.1234476  85.95 9.820771e-05    1.036    0.035
        72  -7.6761     42.1341    247.8147   8.4719793475e+01   1.6392329813e+01    0.1519733    0.1304305  -8.04 0.0005800512    1.308    0.236
        73 -11.8403     10.3759    207.5529   9.0800758757e+01   2.7440912168e+01    0.9834651    0.7223005  49.34  0.004063032    1.184    0.155
        74 -10.9689     12.7556    239.3317   9.1377704534e+01   2.0449900292e+01     1.169066    0.3990874  57.65  0.005163237    2.873    0.652
