#   1 NUMBER                 Running object number                                     
#   2 MAG_AUTO               Kron-like elliptical aperture magnitude                    [mag]
#   3 X_IMAGE                Object position along x                                    [pixel]
#   4 Y_IMAGE                Object position along y                                    [pixel]
#   5 X_WORLD                Barycenter position along world x axis                     [deg]
#   6 Y_WORLD                Barycenter position along world y axis                     [deg]
#   7 A_WORLD                Profile RMS along major axis (world units)                 [deg]
#   8 B_WORLD                Profile RMS along minor axis (world units)                 [deg]
#   9 THETA_WORLD            Position angle (CCW/world-x)                               [deg]
#  10 FWHM_WORLD             FWHM assuming a gaussian core                              [deg]
#  11 ELONGATION             A_IMAGE/B_IMAGE                                           
#  12 ELLIPTICITY            1 - B_IMAGE/A_IMAGE                                       
         1 -10.8971     33.0000     27.4594   1.0097397724e+02   6.9389596733e+01     1.510484   0.03303806 -57.00  0.002181323   19.446    0.949
         2 -11.4093    201.9308     29.3463   5.2290681378e+01   3.0223196678e+01    0.7208006    0.6567224  31.98  0.003422503    1.186    0.157
         3 -11.3441    216.9737     11.9499   4.5673100918e+01   2.8268970933e+01    0.7174709    0.5987318 -47.17  0.003366136    1.096    0.087
         4  -9.8499     32.6945      3.3220   8.8703011461e+01   7.4262795692e+01    0.4439153    0.1132804 -46.91   0.00152646    3.755    0.734
         5 -10.8812     21.6722     11.1808   1.0091003899e+02   7.3999217788e+01    0.3805684    0.1674044 -57.13  0.001788667    2.055    0.513
         6 -10.5768     17.3852      3.8074   1.0020582426e+02   7.5894968555e+01    0.2179746    0.2076355  -6.40  0.001554993    1.216    0.178
         7 -11.6006    114.4213    228.5723   1.1177404396e+02   1.6175604221e+01    0.5903035    0.2318002 -61.41  0.003137738    3.601    0.722
         8 -11.8850    134.1076    246.9905   1.0992963862e+02   1.1143829351e+01    0.4308755    0.3632711 -29.49  0.003622394    1.687    0.407
         9 -12.0529    126.2732    247.9633   1.1137982460e+02   1.2052670966e+01    0.6521679    0.3535454 -47.69  0.004441824    2.659    0.624
        10 -11.6914    143.8629    246.5580   1.0819830940e+02   9.9023968976e+00    0.3730291    0.2902783  85.85  0.002867397    2.053    0.513
        11 -11.1687    114.2086    248.4519   1.1352546412e+02   1.3549402964e+01    0.2943611    0.2792674  16.21  0.002659401    1.429    0.300
        12 -10.9430    109.7906    246.8089   1.1416844379e+02   1.4323730317e+01    0.3118521    0.1943703 -55.71  0.002295792    2.254    0.556
        13 -11.5975     97.3763    248.3429   1.1646278588e+02   1.5680234121e+01    0.5033726    0.3043695  28.74  0.003518543    1.628    0.386
        14 -12.1712     41.9126    212.8761   1.2452278861e+02   2.7522861924e+01    0.6492185    0.5110833 -67.33  0.001376597    1.659    0.397
        15 -14.1490     50.7715    202.1479   1.2216635295e+02   2.8409625483e+01     2.579414    0.9321432  52.38   0.01352166    2.168    0.539
        16  -9.8381     67.2174    183.5683   1.1729827741e+02   2.9853784969e+01    0.3408016    0.2345625 -36.29  0.001882583    2.403    0.584
        17 -10.1672     72.0284    177.6388   1.1567642854e+02   3.0369808828e+01    0.2831919    0.2352966 -42.21  0.000740824    1.659    0.397
        18  -9.9478     80.8593    167.5692   1.1257606201e+02   3.1150638306e+01    0.2794948    0.2135824  28.15 0.0007105691    1.444    0.307
        19 -10.8907     86.2246    161.4154   1.1056042292e+02   3.1618446270e+01    0.4686535    0.3527529 -23.21  0.001898149    2.105    0.525
        20 -11.4355     68.3736    163.9227   1.1516174382e+02   3.3561692819e+01    0.3898135    0.2805089 -43.37   0.00117509    1.909    0.476
        21 -10.4419     32.7046    155.7253   1.2317505300e+02   3.9353933647e+01    0.4627801   0.09795167 -77.08  0.001626598    4.662    0.786
        22  -9.9740     79.3475    159.6751   1.1201943618e+02   3.2950575220e+01    0.2171376    0.1295035  64.17  0.001125962    1.745    0.427
        23 -10.7395     70.3504    144.6975   1.1245525503e+02   3.7349520111e+01    0.4196947    0.2401276  60.31  0.002019603    1.766    0.434
        24 -11.4721     65.8838    142.2965   1.1333630437e+02   3.8468929351e+01    0.6485388    0.3462326  50.06  0.002705993    1.705    0.414
        25  -9.3041    101.2059    144.2330   1.0439849889e+02   3.2826729865e+01    0.2905097    0.1877487 -42.68  0.001457452    1.908    0.476
        26 -10.3538     88.9672    143.9607   1.0749223164e+02   3.4822396400e+01    0.2524916    0.2361271 -22.09 0.0004760676    1.346    0.257
        27 -11.3492    126.2967    230.3717   1.0974953914e+02   1.4311441455e+01    0.3034832    0.2275714  62.68  0.002236937    1.489    0.328
        28 -15.8476      9.7099    238.0543   1.3123632247e+02   2.6601252613e+01     12.48245     2.715075 -85.13   0.06129558    4.873    0.795
        29  -8.3662    110.4102    132.8190   1.0006257610e+02   3.3638419449e+01     0.185604    0.1314897 -43.17 0.0008236005    1.613    0.380
        30 -10.7007     58.7792    131.6889   1.1394609878e+02   4.1751162394e+01    0.4124668    0.1981783 -77.61  0.001872872    2.224    0.550
        31 -11.0163     51.1036    226.3726   1.2346310037e+02   2.4327150320e+01     0.330297    0.1177388  51.07  0.001289661    2.006    0.501
        32  -9.3584     98.3015    129.1036   1.0257967948e+02   3.6518694022e+01    0.2470219    0.2193813  18.84 0.0007304679    1.313    0.238
        33  -8.0004    107.5327    120.5897   9.8441354323e+01   3.6750012321e+01    0.1416814    0.1322139  54.60 0.0001400683    1.028    0.027
        34 -12.8905     10.7337    206.4771   1.3027964862e+02   3.1632701269e+01    0.9292396    0.5633155  24.79  0.003472034    1.935    0.483
        35  -8.2323    167.6573    112.3388   8.1862269385e+01   2.6136628790e+01    0.1476115    0.1181062 -84.49 0.0007049319    1.772    0.436
        36 -10.6815     33.0000     92.4219   1.1676390104e+02   5.3895073269e+01    0.9735472   0.09030044 -71.46  0.001926721   10.615    0.906
        37 -11.3424     84.2693    222.9997   1.1699356835e+02   2.0944839666e+01    0.3748005     0.272645  80.29   0.00277571    1.512    0.338
        38 -10.2824     83.1522    230.3958   1.1774795400e+02   1.9963853056e+01     0.222016    0.1447411 -89.70  0.001112905    1.869    0.465
        39  -9.6171     97.0083    238.5053   1.1580419665e+02   1.7062179687e+01    0.1688625   0.07664103  38.93 0.0007516668    1.569    0.363
        40  -9.7675     33.0000     63.8938   1.1176815697e+02   6.0872248225e+01    0.4394011   0.06668304 -66.96  0.001137939    5.753    0.826
        41 -11.2252    134.5743    229.6376   1.0815918717e+02   1.3265533177e+01    0.3024366    0.2114678 -32.60  0.002105746    2.070    0.517
        42 -10.0669    119.8232    248.8451   1.1257840010e+02   1.2779383794e+01    0.2292632    0.1720843  78.27  0.001538276    1.777    0.437
        43 -10.9206    193.3190     35.3649   5.5209654393e+01   3.1730528100e+01     0.433419    0.3620577  20.51  0.001651237    1.336    0.252
        44 -11.5437    163.4140    240.1498   1.0416169495e+02   7.9990282286e+00    0.2927917    0.2416809 -37.69  0.002400087    1.681    0.405
        45  -8.8466    196.3363    197.3322   9.2739876148e+01   8.1864695353e+00     0.124423   0.07641657  14.17 0.0007052124    1.737    0.424
        46 -11.3697    109.5684    228.8685   1.1270420632e+02   1.6785358276e+01    0.3594244    0.2446092  56.35   0.00210017    1.358    0.264
        47 -10.5340    209.3016     20.8164   4.8946811407e+01   2.9286964068e+01    0.4258531    0.2812107  36.58 0.0009706133    1.799    0.444
        48  -9.0684    193.0000    237.0018   9.8793684408e+01   4.3025403823e+00    0.1359072   0.06006241 -36.51 0.0006589631    2.954    0.661
        49 -11.4492    100.8741    228.3680   1.1428414873e+02   1.8006561280e+01    0.3437782    0.2538561  32.38  0.002533234    1.290    0.225
        50 -11.5326    119.5580    229.1019   1.1087004167e+02   1.5405471756e+01    0.3595639    0.2946024 -61.39  0.002817328    1.645    0.392
