#   1 NUMBER                 Running object number                                     
#   2 MAG_AUTO               Kron-like elliptical aperture magnitude                    [mag]
#   3 X_IMAGE                Object position along x                                    [pixel]
#   4 Y_IMAGE                Object position along y                                    [pixel]
#   5 X_WORLD                Barycenter position along world x axis                     [deg]
#   6 Y_WORLD                Barycenter position along world y axis                     [deg]
#   7 A_WORLD                Profile RMS along major axis (world units)                 [deg]
#   8 B_WORLD                Profile RMS along minor axis (world units)                 [deg]
#   9 THETA_WORLD            Position angle (CCW/world-x)                               [deg]
#  10 FWHM_WORLD             FWHM assuming a gaussian core                              [deg]
#  11 ELONGATION             A_IMAGE/B_IMAGE                                           
#  12 ELLIPTICITY            1 - B_IMAGE/A_IMAGE                                       
         1 -13.0679     29.7511     65.4975   7.5411911336e+01   5.9829265071e+01     1.318106    0.6437401  40.27   0.00654825    2.652    0.623
         2 -11.3773     31.1278     15.9602   5.7577843944e+01   6.8722558654e+01    0.3392811    0.1480983 -41.21  0.001767995    2.119    0.528
         3  -9.7492     55.0187     10.9947   4.4897033101e+01   6.6196850016e+01    0.2015035    0.1258058   9.07  0.001133758    1.638    0.390
         4  -9.3517    153.8154      9.5829   1.8789261803e+01   4.5065299608e+01    0.1811284    0.1215838  81.29 0.0002132381    1.523    0.343
         5 -10.6765     41.0639      9.6594   5.0096609934e+01   6.8379555769e+01       0.2139    0.1016279  42.67  0.001098864    2.499    0.600
         6 -11.2189     88.7056      4.3758   3.0571170246e+01   6.0759283759e+01    0.2535762    0.2416902 -88.55    0.0012391    1.398    0.285
         7 -10.1230     84.5066      8.4757   3.3556810779e+01   6.1218024838e+01    0.1288097    0.1089605  23.43 -4.408388e-05    1.022    0.022
         8 -12.9227     20.8705      5.1330   5.7497654439e+01   7.1352225471e+01    0.6750616    0.3326326  31.64  0.004002278    2.188    0.543
         9 -11.9916    201.6004      3.5507   1.1043721453e+01   3.3591122508e+01    0.7170076    0.1267037  58.26   0.00226954    4.244    0.764
        10  -9.4557    101.0269      2.5019   2.6579816718e+01   5.8303018519e+01    0.1990981    0.1129088  55.65  0.001022452    1.559    0.359
        11  -9.3881     94.4815    240.5253   8.5968207313e+01   1.3055266286e+01    0.1208469   0.09538031  58.40 7.631756e-05    1.026    0.026
        12 -10.8548    246.0524    249.8450   5.9268866814e+01  -1.2082714475e+01    0.3548016    0.1253911  35.34  0.001345745    2.320    0.569
        13  -9.7597     93.8627    249.4288   8.6934779180e+01   1.1611711183e+01    0.2768609    0.1422917  67.99  0.001445483    2.237    0.553
        14  -9.7615     85.7642    250.5965   8.8490778337e+01   1.2588267848e+01    0.1686677   0.08065186  50.78 0.0007561944    1.621    0.383
        15 -10.2594     83.8404    246.3194   8.8458315549e+01   1.3597259808e+01    0.4411562    0.1482716  49.43  0.002076733    2.338    0.572
        16 -10.5772     70.4892    248.4579   9.1009657757e+01   1.5086531054e+01    0.1953454    0.1741696  68.10 0.0007823351    1.303    0.232
        17 -10.5853     65.3337    249.7045   9.2003794185e+01   1.5562681607e+01    0.2193136     0.125507  64.35  0.001305242    1.451    0.311
        18 -10.1572     65.0096    246.5099   9.1816601315e+01   1.6163913470e+01    0.2610786    0.1324682  64.81 0.0009426865    1.778    0.437
        19 -11.3794     68.6421    244.6683   9.1032975687e+01   1.6001631780e+01    0.4776516     0.237681  55.25  0.002791026    1.599    0.375
        20 -12.1400     55.9411    248.9426   9.3562013816e+01   1.6920464358e+01    0.4988372    0.2919198  72.93  0.002441417    1.487    0.328
        21 -11.3713     50.7741    250.2363   9.4525899460e+01   1.7348080981e+01     0.346241    0.2349927 -88.56  0.002490098    1.378    0.274
        22 -14.7649     61.0149    234.2743   9.1565141566e+01   1.8905311982e+01     1.993635     1.665908  48.04  0.009791988    1.347    0.258
        23 -14.8872     13.3467    190.7469   9.7266370111e+01   3.3050447739e+01     3.014112     1.637355  68.62   0.01844011    1.584    0.369
        24 -13.3883     45.7659    234.4100   9.4303545516e+01   2.0816938291e+01      0.54663     0.385831 -84.09 0.0005595593    1.336    0.251
        25 -14.3293     87.8489    206.9899   8.3660695918e+01   2.0431053869e+01     1.357426     0.880932 -74.26  0.003744558    1.595    0.373
        26 -14.8055     95.0351    195.7438   8.0725599477e+01   2.1648055536e+01     1.502356    0.9579797 -82.56  0.004529671    1.778    0.437
        27 -14.6536     74.8287    207.6460   8.6420168690e+01   2.2215020719e+01     1.509096    0.8634375  71.63  0.007864036    1.858    0.462
        28 -16.4231     67.4712    186.2255   8.5572074217e+01   2.7804505235e+01     3.263739      2.87524  -6.92   0.02031469    1.708    0.415
        29 -11.8707    191.6920    225.4807   6.5193537502e+01  -5.6175187066e-01    0.2409604    0.2060017  21.54 0.0007990238    1.056    0.053
        30  -9.6297     95.5960    225.2731   8.4169712460e+01   1.5662407240e+01     0.198546    0.1202525  68.03 0.0006547859    1.705    0.413
        31 -11.3602    125.2185    221.6323   7.7821944967e+01   1.1566097672e+01    0.2581045    0.2181966  63.80 0.0003653911    1.105    0.095
        32  -9.7957    159.9325    221.9853   7.0880532031e+01   5.5079925988e+00    0.2014947    0.1485758  13.78 0.0005529402    1.674    0.402
        33  -9.3888    150.4969    222.4589   7.2841353775e+01   7.0789062565e+00    0.1327251    0.1109164  46.47 0.0001220995    1.037    0.035
        34 -11.1137     76.9008    220.1426   8.7298093386e+01   1.9418209314e+01    0.3171114    0.2323346 -49.90 0.0009745772    1.833    0.454
        35 -10.8678    222.9482    220.0925   5.8403873016e+01  -5.0084855630e+00    0.2837399    0.2382651  56.13  0.001165847    1.678    0.404
        36 -10.6893    212.2123    223.8611   6.1037371087e+01  -3.7735268179e+00    0.2893683    0.1999292 -20.26  0.001706013    1.569    0.363
        37 -10.5975    173.2661    219.3767   6.7816168602e+01   3.5882608939e+00     0.245506    0.1888996 -58.87  0.001422175    1.686    0.407
        38 -11.1100    119.2485    217.4567   7.8485507698e+01   1.3339881303e+01    0.4658414    0.2051913 -67.52  0.001896398    3.325    0.699
        39 -10.7389    110.2924    214.2823   7.9910805374e+01   1.5428001748e+01    0.2946688     0.227071  -0.70 0.0006835744    2.227    0.551
        40 -10.6730    124.9924    212.7980   7.6673513422e+01   1.3246273614e+01    0.3619341    0.1596033 -42.61  0.001249228    3.244    0.692
        41  -9.6776    184.3100    213.3344   6.4630138128e+01   2.6032162500e+00    0.1354439   0.09673122   8.83 0.0007043313    1.677    0.404
        42  -9.2029    246.8043    212.6101   5.2797579866e+01  -7.7717784645e+00    0.1584212    0.1066125  41.79 0.0005927291    1.629    0.386
        43 -11.4616    142.3607    211.4232   7.2867365394e+01   1.0467677667e+01    0.4476926    0.2111925  52.08  0.001900951    2.147    0.534
        44 -11.1776    229.2073    207.4160   5.4988759078e+01  -4.2725536396e+00    0.3222623    0.2032497  30.70  0.001792843    1.416    0.294
        45  -9.7931    209.9992    211.5054   5.9313680427e+01  -1.6252562924e+00    0.1701501    0.1091449  58.83 0.0007392929    2.389    0.581
        46 -11.2806    154.7066    209.8048   7.0057929517e+01   8.5452266433e+00    0.4314178    0.2500717  27.09   0.00153278    2.045    0.511
        47 -10.3620    160.3842    206.4837   6.8345153485e+01   8.1048211088e+00    0.2366638    0.1759179 -52.38  0.001302377    1.563    0.360
        48  -9.7002    124.0195    205.6865   7.5870406248e+01   1.4782344382e+01    0.1926533    0.1564464  48.61 0.0005303193    1.086    0.079
        49  -9.7289    145.6837    204.6650   7.1127457201e+01   1.1122541609e+01    0.2303683    0.1724368 -23.78  0.001034287    1.819    0.450
        50 -11.6726    149.2048    202.8622   7.0094806137e+01   1.0816891275e+01    0.5357841    0.2697414  57.88  0.002159706    2.581    0.612
        51  -9.9503    248.3668    206.5421   5.1411516954e+01  -7.2160365876e+00    0.2125407    0.1535997 -55.19  0.001154732    2.488    0.598
        52 -10.1941    212.4016    199.8370   5.6728338137e+01  -2.7487727545e-01    0.2358625    0.1256156 -41.73 0.0008489916    2.091    0.522
        53  -9.9023    225.4174    199.2111   5.4157435738e+01  -2.4482254026e+00    0.1752473    0.1208993 -43.14 0.0009533527    1.726    0.421
        54 -11.5126    139.9818    195.7667   7.0913951786e+01   1.3871492604e+01    0.3383664    0.2301395   1.44  0.001442141    2.776    0.640
        55 -10.3369    193.0047    194.3400   5.9508867245e+01   4.1518065467e+00    0.3009167     0.222984  12.13  0.001143062    1.487    0.327
        56 -10.5305    189.1627    194.8006   6.0371051996e+01   4.7932627506e+00    0.2436943    0.2285054  -3.49 0.0009151703    1.108    0.097
        57  -9.6888    172.5615    195.5125   6.3919566687e+01   7.8024076195e+00    0.1392795    0.1259589  36.95 4.888376e-05    1.032    0.031
        58 -10.4162    152.3769    195.2065   6.8144002773e+01   1.1673782291e+01    0.1904759    0.1342853 -63.18 0.0009548672    1.734    0.423
        59 -10.1121    217.9798    194.0061   5.4560333917e+01  -3.6057227217e-01    0.1667923    0.1421413  17.27 0.0005802021    1.030    0.029
        60 -10.3765    247.4810    193.0828   4.9015308105e+01  -5.2377222476e+00    0.1893773    0.1503196  20.37 0.0004429104    1.147    0.128
        61 -10.2487    211.8828    193.0891   5.5549939965e+01   8.7764521497e-01    0.2016507    0.1871431  46.55    0.0010385    1.287    0.223
        62 -10.6314    110.3472    190.9972   7.6685884881e+01   2.0124988344e+01    0.1915879    0.1730593  84.43 0.0006802164    1.081    0.075
        63 -10.3099    135.3875    187.7758   7.0594573335e+01   1.6320326412e+01    0.1881559    0.1336727 -42.11 0.0005287992    1.621    0.383
        64 -10.6716    123.1352    187.4688   7.3281243664e+01   1.8624299562e+01    0.3323876    0.2264669  61.10  0.001139623    1.527    0.345
        65 -10.4230    248.5561    186.0460   4.7453336920e+01  -4.4120206210e+00    0.2297769    0.2069009  68.29    0.0010303    1.715    0.417
        66 -11.7489    124.1488    195.4507   7.4315244908e+01   1.6798903799e+01    0.4096138    0.3072166  39.04  0.002194616    1.283    0.221
        67 -11.7705     37.4545    184.6377   9.1887895665e+01   3.1890947002e+01    0.3741087    0.2097174  89.27    0.0013864    1.660    0.397
        68 -10.8782    130.9351    184.5397   7.1043452915e+01   1.7812212497e+01    0.2832563    0.1756465  51.29  0.001340088    1.541    0.351
        69  -9.9263    221.1549    180.6318   5.1325163179e+01   1.1833832487e+00    0.1930342    0.1165646  30.71 0.0004741779    1.646    0.393
        70  -9.8937    118.1691    179.2063   7.3055806967e+01   2.1272612064e+01    0.2059164    0.1608142  75.56  0.001078384    1.374    0.272
        71 -10.3152    190.7397    177.4590   5.6691753274e+01   7.5414715101e+00    0.2878527     0.133062  48.07  0.001143301    2.198    0.545
        72 -10.9920    154.9229    176.8372   6.4268051898e+01   1.4788317007e+01    0.2498597    0.2140353 -46.14  0.000913471    1.253    0.202
        73 -11.5409    138.1414    175.8321   6.7871913530e+01   1.8273278047e+01    0.3404602     0.254792  -1.42  0.001581108    2.038    0.509
        74 -10.4142    113.4267    175.2706   7.3499461312e+01   2.2976923536e+01    0.2675675    0.2277736 -13.84   0.00096164    1.595    0.373
        75  -9.8211      6.7983    175.2253   9.7492416855e+01   3.6932389044e+01    0.1460966    0.1097269 -67.84 0.0006054376    1.367    0.268
        76 -10.8902     27.6491    171.8920   9.2812279581e+01   3.5742087226e+01    0.2329412    0.1568324 -64.53  0.001265781    1.428    0.300
        77 -12.0825    105.6407    169.9556   7.4448293925e+01   2.5523029444e+01    0.4260871    0.3154154  76.92  0.001667842    1.493    0.330
        78 -12.1372     48.2356    169.5583   8.7954435280e+01   3.4015200868e+01    0.4797988     0.251727 -53.33  0.001285598    2.047    0.512
        79 -10.3939     53.4949    167.4878   8.6490755493e+01   3.3851089574e+01    0.2017914    0.1800844 -58.28  0.001094528    1.301    0.231
        80 -10.8220    194.1964    171.3544   5.4733832523e+01   7.9603018584e+00    0.4267214    0.1203055  38.76  0.001253029    3.917    0.745
        81  -9.8360      3.1639    170.2539   9.7888293842e+01   3.8302769269e+01    0.1988232    0.1140711 -73.25  0.000604289    1.428    0.300
        82 -11.3305    152.5670    168.0244   6.3082846495e+01   1.7059330892e+01     0.514949    0.1473623 -47.87  0.001577484    3.707    0.730
        83 -12.4206    130.0914    168.2022   6.8329469513e+01   2.1450070227e+01    0.5874533    0.3177586  58.77  0.002330842    2.282    0.562
        84 -14.5327     20.1392    213.3959   9.7474227396e+01   2.7761574194e+01     1.101933    0.6688339  74.85   0.00463896    1.297    0.229
        85 -13.9491     26.5062    224.9532   9.7062767054e+01   2.4835103847e+01    0.5490587    0.4882642  43.96  0.003089181    1.543    0.352
        86 -10.1154     10.5692    167.1302   9.6097305702e+01   3.8375077575e+01    0.2333661    0.2088628  77.30  0.001775057    1.242    0.195
        87  -9.6870     19.2593    166.9738   9.4203021274e+01   3.7643299920e+01     0.160442     0.128453 -89.20 0.0005459461    1.052    0.050
        88 -13.7011      6.2433    248.5539   1.0160130142e+02   2.2654305047e+01    0.3864892     0.228038  36.37  0.001810709    2.003    0.501
        89 -10.3263    205.7053    164.5898   5.0985522295e+01   6.8710987033e+00     0.280792    0.1318569  40.04  0.001130736    2.103    0.525
        90 -10.1413    156.3248    164.6920   6.1556383565e+01   1.6985566981e+01    0.1511049     0.117735  78.97 0.0007036739    1.650    0.394
        91 -11.0588     64.0406    163.6112   8.3487641619e+01   3.3388663397e+01    0.2877668    0.1890146 -74.55  0.001543341    1.413    0.292
        92 -16.9695     14.6619    238.7653   9.9826922745e+01   2.3528751465e+01     2.086058     1.357605  55.00   0.01580175    1.271    0.213
        93 -11.9779     28.0468    160.3611   9.1601774303e+01   3.8298595669e+01    0.3711911    0.2944299 -51.92 0.0005091033    1.474    0.321
        94 -10.8341     24.4850    144.1624   9.0712139301e+01   4.2352197994e+01    0.2991567     0.191493 -80.15 0.0006780495    1.304    0.233
        95 -11.6514     21.0508    160.3063   9.3195322127e+01   3.8973124818e+01     0.340088    0.2852272  83.77  0.001683409    1.095    0.086
        96 -11.1566     11.9678    149.0008   9.4220593425e+01   4.2307006890e+01    0.2849841    0.1452482  45.33   0.00161428    2.029    0.507
        97 -10.5179     14.5299    156.5712   9.4328590356e+01   4.0388447410e+01    0.2011299    0.1682661 -70.61 0.0005668013    1.228    0.186
        98 -12.8658     21.0658    154.0105   9.2579381825e+01   4.0398771911e+01    0.7012096    0.5893927  25.39  0.004867609    1.556    0.358
        99 -12.0521     58.5253    158.9208   8.4184497756e+01   3.5201566273e+01    0.5028306    0.3493994 -82.56  0.001442982    1.342    0.255
       100 -15.2908      7.7165    227.4027   1.0040353397e+02   2.6317867697e+01     0.889218    0.4849015  42.76  0.004142382    1.746    0.427
       101  -9.2974     84.9545    237.9886   8.7493670337e+01   1.4908847111e+01     0.139395    0.1088053  62.92  0.000944111    1.013    0.013
       102 -10.8628    117.1365    235.4335   8.1126561358e+01   1.0435928403e+01    0.2129866    0.1845895  21.89 0.0009647309    1.452    0.311
       103 -10.2285     81.5298    233.8559   8.7742808294e+01   1.6154992347e+01    0.1790724    0.1424803  50.42  0.000469875    1.193    0.162
       104 -12.3745    219.9654    230.5191   6.0722901827e+01  -5.9234636270e+00    0.2571649    0.2306797   7.54 0.0003639529    1.211    0.175
       105 -10.2564    212.2457    154.0025   4.7401006156e+01   7.4344239865e+00    0.1939137    0.1197202 -36.42 0.0006116541    1.595    0.373
       106 -10.8525     50.8760    153.9816   8.5397496609e+01   3.7301769276e+01    0.2046955    0.1783067  63.66 0.0004335038    1.162    0.140
       107 -10.8938     39.3211    154.3397   8.8269998261e+01   3.8527090144e+01     0.285019    0.1297091  22.26  0.001245097    3.252    0.692
       108 -10.2117    126.0683    151.6897   6.6072179377e+01   2.5890320142e+01    0.2101397    0.1874062  47.26 0.0003129453    1.102    0.092
       109 -10.8471    129.8354    150.8666   6.4973809809e+01   2.5334590038e+01    0.2798275     0.192549  56.46 0.0006919223    1.532    0.347
       110 -11.9426     22.6288    149.1208   9.1706235576e+01   4.1376545103e+01    0.4733094    0.2133961  37.08  0.001414195    2.340    0.573
       111 -11.3974    169.9268    150.0802   5.5355342726e+01   1.7134045724e+01    0.4271293    0.2888767  78.24  0.001682919    2.485    0.598
       112 -10.9892    147.5879    150.1994   6.0536794793e+01   2.1861492439e+01    0.2920861    0.2379881  78.32 0.0007698215    1.457    0.314
       113 -12.2855    108.8115    148.4874   6.9762921422e+01   2.9875826027e+01    0.4043755    0.3117688 -53.11   0.00113221    1.298    0.229
       114 -11.5976     84.3746    149.0710   7.6150156216e+01   3.3862710290e+01    0.4496289    0.2773905 -43.27  0.002095109    1.871    0.465
       115  -9.5273    206.7479    149.0346   4.7365800508e+01   9.4644514231e+00    0.1833914    0.1232868 -37.72 0.0003548553    1.471    0.320
       116 -10.6515    132.9769    148.6762   6.3741411291e+01   2.5197209038e+01    0.2165149    0.1991887  57.36 0.0007546027    1.060    0.056
       117  -9.6281    224.0000    148.0430   4.3858328024e+01   6.1026632072e+00    0.2320973   0.07793323 -37.37 0.0005739897    2.862    0.651
       118 -10.0936    130.6385    232.6542   7.8167710995e+01   8.7129144463e+00    0.1847573    0.1473245  14.78  0.001111744    1.654    0.396
       119  -9.8677      4.9712    147.2638   9.5691256892e+01   4.3233499197e+01    0.1490816    0.1254841  74.79 0.0003048303    1.185    0.156
       120 -13.2800    102.1063    141.9795   7.0203247094e+01   3.2593270580e+01    0.7964202    0.5136269  57.35  0.003635759    1.715    0.417
       121  -9.9923     56.6064    142.7974   8.2343045741e+01   3.9245076784e+01    0.3093526    0.1179795  53.85  0.001102782    3.596    0.722
       122  -9.3622     30.9902    140.2294   8.8612361264e+01   4.2662880588e+01    0.1472858    0.1041774  33.47 0.0008792541    1.650    0.394
       123  -9.6397     78.5028    139.4683   7.5981867513e+01   3.7041006345e+01    0.1411331    0.1284677 -81.01 5.144845e-05    1.004    0.004
       124  -9.5559     36.3717    138.7570   8.7038171803e+01   4.2479046611e+01    0.1797245   0.09766098 -61.25 0.0007914031    1.571    0.363
       125 -13.2516    155.0379    129.7136   5.4044461508e+01   2.4669216729e+01     1.243024    0.4455175  49.32  0.003940575    2.899    0.655
       126 -12.7358    142.6219    133.2686   5.7907309283e+01   2.6614116672e+01    0.7207958    0.4932047  -6.28  0.002777352    2.541    0.606
       127 -11.8164    137.5141    130.6373   5.8555778383e+01   2.8286637458e+01    0.3620149     0.304052 -84.23  0.001349374    1.384    0.277
       128  -9.4577     53.6535    135.3046   8.1957329248e+01   4.1389539054e+01    0.1391179   0.09346549  72.17 0.0005443982    1.693    0.409
       129  -9.2872    104.0227    232.7616   8.3352260676e+01   1.2982217390e+01    0.1559301   0.08699202  44.37 0.0002894472    1.488    0.328
       130  -9.3638     27.3516    133.6636   8.8722473128e+01   4.4535667081e+01    0.1329563    0.0816268  71.49 0.0007045375    1.790    0.441
       131 -10.2452     11.8393    133.1880   9.2660428057e+01   4.5920724988e+01    0.2051251    0.1730005  39.71 0.0006290827    1.431    0.301
       132 -10.3899    126.3730    131.9977   6.1712199058e+01   3.0296393764e+01    0.2694688    0.2175957  53.60 0.0004042145    1.257    0.204
       133 -10.4982     35.9600    131.4619   8.6143621315e+01   4.4238702952e+01    0.1970655    0.1468845 -70.65 0.0003898824    1.123    0.109
       134 -10.7793    139.7159    140.9857   6.0402097608e+01   2.5525183783e+01    0.2171989    0.1978524 -55.51  0.000427129    1.114    0.102
       135 -10.2370     31.3297    129.7497   8.7148294385e+01   4.5087566083e+01    0.3358916    0.1694914 -66.94  0.001714504    1.625    0.385
       136 -10.4179    112.9405    228.8181   8.1166846192e+01   1.2281828175e+01    0.2827764    0.1861871 -56.74   0.00164706    1.777    0.437
       137  -9.4930     21.4311    128.4601   8.9622137418e+01   4.6260132365e+01    0.1242292    0.0991711 -78.63 2.533987e-05    1.022    0.021
       138 -10.0629     15.5997    126.6684   9.0946061860e+01   4.7137851443e+01    0.2071772    0.1537609  17.07  0.001335121    1.780    0.438
       139  -9.1284    245.3081    122.7555   3.4479071795e+01   6.1153420529e+00    0.1284475    0.1067796 -69.81 0.0001744542    1.501    0.334
       140 -10.4097    104.9988    122.2691   6.5164305358e+01   3.6689195441e+01    0.2395604    0.2046356  88.81 0.0005588998    1.298    0.230
       141 -11.4442     99.4776    118.7705   6.5888692042e+01   3.8506111942e+01    0.4792297    0.2843321  59.72  0.001760142    2.219    0.549
       142 -10.6253    189.0474    121.0228   4.4303456130e+01   1.8673775228e+01    0.2265314     0.220701 -16.32 0.0003053449    1.013    0.013
       143 -11.2015     43.7349    120.7198   8.2329549002e+01   4.5982698766e+01    0.3375771    0.2673238 -16.47 0.0006273221    1.650    0.394
       144 -10.7519     48.7641    115.6453   7.9982001258e+01   4.6635272796e+01     0.316716    0.2379614 -67.96  0.001028306    1.174    0.148
       145 -10.7305     36.1395    120.4800   8.4455055947e+01   4.6812115251e+01    0.2530266    0.2102402  72.23  0.001083964    1.269    0.212
       146 -11.0014    155.3372    117.5654   5.0935347875e+01   2.7182872871e+01    0.3070655    0.1539467  51.83  0.001065238    2.082    0.520
       147  -9.0949     67.6479    122.3085   7.5751003194e+01   4.2697571353e+01    0.1440765    0.1025727  74.43 0.0007043521    1.717    0.417
       148 -10.8574     66.3423    116.2550   7.4917860431e+01   4.4315059104e+01    0.3295129     0.239875  71.49  0.001385451    1.681    0.405
       149 -10.5252     23.9140    115.9587   8.7246908672e+01   4.8966746818e+01    0.2574782    0.1405556 -63.89  0.001396413    1.461    0.316
       150  -9.4952    227.5200    115.5275   3.5716237036e+01   1.1029125887e+01    0.1454414    0.1356631 -24.24 6.725376e-05    1.023    0.022
       151 -10.3576    188.6645    114.9884   4.2863903612e+01   1.9931251344e+01    0.2269256    0.2072433 -36.38 0.0008728829    1.082    0.076
       152  -9.3932    178.3826    228.7650   6.8281567957e+01   1.2206320235e+00    0.1523568    0.1190265 -21.37 0.0002828469    1.518    0.341
       153 -12.2128     52.9100    110.7662   7.7820769093e+01   4.7312079830e+01    0.4821854    0.2777338  45.24  0.001586284    1.974    0.493
       154 -12.1389    152.6539    107.1368   4.8837925126e+01   2.9984665998e+01    0.4592043    0.3268984  53.49  0.001199235    1.437    0.304
       155  -9.7216     92.0151    108.2532   6.5514274527e+01   4.2252447737e+01    0.1954305    0.1933334  39.02 0.0003078565    1.070    0.065
       156  -9.5969    105.3074    107.6450   6.1502166601e+01   3.9993408733e+01    0.1553146    0.1196179  89.99 0.0007042214    1.721    0.419
       157  -9.8452    116.7713    103.7951   5.7254783885e+01   3.8600000329e+01    0.2112455    0.1845777  86.20 0.0006412721    1.325    0.245
       158 -12.1317     56.5285    100.4979   7.4557491114e+01   4.9279327868e+01    0.6288241    0.3856846  25.90  0.003172498    1.918    0.479
       159 -10.5294     59.5028     96.4314   7.2684072130e+01   4.9845142739e+01    0.3677954    0.2147878  29.46  0.001798663    1.949    0.487
       160  -9.9560     79.1644    100.9372   6.7577657978e+01   4.6035130505e+01     0.222478    0.1919811 -80.75  0.001079905    1.285    0.222
       161  -9.7085     20.3082     99.6974   8.5798380847e+01   5.3007015369e+01    0.1619886    0.1551496 -56.37 0.0005483287    1.191    0.160
       162 -10.0377     22.4403     97.4628   8.4756811190e+01   5.3357033337e+01     0.230558    0.1643262  43.49  0.001417839    1.677    0.404
       163  -9.9629     10.1438    100.7907   8.9069850995e+01   5.3456126794e+01    0.1612229    0.1331521 -82.82 0.0003346983    1.151    0.131
       164 -10.3038    240.1332     94.9864   2.8830014387e+01   1.1770201693e+01      0.21189    0.1731388 -58.20 0.0003345721    1.246    0.198
       165  -9.2375    117.6459     95.3003   5.4668200089e+01   4.0263675885e+01     0.156096    0.1232539  86.45 0.0007037527    1.702    0.412
       166 -11.9296     54.4120     92.6639   7.3452316143e+01   5.1334497246e+01    0.3675269    0.2397905  24.54  0.001373908    1.787    0.440
       167 -10.7728     59.4628     91.7506   7.1579008942e+01   5.0916366402e+01    0.2924447    0.2263745  54.40  0.001622817    1.560    0.359
       168  -9.8446     88.5424    229.4927   8.5984572464e+01   1.5937107905e+01    0.2920864    0.1102947  36.99 0.0009528989    2.630    0.620
       169 -12.7316     46.0263     87.3229   7.4986447184e+01   5.3498695347e+01    0.3993621    0.3748948 -37.20  0.002622866    1.106    0.096
       170  -9.8055     12.1570     88.3628   8.6485355621e+01   5.6132089204e+01    0.4296362    0.1711042 -83.02  0.001491138    4.018    0.751
       171 -10.3040    232.4912     89.2523   2.8598436835e+01   1.4387518048e+01    0.2847352    0.1858939  56.07 0.0009407555    1.634    0.388
       172 -10.9357    125.4253     86.8434   5.0071692169e+01   4.0361501002e+01    0.4120713    0.2861787   7.32  0.001685437    2.181    0.542
       173 -12.6511     49.2083     79.0305   7.1852322722e+01   5.4983622961e+01    0.7036554    0.5282121  67.05  0.003699937    1.894    0.472
       174 -10.6239    115.8841     85.5318   5.2328284314e+01   4.2678663202e+01    0.2742439    0.2432361 -53.62 0.0002713642    1.175    0.149
       175 -10.2610    170.9729     84.9585   3.8513758423e+01   2.9919974044e+01    0.1839155    0.1825249  84.55  0.000336394    1.005    0.005
       176 -11.5615     53.9251     86.0474   7.2014171679e+01   5.2883440723e+01    0.3277101    0.2746563 -79.31  0.001934936    1.365    0.267
       177  -9.5090    153.2001     80.3633   4.1134343820e+01   3.5149357715e+01    0.2114936    0.1476799  61.22 0.0002986474    1.526    0.345
       178 -12.0044     29.1787     79.8481   7.9067523805e+01   5.6783316637e+01    0.2761986    0.1981739  41.90  0.001094552    1.714    0.416
       179 -10.1957    214.0211     78.5401   2.8797746306e+01   2.0435594701e+01    0.2503214    0.1907483 -49.05 0.0003685775    1.269    0.212
       180  -9.8678    215.4128     75.5237   2.7805418405e+01   2.0596527166e+01    0.2245793    0.1989344  52.59 8.598717e-05    1.193    0.162
       181 -10.0234     88.3622     78.8315   5.8604850003e+01   4.9371810508e+01    0.2365132    0.2006143  47.25 0.0009411469    1.301    0.231
       182  -9.8422    219.0752     78.5042   2.7992077639e+01   1.9239022537e+01    0.2115554    0.1442591  60.54 0.0004278118    1.523    0.343
       183 -10.3198    111.9876     76.4745   5.0679194201e+01   4.5313830426e+01    0.2868103    0.2170197 -29.26  0.000664864    1.354    0.262
       184 -10.2011    116.1467     74.6862   4.8927797706e+01   4.4784156626e+01    0.3583201    0.2673141  25.47  0.001706181    1.492    0.330
       185 -10.5140     74.8825     75.7729   6.2101096869e+01   5.2232484305e+01    0.2281891     0.203787 -22.70 0.0004754604    1.057    0.054
       186 -12.3318     32.0547     74.4381   7.6797615029e+01   5.7718789161e+01    0.3277606    0.2601423 -22.73  0.001191942    1.302    0.232
       187 -10.7347    237.7554    248.2883   6.0445022784e+01  -1.0749596740e+01    0.2226365    0.1880449 -27.35  0.001638136    1.560    0.359
       188 -10.0360    114.1459     61.1170   4.5075016190e+01   4.7720322845e+01    0.2189467    0.1888042  12.44  0.000361506    1.191    0.161
       189 -11.0225     65.9514     74.0200   6.4626694116e+01   5.3923065588e+01    0.2011647    0.1763496 -32.56            0    1.018    0.017
       190 -11.1279    165.8848     58.3102   3.1773382135e+01   3.5778986738e+01    0.2663234    0.2437735 -60.65  0.000336024    1.131    0.116
       191  -9.6336      3.7748     59.3909   8.3898497000e+01   6.2866963591e+01    0.1468635   0.09609352 -18.52 0.0009446854    1.674    0.403
       192 -10.6661    194.1225     57.2459   2.6363033360e+01   2.8746132430e+01     0.243769    0.2343227  75.14 0.0005018265    1.051    0.048
       193 -11.4994     50.7852     52.6191   6.3453082048e+01   6.0219159665e+01     0.286742    0.2363866 -38.89  0.001796941    1.134    0.118
       194 -11.0926     54.3497     57.6634   6.3759016305e+01   5.8798533323e+01      0.31023    0.2306453  53.35  0.001312443    1.895    0.472
       195 -11.4678     50.9752     56.4660   6.4649790026e+01   5.9454949947e+01    0.3603071    0.2391242  60.82  0.001724713    2.797    0.643
       196 -10.2315    108.5575     55.9981   4.4930754418e+01   4.9803161953e+01    0.2091076    0.1398157 -34.70 0.0001000832    1.496    0.331
       197  -9.7182    115.5749     53.8201   4.2188099587e+01   4.8650939856e+01    0.2048347    0.1342149 -46.39 0.0007784442    1.697    0.411
       198  -9.7109    233.7108     53.0054   1.9664842376e+01   1.9724735940e+01    0.1881132    0.1623132 -54.94 0.0003685681    1.055    0.052
       199  -9.5604    124.6150     52.2959   3.9243665901e+01   4.6855672864e+01    0.1495917    0.1177525 -83.17 0.0005257343    1.769    0.435
       200 -10.0636    182.8690     77.1617   3.3908579439e+01   2.8343089685e+01     0.216335    0.1860119  22.50 0.0006479137    1.334    0.251
       201  -9.8737    173.6681     50.3444   2.7914575485e+01   3.5005778080e+01    0.1596284     0.111362 -69.63 0.0007050391    1.758    0.431
       202  -9.4969     31.1728     50.3623   7.0542669116e+01   6.2772876755e+01    0.1570335    0.1087101  33.41 0.0009481061    1.745    0.427
       203 -11.6865     99.6007     68.1886   5.1724722227e+01   4.9419226474e+01     0.404547    0.2776916 -43.36  0.001117981    1.448    0.310
       204  -9.7278     18.4647     49.0007   7.5386460577e+01   6.4085482768e+01    0.1820688   0.09530346 -53.50 0.0004249987    1.549    0.355
       205 -10.9093    178.3961     64.3452   3.1125386698e+01   3.1626125357e+01    0.2865534    0.2606077  33.19 0.0007827639    1.180    0.153
       206 -10.4151    133.4280     39.8221   3.2808510390e+01   4.6631851698e+01    0.2752973    0.1887559  45.47 0.0004705694    1.369    0.269
       207 -10.6762     57.1345     37.8847   5.5631030472e+01   6.2006911261e+01    0.3807431     0.159896 -46.24 0.0008004808    2.542    0.607
       208  -9.4873    104.1889     39.4319   4.0242586096e+01   5.3354827968e+01    0.1982591    0.1343149  61.81 0.0009495136    1.790    0.441
       209 -10.2082     36.3860     39.3660   6.4677546205e+01   6.4319275046e+01    0.2171499    0.1729921 -10.23 0.0007734396    1.148    0.129
       210 -10.0540     53.3327     39.3005   5.7675042812e+01   6.2294632168e+01    0.1326778   0.08752303  -9.17 0.0005571108    1.651    0.394
       211 -10.6831     31.5964     31.5118   6.3839566417e+01   6.6191212308e+01    0.3775944    0.1514225 -36.10  0.001801795    2.205    0.547
       212 -10.3181    247.8471     31.8740   1.3244818580e+01   1.9389382733e+01    0.1802459    0.1733544 -76.78 0.0004330621    1.213    0.175
       213 -10.6174    213.3559     32.1302   1.6987831229e+01   2.7442175872e+01    0.2448666    0.1846267  83.62 0.0003317515    1.264    0.209
       214 -10.7578    106.1336     31.4072   3.6670802369e+01   5.4053884852e+01    0.3054624    0.2366893  39.79  0.001005443    1.188    0.158
       215 -11.4172     78.0357     30.9852   4.5175816552e+01   5.9707758999e+01    0.2674527    0.2494764 -70.07 0.0007969144    1.526    0.345
       216 -10.6562     84.7155     24.2744   4.0206839885e+01   5.9375061537e+01     0.298114    0.2045505  51.24  0.001039938    1.565    0.361
       217 -10.3411     45.1948     24.9870   5.5253769086e+01   6.5679563831e+01    0.1877119     0.168147  -0.47  0.000505702    1.236    0.191
       218  -9.1376    174.2984     24.2968   2.0113047685e+01   3.8280418939e+01    0.1418255    0.1015325  37.81 0.0003203708    1.572    0.364
       219 -10.0582     19.9876     23.2079   6.5956408961e+01   6.8680694635e+01    0.1956206     0.106134 -13.52  0.001081222    2.033    0.508
       220 -10.4143    171.6310     21.3405   1.9643796430e+01   3.9302890007e+01    0.2572743    0.2175115  51.65 0.0007375348    1.166    0.143
       221  -9.6605    134.7284     22.3424   2.6488750598e+01   4.8509263168e+01    0.1371944    0.1055294 -63.80 0.0004399367    1.612    0.380
       222  -9.9035    100.6740     22.3006   3.4646626648e+01   5.6371384913e+01    0.1261062     0.107868 -74.28 0.0002242314    1.637    0.389
       223 -10.0489    189.8653     20.1523   1.6760877304e+01   3.4775201164e+01    0.2104028     0.168607 -79.76 0.0004035507    1.212    0.175
       224  -9.1371    172.3209    249.3583   7.2414545137e+01  -7.8224654908e-01      0.12263   0.08484983  13.23 0.0007044439    1.765    0.434
       225 -10.2606    125.1240    248.0065   8.1051676389e+01   7.0579356085e+00    0.1743801    0.1379134  53.99 0.0002686909    1.050    0.048
       226  -9.1456    144.3092     10.7114   2.0724579833e+01   4.7344891520e+01    0.1343576    0.1011585 -72.77 0.0002237437    1.577    0.366
       227  -9.5473     84.3236    228.6853   8.6712354543e+01   1.6709629372e+01    0.2237272    0.1410117  55.99  0.001335473    1.307    0.235
       228  -9.8417    179.8593    244.4976   7.0332389577e+01  -1.3287481389e+00    0.1836167   0.09932857  40.05 0.0003672384    1.480    0.325
       229  -9.3842    133.6805    241.6978   7.8702761884e+01   6.7028517944e+00    0.1162565   0.09109813  17.77 0.0003056574    1.626    0.385
       230 -10.0967    116.1704    240.3441   8.1872367630e+01   9.7455968098e+00     0.170142    0.1602022  69.60 0.0003415718    1.222    0.182
       231  -9.8544     88.7690    240.6492   8.7039094349e+01   1.3878069000e+01    0.2452155    0.1548549 -79.56  0.001087489    1.745    0.427
       232 -10.4622     90.8700    236.1550   8.6211467460e+01   1.4371222943e+01    0.2905671     0.184357  48.76   0.00177219    1.281    0.219
