#   1 NUMBER                 Running object number                                     
#   2 MAG_AUTO               Kron-like elliptical aperture magnitude                    [mag]
#   3 X_IMAGE                Object position along x                                    [pixel]
#   4 Y_IMAGE                Object position along y                                    [pixel]
#   5 X_WORLD                Barycenter position along world x axis                     [deg]
#   6 Y_WORLD                Barycenter position along world y axis                     [deg]
#   7 A_WORLD                Profile RMS along major axis (world units)                 [deg]
#   8 B_WORLD                Profile RMS along minor axis (world units)                 [deg]
#   9 THETA_WORLD            Position angle (CCW/world-x)                               [deg]
#  10 FWHM_WORLD             FWHM assuming a gaussian core                              [deg]
#  11 ELONGATION             A_IMAGE/B_IMAGE                                           
#  12 ELLIPTICITY            1 - B_IMAGE/A_IMAGE                                       
         1 -14.4578    248.0773     18.4926   5.3260069973e+01   2.3380139621e+01     2.092867    0.6638243 -46.02    0.0102977    2.544    0.607
         2 -14.6168    241.8526     53.2611   6.0239926859e+01   1.9991914626e+01     1.376223    0.4988334 -50.07  0.006192243    2.370    0.578
         3 -13.9255    247.1960     43.1079   5.7792937827e+01   2.0367616354e+01    0.9747903    0.6096748 -51.78  0.005986238    1.368    0.269
         4 -14.7074    234.6387     28.4077   5.6182279116e+01   2.4838934258e+01     1.371988    0.4493378 -39.24    0.0062129    2.905    0.656
         5 -10.4441      1.3881      8.2000   1.0523820988e+02   7.1511295325e+01    0.1341911   0.08559694 -39.38 0.0009582553    1.736    0.424
         6 -10.1941    110.8601      5.1456   6.6898481655e+01   5.4517771512e+01    0.1629041    0.1149948  40.43            0    1.295    0.228
         7  -9.7657     50.7363      3.6527   8.2098237815e+01   6.5944997795e+01    0.1145714   0.06813708  16.66 0.0003477923    1.608    0.378
         8 -10.0144    237.7805    244.7385   9.8426259997e+01  -1.2406997973e+01    0.1694058   0.08990967 -47.34 0.0008583473    2.370    0.578
         9 -11.3220    193.3380    248.5459   1.0758448716e+02  -6.6920913914e+00     0.347114    0.2347739 -46.14  0.001963689    1.683    0.406
        10 -10.4263    224.8918    243.1685   1.0054565885e+02  -1.0434474158e+01    0.1771832    0.1662934   4.92  0.000923063    1.293    0.227
        11 -10.5615    202.1365    242.2887   1.0479372104e+02  -6.9943167522e+00    0.2208007    0.1761372 -74.23  0.001231253    2.113    0.527
        12 -10.4833    240.1146    240.2779   9.7232725437e+01  -1.2047764732e+01    0.1934165    0.1573589 -59.91 0.0009572957    2.016    0.504
        13 -10.7792    248.4290    239.8111   9.5662075385e+01  -1.3047316092e+01    0.2150842    0.1040444 -41.48  0.001121317    2.069    0.517
        14 -11.6659    191.6345    236.3641   1.0589409207e+02  -4.3619714325e+00    0.5389219    0.3924499  87.15  0.002502989    2.954    0.661
        15 -10.8487    206.4071    236.5745   1.0297205263e+02  -6.6898822792e+00    0.2498347    0.2329254 -88.35  0.001591409    1.552    0.356
        16 -11.6106    216.4738    233.4357   1.0045963891e+02  -7.6750506933e+00      0.36801    0.3139605 -42.30  0.002144148    1.366    0.268
        17 -10.4300    170.5883    234.7813   1.0998533217e+02  -6.5223826328e-01    0.1786737    0.1322519 -58.85 0.0009521965    1.647    0.393
        18 -10.3730    240.2813    231.6720   9.5693001703e+01  -1.0755113520e+01    0.2136268    0.1404065 -46.01  0.001094947    1.756    0.431
        19 -10.1812    225.6006    231.7249   9.8415768785e+01  -8.7237815927e+00    0.1648451    0.1143414 -44.82 0.0006873933    1.601    0.376
        20 -10.2973    201.6481    231.8210   1.0308915075e+02  -5.1476751533e+00     0.176686    0.1208622 -49.40 0.0009424887    1.689    0.408
        21 -10.1163    245.3872    231.1614   9.4685299208e+01  -1.1355257798e+01    0.1676779     0.105133 -44.96 0.0008543379    1.780    0.438
        22 -11.3238    235.3368    229.1878   9.6152206010e+01  -9.6889017403e+00    0.3479847    0.2070482 -42.31  0.001519719    1.705    0.414
        23 -10.5983    158.2227    231.2252   1.1203208687e+02   2.1084218303e+00    0.2058204    0.1139384 -61.67 0.0008780631    2.460    0.594
        24 -10.6883    229.6386    228.1638   9.7023500304e+01  -8.7230656588e+00    0.2556198    0.1453757 -48.53  0.001012816    2.081    0.519
        25 -10.3771    211.6862    227.4440   1.0032715404e+02  -5.9465318130e+00     0.227331    0.1129867 -40.70  0.001069798    1.978    0.494
        26 -10.1978    138.6077    228.2072   1.1582042113e+02   6.0788530407e+00    0.1942823    0.1297424 -42.10   0.00095732    1.679    0.404
        27 -11.7310    246.3522    225.8752   9.3571031542e+01  -1.0662810223e+01    0.3951285    0.2980441  59.23  0.002256318    2.376    0.579
        28 -11.7504    240.0337    220.6602   9.3759136463e+01  -8.9693443087e+00    0.5537109      0.24411 -42.10  0.002615706    2.148    0.534
        29 -10.3106    223.1306    226.4929   9.7948762020e+01  -7.5051750603e+00    0.1962019    0.1754114 -41.61  0.001077284    1.339    0.253
        30 -11.0149    198.9659    226.5374   1.0269497174e+02  -3.7944902221e+00    0.2497657    0.1899332 -57.20  0.001370401    1.679    0.405
        31 -10.6963    205.9570    225.3062   1.0107411977e+02  -4.6858967691e+00    0.2814777    0.1773227 -49.78  0.001422189    1.821    0.451
        32 -11.3833    217.5291    211.9512   9.6352394261e+01  -4.1396857099e+00     0.349608    0.2827815 -71.80  0.001922941    1.885    0.469
        33 -10.8797    228.1018    221.6261   9.6129434430e+01  -7.4220372745e+00    0.2630098    0.2231957  60.47  0.001588422    1.754    0.430
        34 -10.3912    250.7144    245.4066   9.6222810402e+01  -1.4141096226e+01    0.2012765   0.09111721 -36.60 0.0007940112    2.022    0.505
        35 -10.4687    190.5509    225.7548   1.0427148034e+02  -2.2882744574e+00    0.2488518    0.1266767 -40.05  0.001127997    2.006    0.501
        36 -12.2888    247.8536    216.6409   9.1633806018e+01  -9.3965917245e+00    0.5334492    0.2654656 -42.63  0.002292391    1.908    0.476
        37 -10.9264    193.2256    218.7404   1.0246152481e+02  -1.4327891923e+00    0.3183542     0.186005 -58.38  0.001406046    2.394    0.582
        38 -10.8106    219.6089    217.0840   9.6906414090e+01  -5.3700262474e+00    0.3407722    0.2153633 -44.90    0.0014167    1.628    0.386
        39 -11.4852    217.1534    222.8340   9.8432518504e+01  -5.9902588348e+00    0.4176501    0.2611931 -53.43  0.001658006    2.065    0.516
        40 -11.2708    230.2606    236.4872   9.8381927839e+01  -1.0139139493e+01    0.3167166    0.2346745 -58.59  0.001371955    2.123    0.529
        41  -9.7914    185.6911    215.3377   1.0340597482e+02   4.8749836928e-01    0.1345991    0.1128876  82.00 0.0007043453    1.682    0.406
        42 -11.2319    232.8749    212.7272   9.3604004709e+01  -6.6195519523e+00    0.3305975    0.2179495 -38.28  0.001483186    1.404    0.288
        43  -9.7769    204.7342    212.3801   9.8949773405e+01  -2.1562041978e+00    0.1289506    0.1093863 -76.33  0.000698688    1.684    0.406
        44 -10.4086    177.0000    210.9860   1.0445169644e+02   2.8569343141e+00    0.2311634   0.07999214 -47.04 0.0008029926    2.946    0.661
        45 -11.4792    240.4298    208.0414   9.1359014979e+01  -6.9288999570e+00    0.4402111    0.2671889 -57.12   0.00210712    2.487    0.598
        46 -10.6891    192.7674    209.8728   1.0091787084e+02   3.2876138411e-01     0.257172    0.1958138 -61.59  0.001120262    1.660    0.398
        47 -11.4578    246.8795    206.2402   8.9882980160e+01  -7.5502189943e+00    0.5069551    0.2146367 -52.30    0.0019227    3.672    0.728
        48 -11.0509    243.2680    200.6997   8.9474243650e+01  -6.0885285988e+00    0.3832016    0.2163311 -42.27  0.001921177    1.618    0.382
        49 -10.7256    229.4386    207.1685   9.3197471707e+01  -5.1412058815e+00    0.3146794    0.1185473 -44.59  0.001272261    2.571    0.611
        50 -10.1799    224.6275    207.8100   9.4218621544e+01  -4.5131674548e+00    0.1887068    0.1170385 -48.70 0.0009464353    1.746    0.427
        51 -10.1507    206.2987    207.6673   9.7749787916e+01  -1.5378151196e+00    0.1289133    0.1117479 -85.16 0.0007031334    1.648    0.393
        52  -9.5457    183.0000    207.0109   1.0242931826e+02   2.5925508239e+00     0.229279   0.07950421 -46.31 0.0007961367    2.899    0.655
        53 -11.2381    235.1781    203.0833   9.1371030818e+01  -5.2972963644e+00    0.3430432    0.2468884 -56.50  0.001226405    1.794    0.442
        54 -10.9332    231.4813    198.5270   9.1175141028e+01  -3.9242069665e+00    0.4326477    0.1863876 -48.68  0.001509943    2.520    0.603
        55 -10.9487    231.0000    193.9892   9.0387348254e+01  -3.0308432686e+00    0.3379791    0.1722187 -38.71  0.001580921    1.767    0.434
        56 -10.4296    217.4642    204.9498   9.5041666915e+01  -2.8635152463e+00    0.2088866    0.1240839 -40.92 0.0009777972    1.586    0.369
        57 -10.0100    202.3496    204.2358   9.7888968102e+01  -2.2502432402e-01    0.1932124    0.1256573 -50.09 0.0009392778    1.649    0.394
        58 -10.2009    197.4624    203.9823   9.8834557842e+01   6.6084751496e-01    0.2193016    0.1326732 -42.73  0.001037896    1.613    0.380
        59 -10.2677    187.3759    203.2127   1.0078297214e+02   2.5771024502e+00    0.2052034    0.1326653 -54.99 0.0009523499    1.771    0.435
        60 -11.2089    250.1187    200.5294   8.8253105138e+01  -7.0492280933e+00    0.3843337    0.1654914 -41.84  0.001776739    2.049    0.512
        61 -10.0140    223.5033    201.4837   9.3226355355e+01  -3.2001413044e+00    0.1348069    0.1196131 -18.52  0.000212927    1.023    0.023
        62  -9.9010    215.4215    198.2117   9.4139697009e+01  -1.2814465599e+00    0.1946681    0.1248866 -50.75 0.0009508315    1.691    0.409
        63 -11.2106    224.3065    192.2751   9.1290531345e+01  -1.6384529096e+00    0.3806129     0.168299 -45.98  0.001482526    2.183    0.542
        64 -10.3973    201.9921    197.2142   9.6603205678e+01   1.1934357862e+00    0.2029936     0.156515 -61.71 0.0007809527    1.609    0.379
        65  -9.9681    176.4559    197.4944   1.0201975958e+02   5.7190976791e+00    0.1424107    0.1405783  -6.01 8.294046e-05    1.055    0.052
        66  -9.9785    219.2896    194.6270   9.2697982015e+01  -1.2510648000e+00    0.1329578    0.1086369 -72.28 0.0006012521    1.722    0.419
        67  -9.9828    209.4615    194.5065   9.4580682318e+01   4.2824281556e-01    0.1408631     0.126384 -17.04 7.485767e-05    1.027    0.026
        68 -10.4250    243.9870    188.0260   8.6925029114e+01  -3.9805493539e+00    0.1970938    0.1730494 -46.30 0.0008471964    1.241    0.194
        69 -11.7466    246.4365    193.0880   8.7475417532e+01  -5.2384271551e+00    0.4039419    0.2678912 -54.83  0.001869169    1.851    0.460
        70  -9.8035    185.3145    190.3232   9.8703343042e+01   5.5787104624e+00    0.1505088    0.1127353  -7.56 0.0007041468    1.661    0.398
        71 -11.1601    237.0648    187.1588   8.7966767149e+01  -2.7511040650e+00    0.3280558    0.1797767 -38.86  0.001082196    1.608    0.378
        72 -10.0279    210.3057    188.6528   9.3256268536e+01   1.4159989426e+00     0.137181    0.1128297 -78.57 0.0004458247    1.698    0.411
        73 -10.6124    230.0006    186.7796   8.9160851445e+01  -1.5493440398e+00    0.2466376    0.1670666 -52.99  0.001171764    1.633    0.388
        74  -9.7855    220.2883    187.3380   9.1072656991e+01  -4.3349934486e-02    0.1421737    0.1014116 -12.68 0.0004767391    1.637    0.389
        75 -10.1601    215.3701    187.1496   9.1972885835e+01   8.3070982340e-01    0.2016359    0.1230336 -51.34 0.0007432663    1.746    0.427
        76 -11.0273    249.6199    184.0547   8.5200702050e+01  -4.1321407344e+00    0.4379172    0.1360466 -44.09  0.001658732    2.854    0.650
        77 -11.8739    247.8150    178.1244   8.4353519748e+01  -2.8038466095e+00    0.5495444    0.2638294 -52.15  0.002388115    2.400    0.583
        78 -10.1734    189.6170    184.7630   9.6675327308e+01   5.9343998925e+00    0.2033498    0.1355415 -52.69 0.0008339369    1.576    0.366
        79 -10.6343    223.8018    183.7341   8.9697491626e+01   4.7601155013e-02    0.2871758    0.1747946 -49.62  0.001171818    1.671    0.402
        80 -10.6999    197.6791    182.8981   9.4625412094e+01   4.8248219455e+00    0.3816618    0.1661486 -51.15  0.001421207    2.506    0.601
        81 -10.0910    218.0000    182.9647   9.0633117924e+01   1.1841713834e+00    0.2348873   0.07372773 -43.43 0.0008000631    2.926    0.658
        82 -11.6401    241.3032    180.3464   8.5892962299e+01  -2.1852258266e+00    0.4735048    0.2194447 -48.78  0.002068392    2.176    0.540
        83  -9.8632    176.7010    181.3436   9.8748370820e+01   9.1079847082e+00     0.150101    0.1202497 -87.66 0.0004400727    1.673    0.402
        84 -10.7012    191.0000    179.9606   9.5404932594e+01   6.6746995545e+00     0.248249   0.08075588 -45.38 0.0008034101    2.949    0.661
        85 -10.0722    226.0000    178.9414   8.8333633080e+01   5.8512976656e-01    0.2335587   0.07173081 -43.04  0.000800771    2.931    0.659
        86 -10.5567    219.0098    177.8021   8.9401080212e+01   2.0073748361e+00      0.27163     0.183763 -41.45    0.0013781    1.347    0.258
        87 -10.6147    210.5110    175.9800   9.0653055435e+01   3.8770452658e+00    0.3158641    0.1304437 -49.03  0.001045862    2.468    0.595
        88 -10.2663    197.6522    176.5343   9.3325199864e+01   6.1343519739e+00    0.2616418    0.1312288 -44.88  0.001073894    1.891    0.471
        89 -10.3524    232.6441    174.4957   8.6245704033e+01   3.0510002910e-01     0.240548    0.1161127 -42.04   0.00103059    1.830    0.454
        90 -10.4918    223.5091    172.9633   8.7582802635e+01   2.1581533252e+00    0.3145579    0.1236276 -48.41  0.001181182    2.544    0.607
        91 -10.8008    235.6288    181.1040   8.7032237759e+01  -1.4153448951e+00    0.2007471    0.1967448  74.99 0.0009889714    1.263    0.208
        92 -10.8589    188.2090    172.4738   9.4434264021e+01   8.7836520362e+00    0.2912688    0.1988498 -44.69  0.001081406    1.401    0.286
        93 -10.3331    227.6205    170.8625   8.6409334868e+01   1.8481071942e+00    0.2061487    0.1183696 -50.80 0.0009459728    1.761    0.432
        94 -10.6019    245.8091    169.1006   8.2916996394e+01  -8.5666224595e-01    0.2841164     0.162105 -49.96  0.001392359    1.713    0.416
        95 -11.2142    237.3023    168.8472   8.4301093344e+01   5.8400215072e-01    0.3748684    0.1590401 -46.67  0.001556805    2.174    0.540
        96 -10.9429    218.7776    168.2111   8.7483210491e+01   3.9222546745e+00    0.3750711     0.186305 -47.59   0.00159852    1.912    0.477
        97 -10.1386    229.2267    165.9592   8.5125387232e+01   2.5079991859e+00    0.1952737    0.1036105 -43.05  0.000880552    1.671    0.402
        98 -10.8239    191.2325    165.7128   9.2370548869e+01   9.6275891610e+00    0.3206445    0.1986116 -36.95  0.001417778    1.619    0.382
        99 -10.4236    199.4715    164.5697   9.0447631920e+01   8.2634688926e+00    0.3182617    0.1379011 -44.63  0.001207596    2.160    0.537
       100 -10.6464    239.8576    163.7490   8.2843894163e+01   1.1076264505e+00    0.2850932     0.168923 -50.23   0.00139705    1.630    0.387
       101 -10.4517    205.4765    169.4297   9.0280021281e+01   6.1227538415e+00    0.2759221    0.1295276 -53.64  0.001032651    2.468    0.595
       102 -11.0895    212.9974    162.7003   8.7419532802e+01   6.0759615928e+00    0.4172075    0.1939959 -45.10   0.00170275    1.976    0.494
       103 -10.3670    246.7663    162.3752   8.1428307344e+01   2.1787486950e-01    0.2408368    0.1605554 -48.40 0.0009385357    1.375    0.273
       104 -10.9304    245.8288    157.1805   8.0545502744e+01   1.3272862805e+00    0.3570877     0.187609 -40.75  0.001441304    1.628    0.386
       105 -10.1749    221.5604    161.7284   8.5629783690e+01   4.6920798006e+00     0.199664    0.1249838 -50.94 0.0009416355    1.566    0.361
       106 -10.7663    205.2198    161.3656   8.8630196481e+01   7.8178348581e+00    0.3177212    0.1891461 -50.76  0.001415278    1.661    0.398
       107 -10.7563    237.7230    158.6167   8.2166987897e+01   2.4316025120e+00    0.2916303    0.1645701 -49.32  0.001210149    1.663    0.399
       108 -10.9336    177.0000    158.4753   9.3828321944e+01   1.4043390920e+01    0.3470253   0.08478916 -45.92 0.0009344508    3.932    0.746
       109 -10.7212    226.4875    156.6292   8.3690238539e+01   4.7937930536e+00    0.2971171    0.1256262 -43.12  0.001050254    2.098    0.523
       110  -9.6203    222.2696    156.6363   8.4441148381e+01   5.5615193462e+00    0.1430243    0.1059038 -67.14  0.000396516    1.654    0.396
       111 -10.5752    215.9260    155.9804   8.5457217640e+01   6.8713755720e+00    0.2733039    0.1842197 -48.18  0.001135443    1.380    0.275
       112  -9.9444    154.3315    156.3167   9.8500469788e+01   1.9204127243e+01    0.1596455    0.1258552  -6.48 0.0007047001    1.686    0.407
       113  -9.9761    187.6481    155.1840   9.0835644582e+01   1.2586303215e+01    0.2260338    0.1343365 -36.50 0.0009467807    1.739    0.425
       114 -10.7607    250.3996    151.5000   7.8691366502e+01   1.6097898425e+00    0.6972105    0.1445535 -47.12   0.00197184    4.846    0.794
       115 -10.9057    241.8191    153.2962   8.0413732573e+01   2.7255717168e+00    0.3235377    0.2084314 -51.38  0.001058071    1.470    0.320
       116 -11.2513    244.0247    149.0232   7.9196694659e+01   3.1424290297e+00    0.4077947    0.1919697 -45.69  0.001829978    1.834    0.455
       117 -10.7480    233.1817    153.5773   8.1904139202e+01   4.1807032032e+00    0.2743094    0.1745533 -44.82  0.001245674    1.381    0.276
       118 -10.9313    157.3576    152.5684   9.6951514481e+01   1.9436103204e+01    0.3126172    0.1370624 -59.14 0.0009519348    3.250    0.692
       119 -10.9954    229.4960    148.0176   8.1379952190e+01   5.9121573388e+00    0.3216822    0.1240631 -38.10   0.00108344    2.531    0.605
       120  -9.8481    202.4963    151.4781   8.7035270865e+01   1.0382619184e+01    0.1483321    0.1375009 -44.00 0.0008102734    1.003    0.003
       121 -11.8106    235.2608    147.1188   8.0228006685e+01   5.0393290956e+00    0.4706016    0.2943565 -53.13  0.001547702    1.557    0.358
       122 -10.3335    215.0243    148.9815   8.4135240623e+01   8.4410716897e+00    0.2315255    0.1730163 -73.82  0.001086224    1.711    0.415
       123 -10.7291    223.7288    146.6222   8.2080689787e+01   7.2525684482e+00    0.2864055    0.2161073 -49.32  0.001164181    1.209    0.173
       124 -10.5770    207.5476    145.0152   8.4663860262e+01   1.0703173304e+01    0.2348833    0.1347713 -43.43  0.001031418    1.601    0.375
       125  -9.7954    200.6329    145.3020   8.6046119091e+01   1.2031554326e+01    0.1523991    0.1160655 -84.24 0.0007034176    1.738    0.425
       126 -11.4180    247.5132    112.4808   7.1296585642e+01   9.2022268809e+00    0.3058827    0.1548614 -48.60 0.0009710353    1.679    0.404
       127 -10.4372    242.1255     92.9106   6.8067424474e+01   1.3644854687e+01    0.2134194    0.1526132 -63.47 0.0009679644    1.266    0.210
       128 -12.5473    242.4933    107.5922   7.0999303827e+01   1.1012754055e+01    0.9346273    0.3843041 -63.14  0.002560628    6.131    0.837
       129 -13.1616    245.5443    101.8290   6.9419160551e+01   1.1447680197e+01     1.007411    0.4760521 -59.32  0.004305411    2.407    0.584
       130 -10.9097    248.6855    135.5273   7.5762251492e+01   4.8238380616e+00    0.5767265    0.2037185 -53.27  0.001979206    3.486    0.713
       131 -11.2224    247.3197    143.9744   7.7664941379e+01   3.5099175875e+00    0.5179433     0.336349  -8.92   0.00228398    2.825    0.646
       132 -13.3436    240.8788    123.0293   7.4387955134e+01   8.5237748744e+00     1.622772    0.3257814 -43.31  0.004819407    4.184    0.761
       133 -11.4892    243.6857    140.0460   7.7433963321e+01   4.8686001720e+00    0.4480651    0.1757125 -46.30   0.00143039    2.210    0.547
       134 -11.2680    242.1592    133.7419   7.6386717848e+01   6.3106295482e+00    0.4235888    0.1708461 -43.11  0.001100919    2.118    0.528
       135 -11.6176    248.1885    129.5753   7.4639907281e+01   5.9978905771e+00    0.4239974    0.3120682 -58.96  0.001545141    1.300    0.231
       136 -11.2022    249.4163    123.7548   7.3294105107e+01   6.8347067998e+00    0.3378009    0.1988592 -48.61  0.001021852    1.438    0.305
       137 -11.5772    247.8730    118.6166   7.2480598123e+01   8.0388407258e+00    0.4391055    0.2049652 -48.52  0.001284754    1.839    0.456
       138 -11.2587    230.0777    140.2757   7.9666268121e+01   7.2938260405e+00    0.5161248    0.1686399 -44.23  0.001849812    2.678    0.627
       139 -10.3078    181.8367    142.0143   8.9107416865e+01   1.6619314307e+01    0.2618742    0.1733237 -69.13  0.001079915    2.015    0.504
       140 -10.7752    238.5095    140.0923   7.8256672751e+01   5.7828716398e+00    0.2074834    0.1578044 -47.18  0.001030637    1.138    0.121
       141 -11.7366    234.8073    135.5738   7.7914822761e+01   7.3109185980e+00    0.4672662    0.2381661 -50.27  0.001663386    1.816    0.449
       142 -10.3301    224.4432    140.0008   8.0557725983e+01   8.4086761055e+00    0.2278948    0.1260602 -43.82  0.001030724    1.604    0.377
       143 -10.4076    218.5268    138.0340   8.1161002848e+01   9.9350350161e+00    0.2282736    0.1299315 -43.04  0.001028713    1.583    0.368
       144 -10.3087    172.5938    137.8149   9.0120614298e+01   1.9499584258e+01    0.2333694     0.141171 -55.63 0.0009563716    1.750    0.429
       145 -10.6362    208.2081    137.2234   8.2836374846e+01   1.2147918634e+01    0.2428873    0.1022519 -51.32 0.0007609306    2.462    0.594
       146 -10.2442    198.6198    136.2050   8.4413977067e+01   1.4320249293e+01    0.2169326    0.1346558 -36.15 0.0009498114    1.651    0.394
       147 -10.2398    187.6501    135.8167   8.6492698679e+01   1.6705793352e+01    0.2256856    0.1330794 -52.62  0.000944859    1.701    0.412
       148 -10.2189    225.1770    133.5688   7.9068601500e+01   9.5141510626e+00    0.2393126    0.1558445 -40.23  0.001079955    1.407    0.289
       149 -10.4648    198.3320    131.7839   8.3475053109e+01   1.5286416330e+01    0.2133002    0.1312231 -37.34 0.0006227492    1.639    0.390
       150 -10.8025    143.0000    131.0112   9.5365746921e+01   2.7400475429e+01    0.2665191   0.08819944 -46.68 0.0008046369    2.958    0.662
       151 -10.7788    233.5715    128.8323   7.6707582360e+01   8.8139739114e+00    0.3435489    0.1172331 -45.15  0.001268668    2.545    0.607
       152 -10.4720    220.6354    128.8340   7.8817880708e+01   1.1317613551e+01    0.2144117    0.1187555 -51.12 0.0009482498    1.699    0.411
       153  -9.7604    186.2902    128.6708   8.5122622915e+01   1.8492765808e+01    0.1550351    0.1164117 -76.47 0.0004904995    1.622    0.383
       154 -10.6321    227.8501    125.2873   7.6871708790e+01   1.0580926368e+01    0.2614163    0.1681997 -51.60  0.001164712    1.411    0.291
       155 -10.6041    199.9787    126.0322   8.1864397735e+01   1.6106384805e+01    0.2405023    0.1741231 -73.04  0.000846116    1.666    0.400
       156 -10.4908    179.5583    124.2943   8.5469910284e+01   2.0870445656e+01    0.3000809    0.1415968 -48.05  0.001132342    2.059    0.514
       157 -11.1003    235.0238    123.1894   7.5304770707e+01   9.5949190320e+00    0.2517088    0.1764106 -46.37 0.0007618389    1.237    0.192
       158 -10.0076    188.0000    122.9790   8.3459152912e+01   1.9297044073e+01     0.253065   0.08239231 -43.30 0.0007988077    2.917    0.657
       159 -10.4724    212.8192    121.5837   7.8568504629e+01   1.4304810165e+01    0.2926801    0.1033881 -40.55   0.00101472    2.709    0.631
       160 -11.1812    230.7178    116.0039   7.4458063660e+01   1.1761462170e+01    0.2631496     0.151032 -47.07  0.000666336    1.524    0.344
       161 -10.2350    186.0000    114.9816   8.1974250804e+01   2.1357044635e+01    0.2554675   0.08235312 -42.77 0.0008063209    2.969    0.663
       162  -9.6246    191.6648    114.3373   8.0735747235e+01   2.0237756649e+01    0.1581193    0.1128711 -77.70 0.0007051782    1.747    0.428
       163  -9.6953    189.5129    108.5180   7.9775064483e+01   2.1857787265e+01    0.1500231    0.1373562 -70.57 0.0008101502    1.025    0.024
       164 -10.1672    160.7492    108.0222   8.5506836826e+01   2.8432245247e+01    0.2108973    0.1284804 -44.46 0.0008980727    1.617    0.382
       165 -10.3329    222.4163    104.6942   7.3315607557e+01   1.5513462861e+01    0.2778921     0.117803 -46.67  0.001127827    2.107    0.525
       166 -11.6400    229.1511    102.6698   7.1874660409e+01   1.4508196217e+01     0.273209    0.1912208 -41.79  0.001311681    1.349    0.259
       167 -10.4961    167.1136    100.3804   8.2221821902e+01   2.8505616825e+01    0.2675315    0.1700127 -48.11  0.001195813    1.554    0.356
       168 -12.3736    248.2834     94.8853   6.7676308714e+01   1.2124499386e+01    0.7874664    0.1923776 -46.77  0.002718111    3.413    0.707
       169 -14.6380    240.8094     77.3035   6.5089265899e+01   1.6503198931e+01     1.557339    0.5935759 -43.11  0.006767692    2.289    0.563
       170 -10.2995    242.2778    248.0374   9.8174428515e+01  -1.3466574848e+01     0.167906    0.1322819 -14.84 0.0007348685    1.097    0.088
       171 -10.6460    232.8268    247.4659   9.9800256767e+01  -1.2159441339e+01     0.218919    0.1538415 -50.18  0.001142023    1.963    0.491
       172 -10.2893    224.3716    248.2110   1.0150176154e+02  -1.1132786826e+01    0.1594155    0.1099925 -43.74 0.0008002404    1.679    0.404
       173 -13.1674    249.5660     64.2679   6.1550588594e+01   1.6827806455e+01      1.53646    0.3881824 -37.63  0.005148194    4.536    0.780
       174 -11.8535    249.9002     54.5551   5.9675030133e+01   1.8211330154e+01     0.707905    0.1392711 -48.06   0.00247708    3.991    0.749
       175  -9.9617    202.6071     97.8238   7.4961892526e+01   2.0990870246e+01    0.2118618    0.1222562 -52.23 0.0009483704    1.667    0.400
       176 -12.0873    211.7896     94.0596   7.2627543096e+01   1.9677184297e+01     0.723869    0.2175004 -52.77  0.002091694    4.447    0.775
       177 -12.5225    234.5423     86.5042   6.7747148391e+01   1.6238110728e+01    0.5040932    0.1957309 -37.58  0.002008196    2.690    0.628
       178 -11.5569    235.3859     95.1993   6.9430891427e+01   1.4578382217e+01    0.3597878    0.1852842 -50.08  0.001362374    1.703    0.413
       179 -12.4357    231.6080     90.7491   6.9020674590e+01   1.6108405867e+01     0.476807    0.2338147 -49.33  0.001772365    1.799    0.444
       180  -9.8864    229.3254     95.2928   7.0291144422e+01   1.5782828763e+01    0.1233566    0.1096655   5.80 0.0004290188    1.619    0.382
       181 -10.1699    215.4010     94.2149   7.2104449820e+01   1.8875921663e+01    0.2042493    0.1162344 -52.38 0.0007331555    1.640    0.390
       182 -10.8205    188.8711     92.6401   7.6123517778e+01   2.5005218150e+01    0.2997592    0.1986766 -52.07  0.001383293    1.461    0.316
       183 -11.4304    225.8961     87.3157   6.9083467326e+01   1.7871536942e+01    0.2463452    0.1595607 -54.47 0.0007104148    1.382    0.276
       184 -11.2080    175.8672     87.6309   7.7293090475e+01   2.8887219328e+01    0.2873242    0.2145956 -43.69 0.0008527765    1.340    0.254
       185 -10.2204    150.7690     88.0145   8.2534716492e+01   3.4600192932e+01    0.2010626     0.122863 -41.86 0.0008849843    1.663    0.399
       186 -10.2989    188.4856     87.0156   7.4848276213e+01   2.6106784520e+01    0.2213697    0.1364197 -43.65   0.00102906    1.581    0.367
       187 -10.0679    206.0000     84.9587   7.1486107271e+01   2.2541614501e+01    0.2296003    0.0751321 -40.53 0.0008000624    2.926    0.658
       188 -11.4790    225.1708     81.7108   6.7994059781e+01   1.8972132855e+01    0.2448693     0.158543 -54.98 0.0008204615    1.383    0.277
       189 -10.2699    159.0000     81.9722   7.9182749254e+01   3.3799462616e+01    0.2381002    0.0828948 -39.64 0.0008019618    2.939    0.660
       190 -10.6855    236.4878     90.0004   6.8210992551e+01   1.5253919662e+01    0.3144186    0.2039718 -41.75  0.001119581    1.457    0.314
       191  -9.9116    150.6675     79.3224   8.0235531537e+01   3.6188703778e+01     0.151826    0.1124523 -81.39 0.0007050022    1.702    0.413
       192 -10.4922    201.0000     77.9758   7.0670563930e+01   2.4843330114e+01    0.2262535    0.0755017 -39.85 0.0007999487    2.925    0.658
       193 -10.2256    166.6090     77.7795   7.6577935933e+01   3.2764728382e+01    0.2082363    0.1291767 -50.80 0.0009532515    1.659    0.397
       194 -10.5232    211.3834     76.2508   6.8734446499e+01   2.2833294839e+01    0.2549004    0.1273624 -37.07  0.001046927    2.111    0.526
       195  -9.8926    174.4926     77.5104   7.5026575836e+01   3.0980364557e+01    0.1441556    0.1325334 -87.97 1.270769e-05    1.006    0.006
       196 -12.8219    247.0827     86.4694   6.6155846815e+01   1.3769953891e+01    0.6987179     0.511384 -36.47  0.004073397    1.493    0.330
       197 -13.1011    229.9750     69.2066   6.4760296992e+01   2.0003542557e+01    0.7681465    0.3143872 -30.51  0.002709052    4.148    0.759
       198 -10.6993    222.1273     71.1195   6.6152593241e+01   2.1349812547e+01    0.1918177    0.1339648 -64.95 0.0007021584    1.321    0.243
       199 -10.3992    163.4591     71.0230   7.5440755384e+01   3.4630161989e+01     0.217344    0.1396923 -39.83  0.001038505    1.617    0.382
       200  -9.8056    170.4975     70.4943   7.3989687255e+01   3.3077636313e+01    0.1427561    0.1301656  88.79 -3.418218e-05    1.017    0.017
       201  -9.6526    187.3166     68.6621   7.0651575538e+01   2.9478747655e+01     0.148524   0.09946602 -73.90 0.0004947754    1.701    0.412
       202 -10.1950    203.3702     66.2101   6.7640474449e+01   2.6225730484e+01    0.1992997    0.1109869 -51.25 0.0009477346    1.713    0.416
       203 -11.9934    192.5373     55.2036   6.6678207129e+01   3.0346828534e+01    0.4310917    0.1646403 -41.13  0.001774658    2.542    0.607
       204 -10.5404    157.8383     61.5771   7.4038103373e+01   3.7435650493e+01     0.234707    0.1640346 -45.22  0.001204066    1.487    0.328
       205 -12.9312    224.4552     53.4811   6.2179158885e+01   2.3552624149e+01    0.4713435    0.2265774 -64.08  0.002121266    2.354    0.575
       206 -13.5904    226.5140     51.0248   6.1442892869e+01   2.3472967909e+01    0.7385019    0.1890879 -48.76  0.002683747    3.535    0.717
       207 -10.8336    153.0000     52.0611   7.2412625479e+01   3.9958936217e+01    0.2134781   0.07862266 -34.91  0.000803982    2.953    0.661
       208 -10.2658    218.4052    248.1762   1.0262576025e+02  -1.0301316220e+01    0.1615392    0.1141393 -46.91 0.0009463964    1.735    0.424
       209 -10.7992    168.5827     36.7753   6.5791063695e+01   3.8370099052e+01     0.179465    0.1142661 -50.05 0.0009508642    1.650    0.394
       210 -10.2916    156.0000     16.0064   6.2403124988e+01   4.3581245593e+01    0.1808486   0.07195301 -28.96 0.0008068921    2.973    0.664
       211 -12.4618    223.7202     35.6873   5.8646393073e+01   2.6172973479e+01    0.2989997    0.1877879 -43.80  0.001677967    1.578    0.366
       212  -9.9784    161.7726     14.0437   6.1101992243e+01   4.2464661529e+01    0.1453937    0.1021432 -34.98 0.0008759825    1.651    0.394
       213 -10.5481    210.5070    248.0095   1.0411589224e+02  -9.1521370781e+00    0.1523205    0.1136705 -67.77 0.0008093786    2.445    0.591
       214 -11.5588    175.9867    246.3838   1.1075098122e+02  -3.6216882211e+00    0.4055866     0.204364 -43.99  0.001850632    2.151    0.535
