#   1 NUMBER                 Running object number                                     
#   2 MAG_AUTO               Kron-like elliptical aperture magnitude                    [mag]
#   3 X_IMAGE                Object position along x                                    [pixel]
#   4 Y_IMAGE                Object position along y                                    [pixel]
#   5 X_WORLD                Barycenter position along world x axis                     [deg]
#   6 Y_WORLD                Barycenter position along world y axis                     [deg]
#   7 A_WORLD                Profile RMS along major axis (world units)                 [deg]
#   8 B_WORLD                Profile RMS along minor axis (world units)                 [deg]
#   9 THETA_WORLD            Position angle (CCW/world-x)                               [deg]
#  10 FWHM_WORLD             FWHM assuming a gaussian core                              [deg]
#  11 ELONGATION             A_IMAGE/B_IMAGE                                           
#  12 ELLIPTICITY            1 - B_IMAGE/A_IMAGE                                       
         1 -10.9199     19.1961     31.9684   1.0907786148e+02   6.7702151974e+01    0.9334533    0.3768844 -27.57  0.001585396    3.968    0.748
         2 -11.8857     76.9326     21.9385   8.0291456470e+01   6.2236478336e+01    0.5163684    0.4477145 -54.94  0.002163912    1.433    0.302
         3 -11.5285     39.6224     22.6774   9.6096539838e+01   6.7628207729e+01    0.6470346    0.2461852 -33.83  0.002592944    3.112    0.679
         4 -11.0857     14.2938     16.0959   1.0608045171e+02   7.1202125860e+01    0.3108508    0.1980414  27.78  0.001468585    1.918    0.479
         5  -9.9470     57.7002     17.3902   8.5675513588e+01   6.6151375336e+01    0.4198497    0.1839497 -54.62  0.001352451    5.248    0.809
         6 -11.6481    190.7449     14.4594   5.1804090685e+01   3.5462034761e+01     0.478354    0.2208922 -42.18  0.001589327    2.171    0.539
         7 -11.6307     88.6403     13.6545   7.2445543686e+01   6.1175592913e+01    0.4685086    0.4099942  77.39  0.001589165    1.509    0.337
         8 -11.0361    231.7410     14.2855   4.7309995906e+01   2.4852786317e+01    0.2460733     0.209041 -61.30 0.0003630781    1.112    0.101
         9 -11.3007    150.8878      7.0888   5.5043709503e+01   4.6932844092e+01     0.447013    0.2895364 -23.44 0.0007926505    1.599    0.375
        10 -11.1461    155.3301     14.5690   5.7065823191e+01   4.4977960882e+01    0.4559187     0.290048  33.05  0.001404457    1.738    0.425
        11 -11.6279    155.9816      8.4980   5.4734356628e+01   4.5436404894e+01    0.6365726    0.2540344  43.24  0.001920083    2.672    0.626
        12 -11.7209     40.3719      9.2047   8.9492008499e+01   6.9877203886e+01    0.4871913    0.2239147 -31.50  0.002379384    2.067    0.516
        13 -11.7653     35.2319     12.7413   9.3764725113e+01   6.9898527211e+01    0.3215232    0.2300194 -46.56 0.0008193419    1.354    0.261
        14 -11.8879     30.3084      7.1503   9.3548576797e+01   7.1393332095e+01    0.3308332     0.294536 -39.92  0.001194388    1.304    0.233
        15 -11.1300    162.4750     13.2355   5.5406280067e+01   4.3209384739e+01    0.2665611    0.2510103  86.87 0.0001925501    1.077    0.072
        16  -9.6548      2.5625      2.7222   1.0740129845e+02   7.4456496227e+01    0.2172714    0.1534271  17.63 0.0008224751    1.713    0.416
        17  -9.9936      9.9308      1.6955   1.0241949004e+02   7.4170102546e+01    0.1815234    0.1347489 -34.40   0.00124562    1.028    0.027
        18  -9.0487      5.8109     13.9533   1.0988545610e+02   7.2152069010e+01    0.1978444    0.1034494 -54.83 0.0006358833    1.441    0.306
        19 -10.4304     14.9258      8.8528   1.0276959261e+02   7.2512921042e+01     0.211161    0.1575397 -32.93 0.0006552099    1.082    0.076
        20 -10.8048     11.0008      6.9364   1.0417498670e+02   7.3150634076e+01      0.33243    0.2588916  75.18  0.002068273    2.239    0.553
        21 -11.0076      4.0679     10.0015   1.0941967985e+02   7.3008850650e+01    0.2293189    0.1640275 -48.10 0.0004267838    1.055    0.053
        22 -10.6317      2.4889      6.4882   1.0898991979e+02   7.3760143650e+01    0.3044022    0.1670893  -3.49  0.001880876    2.199    0.545
        23 -10.9327     90.2444      2.4190   6.6488182438e+01   6.2193867828e+01    0.4194951    0.2497703  57.92  0.001607563    1.783    0.439
        24 -10.5806    119.0473     12.0836   6.3373194709e+01   5.4544119297e+01    0.2128212    0.1949577  27.81 0.0003074658    1.013    0.013
        25 -10.2828     56.4980     10.5202   8.2801281119e+01   6.7409185287e+01    0.3766436    0.1956535 -14.80   0.00162172    2.748    0.636
        26 -10.3283     55.3376      7.3046   8.1629147637e+01   6.8063832929e+01    0.2731168    0.2000828  23.43 0.0008213809    1.378    0.274
        27 -11.5119     57.6311      2.4280   7.8020366784e+01   6.8375778851e+01    0.4402669    0.3034829  -9.58  0.000122011    1.381    0.276
        28 -10.8137     22.5142      9.6464   9.8928603451e+01   7.1736101068e+01    0.2806929    0.2127784  -3.99  0.001428943    1.364    0.267
        29 -11.2434    210.3820      7.3766   4.7437326681e+01   3.0983877483e+01    0.2242079    0.2088369 -80.74  0.001099533    1.016    0.016
        30 -10.8135     71.2301      6.4492   7.4837552585e+01   6.5491237754e+01    0.3281008    0.2674091   3.58  0.001511368    1.107    0.097
        31 -11.4586    144.9291      6.0584   5.5663552714e+01   4.8608227480e+01    0.2708269    0.2478729  22.03            0    1.094    0.086
        32 -10.2663     93.1421      8.7220   6.8708906585e+01   6.0856362084e+01    0.3167732    0.2010822 -12.94   0.00102013    1.619    0.382
        33  -9.8640     64.6783      6.9740   7.7606792813e+01   6.6582959128e+01    0.1848786    0.1442955 -21.16 0.0005792737    1.149    0.130
        34 -10.1394    235.4955      4.5053   4.4386481587e+01   2.4918792555e+01    0.1325402    0.1229063 -62.72 0.0008104516    1.032    0.031
        35 -10.1674    120.9488      4.0519   5.9488680573e+01   5.4931764162e+01    0.2123029     0.191653  29.00 0.0003800768    1.025    0.024
        36 -10.2240    100.4428      1.9379   6.3413545217e+01   6.0001391314e+01     0.290641    0.1969207  70.73  0.001053479    1.783    0.439
        37 -10.3179     20.1149      2.3618   9.6717067645e+01   7.3219656900e+01     0.234803    0.1668153 -12.30 0.0007275224    1.357    0.263
        38 -10.1364     16.5569      3.5228   9.9360675793e+01   7.3333533619e+01    0.1749851   0.09081278 -47.72 5.819168e-05    1.574    0.365
        39 -11.3471    194.3226      3.8825   4.8073171342e+01   3.5558844342e+01    0.2565722    0.1940405 -86.23  0.001328162    1.334    0.251
        40 -10.6617    172.9668      3.2285   5.0411758807e+01   4.1366940092e+01    0.3208287    0.1951227  82.00 0.0009466338    1.715    0.417
        41  -9.8262    176.5241      2.5173   4.9717908754e+01   4.0471001696e+01    0.2472485    0.2165028 -40.23  0.001373754    1.180    0.152
        42 -11.1293    161.2444      2.1470   5.1634016487e+01   4.4627348737e+01     0.326375     0.239236  38.86  0.001651101    1.387    0.279
        43 -11.3612    130.2267      3.6852   5.7426215505e+01   5.2642634494e+01    0.3069309    0.2457421  76.28 0.0009327902    1.337    0.252
        44  -9.2477    187.0280      1.1716   4.8031623835e+01   3.7762262128e+01    0.1912892    0.1005261  71.70 0.0003510971    1.793    0.442
        45 -11.6446     80.2033      1.7044   6.9244035559e+01   6.4348962988e+01    0.3461166    0.1777791  51.35  0.001039647    1.949    0.487
        46  -9.7907     50.2827      2.1685   8.1066080640e+01   6.9566778512e+01    0.2338475    0.1280509  25.21  0.001030245    2.084    0.520
        47  -9.6770     67.0631      1.4884   7.3753016471e+01   6.6873786229e+01     0.172443    0.1202621  42.07 0.0003505311    1.461    0.315
        48  -9.9893     28.4291      1.3915   9.1532179522e+01   7.2539205940e+01    0.1955579    0.1082678  30.28 0.0005370015    2.021    0.505
        49 -11.7870     23.3993    121.3348   1.2354259276e+02   4.7680689537e+01    0.4717348     0.226429  73.37 0.0006347172    2.280    0.561
        50 -10.5555     12.0802    249.7918   1.3301326851e+02   2.4859671181e+01    0.1386009    0.1015531 -65.43  0.001223599    2.074    0.518
        51 -12.3016     11.0212    244.7334   1.3301230994e+02   2.5712224851e+01    0.2451659    0.1660521  34.45  0.001954011    1.901    0.474
        52 -11.7583      1.8497    248.3829   1.3444539396e+02   2.6015591029e+01    0.2797459    0.1357678  85.14  0.002233949    1.706    0.414
        53 -11.0206     65.2254    111.1692   1.1084992018e+02   4.5541262004e+01    0.4296212    0.1831166 -62.16  0.001029398    2.116    0.527
        54  -9.6396      2.1682    114.3622   1.2836592498e+02   5.0748329276e+01     0.138313   0.08753786  48.11  0.000383835    1.629    0.386
        55  -9.9928     72.2107    113.0630   1.0925130792e+02   4.4178430398e+01    0.1846243     0.162615 -61.47 0.0003357939    1.137    0.120
        56 -10.9535     20.2813    112.9588   1.2348907033e+02   4.9783568138e+01    0.1959496     0.150052  58.61 0.0005829378    1.319    0.242
        57  -9.7618    249.3124    111.6859   7.0087553132e+01   8.4688305064e+00    0.1302778    0.1039034 -56.37 0.0007032297    1.636    0.389
        58 -11.1915      4.2116    109.4515   1.2743457720e+02   5.1686676281e+01    0.2464245    0.1700666  43.37  0.001525633    1.593    0.372
        59 -10.6438     51.2711    107.9668   1.1423955505e+02   4.7958633567e+01    0.2669773    0.1572898 -75.58  0.001412099    1.590    0.371
        60 -10.7024     57.7467    107.8586   1.1238212430e+02   4.7227786854e+01    0.2047987    0.1815158  13.35  0.001236581    1.447    0.309
        61 -10.1848     12.4767    108.5136   1.2513476458e+02   5.1346547265e+01    0.1156972   0.08991814 -84.29 -1.225029e-05    1.013    0.013
        62 -10.4550     89.9847    104.9708   1.0269728861e+02   4.3330314071e+01     0.425494    0.2444679  35.42  0.001866564    1.933    0.483
        63  -9.6395     88.0234    101.6864   1.0252724707e+02   4.4376838653e+01    0.1835812    0.1736428 -82.79 0.0005232533    1.030    0.029
        64  -9.2707    187.1538    103.3765   7.8758718133e+01   2.3424266845e+01    0.2032267    0.1425903  62.41 0.0006702347    1.600    0.375
        65  -9.7998    113.5256    102.5056   9.5695949660e+01   3.9714332619e+01    0.1428568    0.1386143 -77.94 0.0001069364    1.016    0.016
        66 -10.5926     57.4542    101.9925   1.1143461365e+02   4.8596555373e+01    0.2500631    0.1671396  55.85  0.001378959    1.619    0.382
        67 -10.5342     24.7488    101.8171   1.2094658454e+02   5.1915421989e+01    0.1924326    0.1540138  71.50 0.0002499994    1.227    0.185
        68 -10.3233     21.3029     98.6596   1.2154367265e+02   5.2896571289e+01    0.2338768   0.09921166 -78.24 0.0009388286    2.086    0.521
        69 -11.4768     18.5028     95.0462   1.2191068012e+02   5.3916742390e+01    0.2987305    0.1919322  39.43  0.001891376    1.754    0.430
        70 -10.2668     62.3089     98.7371   1.0939102757e+02   4.8736650781e+01    0.2382572    0.1477451 -67.27  0.001099403    1.483    0.326
        71  -9.8552     91.6192     95.7599   1.0013534074e+02   4.5104245134e+01    0.1949528    0.1273573 -63.59 0.0003928883    1.570    0.363
        72  -9.8079     36.6257     96.1966   1.1664415626e+02   5.2148945706e+01    0.1848679   0.09129327 -59.63 0.0009498385    1.697    0.411
        73  -9.7246      3.2470     95.7363   1.2644851847e+02   5.4750267798e+01     0.149887    0.1058745 -61.51 0.0008799569    1.309    0.236
        74 -10.1464     78.8921     94.8440   1.0364259878e+02   4.7322861412e+01    0.1926035    0.1736795 -42.40 0.0002501056    1.177    0.150
        75 -10.7794     58.0802     91.6695   1.0926562352e+02   5.0869504658e+01    0.2513072    0.2051222 -35.51 0.0008451089    1.403    0.287
        76 -10.2596     29.2014     92.1481   1.1827516448e+02   5.3730350995e+01    0.2262614    0.1679848  42.95 0.0008578522    1.518    0.341
        77 -10.6552     25.1876     90.1675   1.1921551422e+02   5.4507445697e+01    0.2557554     0.187231  79.17  0.001640972    1.360    0.265
        78 -10.5739     11.0252     90.5234   1.2359369737e+02   5.5437582960e+01    0.3486691    0.1183434 -57.85  0.001364695    2.359    0.576
        79 -10.3653     10.7744     84.8228   1.2296809668e+02   5.6724873604e+01    0.2373205    0.1343053  83.64 0.0009649032    1.773    0.436
        80 -10.6637     76.4700     89.2855   1.0308909713e+02   4.8928716513e+01    0.2378474    0.2253764 -64.22 0.0005814178    1.054    0.051
        81  -9.9311      1.5984     89.6960   1.2632655798e+02   5.6172001025e+01    0.2081512   0.08012194 -71.81 0.0006215909    1.915    0.478
        82 -10.4787    107.8360     88.9983   9.3804587582e+01   4.3679175981e+01    0.2419098    0.2085645  48.84 0.0003592061    1.193    0.162
        83 -10.8697     99.0129     89.2519   9.6381579951e+01   4.5251779071e+01    0.2011709    0.1940904  62.78  0.001174645    1.073    0.068
        84 -10.6806     18.4710     87.1888   1.2087615049e+02   5.5683989470e+01    0.3337864    0.1870444 -57.78  0.001963715    1.524    0.344
        85 -10.9762     54.7615     85.0253   1.0892778152e+02   5.2775043354e+01    0.3101988    0.2138321 -82.32  0.001058923    1.567    0.362
        86  -9.5154     72.9799     84.2346   1.0296039386e+02   5.0566895172e+01    0.2951632    0.1454217 -37.61  0.001189946    2.649    0.623
        87  -9.0802     78.6421     83.9575   1.0112525632e+02   4.9789099330e+01    0.2298441    0.1131192 -74.62 0.0007044126    4.470    0.776
        88  -9.6573     42.7606     82.6340   1.1232308710e+02   5.4632888984e+01    0.3538575    0.1040002 -68.41  0.001210656    3.728    0.732
        89 -10.7375      3.6008     82.2489   1.2490362698e+02   5.7709860915e+01    0.4399924    0.1803777 -83.21  0.002217409    2.156    0.536
        90  -9.8030    100.2449     82.9937   9.4348909099e+01   4.6374040958e+01    0.1911992    0.1171759 -49.09 0.0004791212    1.559    0.358
        91  -9.2022     37.5107     83.5126   1.1420160689e+02   5.4947265064e+01    0.1251563    0.1045927 -72.43 0.0008103541    1.023    0.023
        92 -11.2299     64.1641     79.6284   1.0466075794e+02   5.2814562828e+01    0.4675519    0.2513618 -60.64  0.001979594    1.719    0.418
        93  -9.9193    250.3924     80.8497   6.2520982148e+01   1.2350412342e+01    0.1963274    0.1235539 -14.95 0.0006574304    1.651    0.394
        94 -10.2979     89.6792     79.7830   9.6625636694e+01   4.8926265722e+01    0.4375204    0.2479781 -36.79  0.001918963    2.002    0.500
        95  -9.0151    124.6101     79.2802   8.6461114692e+01   4.2288130392e+01    0.1540442    0.1186986  87.42 0.0007000792    1.741    0.426
        96 -11.0047     16.1032     76.5124   1.2007816158e+02   5.8242358647e+01    0.3070509    0.2761077  51.26  0.002285636    1.320    0.243
        97 -10.4275    177.1474     76.9747   7.3517418705e+01   3.0329938306e+01     0.277496    0.2293473  53.46  0.001062399    1.207    0.172
        98  -9.6635     28.2515     77.0550   1.1608847943e+02   5.7222535228e+01    0.1653145    0.1284122 -73.65 0.0002436839    1.090    0.082
        99 -10.8414     56.2377     75.3084   1.0624377933e+02   5.4785663914e+01    0.4049229    0.2708894  28.11  0.001624635    1.766    0.434
       100 -10.0995      3.1369     73.6428   1.2399971558e+02   5.9637465826e+01    0.2412025    0.1424316 -22.80   0.00144929    2.341    0.573
       101 -11.1677      6.8620     75.0224   1.2294307497e+02   5.9135049782e+01    0.2770977    0.1558086 -74.79  0.001282547    1.391    0.281
       102 -11.1740     36.3554     72.8285   1.1249616658e+02   5.7467890221e+01    0.4275525    0.2600854 -65.78  0.001113993    1.391    0.281
       103 -10.2165     32.1657     73.1445   1.1401264862e+02   5.7772926012e+01    0.1919987    0.1657633  74.87 0.0002589182    1.263    0.208
       104  -9.4955    136.6005     74.2074   8.1824061973e+01   4.0611989736e+01    0.2064921    0.1454446 -27.15 0.0003549743    1.554    0.356
       105  -9.8829     92.6367     72.5759   9.3664251968e+01   4.9951193218e+01    0.2298024    0.1733578  52.29  0.000587426    1.457    0.314
       106  -9.2615     81.5106     72.9890   9.7290284677e+01   5.1738588996e+01     0.190943    0.1192848 -74.98 0.0008078144    2.386    0.581
       107 -10.0081    105.6928     71.7014   8.9466293684e+01   4.7700830579e+01    0.2316584    0.2108871   1.13 0.0003880938    1.202    0.168
       108  -9.3398     47.0542     69.2023   1.0793893482e+02   5.7203186363e+01    0.1567745    0.1039875  27.95 0.0008716866    1.782    0.439
       109  -9.8222     10.6232     67.9796   1.2062400712e+02   6.0485252748e+01    0.3196058    0.1035822 -67.30   0.00149109    2.249    0.555
       110  -9.9568    133.3881     65.7338   7.9968258729e+01   4.2931368638e+01    0.2812722    0.2025529 -26.46  0.001302687    1.486    0.327
       111 -10.0991     34.8039     64.5600   1.1125088075e+02   5.9456435360e+01      0.30016    0.1829358 -48.11  0.001206182    1.455    0.313
       112 -10.5019     38.9775     62.9489   1.0934024759e+02   5.9420229555e+01    0.2265652    0.1662666 -39.05 0.0003467059    1.358    0.264
       113 -10.0292     40.5949     58.8383   1.0770771594e+02   6.0162573364e+01    0.2788517    0.2156903 -42.75  0.001748617    1.199    0.166
       114 -10.7056     13.9823     63.7508   1.1871163140e+02   6.1220832284e+01    0.2536239    0.1409053 -76.71 0.0004230426    1.581    0.367
       115  -9.6032     75.9699     64.4897   9.6625412060e+01   5.4425185165e+01    0.1809013    0.1371273  37.69 -2.326482e-05    1.447    0.309
       116 -11.5215      4.2930     61.9137   1.2193749185e+02   6.2165064097e+01    0.4633394    0.2561262  62.48  0.001571796    2.274    0.560
       117 -11.0398      9.9817     60.0644   1.1953647710e+02   6.2270954068e+01    0.2609285    0.2037614 -49.28 0.0003511012    1.220    0.180
       118 -13.3908      5.9494     50.9089   1.1942648973e+02   6.4486085269e+01    0.4951551    0.3008993 -37.58 0.0006895769    1.685    0.406
       119 -11.3813     17.5951     45.0517   1.1338677988e+02   6.5070104208e+01    0.4670412    0.4071475 -46.62   0.00342463    1.130    0.115
       120  -9.3931     72.4066     63.1519   9.7432111063e+01   5.5251359840e+01    0.1976553    0.1218405 -61.54 0.0009425848    1.746    0.427
       121 -10.2936     62.6090     62.6121   1.0068532435e+02   5.6759437258e+01    0.2926841    0.1550246 -39.09  0.001350754    1.965    0.491
       122 -10.0090     66.2181     60.6334   9.8825154185e+01   5.6685034812e+01     0.238995    0.1651684  31.06 0.0006766042    1.644    0.392
       123 -10.3056    100.7783     61.9893   8.7852480043e+01   5.0606646914e+01    0.2247936    0.2094667  48.42 0.0004046658    1.140    0.123
       124  -9.9220     55.9703     60.7330   1.0252581656e+02   5.8023180346e+01    0.1678134    0.1613545 -47.98 0.0001814446    1.103    0.094
       125  -9.3645     52.5005     61.5368   1.0401262331e+02   5.8270827821e+01    0.1296675    0.1131246 -55.39 -3.289331e-05    1.030    0.030
       126 -13.2616     20.3297     57.1283   1.1504465484e+02   6.2263056293e+01    0.4405873    0.2273217 -68.20  0.002414867    1.623    0.384
       127 -10.0522     15.1672     57.9048   1.1718076427e+02   6.2436516787e+01    0.1796242    0.1406101 -66.19 0.0004199836    1.029    0.028
       128 -11.1023     83.6221     56.8901   9.1638621096e+01   5.4749769287e+01    0.2587645     0.245885 -75.33 0.0004118843    1.168    0.144
       129 -11.6193     88.5940     53.1559   8.8716143466e+01   5.4617613070e+01    0.4733745    0.3748857  38.04  0.001015042    1.343    0.255
       130  -9.5575     60.3710     58.1598   1.0017477951e+02   5.8009032240e+01    0.1897292    0.1153178 -61.83   0.00050571    1.692    0.409
       131  -9.0357     48.3238     58.2805   1.0465396463e+02   5.9459730074e+01     0.128119   0.08893999 -30.11 0.0002162899    1.591    0.371
       132 -10.5797    104.8184     56.8229   8.4892056831e+01   5.0809483817e+01    0.1938472    0.1677048 -65.47            0    1.315    0.239
       133  -9.8896     54.1067     55.6564   1.0173426378e+02   5.9340690607e+01    0.2539491    0.1422416 -52.83  0.001030807    1.542    0.351
       134 -10.3187    225.2229     54.8899   5.9153102712e+01   2.1614455171e+01    0.3716621    0.2520143  11.53  0.001684299    1.945    0.486
       135  -9.4512    174.4050     55.5305   6.7547077119e+01   3.4482918831e+01     0.150749    0.1484246 -13.47 8.148461e-05    1.017    0.016
       136 -11.4397    114.6738     54.1321   8.1084736552e+01   4.9247090497e+01    0.3311776    0.3193932 -38.96 0.0008071146    1.058    0.055
       137 -10.2048     34.3965     53.3403   1.0865959210e+02   6.1952809550e+01    0.2736889    0.1537406 -37.57  0.001049633    1.832    0.454
       138 -11.9424     66.0527     52.5727   9.6345543902e+01   5.8391251805e+01     0.510076    0.2386073  33.25  0.001610206    2.472    0.596
       139  -9.2197    169.5094     52.5098   6.7529227777e+01   3.6213583072e+01    0.1534387    0.1486867  25.94 -0.0001265578    1.030    0.029
       140  -9.9167    123.4780     52.0119   7.7918106467e+01   4.7667303183e+01    0.2465169     0.209634  67.94 0.0006079635    1.322    0.244
       141 -10.2282     76.0799     49.3166   9.1632906291e+01   5.7511466243e+01     0.350364     0.216099 -28.39   0.00141854    1.825    0.452
       142 -10.1930     78.9931     45.9701   8.9405777660e+01   5.7679111779e+01    0.2229417    0.1962165  29.66            0    1.214    0.176
       143 -10.2058     53.9814     48.0164   9.9394280938e+01   6.0955796262e+01    0.1971229    0.1663475 -42.48 0.0003559678    1.022    0.021
       144 -10.4300    103.6262     46.7576   8.1656648125e+01   5.2908713333e+01    0.3856031    0.2229167  26.28  0.001560427    2.418    0.586
       145  -8.7449     47.3097     47.2946   1.0178457766e+02   6.1906926642e+01    0.1290323   0.08725226 -28.60 0.0004456626    1.590    0.371
       146  -9.6436    135.3751     46.1081   7.2785173210e+01   4.5851715394e+01    0.2039439    0.1885144 -35.64 0.0004642477    1.094    0.086
       147 -11.3668     26.4374     43.6844   1.0929324345e+02   6.4706849898e+01    0.3713348    0.2658793  46.57  0.001983686    1.781    0.438
       148 -11.5990     18.1824    248.9788   1.3209680397e+02   2.4391061778e+01    0.1962878    0.1390005  31.53  0.001638571    2.017    0.504
       149 -10.2929     25.8854     29.7121   1.0522036384e+02   6.7633658480e+01    0.1961644    0.1373605 -52.99 0.0004197398    1.192    0.161
       150 -10.6551     22.9594     38.6716   1.0937330287e+02   6.6035275439e+01    0.2036778    0.1744406 -70.17 0.0004024134    1.222    0.182
       151 -11.2376     26.7223     35.0480   1.0659802267e+02   6.6482427024e+01    0.3364419    0.1829336 -36.19 0.0009911153    1.772    0.436
       152 -10.8894    180.9950     41.3083   6.1831566711e+01   3.4818054977e+01    0.3766147     0.318886   6.91  0.001056767    1.306    0.234
       153 -10.2280     95.0345     42.2706   8.2634358284e+01   5.5433085245e+01    0.2269091    0.1883197 -30.57 0.0005448262    1.137    0.120
       154 -10.2024     69.8708     41.6779   9.1105477888e+01   5.9980399333e+01    0.2846055    0.2029652  10.07 0.0008830981    1.763    0.433
       155 -10.4244      3.5752     41.3966   1.1851753688e+02   6.6646234380e+01    0.3935149    0.1563369 -37.41  0.001990308    2.618    0.618
       156 -10.5906    139.7021     40.6558   6.9798536595e+01   4.5637394399e+01    0.2691902    0.2473463 -73.49 0.0005565998    1.214    0.177
       157 -10.1478     36.2583     40.9947   1.0432381211e+02   6.4389554223e+01    0.2437868    0.1383091 -42.88  0.001324339    1.520    0.342
       158  -9.6329     51.1056     39.5542   9.7644721732e+01   6.3028046671e+01    0.2324606    0.1292299 -51.41  0.001186586    1.611    0.379
       159 -10.1916    133.0327     38.9939   7.0761964254e+01   4.7535203856e+01     0.614268    0.2598887  63.55  0.002079185    2.977    0.664
       160 -11.2066    134.1693     34.3495   6.8755806827e+01   4.7945155396e+01     0.249549    0.2194553   8.00 0.0003805019    1.170    0.145
       161 -12.3022    121.8171     37.4658   7.3001497647e+01   5.0452149673e+01    0.7042436    0.5043414  64.32   0.00337887    1.582    0.368
       162 -12.0180    123.0551     32.9594   7.0938859080e+01   5.0843240997e+01    0.3138311    0.2446584  42.09 0.0003099169    1.260    0.207
       163  -9.2882    168.3972     38.4911   6.3129159360e+01   3.8540796821e+01    0.1487114    0.1463878   8.98 8.542639e-05    1.023    0.023
       164 -10.7623      2.5346     34.8880   1.1754626476e+02   6.8070671554e+01    0.4579019    0.1280027 -54.50  0.002202389    2.305    0.566
       165  -9.9343    145.0600     33.0849   6.5849178967e+01   4.5380568705e+01    0.2139599    0.2109583  -9.91 0.0003978434    1.040    0.038
       166 -10.7261     89.9447     32.4959   8.0387710756e+01   5.8101228390e+01    0.5966921    0.2654272  57.16  0.002207222    3.246    0.692
       167 -10.6521    166.2475     31.1521   6.1030042685e+01   4.0090325522e+01    0.2519375    0.2308488 -39.12 0.0003743985    1.116    0.104
       168 -11.3844     38.6520     30.9799   9.9830186331e+01   6.6158870424e+01    0.2645138    0.1920892 -11.90 0.0003549989    1.539    0.350
       169 -11.5282     43.4069     29.0705   9.6983519800e+01   6.5995343500e+01    0.5299349    0.3116896 -33.54  0.002799028    1.596    0.373
       170 -10.0005    205.1784     30.7708   5.4942996887e+01   2.9781838479e+01    0.2693601    0.1315755 -59.80 0.0009562536    2.838    0.648
       171  -9.5612     77.2229     30.9638   8.4138193550e+01   6.0707917577e+01    0.1886931     0.154088 -29.74 0.0003557553    1.117    0.105
       172 -10.2940    147.7415     27.5533   6.3259576473e+01   4.5430471584e+01     0.557809    0.2608412 -50.96  0.001951874    2.916    0.657
       173  -9.6336    129.3500     30.3125   6.8353937520e+01   4.9707236254e+01    0.2420312    0.1643304  20.17 0.0008764221    1.782    0.439
       174  -9.3977    113.4270     29.7760   7.2207247787e+01   5.3553603145e+01    0.1908011     0.136369 -13.86 0.0002844394    1.497    0.332
       175 -11.8242      8.4120     29.1464   1.1334385115e+02   6.8969419764e+01    0.2397902    0.2054241  84.12  0.001770263    1.440    0.306
       176  -9.8142     69.8568     28.4213   8.5789027915e+01   6.2392835454e+01    0.2247567    0.1661338 -42.63 0.0006587557    1.322    0.243
       177  -9.2023     96.7591     28.3222   7.6454834632e+01   5.7401611134e+01    0.1332692    0.1063268 -54.93 0.0001723538    1.522    0.343
       178  -9.8932    229.7959    247.9646   9.8252982885e+01  -3.8301811391e+00    0.1583751    0.1068397  20.27 0.0009563628    1.208    0.172
       179  -9.3022    229.2382     26.5669   5.0891169957e+01   2.4130372485e+01    0.1839903    0.1255257  54.82 0.0003357116    1.527    0.345
       180  -9.3612    140.3587     26.7387   6.4490079362e+01   4.7437691592e+01    0.1490055    0.1151909 -73.89 0.0005572097    1.627    0.385
       181 -10.3754    101.1093     26.0105   7.4148551187e+01   5.6834547780e+01    0.2513219    0.1927201 -83.32  0.001223332    2.016    0.504
       182  -9.4094     18.3427     26.3070   1.0766694550e+02   6.8910339223e+01    0.1245096   0.06972764 -34.23 0.0007042922    1.690    0.408
       183 -10.4440    172.4151     23.8203   5.7489593278e+01   3.9347912083e+01    0.3469095    0.1537347 -11.47  0.001149516    3.225    0.690
       184  -9.6505    153.7898     25.6159   6.1367878658e+01   4.4094999025e+01    0.2089388    0.1430492  77.03 0.0006455092    1.643    0.392
       185 -10.5766    113.9733     24.2866   6.9803700996e+01   5.4210963382e+01    0.3267935    0.2637383  15.95  0.001008837    1.279    0.218
       186 -10.5266     59.0835     24.2694   8.8249106770e+01   6.4791756520e+01    0.3386011    0.2187749   1.43  0.001700294    2.091    0.522
       187  -9.6272    224.7822    246.4397   9.8826079284e+01  -2.9811041525e+00     0.153431   0.07213845  32.62 0.0009351665    1.606    0.377
       188 -10.0018     89.5441     23.3270   7.6586109441e+01   5.9626935993e+01    0.2418664    0.1261088 -35.07 0.0007814981    1.828    0.453
       189  -9.9656    201.0019     23.0019   5.3146736449e+01   3.1791514173e+01    0.1732069    0.1674604 -56.68 0.0003164773    1.024    0.024
       190 -11.0450      2.0046     20.8235   1.1414379131e+02   7.0988998277e+01    0.2953798    0.1536029 -57.71   0.00138228    1.411    0.291
       191  -9.8764     20.1639     16.8746   1.0329204832e+02   7.0608756533e+01    0.1687811    0.1554726  36.13 0.0006818814    1.437    0.304
       192 -11.2042     13.5758     20.9895   1.0823585374e+02   7.0299647609e+01    0.2612283    0.2138528 -74.29  0.001150538    1.422    0.297
       193  -9.3325    187.3166    246.3097   1.0476910097e+02   2.5322626142e+00     0.108246   0.06800116  22.99 0.0002447701    1.636    0.389
       194 -10.2706     84.6627     21.1459   7.7228405180e+01   6.0911735482e+01    0.2649874    0.1588219  30.40 0.0008392084    1.850    0.459
       195 -10.3277    100.4606     19.2560   7.1402865188e+01   5.7932621356e+01    0.3102616    0.2420967 -62.11  0.001168146    1.729    0.422
       196  -9.5462     31.0048     20.0628   9.9113716727e+01   6.9031393302e+01    0.1936751    0.1158498 -29.11 0.0007152916    1.616    0.381
       197  -9.3819    136.4873    245.5887   1.1305808061e+02   1.0183356278e+01    0.1107229   0.07750439  49.53 9.997044e-05    1.070    0.066
       198  -9.8417    199.7253     17.0740   5.1502698197e+01   3.2787106806e+01    0.1985928    0.1874295 -39.77 0.0004984534    1.070    0.065
       199  -9.3192     45.0236    244.2660   1.2783747015e+02   2.2296284858e+01    0.1211241   0.06338573  45.69 0.0003772527    1.470    0.320
       200 -11.0708    108.5027     16.3871   6.7886857207e+01   5.6513804400e+01    0.2256952    0.2047778   4.10 0.0002296232    1.039    0.037
       201  -8.9740    104.3195     17.2974   6.9431822481e+01   5.7342966665e+01    0.1474488    0.1006055  21.65 0.0004318577    1.616    0.381
       202  -9.1163     29.2819     27.7182   1.0292232143e+02   6.7729265942e+01    0.1053204    0.0906917 -82.89 0.0002049872    1.514    0.339
       203 -12.0540      6.1779    241.1291   1.3361744937e+02   2.6707897968e+01     0.232424    0.1340493  53.68  0.001508842    1.234    0.189
       204 -10.0666     49.1015     16.0614   8.8781902910e+01   6.7605638832e+01    0.1869621    0.1620552 -28.34  0.000614917    1.122    0.109
       205  -9.7723     26.7139     16.6122   9.9807255803e+01   7.0085703875e+01    0.1359459     0.109795  31.29 0.0005134543    1.533    0.348
       206  -9.5626     60.6586    241.1497   1.2519322680e+02   2.0972981390e+01    0.1962672   0.04946245  41.22 0.0009749868    2.859    0.650
       207 -10.1154     36.2056    241.3175   1.2907154033e+02   2.3700855105e+01    0.1769247     0.079654  33.46  0.001082599    2.617    0.618
       208  -9.6195    202.5007    240.0923   1.0152956562e+02   9.1064608361e-01    0.1310888    0.1058785 -17.98 0.0006333059    1.533    0.348
       209 -12.2279     26.2537    235.7619   1.3038161301e+02   2.5594114601e+01     0.277597    0.2002813  85.45  0.001707276    1.316    0.240
       210 -12.0624      4.1346    232.5070   1.3366819234e+02   2.8225400010e+01    0.3061619    0.1335302  66.23 0.0003300901    1.604    0.377
       211 -13.5034      9.9548    228.6376   1.3265201243e+02   2.8304746025e+01    0.6406215    0.3370194  70.51  0.004969544    1.362    0.266
       212 -11.5278     14.5782    239.1279   1.3230007399e+02   2.6225313687e+01    0.2043484   0.08147302  58.88 0.0006074659    1.686    0.407
       213 -10.0364    174.2519     14.0527   5.3904299632e+01   3.9948919672e+01    0.2705926    0.1903507 -88.59 0.0007108733    1.584    0.369
       214  -9.0023    210.6838    235.7027   9.9621880847e+01   1.2986697824e-01    0.1123239   0.06757985  21.57 0.0002996962    1.609    0.378
       215  -9.5452      9.3034     10.3022   1.0655466019e+02   7.2639739916e+01    0.1276839    0.0928532   6.08 0.0004777793    1.578    0.366
       216  -8.9115    204.3469    235.3057   1.0059838869e+02   1.1323251843e+00    0.1153748   0.06860895  21.91 0.0007042151    1.697    0.411
       217 -10.0294    249.2454    234.0164   9.3317974078e+01  -5.3506801674e+00    0.1803329    0.1128911  30.58 0.0004337033    1.175    0.149
       218 -10.0830    140.1567    227.4568   1.1054017285e+02   1.2064366105e+01    0.1965304    0.1425008  86.09  0.001229833    1.859    0.462
       219  -9.9508     33.1511    225.4240   1.2881749053e+02   2.6528388391e+01    0.2427968   0.03642302  44.43  0.001143667    3.334    0.700
       220 -10.4705      2.1658    219.8235   1.3358432309e+02   3.0435605052e+01    0.2052938   0.08861595  78.34 0.0009415193    1.821    0.451
       221 -11.9015      7.9615    217.5490   1.3258360015e+02   3.0293167390e+01    0.3065654    0.1939564  75.32  0.002524507    1.149    0.130
       222  -9.2590    209.6605    211.3140   9.6274105571e+01   2.9532650045e+00    0.1089611   0.08750382  60.35 0.0007047147    1.699    0.411
       223 -10.5239     20.6437    209.8257   1.3017171612e+02   3.0407196709e+01    0.1896213    0.1049931  60.75 0.0003149056    1.305    0.234
       224  -9.2924    247.0000    207.0567   8.9474189127e+01  -2.5061517306e+00    0.1645785   0.06088972 -28.91 0.0008038314    2.952    0.661
       225  -8.8561    100.3198     11.3430   6.7863932012e+01   5.8979934377e+01    0.1501535   0.09739926  20.60 0.0007049726    1.722    0.419
       226 -10.2874      2.9407    205.5116   1.3298193195e+02   3.2775758042e+01    0.1374415   0.07976231  42.13  0.001041741    1.624    0.384
       227  -9.7845    197.0176    204.0233   9.7333021834e+01   5.9373651639e+00    0.2351188    0.1724305  76.07  0.001300683    2.490    0.598
       228 -11.0466      9.5590    203.5009   1.3178872212e+02   3.2541337493e+01    0.1828763    0.1254183  67.00 0.0007727082    1.038    0.037
       229 -10.2040     23.1000    197.3137   1.2913418304e+02   3.2370657522e+01    0.1611367     0.118353 -86.31 0.0005026099    1.300    0.231
       230 -10.9633     13.4375    193.9466   1.3070011628e+02   3.3889042655e+01    0.2527491    0.1168471 -73.20 0.0008740882    2.028    0.507
       231  -9.5796     15.3749    185.1904   1.2992342850e+02   3.5321510743e+01    0.1486863   0.07324661  83.20 0.0009395434    1.687    0.407
       232  -9.6091    249.3360    168.6756   8.2243972042e+01   1.2745885507e+00    0.1081671    0.1014211 -71.69 -0.000120295    1.716    0.417
       233 -10.8771      5.3247    167.6733   1.3096507029e+02   3.9521505722e+01    0.2166578    0.1223388  76.39  0.001075017    1.363    0.267
       234  -9.0210     41.3230    157.6927   1.2277105426e+02   3.8180482611e+01    0.1236929   0.06938021  67.31  0.000437947    1.645    0.392
       235  -9.3108    247.4856    155.4953   7.9931600691e+01   3.1721409161e+00    0.1299352    0.1066623  10.41 0.0001762164    1.020    0.020
       236 -10.0833      2.7829    153.6044   1.3075509213e+02   4.2500266089e+01    0.1474268   0.07583394  48.08 0.0009597455    1.735    0.423
       237 -10.5043     24.1169    150.6520   1.2597404394e+02   4.1339195415e+01    0.1830753    0.1228136  82.68 0.0003974528    1.200    0.166
       238 -10.1473     22.4791    142.9853   1.2573485212e+02   4.3090197479e+01    0.1754414   0.09115831 -77.11  0.001032447    1.600    0.375
       239  -9.9719     12.1366    141.1781   1.2795373358e+02   4.4331415912e+01    0.1550117   0.09978605  70.69 0.0003289571    1.297    0.229
       240 -10.0253      6.0118    142.0000   1.2938397881e+02   4.4627916573e+01    0.1479412   0.05926459  27.68 0.0007978475    2.911    0.656
       241 -10.2702      2.2134    138.5776   1.3002074718e+02   4.5611078090e+01    0.1149193    0.1067616  11.32 0.0005664159    1.579    0.367
       242 -10.4297      9.0723    135.4118   1.2824766185e+02   4.5777776387e+01    0.1825317    0.1197722 -77.45 0.0004102247    1.266    0.210
       243  -9.8350    212.8047    134.0500   8.1258482031e+01   1.2805638614e+01    0.2006951    0.1917279  82.12  0.000799894    1.300    0.231
       244 -10.1967      2.6633    132.8476   1.2955811522e+02   4.6775986358e+01    0.2668692   0.08711643  45.75  0.001394463    2.708    0.631
       245  -9.8275     35.2586    130.7939   1.2153722922e+02   4.4529601649e+01    0.1544128    0.1202686 -61.81 0.0004893259    1.341    0.254
       246 -10.9854     12.1761    129.7158   1.2708836938e+02   4.6754935857e+01    0.2306972    0.1260556  74.31 0.0007094315    1.646    0.392
       247 -10.4549    248.0032    129.0032   7.4222400046e+01   6.4396209796e+00    0.2524821    0.1591197 -66.13 0.0009588309    4.132    0.758
       248  -9.9784     28.9008    128.3035   1.2285977281e+02   4.5672285845e+01    0.1549964    0.1301924  77.54 0.0003880391    1.101    0.092
