#   1 NUMBER                 Running object number                                     
#   2 MAG_AUTO               Kron-like elliptical aperture magnitude                    [mag]
#   3 X_IMAGE                Object position along x                                    [pixel]
#   4 Y_IMAGE                Object position along y                                    [pixel]
#   5 X_WORLD                Barycenter position along world x axis                     [deg]
#   6 Y_WORLD                Barycenter position along world y axis                     [deg]
#   7 A_WORLD                Profile RMS along major axis (world units)                 [deg]
#   8 B_WORLD                Profile RMS along minor axis (world units)                 [deg]
#   9 THETA_WORLD            Position angle (CCW/world-x)                               [deg]
#  10 FWHM_WORLD             FWHM assuming a gaussian core                              [deg]
#  11 ELONGATION             A_IMAGE/B_IMAGE                                           
#  12 ELLIPTICITY            1 - B_IMAGE/A_IMAGE                                       
         1 -17.0667    214.4619    126.7315   7.1933175557e+01   1.4571724432e+01     3.195409      1.81216 -33.81   0.01446293    1.833    0.454
         2 -16.1402    187.4847     98.1512   6.9899566862e+01   2.4304981748e+01     2.387003     1.694033 -81.04  0.007931611    2.258    0.557
         3 -19.6611    172.3146    144.9387   8.3168790742e+01   2.0391892446e+01     7.413297     6.963293  40.04   0.04830461    1.085    0.078
         4 -11.5149     66.6065     41.1791   8.3775708407e+01   6.1202552251e+01    0.3984607    0.3178163  57.68  0.001345165    1.431    0.301
         5 -10.7549    141.4063     26.6293   5.6166241306e+01   4.6751329980e+01    0.5178224    0.2253951 -33.96  0.001386066    2.171    0.539
         6 -11.9138    239.0252     16.0947   4.0334075894e+01   2.2036827312e+01    0.4476848    0.2443328 -57.02  0.002062217    1.967    0.492
         7 -10.3158    162.2427     13.4863   4.7591286500e+01   4.2594852118e+01    0.2595585    0.2035695 -19.37 0.0002792304    1.297    0.229
         8 -10.4899     22.9780     12.0023   9.2311131082e+01   7.3032018000e+01    0.1491338    0.1221003 -46.10 0.0003574501    1.004    0.004
         9 -11.3051     26.9526      7.0401   8.7309701746e+01   7.3574931380e+01    0.2504863    0.1780799  35.63 0.0004456168    1.663    0.399
        10 -10.9411    107.9321      4.3223   5.3431545134e+01   5.8266671352e+01    0.2634255    0.2069394  -2.04  0.000398812    1.320    0.242
        11 -10.5559      7.4003      4.8688   9.9269684994e+01   7.5820656692e+01    0.1926056     0.158697  -9.93 0.0007391454    1.381    0.276
        12 -11.1501    245.9454      3.5171   3.6443745986e+01   2.1529477121e+01    0.1881061    0.1302955  82.82 0.0005293561    1.564    0.361
        13 -11.6427    158.1157      2.3161   4.3892091527e+01   4.4849792779e+01     0.264739    0.2556991  31.27 0.0003192637    1.061    0.058
        14 -10.0616    114.7021      2.4278   5.1027764725e+01   5.6724359679e+01    0.2597696    0.1720477  14.96  0.001176729    1.749    0.428
        15  -9.6351     55.6623      3.6863   7.0016193735e+01   6.9878362539e+01      0.13553   0.09619213   5.56 0.0005158819    1.694    0.410
        16  -9.9648     39.4867      2.4775   7.7267574562e+01   7.2733093045e+01    0.1267473    0.1084741 -27.79 5.946426e-05    1.018    0.017
        17 -11.4864    247.9058    166.0368   7.4532853196e+01   4.2454027798e+00    0.2034072    0.1472491  42.84 0.0003692879    1.426    0.299
        18 -11.8689    220.0698    250.0781   9.0924605323e+01   1.1221799306e+00    0.2502925     0.111706  43.76 0.0007818133    1.777    0.437
        19 -11.3524    201.3161    242.8508   9.2807780936e+01   4.2141646720e+00    0.2572056    0.1556674   6.45  0.001772175    2.176    0.540
        20 -13.7374    193.0741    248.9847   9.4715371416e+01   4.8071495271e+00    0.3450598    0.1706136  37.44 0.0008325189    1.374    0.272
        21 -10.6882    183.8944    248.4743   9.6029433028e+01   6.0994415386e+00    0.2160454    0.1230273  43.42 0.0008429081    1.296    0.228
        22 -12.3844    135.1726    250.0847   1.0367558887e+02   1.2554663577e+01    0.3037383    0.1508753  54.44  0.002034775    1.845    0.458
        23 -11.1442    125.6344    248.9274   1.0507854737e+02   1.3952407651e+01    0.1849711    0.1618684 -70.51  0.001054158    1.625    0.384
        24 -11.6233    122.0815    244.3438   1.0526813805e+02   1.4954732855e+01    0.3520347    0.1370428  44.26  0.002032014    1.731    0.422
        25 -11.2548    215.7373    233.3265   8.9532636737e+01   3.0341824167e+00    0.3155166    0.1736565  -1.46  0.002007482    2.620    0.618
        26 -13.0620    164.4449    230.8054   9.7145639073e+01   1.0583102912e+01    0.2761293    0.2069239  48.24 0.0005891728    1.213    0.176
        27 -12.5822    166.1703    223.9230   9.6094087369e+01   1.1083797616e+01     0.444818    0.2111522  39.37  0.002740227    1.554    0.356
        28 -11.6752    161.4068    222.7167   9.6736939626e+01   1.1923401324e+01    0.2076908    0.1693524  -2.95   0.00137094    1.623    0.384
        29 -11.6314    201.3569    233.1548   9.1656909152e+01   5.0604442958e+00    0.2236106    0.1584388  43.47  0.000403232    1.304    0.233
        30 -14.8641    246.3470     92.2553   5.9347022042e+01   1.2274885693e+01     2.156503     1.055851  17.03  0.008213063    3.384    0.705
        31 -16.1123    192.1586    210.4659   9.0197092953e+01   8.6206154692e+00     3.394319     1.155004  41.13   0.01660458    2.208    0.547
        32 -15.7249    236.9606    143.2001   7.1830552600e+01   8.4021504717e+00      1.40987     1.104543  21.56  0.006062347    1.080    0.074
        33 -16.6417    128.8343    136.8803   9.0616518114e+01   3.0077347160e+01     3.011144     2.094606 -26.20   0.01523831    2.151    0.535
        34 -10.4383      4.0409    248.9971   1.2409901914e+02   2.7687079510e+01    0.1089222   0.06512045  57.55 0.0004209793    1.007    0.007
        35 -10.4278    154.1129    245.5195   1.0029621721e+02   1.0475137462e+01     0.141154    0.1084085  41.45 0.0006052389    1.126    0.112
        36 -17.2216    187.8886    174.4357   8.5559045765e+01   1.3465136019e+01     2.159247     1.418614 -19.89   0.01283904    1.897    0.473
        37 -11.3657    175.8618    244.7677   9.6855242474e+01   7.5480645407e+00    0.2743037    0.1317763  37.10  0.001105405    1.485    0.327
        38 -10.6780     65.7281    165.6418   1.0872654408e+02   3.4611527156e+01    0.2056928    0.1673656  88.39 0.0006072363    1.197    0.164
        39 -10.1120     39.0625    166.1963   1.1454854441e+02   3.7681553296e+01    0.1961936   0.08255454  55.09  0.001077163    1.914    0.477
        40  -9.9720     42.4532    162.4177   1.1353623707e+02   3.8031226217e+01    0.1936236   0.08922838  87.35 0.0009871445    2.250    0.555
        41 -11.8589    174.2990    231.1983   9.5617235879e+01   9.1187743989e+00    0.3778942    0.2762801  37.63  0.002091632    1.036    0.034
        42 -10.4597     98.9455    160.9522   1.0096849334e+02   3.0751481970e+01    0.2236115    0.1540428  45.88  0.001278151    1.265    0.209
        43 -10.7821     69.4804    230.1367   1.1292277778e+02   2.3521943887e+01    0.1792232    0.1090801  42.54 0.0003218056    1.326    0.246
        44 -10.7522     57.0326    158.2461   1.0994352937e+02   3.7127985447e+01    0.1782887    0.1389666  81.54   0.00033014    1.127    0.113
        45 -11.4148     76.6238    156.9883   1.0540859926e+02   3.4792218496e+01    0.3083259    0.1895105 -53.02  0.001770141    2.009    0.502
        46 -12.0162     14.8122    155.2950   1.1918995751e+02   4.2182632539e+01    0.4203929    0.1487079  67.98  0.002113606    2.558    0.609
        47 -10.0553     22.0093    156.4674   1.1765619858e+02   4.1293825374e+01     0.156119   0.09076279  41.31 0.0009197107    1.567    0.362
        48 -10.5243    233.7276    226.9574   8.6094144351e+01   1.0717193896e+00    0.1896454   0.09784978  25.88 0.0008662391    1.576    0.366
        49  -9.8935     71.7495    153.0110   1.0605959611e+02   3.6237820100e+01    0.1758603    0.1339906 -39.83 0.0009074727    1.980    0.495
        50 -10.8356    175.4730    224.9414   9.4707203875e+01   9.6017128343e+00    0.2065112    0.1194546  44.98  0.001046623    1.335    0.251
        51 -10.4629     76.1016    150.4800   1.0476145172e+02   3.6131132459e+01    0.1796364    0.1072424  42.47 0.0004839016    1.529    0.346
        52 -10.7864     62.4770    148.7819   1.0773773369e+02   3.8309691995e+01    0.1997562    0.1517224  62.66 0.0002719566    1.086    0.079
        53 -13.4044     79.5370    144.4329   1.0319618869e+02   3.6839045999e+01    0.3524446    0.3042248  84.50 0.0005964834    1.104    0.094
        54 -11.7955     73.7466    143.0854   1.0439874925e+02   3.7937428233e+01    0.4818499    0.2087675 -61.89  0.002332482    2.336    0.572
        55 -12.6972     70.5497    137.9600   1.0451535080e+02   3.9429713244e+01    0.4960502    0.3758424  72.81  0.002137493    1.166    0.142
        56 -11.3644     55.3154    145.4829   1.0908015405e+02   3.9880357775e+01    0.4092888    0.1538384 -50.24  0.001648036    4.161    0.760
        57 -10.6460     29.9487    143.7749   1.1498576696e+02   4.3060460491e+01    0.1963457    0.1521792  23.00 0.0006988767    1.738    0.425
        58 -10.7572     60.0391    142.5430   1.0762890709e+02   3.9887544070e+01    0.2138348    0.1416807  81.51 0.0005428049    1.419    0.295
        59  -9.6110     36.5152    141.0696   1.1318786744e+02   4.2940592602e+01    0.1592675   0.09822335 -83.26 0.0003265468    1.446    0.309
        60 -10.1593     55.3778    136.9623   1.0814179768e+02   4.1629152360e+01    0.2827858   0.07890605 -59.96 0.0006848681    3.411    0.707
        61 -10.6272     26.5088    234.5304   1.2023663502e+02   2.7602838431e+01    0.1979697   0.06295131  39.17  0.001222462    2.232    0.552
        62 -14.2833    243.7428    221.6398   8.3946189416e+01   1.1637186123e-01    0.4053209    0.2423821  29.11  0.001117986    1.182    0.154
        63 -12.3464     78.2981    130.2190   1.0151167033e+02   3.9926591158e+01    0.5520515    0.3591976  86.53  0.001810635    1.675    0.403
        64 -11.8725     81.8040    123.6052   9.9587999085e+01   4.0787774462e+01    0.4230154    0.2589752  23.57  0.001992192    2.494    0.599
        65  -9.8535     47.1092    133.4850   1.0983375642e+02   4.3352281605e+01    0.1684458    0.1092477  40.05  0.000903562    1.536    0.349
        66 -12.6725     62.7997    128.6867   1.0524883999e+02   4.2423720293e+01     0.272995    0.2177426  73.36 0.0004956827    1.072    0.067
        67 -10.2201    219.9454    225.9966   8.7973241875e+01   3.0631856695e+00    0.1877591   0.09935886  34.09 0.0004678034    1.358    0.264
        68 -10.3457     47.2953    124.0486   1.0872904505e+02   4.5351028063e+01    0.2968612    0.1420711 -50.95  0.001073612    2.619    0.618
        69 -10.9139     12.1864    122.8071   1.1792843149e+02   4.9058649357e+01    0.1737546    0.1187773  71.57 0.0005100658    1.161    0.138
        70 -11.5983     67.6888    119.6585   1.0268169431e+02   4.3699983666e+01    0.3844765     0.216739  85.00  0.001822033    2.193    0.544
        71 -11.9772      6.6931    115.2571   1.1890167209e+02   5.1101696830e+01    0.4067421     0.169156  55.72  0.001909407    2.083    0.520
        72 -12.1332     93.3839    105.7437   9.3221425491e+01   4.2707052637e+01     0.404301    0.2647423 -86.36  0.001528578    1.945    0.486
        73 -11.3413     88.8553    109.2409   9.5153181168e+01   4.2724863351e+01    0.4174291     0.289967  41.86   0.00208085    1.465    0.317
        74 -10.5243     84.2482    108.3848   9.6241886406e+01   4.3663345547e+01     0.221547     0.197094 -76.23 0.0005024766    1.098    0.090
        75 -11.6063     93.0093    114.7830   9.5117090413e+01   4.0850846307e+01     0.379402    0.2674439 -75.06  0.001369767    1.491    0.329
        76 -11.5041     95.4371    110.2389   9.3589896450e+01   4.1396906402e+01    0.3832848    0.2932345  -4.08   0.00189216    2.268    0.559
        77 -10.0279     79.1611    116.0488   9.9018421777e+01   4.2805247558e+01    0.1828191    0.1678412 -63.09  0.001152699    1.230    0.187
        78 -10.0135    222.6858    224.3413   8.7350495819e+01   2.8170321529e+00    0.1610111    0.0984347  35.64  0.001120438    1.189    0.159
        79 -10.9460    237.6258    114.1338   6.5595194031e+01   1.1522676565e+01     0.247952    0.1919429  50.58 0.0008546672    1.394    0.283
        80 -12.1170    183.5368    221.6745   9.3022345359e+01   8.7518619173e+00     0.463149    0.2086945  48.95  0.001832825    2.003    0.501
        81 -10.5538     48.9928    113.7549   1.0696962488e+02   4.7409424696e+01    0.1976999     0.151912 -84.39 0.0003878654    1.139    0.122
        82 -11.1510     18.6541    112.1385   1.1535274943e+02   5.0841725895e+01    0.2232627    0.1253197  32.65 0.0009474435    1.921    0.480
        83 -11.8909     73.2587    109.4726   9.9486482722e+01   4.5124991301e+01    0.4827918    0.2272439 -55.81  0.002223114    2.091    0.522
        84 -10.2576     24.4954    108.9238   1.1338674036e+02   5.1043560995e+01    0.1711076    0.1411737  71.42 0.0004494169    1.100    0.091
        85  -9.8315     46.1523    106.1758   1.0673870443e+02   4.9435945134e+01    0.1722468     0.154774 -71.14 0.0004579268    1.219    0.179
        86 -10.3980    241.2077    104.3242   6.2861437746e+01   1.1939835808e+01    0.2243798    0.1653173 -27.18 0.0005775524    1.311    0.237
        87 -10.2742      2.6924    104.4228   1.1932233566e+02   5.3739600206e+01    0.1955907    0.0924669  34.41  0.001133603    2.142    0.533
        88 -11.7047     89.8893     87.1350   8.9995646378e+01   4.7334260237e+01    0.4384322     0.331317 -17.76  0.001482698    2.055    0.513
        89 -11.1015     85.1537     99.8787   9.4274821187e+01   4.5366389697e+01    0.2951488    0.2017808 -50.53  0.001104389    1.524    0.344
        90 -11.6422     86.1619     94.4115   9.2795648065e+01   4.6392881066e+01    0.5735012     0.288858 -38.93  0.002263936    2.895    0.655
        91 -10.2341     15.1002    223.9564   1.2177024717e+02   3.0269790908e+01     0.147683   0.09342532  57.70 0.0005747378    1.027    0.026
        92 -10.7970     78.9893    100.3396   9.6131779380e+01   4.6261648382e+01    0.1875794    0.1626881  59.68  0.000421731    1.129    0.115
        93 -10.2841      6.9996    224.2650   1.2311164385e+02   3.0969074876e+01    0.1310831   0.08173479  54.80 0.0003484901    1.090    0.082
        94 -11.4234     73.9190    219.6324   1.1148619768e+02   2.4502629771e+01    0.2519494    0.1797938 -57.78  0.001648064    1.999    0.500
        95 -11.8264     92.4714     93.3948   9.0752274647e+01   4.5521237498e+01    0.3617265    0.2927674 -31.90 0.0009166817    1.555    0.357
        96 -11.8459     72.8893     96.7399   9.7186230088e+01   4.8003262626e+01    0.4232636    0.2781427 -58.02  0.001840212    1.463    0.316
        97 -11.8770    231.2595    219.6755   8.5463262242e+01   1.9982478604e+00    0.3733912    0.1686985  35.35  0.001667871    1.620    0.383
        98 -10.2618     46.7156     94.0105   1.0470516489e+02   5.2133693223e+01    0.1854165    0.1476958 -81.27  0.000792196    1.086    0.079
        99 -12.1506    104.2729     91.7038   8.7048654494e+01   4.3701601181e+01    0.3322408    0.2778034  15.74  0.001010239    1.578    0.366
       100 -11.0408    108.1455    219.7143   1.0549416177e+02   1.9993496457e+01    0.1591072    0.1416554  67.34 0.0004740356    1.274    0.215
       101 -11.4652    227.8818     90.6447   6.1473358014e+01   1.6314358967e+01    0.4206155    0.2763649  64.96  0.001886651    1.821    0.451
       102 -10.6847     98.7992     91.8958   8.8609865260e+01   4.4694361039e+01    0.2343207    0.1933715  36.30 0.0006693146    1.349    0.259
       103 -10.8103     66.9516     91.0170   9.7816118157e+01   5.0168295978e+01    0.3873044    0.1725023 -60.17   0.00170107    2.076    0.518
       104 -10.6308     52.2108     90.9422   1.0243305283e+02   5.2172670651e+01    0.2063598    0.1774201  60.18 0.0004772837    1.174    0.148
       105 -10.8146    240.2268     86.0617   5.8653215854e+01   1.4235744517e+01     0.229118    0.2057475  26.10 0.0004897998    1.114    0.102
       106 -11.2020     14.3995     85.9016   1.1407799680e+02   5.7081267787e+01    0.2238633    0.1577194  52.94  0.001455196    1.415    0.293
       107  -9.7135     23.8560    219.1079   1.2014371885e+02   3.0166088722e+01    0.1157528   0.09209933  60.24 0.0003810729    1.274    0.215
       108 -11.2130    102.1448     83.1137   8.5423647012e+01   4.5915517396e+01    0.2037764     0.200138 -11.76 0.0004057551    1.164    0.141
       109 -10.9501     70.4556     82.4642   9.4831476555e+01   5.1576839984e+01     0.295502    0.2235483 -53.67 0.0007988276    1.296    0.228
       110 -11.2900    239.2714     81.6499   5.7690286249e+01   1.4946377289e+01     0.236555       0.2038  -8.38 0.0003272903    1.047    0.045
       111 -10.9182    159.0985    218.0152   9.6579863784e+01   1.2810724527e+01    0.2296517    0.1130422  42.81 0.0009284033    1.491    0.329
       112 -10.0788      2.8440     80.8180   1.1745812843e+02   5.9009119979e+01    0.1675849    0.1284118 -77.62 0.0004122292    1.128    0.114
       113 -10.4432    248.5772     78.5620   5.5761407926e+01   1.3342304234e+01    0.3303677    0.2295824 -61.74  0.001709234    2.021    0.505
       114 -10.2217     90.4291    217.7564   1.0844091430e+02   2.2664790842e+01    0.1160897   0.09848663 -64.13 0.0007393429    1.613    0.380
       115 -10.4699     92.2458     77.0591   8.6664284251e+01   4.9081132363e+01    0.2173177    0.1982614 -84.98 0.0003325352    1.058    0.055
       116 -10.9463     88.8423     74.8303   8.7081137299e+01   5.0185002033e+01    0.2508718    0.1940332  48.19 0.0002465993    1.335    0.251
       117  -9.8093    231.2146     74.7477   5.6998165339e+01   1.7508617874e+01    0.1838089    0.1473819  13.91 0.0004867614    1.271    0.213
       118 -11.3647     60.7427    216.0607   1.1357841524e+02   2.6636338658e+01    0.3754755    0.1740485  30.90  0.002133576    2.612    0.617
       119 -10.5163     77.9052     74.0771   9.0325813942e+01   5.2258216514e+01    0.2059031    0.1898037 -74.45 0.0003713715    1.014    0.014
       120 -10.8557    222.3740     70.3547   5.7033960269e+01   2.0044760001e+01    0.3121417    0.2174521  58.83  0.001541526    1.518    0.341
       121 -11.3048    191.2798     67.5524   6.0926927979e+01   2.7893385165e+01     0.545839    0.2420078 -45.89  0.001446736    2.579    0.612
       122 -12.8463    194.0382     61.7175   5.8780517126e+01   2.8016191739e+01    0.7734197    0.4201374 -40.63  0.002998312    1.838    0.456
       123 -11.4065     13.3379    216.3527   1.2184347400e+02   3.1601420116e+01     0.172284    0.1198883  60.44 0.0003700636    1.089    0.082
       124 -10.4884    237.7997    214.3476   8.3768055976e+01   1.5129284614e+00    0.2365564    0.1562725  55.38  0.001562389    2.331    0.571
       125 -11.1223     96.0770    213.6185   1.0709655466e+02   2.2512308028e+01    0.3465994    0.1895905  34.13  0.001762325    1.845    0.458
       126 -11.0333     97.1217    206.6563   1.0629683229e+02   2.3402665701e+01    0.2502767    0.1476475 -74.56 0.0006582626    2.104    0.525
       127 -11.5343    156.0356    222.9646   9.7652249439e+01   1.2688516366e+01    0.1604433    0.1384034  38.95 0.0004927766    1.193    0.162
       128 -11.6518    184.8331     51.4940   5.7153487874e+01   3.1767233464e+01    0.3643933    0.2587854 -50.62  0.001317661    1.505    0.335
       129 -10.4335     56.5140    233.5338   1.1528173990e+02   2.4551516209e+01   0.09975994   0.06670062  55.12 1.354054e-05    1.015    0.015
       130 -10.6124    186.9513     65.0721   6.0923947957e+01   2.9326737666e+01     0.264528    0.2282135  14.14 0.0004245788    1.235    0.190
       131 -11.4490    181.5623     61.5937   6.0802048445e+01   3.1189315664e+01    0.3738597    0.2771203  76.56 0.0008441252    1.544    0.353
       132 -11.8377    186.2892     61.3516   5.9928960686e+01   3.0023003845e+01    0.3693344    0.2440217   2.25  0.001573986    2.000    0.500
       133 -11.1692    107.2296     64.2019   7.8393643107e+01   4.8756211098e+01    0.4994254    0.2166809  44.22  0.001015551    2.446    0.591
       134 -11.3432    214.8493     66.6552   5.7077271013e+01   2.2270583426e+01    0.2777213    0.2529871  56.57 0.0004368694    1.158    0.137
       135 -10.3067     44.1399    209.1505   1.1615149082e+02   2.9614347091e+01    0.1392407    0.1097982  58.74  0.000347347    1.195    0.163
       136 -10.8403     37.2648     61.2626   1.0164005678e+02   6.0752237659e+01    0.2268186    0.1804823 -74.23 0.0004020703    1.090    0.082
       137  -9.6607    235.5043     60.4670   5.2728512364e+01   1.8211739735e+01    0.1378653    0.1257076 -19.69 0.0001366496    1.026    0.025
       138 -12.7351    138.0509     58.2823   6.8456675222e+01   4.2737548615e+01    0.5030736    0.4065131  -9.07 0.0004309099    1.458    0.314
       139 -10.2781    182.8433    230.8841   9.4235506899e+01   7.9181889292e+00    0.2130546    0.1353763 -20.26  0.001505915    2.263    0.558
       140 -11.9527     57.3234    205.0313   1.1350822044e+02   2.8771687516e+01    0.2604586     0.144673  51.18 0.0008109279    1.296    0.229
       141 -11.7935    177.1585     57.0734   6.0176783351e+01   3.2971583018e+01     0.385495    0.3421098 -47.96 0.0004856309    1.148    0.129
       142 -11.7146    177.4554     52.9782   5.8839920666e+01   3.3480923971e+01    0.3855118    0.2189704  44.05   0.00151593    1.861    0.463
       143 -10.2611     53.3659     58.0562   9.4536031450e+01   5.9545050666e+01    0.1866241     0.151747 -67.36 0.0004559584    1.107    0.097
       144  -9.9435    113.7176     56.6672   7.4054811589e+01   4.8790726884e+01    0.2315713    0.2049614 -38.54 0.0007269881    1.124    0.110
       145 -10.0724    111.0075     54.7926   7.4153461719e+01   4.9752005139e+01    0.2632647    0.2211234  59.48 0.0005227504    1.228    0.186
       146 -10.3578     89.5600     56.1319   8.1074922683e+01   5.3984238617e+01    0.2963109    0.2623067 -77.02   0.00165007    1.178    0.151
       147  -9.6533    240.9512     56.3485   5.1014578917e+01   1.7447237218e+01    0.1789228    0.1722809  -8.93 0.0006099527    1.074    0.069
       148 -10.9292    210.7360     54.4804   5.4227565599e+01   2.4794985169e+01    0.2741432    0.2298407  43.03 0.0004328037    1.227    0.185
       149 -12.4193    200.5117     52.3549   5.5034349581e+01   2.7622978725e+01    0.5297201    0.3336209  46.35  0.002418699    1.637    0.389
       150 -10.7402     89.2519    204.5973   1.0756502675e+02   2.4792547729e+01    0.1765569     0.116683  84.95 0.0006092566    1.673    0.402
       151 -10.7683     73.4976     51.9810   8.5118098061e+01   5.7789402277e+01    0.4677901    0.2156583 -57.55  0.001863924    2.357    0.576
       152  -9.6660     84.5652     53.5391   8.1822265361e+01   5.5470789586e+01    0.1423735    0.1315784 -63.22 8.320796e-05    1.040    0.038
       153 -10.2762     59.9667     53.1166   9.0518270667e+01   5.9710076036e+01    0.3308171    0.1452425  52.42   0.00128789    3.074    0.675
       154 -12.7200     31.3599     51.9378   1.0182124394e+02   6.3501206626e+01    0.3089371     0.237238  80.22 0.0004899813    1.394    0.283
       155 -10.3959     36.0308     49.0120   9.9049746659e+01   6.3688038831e+01    0.1910051    0.1642077 -65.61 0.0003538556    1.012    0.012
       156 -12.1671     11.9209    202.2252   1.2165799596e+02   3.3996100641e+01    0.3799825    0.1244232  65.83  0.002197259    2.393    0.582
       157 -10.8649    171.8739     49.6201   5.8726647354e+01   3.5418187785e+01    0.2443016    0.1838693  46.98  0.001161802    1.345    0.257
       158 -12.2319     18.4056     49.1747   1.0682725966e+02   6.5267777191e+01    0.2299609    0.2066876 -75.20 0.0003009748    1.105    0.095
       159 -13.1743     18.2470     43.3851   1.0559547875e+02   6.6607272217e+01    0.3450787    0.2276943 -66.96 0.0005979823    1.229    0.186
       160 -10.5527    249.1187     53.1686   4.9305878017e+01   1.5986077741e+01    0.2170006    0.1681882 -22.54 0.0003639784    1.143    0.125
       161 -11.1252     97.0670    230.9579   1.0832052455e+02   1.9950170970e+01    0.2458071    0.1317853  39.03 0.0009827212    1.520    0.342
       162 -10.8010     69.4892    203.0056   1.1111234702e+02   2.7618057260e+01    0.2248206    0.1211106  71.25 0.0006516384    1.845    0.458
       163 -10.4762    115.0652     47.7283   7.0487409488e+01   5.0117997239e+01    0.3094524    0.2490357  40.56  0.001447455    1.312    0.238
       164 -11.2799    118.9854     44.7070   6.8318175882e+01   4.9718661201e+01     0.248219    0.2066209 -22.31 0.0003402312    1.265    0.210
       165 -10.3680     66.5292    199.0301   1.1137573922e+02   2.8632026665e+01    0.2019551    0.1143645  82.82  0.001296396    1.862    0.463
       166 -11.8747    124.1417     51.8819   6.9620515750e+01   4.7235165044e+01     0.503452    0.3633053   5.96  0.001354635    2.007    0.502
       167 -10.5328    124.9727     43.3219   6.6277493762e+01   4.8496869478e+01    0.3196918    0.2394451 -23.60 0.0005569328    1.419    0.295
       168 -10.8371    123.5459     39.9367   6.5339061125e+01   4.9404695657e+01    0.3188954    0.2513706   6.31  0.001163415    1.551    0.355
       169 -10.4119     87.7912     44.1764   7.7319526229e+01   5.6712036945e+01    0.1946709    0.1695105  -2.84 0.0004235556    1.344    0.256
       170 -11.4554     81.5819    230.5863   1.1090807822e+02   2.1978870377e+01    0.3664491    0.1329922  34.25  0.001874912    2.936    0.659
       171 -10.1973     46.5049    195.5112   1.1494468686e+02   3.1592238466e+01    0.1723439   0.07947393 -62.21  0.001029548    2.641    0.621
       172 -11.1149    148.9557     40.8084   5.9999925402e+01   4.2748743053e+01    0.3319871    0.2192638 -28.73 0.0002672701    1.518    0.341
       173 -10.5667    150.9789     37.4795   5.8397080939e+01   4.2694468005e+01    0.2836478    0.1925181 -53.57  0.001061889    1.628    0.386
       174 -13.0174    183.1995    238.7413   9.5076541532e+01   7.1017271158e+00      0.31181    0.2821277  61.85  0.000893724    1.547    0.354
       175 -10.2676     36.2984    194.6249   1.1683591837e+02   3.2860058480e+01     0.181458    0.1077601  62.58 0.0006979489    1.244    0.196
       176 -12.0413    134.5735     38.1211   6.2049255062e+01   4.6904856489e+01     0.516802    0.2577907 -39.46  0.001574237    1.958    0.489
       177  -9.5227    231.4543     40.5022   4.7779911507e+01   2.1378584080e+01    0.1396635     0.128223 -22.69 0.0001284089    1.009    0.009
       178  -9.5787     19.4699    205.4993   1.2041854312e+02   3.2750452079e+01    0.1016839   0.06702445  61.29 -3.010768e-05    1.017    0.017
       179 -10.9369    177.7521     37.5667   5.3783543770e+01   3.5488393793e+01    0.2303441     0.215579  18.19 0.0005849602    1.111    0.100
       180 -10.6937    164.9703     38.4760   5.6188508425e+01   3.8806897441e+01    0.3961138    0.2829664 -82.12  0.001765924    1.718    0.418
       181 -10.4606     90.9075     39.4815   7.4442732075e+01   5.6965288478e+01    0.2091187    0.1437229  50.49 0.0008538694    1.533    0.348
       182 -11.5193     55.4467     37.5521   8.6898074100e+01   6.3715270279e+01    0.4217531    0.3119189 -85.41  0.002218519    1.824    0.452
       183  -9.8140     42.7340     38.9325   9.2956771905e+01   6.5156552591e+01    0.1800566    0.1470593 -58.24            0    1.069    0.064
       184 -12.6427    244.6030    191.0768   7.9261355907e+01   2.4846616496e+00     0.606351    0.2792049  48.28  0.002499093    2.264    0.558
       185 -10.2840     53.2719    191.6688   1.1339728130e+02   3.1467922289e+01    0.1752362    0.1167083  72.44 0.0004569258    1.258    0.205
       186 -11.5640     55.9626    188.7172   1.1266614662e+02   3.1657304693e+01    0.1977562    0.1440945  58.29 0.0003508869    1.041    0.039
       187 -11.1485    122.1946     34.2098   6.3415765029e+01   5.0651229891e+01    0.3123933     0.259488 -78.65  0.001201894    1.391    0.281
       188 -13.5674     81.9551    187.9971   1.0747673117e+02   2.8462514332e+01    0.2718186    0.2311293  69.73  0.001343932    1.158    0.137
       189 -10.7354     85.0762     31.7231   7.3118103273e+01   5.9580450771e+01    0.3192974    0.1937396 -41.92 0.0007964268    1.555    0.357
       190 -10.1298    200.0607     32.5040   4.9039956823e+01   3.0158340707e+01    0.2159782     0.146774  69.30 0.0006320038    1.525    0.344
       191 -10.5058    139.9881     31.4965   5.8347347460e+01   4.6462970699e+01    0.2895189    0.2211715 -32.84 0.0005298741    1.292    0.226
       192 -10.3818     33.4114    243.7498   1.1945407165e+02   2.5605379440e+01    0.1049729   0.07631703 -83.22 0.0009508639    1.666    0.400
       193 -10.3726    165.7027     30.9861   5.3442217003e+01   3.9593695295e+01    0.2608017    0.2006106  49.07 0.0004344824    1.311    0.237
       194 -10.1010     59.0856     31.1787   8.2769954341e+01   6.4448711084e+01    0.1983145    0.1694556 -21.17 0.0002830548    1.244    0.196
       195 -10.0056    219.2726     43.9966   5.0132843995e+01   2.3940040404e+01    0.2030718    0.1735502 -26.00   0.00034306    1.097    0.088
       196  -9.9054     49.8891     28.6920   8.5738841578e+01   6.6348782975e+01    0.1683332    0.1670587 -49.00 0.0004572922    1.132    0.117
       197 -11.1517      9.6217     28.7033   1.0624249842e+02   7.0531032404e+01    0.2197122    0.1796619  71.24            0    1.384    0.277
       198 -10.2754    203.0260     28.5124   4.7438583376e+01   2.9828831883e+01     0.223721    0.1452406  69.31    0.0010329    1.591    0.371
       199 -11.1245    125.8878     30.8260   6.1167557374e+01   5.0231453782e+01    0.2285658    0.2023216  24.74 0.0003499057    1.197    0.165
       200 -10.7654     84.5089    180.5078   1.0624418232e+02   2.9391078115e+01    0.2110929    0.2041523 -66.07 0.0009808644    1.431    0.301
       201 -11.1726    216.5296     25.6340   4.5079662547e+01   2.6644593031e+01    0.3845914    0.1740267 -56.35  0.001410416    2.780    0.640
       202  -9.8910    248.1133    185.6593   7.7875642326e+01   2.4310695733e+00    0.1578065    0.1051833  27.40 0.0006166933    1.155    0.134
       203 -10.4152    209.2375     25.2088   4.5721246502e+01   2.8564258722e+01     0.240809    0.1862496  56.54 0.0003715376    1.337    0.252
       204  -9.7987    178.3368     25.6686   4.9677241820e+01   3.6786339757e+01    0.1663194    0.1076619 -58.47 0.0007052089    1.736    0.424
       205 -10.4375     32.6732     25.2077   9.2673241219e+01   6.9279694395e+01    0.2898859    0.1566077  41.21  0.001499163    2.193    0.544
       206 -10.2257     51.4611    179.9937   1.1293807139e+02   3.3727736210e+01    0.1640486     0.115201  54.20  0.000133775    1.126    0.112
       207 -10.6611     89.0962     23.6225   6.8107047426e+01   6.0109317068e+01    0.2563744    0.1943058 -27.36 0.0002598845    1.288    0.224
       208 -10.5427     49.3363     20.5455   8.2280970337e+01   6.8029530560e+01    0.3393335    0.1952747 -25.67  0.001554885    2.275    0.560
       209 -12.1895     66.6861    185.1621   1.1026463214e+02   3.0954245813e+01    0.2108012    0.1593978  59.79 0.0002998782    1.022    0.022
       210  -9.8406     47.9989    243.5232   1.1713699153e+02   2.4103171754e+01    0.1431629   0.06434081  43.05 0.0006009541    1.543    0.352
       211 -10.1880    175.0773     17.0470   4.7125683014e+01   3.8646778586e+01    0.2250676    0.2159612 -54.25 0.0003845893    1.027    0.026
       212 -10.0768     12.3321     15.9619   1.0058894257e+02   7.3138079131e+01    0.1768569    0.1234257 -59.17 0.0004521976    1.153    0.133
       213 -10.2365     50.0350     15.1176   7.9201004412e+01   6.8929439974e+01    0.1974928    0.1765867 -36.19 0.0005339577    1.047    0.045
       214 -10.2863    112.0142    241.0367   1.0662709380e+02   1.6688576516e+01     0.162482   0.08948866  59.50 0.0008171204    1.701    0.412
       215 -10.0106    206.3004     13.3249   4.2360411655e+01   3.0540518426e+01    0.1496812    0.1056365  31.35 0.0004154398    1.634    0.388
       216  -9.9169     41.8478    177.4133   1.1472446258e+02   3.5289524129e+01    0.1332746   0.09628133  31.75  0.000415558    1.657    0.396
       217  -9.7783     14.0000    175.9299   1.2030799649e+02   3.8362653409e+01    0.1569099   0.04907551 -82.20 0.0007999545    2.925    0.658
       218 -10.3446     68.8797    174.9980   1.0893362290e+02   3.2475480673e+01    0.1680448    0.1301902  63.60            0    1.012    0.012
       219 -10.8333     55.1576    171.4431   1.1150975420e+02   3.4849004339e+01    0.2610364    0.1424912 -72.49  0.001596955    1.871    0.466
       220 -12.2452    231.6433    237.3476   8.7740828381e+01   5.5444773950e-01    0.2896643    0.1684913  29.94 0.0007537248    1.189    0.159
       221 -12.3340    193.8165    237.2244   9.3282103529e+01   5.7523131890e+00    0.2441232     0.193308  20.80 0.0004018279    1.232    0.188
       222 -10.6403     79.8748    171.0604   1.0623857217e+02   3.1710796062e+01    0.1827568    0.1416765  62.23 0.0007007184    1.026    0.025
       223 -10.1716     35.0672    171.2361   1.1573262724e+02   3.7161144894e+01    0.1966789   0.07812054  56.76  0.001072325    2.021    0.505
       224 -11.2128    189.9753    231.0655   9.3146785465e+01   6.8748080395e+00     0.361945    0.1615212  39.95  0.002260286    1.591    0.371
       225 -11.6841    104.3045    236.3778   1.0752749203e+02   1.8290049967e+01    0.3568733    0.2249561  71.04  0.002644313    1.738    0.425
       226 -11.3841      2.7628    168.5887   1.2231152447e+02   4.0681694268e+01    0.2167749     0.132779  71.11 0.0007299082    1.182    0.154
       227 -11.2974     68.7736    236.5170   1.1341627382e+02   2.2714177349e+01     0.175453    0.1258174  64.55 0.0003225339    1.175    0.149
       228 -12.0845    125.6086    235.0962   1.0390325238e+02   1.5584948537e+01    0.2476185    0.1786303  62.98  0.001960196    1.390    0.280
       229 -11.8277    118.2675    235.4267   1.0514226576e+02   1.6546549950e+01    0.2634302    0.1995095  39.83 0.0008956964    1.225    0.183
       230 -10.4675     23.8001    167.2837   1.1787472410e+02   3.9044689555e+01    0.1852138    0.1071432 -72.44  0.001230947    1.764    0.433
       231 -10.8767     42.9901    235.6176   1.1760401396e+02   2.5745581187e+01    0.1546435    0.1094808  72.56 0.0003553965    1.258    0.205
       232 -10.1186     33.5177    236.0181   1.1915768543e+02   2.6681140317e+01    0.1254182   0.07449399  82.33  0.000769455    1.578    0.366
