#   1 NUMBER                 Running object number                                     
#   2 MAG_AUTO               Kron-like elliptical aperture magnitude                    [mag]
#   3 X_IMAGE                Object position along x                                    [pixel]
#   4 Y_IMAGE                Object position along y                                    [pixel]
#   5 X_WORLD                Barycenter position along world x axis                     [deg]
#   6 Y_WORLD                Barycenter position along world y axis                     [deg]
#   7 A_WORLD                Profile RMS along major axis (world units)                 [deg]
#   8 B_WORLD                Profile RMS along minor axis (world units)                 [deg]
#   9 THETA_WORLD            Position angle (CCW/world-x)                               [deg]
#  10 FWHM_WORLD             FWHM assuming a gaussian core                              [deg]
#  11 ELONGATION             A_IMAGE/B_IMAGE                                           
#  12 ELLIPTICITY            1 - B_IMAGE/A_IMAGE                                       
         1 -13.1120     37.9804     49.5589   7.8580238886e+01   6.2999366901e+01    0.8607559    0.6299519 -34.70   0.00350935    1.164    0.141
         2 -10.2034    126.2513      2.9913   3.0692927065e+01   5.2430318485e+01    0.3114547    0.1745094 -29.54  0.001265955    1.983    0.496
         3 -12.2265    128.4658     11.0313   3.3146344627e+01   5.1175793015e+01    0.4222573    0.3126028 -73.00 -7.346963e-05    1.675    0.403
         4 -11.0448    128.3167     24.9244   3.8115555853e+01   4.9756173873e+01    0.4909933    0.2567191 -23.54  0.001882774    2.151    0.535
         5 -11.1164    128.9999     18.4860   3.5687390190e+01   5.0299514766e+01    0.4756311    0.2650309  30.28  0.001673847    2.186    0.543
         6 -11.2249     22.9191     23.5992   7.6154282178e+01   6.9343708417e+01    0.5540155    0.2285181 -34.80  0.002399361    2.165    0.538
         7 -12.0558     21.6141     14.7182   7.2906040040e+01   7.0940322759e+01    0.6456032    0.3284994  -7.67   0.00316705    2.519    0.603
         8 -10.4267     15.0822     13.6644   7.6146297708e+01   7.1719674628e+01    0.1954216    0.1462514 -15.90 0.0008151528    1.041    0.039
         9 -12.2133      4.0796     16.4059   8.3829610871e+01   7.2068562420e+01    0.3708707    0.2700142  31.24  0.001879041    1.827    0.453
        10 -12.3927    159.5480     23.1603   3.1711160235e+01   4.2105444464e+01    0.3303499    0.2774935  31.31 0.0003631238    1.328    0.247
        11 -12.5043    165.2759     22.6008   3.0651351266e+01   4.0713482106e+01    0.4078966    0.2826594  58.30 0.0001821319    1.322    0.243
        12 -10.3751     74.1839      2.0588   4.3002142343e+01   6.4337030807e+01    0.2688271    0.1701049  62.41  0.001436689    1.849    0.459
        13 -10.9684     73.8875      6.7791   4.5340350136e+01   6.3945553463e+01    0.2822152     0.213679  -9.77 0.0008539744    1.324    0.245
        14 -11.0648     70.6229     13.2439   4.9517643929e+01   6.3887259811e+01    0.2491006    0.2007568  -1.52 0.0007928597    1.162    0.139
        15 -11.3726     75.5162     10.9228   4.6726370376e+01   6.3191576894e+01    0.5595137    0.2358478  50.68  0.002506863    2.178    0.541
        16 -10.9663     49.0404     14.1080   5.8685182093e+01   6.7520922485e+01    0.7535921    0.6157533   3.42   0.00497467    1.031    0.030
        17 -11.3920     29.7560     19.3273   7.0641231356e+01   6.9343006302e+01    0.3586378    0.1874486 -31.69 0.0003732887    1.691    0.408
        18 -10.7381     34.3463     15.2334   6.6322086538e+01   6.9425451105e+01    0.4298297    0.2196872 -19.26   0.00213766    2.173    0.540
        19 -11.6482     39.9716     10.9284   6.1356600098e+01   6.9284019207e+01    0.5014614    0.2978696   8.22  0.001878952    1.800    0.444
        20 -11.2163     40.0069     15.3048   6.3522112401e+01   6.8672851679e+01    0.3018838    0.2266122  13.74  0.001027866    1.174    0.148
        21 -12.5488    237.9949     17.5664   2.1279734959e+01   2.3908964318e+01    0.2933443    0.2200172 -73.04 0.0004236181    1.159    0.137
        22 -10.2346     83.5585     12.9905   4.5040927295e+01   6.1332151554e+01    0.3195882    0.1904658 -45.71  0.001465316    2.326    0.570
        23 -11.2247     60.0258     12.9236   5.3413466662e+01   6.5861344340e+01    0.3663756    0.3319538  72.32  0.002345894    1.715    0.417
        24 -11.5600    164.4410      8.7067   2.6636806750e+01   4.2360223297e+01    0.6800547    0.2262964 -20.94  0.002470837    3.755    0.734
        25 -11.2092    233.8707     11.3753   2.0256877013e+01   2.5495583519e+01    0.2210995    0.1391481 -48.20 0.0005836117    1.393    0.282
        26  -9.6505     95.9834     12.2036   4.1061132384e+01   5.8734283337e+01    0.1852327    0.1700504  78.36 0.0006436342    1.320    0.243
        27 -10.4136    175.5102     11.0112   2.5886605070e+01   3.9353718499e+01     0.225107    0.1644294  73.39 0.0009432927    1.215    0.177
        28 -10.5868    156.6034     11.2458   2.8495286345e+01   4.4096902389e+01    0.1750653      0.13282  -0.20 0.0007335574    1.653    0.395
        29  -9.7540    107.3765     10.7314   3.7551314114e+01   5.6278836078e+01    0.1726115    0.1473764  52.26 0.0002471034    1.081    0.075
        30 -10.3182      4.8751     10.5990   8.0890817293e+01   7.3014996928e+01    0.1877127    0.1724405 -33.22  0.001456812    1.441    0.306
        31 -10.8345      9.2608      8.8833   7.7395683402e+01   7.2975471508e+01    0.3882312    0.1715194  27.68  0.002143851    2.433    0.589
        32 -11.5656    146.1607      7.4630   2.8876052951e+01   4.7086988508e+01    0.3844689    0.3099199  19.16  0.001399313    1.445    0.308
        33 -11.1942    148.6633      1.9069   2.6725586789e+01   4.6941062557e+01    0.2468912    0.1729206  66.00 0.0004590019    1.221    0.181
        34 -10.9777    240.8993      9.1103   1.9243579375e+01   2.4225039215e+01    0.1955924    0.1322719 -64.56 0.0004704472    1.259    0.205
        35 -12.6153    214.0168      5.6835   2.0578507377e+01   3.0567486783e+01    0.7658337    0.4393655 -68.10  0.004060721    1.699    0.411
        36 -10.7214    118.2222      7.8168   3.4015444050e+01   5.3971675232e+01    0.2200347    0.2011224  12.76 0.0007024844    1.168    0.144
        37 -10.9889    119.5412      3.8235   3.2260249723e+01   5.3998021770e+01    0.4029352    0.2197983  76.13   0.00185406    2.033    0.508
        38 -10.6228     24.5967      8.0335   6.7933793222e+01   7.1635741462e+01    0.3715625     0.179256  40.05  0.001909414    2.723    0.633
        39 -11.0701    190.3408      6.5031   2.2992758848e+01   3.6126289253e+01     0.430683    0.3063504 -66.27  0.002458599    1.360    0.265
        40 -10.3032    100.3419      7.0799   3.7791497130e+01   5.8242532551e+01    0.2439524    0.1838634   9.20  0.000938891    1.400    0.286
        41 -10.3299     97.8765      4.2481   3.7231001597e+01   5.9053906187e+01    0.3302425    0.1931556  15.63  0.001496815    2.026    0.506
        42 -11.9344    234.2419      5.6617   1.8988874257e+01   2.6026004270e+01     0.270839    0.2322597  41.27  0.001288293    1.584    0.369
        43  -9.8608    156.3130      6.0114   2.6928314233e+01   4.4659281940e+01    0.1748789    0.1652829  78.39 0.0003872509    1.088    0.081
        44 -10.7214     68.4659      4.8437   4.6280744331e+01   6.5200671965e+01    0.2916746    0.1834653 -32.86  0.001626003    1.814    0.449
        45 -10.0251     37.3255      6.3265   6.0276431180e+01   7.0257708887e+01    0.1973955    0.1182332   5.81 0.0007983562    1.732    0.423
        46 -11.3298     19.4395      3.5464   6.8532197774e+01   7.2838867402e+01    0.5551153    0.2773894  10.59  0.002940621    2.258    0.557
        47 -11.4052     11.1015      2.9252   7.3278835568e+01   7.3743509491e+01    0.3004194     0.184337  -3.91 0.0005277685    1.472    0.321
        48 -10.7665    223.2861      4.0476   1.9454281149e+01   2.8618248633e+01    0.2608807    0.1958561   3.11 0.0009675272    2.052    0.513
        49  -9.5372    109.4727      5.5014   3.5004333819e+01   5.6263357411e+01     0.134948    0.1150774  45.77 0.0001047838    1.003    0.003
        50 -10.5583    178.8254      3.6043   2.3446712046e+01   3.9237040388e+01    0.2493138    0.1892612 -63.65 0.0006415705    1.303    0.232
        51 -11.7389     28.7711      2.5533   6.2698485055e+01   7.1882818024e+01    0.4571306    0.2172429  26.43  0.001941807    2.016    0.504
        52 -10.8867    243.0267      2.7611   1.7768285503e+01   2.4447970385e+01    0.2047271    0.1508001 -47.92 0.0006851985    1.230    0.187
        53 -10.7977    195.0919      1.8087   2.1321261349e+01   3.5423391549e+01    0.3332719     0.152465  87.29  0.001472022    2.274    0.560
        54 -11.9696     36.8177    165.6814   1.0138647969e+02   3.5837115357e+01     0.442544    0.2817725  73.39  0.002349601    1.560    0.359
        55 -10.9493    247.4811    249.9660   6.7972195754e+01  -1.1025901724e+01    0.1992216    0.1348231   0.52   0.00139935    1.172    0.147
        56 -12.4269    226.6128    244.9608   7.0839214462e+01  -7.7640732851e+00    0.6050895    0.3297077  -2.49  0.003242515    2.221    0.550
        57 -12.6041    233.3139    246.6194   6.9905998099e+01  -8.8501506573e+00    0.5244616    0.3456723 -24.95  0.003517484    1.556    0.357
        58 -11.8168     88.8618    249.3328   9.8093467585e+01   1.1812970738e+01    0.3621586    0.2232467  40.18  0.001024098    1.328    0.247
        59 -10.2498     72.3944    250.1366   1.0131781844e+02   1.3886100864e+01    0.1948058    0.1470751  27.86  0.001030469    1.545    0.353
        60 -13.0795     19.2459    237.1318   1.1032589354e+02   2.2468909433e+01     1.512453     0.349828  57.19  0.006179358    3.878    0.742
        61 -11.8022      5.4933    235.2345   1.1267765100e+02   2.4164115657e+01    0.3758512    0.2357369  66.48  0.002283355    1.173    0.147
        62 -12.8781      6.1218    245.1259   1.1296641892e+02   2.2297638347e+01    0.6413433    0.3844067  71.17  0.003646038    1.257    0.205
        63 -12.6372     22.5031    248.6448   1.1031122896e+02   2.0032014739e+01    0.7712424    0.1781197  38.46  0.003684565    2.999    0.667
        64 -12.5736     16.2188    246.1617   1.1128451108e+02   2.1122014954e+01    0.6813377    0.2504545  58.82  0.002770352    2.139    0.532
        65 -12.3868     21.5682    157.1934   1.0437635551e+02   3.9298727591e+01     0.546694    0.4263336  17.04 0.0009461443    1.631    0.387
        66 -10.0099      8.6861    157.6397   1.0760779290e+02   4.0240432524e+01    0.1493861    0.1000032  45.57 0.0002738745    1.517    0.341
        67  -9.6327    216.4516    154.9974   5.6011970763e+01   7.2437293905e+00    0.2041344    0.1298204 -35.88 0.0003707428    1.493    0.330
        68 -11.1542      9.6288    152.2418   1.0694123615e+02   4.1426750272e+01    0.3968265    0.1843028  52.45   0.00202092    2.170    0.539
        69 -10.0421    177.0134    150.2957   6.3047283583e+01   1.5880699535e+01    0.2605219    0.2195906 -74.04  0.001104953    1.550    0.355
        70 -10.7456    207.0377    146.5067   5.5952124898e+01   1.0544853645e+01    0.2235459    0.1895121 -26.40 0.0007067852    1.113    0.102
        71  -9.9277      3.0175    143.6721   1.0791611265e+02   4.3894815804e+01    0.1583144    0.1368795  87.16 0.0004330213    1.098    0.089
        72 -10.3019    220.1784    143.8240   5.2879332562e+01   8.4726283618e+00    0.1986592    0.1579759  -2.82 0.0006620774    1.306    0.234
        73 -12.1780      9.1647    136.3966   1.0565504430e+02   4.5201937153e+01    0.2772379    0.1782764 -73.43 0.0002460868    1.270    0.213
        74 -10.7028      2.5855    136.6977   1.0744839179e+02   4.5560393274e+01    0.4178517     0.087136 -69.15  0.001586342    3.226    0.690
        75 -10.0785     55.2802    137.6036   9.2743827914e+01   4.0579164296e+01    0.2845393    0.2272428  69.84  0.001279563    1.304    0.233
        76 -10.9539     17.5192    137.0095   1.0343060356e+02   4.4447098139e+01    0.2250403    0.1826403  52.04 0.0001773191    1.309    0.236
        77  -9.6989     21.0000    134.9355   1.0223240264e+02   4.4673316617e+01    0.1813245    0.1306427  80.60   0.00066999    1.337    0.252
        78  -9.1005    143.7011    137.3073   6.7961942657e+01   2.5539454831e+01    0.1539319    0.1253183  84.81 0.0003162152    1.594    0.372
        79 -10.0183    249.1355    133.8191   4.5821468043e+01   4.8198421766e+00    0.1928245    0.1693179 -39.19 0.0004137518    1.179    0.151
        80  -9.6537    240.6673    134.2845   4.7258377862e+01   6.2553230721e+00    0.1278387    0.1051389 -65.66 0.0002620877    1.618    0.382
        81 -10.3557     79.5955    132.4796   8.4671412969e+01   3.8525608343e+01    0.2396628    0.2314698 -72.07 0.0004310168    1.021    0.020
        82 -11.2249     54.3130    132.2795   9.2167418775e+01   4.2011936088e+01    0.3868634    0.2308331  32.22  0.001063401    1.795    0.443
        83  -9.8115     47.9126    133.4735   9.4256956259e+01   4.2457361350e+01    0.1909954    0.1346363  31.23  0.001019206    1.555    0.357
        84 -11.4971     36.8018    130.3779   9.7083298666e+01   4.4383451252e+01     0.394491      0.29405 -26.36  0.002205444    1.672    0.402
        85  -9.2506      5.2840    131.2982   1.0623290165e+02   4.6668807780e+01    0.1208873   0.07686117 -52.14 0.0002051274    1.547    0.354
        86 -10.9699     74.0420    128.8809   8.5625747332e+01   4.0236761659e+01    0.3402889    0.2978577 -57.81 0.0007991039    1.086    0.079
        87 -11.1303     23.8151    125.8743   1.0032369141e+02   4.6646647192e+01    0.3051765    0.1957814  28.27  0.001281698    1.777    0.437
        88 -10.7862     15.9803    125.4830   1.0258373744e+02   4.7341800800e+01    0.3719792    0.2065973  22.73  0.001993855    2.130    0.531
        89 -11.3555     11.0519    122.8231   1.0372276261e+02   4.8322674082e+01     0.312124    0.2319373  63.30  0.001159352    1.416    0.294
        90 -10.1337    243.9845    122.5109   4.4154848358e+01   7.5546833945e+00    0.1797912    0.1356031  48.06 0.0004218575    1.509    0.337
        91  -9.8142    220.1195    123.8780   4.8373189353e+01   1.1946957329e+01    0.2127386    0.1875605 -51.20 0.0004502455    1.215    0.177
        92 -10.3115     20.0406    121.7077   1.0091814643e+02   4.7956034931e+01     0.173204     0.152511 -66.51 0.0006428323    1.083    0.077
        93 -10.5100     72.8827    117.2216   8.3595324883e+01   4.3267769148e+01    0.3910134    0.2264294 -75.90  0.001025255    2.313    0.568
        94  -9.2133     64.7482    119.6801   8.6672018334e+01   4.3803563652e+01    0.1430237    0.1015868 -36.71 0.0002405172    1.534    0.348
        95  -9.7802      1.3314    118.7210   1.0613146935e+02   4.9885708739e+01    0.1687556   0.08687469 -67.86 0.0004501153    1.519    0.341
        96  -9.7899     32.9517    117.8779   9.6403430459e+01   4.7817740532e+01     0.216728    0.1450738  73.50  0.001042858    1.744    0.426
        97 -10.6656     23.6369    117.7509   9.9292273721e+01   4.8639865124e+01    0.2105171    0.1700869 -50.54 0.0003594353    1.206    0.170
        98 -11.4439     15.7300    115.5957   1.0144949019e+02   4.9748267792e+01    0.3058558    0.1960066 -60.69 0.0005887639    1.307    0.235
        99 -10.0572     85.9097    115.6601   7.9158114837e+01   4.1626676814e+01    0.2034758    0.1930005  44.71 0.0006252023    1.096    0.088
       100  -9.9721    214.1062    115.1814   4.7389712601e+01   1.4706757687e+01    0.2198386    0.1908914   2.80 0.0005631921    1.240    0.193
       101  -9.6070    179.4835    115.5548   5.4223159348e+01   2.2231050098e+01    0.1521433    0.1487964 -10.40 0.0002865756    1.010    0.010
       102 -11.0325    249.3441    112.1595   4.1082048218e+01   8.2140957704e+00    0.2646492    0.2020434 -43.17 0.0005165869    1.205    0.170
       103 -10.4377     94.5584    112.2454   7.5663919793e+01   4.0967774836e+01    0.2901543    0.2814924   5.28   0.00115903    1.056    0.053
       104 -11.3817     36.7642    109.9006   9.3869158231e+01   4.9417002022e+01    0.4227466    0.2557188  72.95  0.001964475    2.272    0.560
       105 -11.9850     14.0974    109.0652   1.0110399778e+02   5.1431972402e+01    0.5706398    0.3342429 -10.65   0.00297155    2.372    0.578
       106 -11.6857     54.9610    109.5596   8.7788494644e+01   4.7536265403e+01    0.2962222    0.2476009 -45.87 0.0003933883    1.134    0.118
       107 -10.8219     52.4281    103.4995   8.7376891786e+01   4.9312694463e+01    0.3110325    0.2298995  38.41 0.0008915894    1.485    0.327
       108 -10.8357      1.8767    106.4352   1.0464599744e+02   5.2768506432e+01    0.4659168    0.1283297 -65.81  0.001967526    2.506    0.601
       109 -10.3172      5.4013    106.7344   1.0357025580e+02   5.2511746301e+01    0.2416815    0.1503008 -51.84  0.001416506    1.433    0.302
       110 -11.6925     19.4647    100.9054   9.8151515653e+01   5.3028318154e+01    0.2636083     0.220596 -22.48 -4.128977e-05    1.346    0.257
       111 -11.2391     23.8292    106.3202   9.7543485623e+01   5.1401095082e+01    0.3462713    0.2799751  69.55  0.002042055    1.371    0.270
       112 -10.6795     26.6343    103.0588   9.6077665643e+01   5.1968633969e+01    0.4611798    0.2462763  88.65  0.001416337    2.540    0.606
       113 -10.8400    119.8814    102.1111   6.5450724313e+01   3.8370499657e+01    0.7462373    0.2648449 -34.64  0.001950363    4.543    0.780
       114  -9.9610     38.0697    103.4900   9.2272639462e+01   5.0852905332e+01    0.2260469    0.1607361 -62.71  0.001243952    1.231    0.187
       115 -11.4233    144.2020     97.6372   5.7643390065e+01   3.3936465996e+01    0.5477617    0.5113652  12.53  0.002675299    1.104    0.094
       116 -11.8255     63.2467     98.4638   8.2527247023e+01   4.9154266973e+01    0.5415975    0.3069855  19.50   0.00237013    2.186    0.543
       117 -10.8233     51.2337     98.6242   8.6733266104e+01   5.0627661387e+01    0.3363252    0.1887413 -38.00 0.0009938054    1.888    0.470
       118 -10.5095      9.8592     98.4867   1.0103071877e+02   5.4221831338e+01    0.2244152    0.1444983 -79.80 0.0007920612    1.414    0.293
       119 -10.1530      5.2834     97.8907   1.0248219511e+02   5.4614476922e+01    0.2464332    0.1727584  20.69  0.000955113    1.734    0.423
       120  -9.8605      1.4373     95.5713   1.0346394455e+02   5.5351129585e+01    0.2033716   0.09946387 -73.90 9.723286e-05    1.676    0.403
       121  -9.5307    205.6400     97.2252   4.4497223177e+01   1.9695224658e+01    0.2046057    0.1349756 -28.06 0.0006128788    1.574    0.365
       122 -11.4281     14.8380     95.7860   9.8928754204e+01   5.4561402417e+01    0.4586746    0.1627028 -54.09  0.002045481    2.166    0.538
       123 -12.3030    158.0137     88.2648   5.1657541194e+01   3.2528422635e+01     1.177298    0.5131356 -55.12  0.003463187    3.815    0.738
       124 -12.3427    166.0525     83.4933   4.8517372963e+01   3.1474124175e+01    0.8438821    0.6308741  52.69  0.003675209    1.330    0.248
       125 -10.9544     62.5006     93.2470   8.1511389602e+01   5.0487612143e+01    0.3568495    0.1272694  39.93  0.001287397    3.050    0.672
       126  -9.8670     31.2360     92.8178   9.2611781748e+01   5.4043460579e+01    0.1871602    0.1272078 -45.68 0.0004170427    1.318    0.241
       127  -9.0936     46.6839     92.2918   8.6929376115e+01   5.2653108607e+01    0.1316557    0.1040958  72.01 0.0005508187    1.597    0.374
       128 -10.8694     37.8735     90.1805   8.9661302935e+01   5.4063087824e+01    0.4272391    0.1904989 -43.36  0.001258583    2.128    0.530
       129 -11.5717     21.8959     87.7382   9.5028331504e+01   5.5987366148e+01    0.4902623    0.2043539 -55.85  0.001599997    1.865    0.464
       130 -10.0956     25.5609     90.6710   9.4245284274e+01   5.5019288799e+01    0.2315664    0.1905811 -58.52 0.0006879622    1.030    0.030
       131 -11.9578     10.6697     90.5632   9.9566197820e+01   5.6048492380e+01    0.2870431    0.2418113 -64.28 0.0005677814    1.042    0.040
       132 -11.1599    156.8143     82.2053   5.0189934080e+01   3.3950260653e+01    0.8572771     0.376789  35.01   0.00259617    3.563    0.719
       133 -10.9478     57.7243     89.6506   8.2312048254e+01   5.1958297296e+01    0.3927295    0.2167226  16.24  0.001698139    2.341    0.573
       134 -10.3754     96.4928     89.0959   6.8846413159e+01   4.5910694130e+01    0.3795299       0.1646  43.09  0.001394853    2.376    0.579
       135 -10.2867     83.0702     88.4989   7.3105874502e+01   4.8445876195e+01    0.2181646    0.1914947 -37.96 0.0006301642    1.081    0.075
       136 -10.7027     78.4141     87.8254   7.4507008150e+01   4.9368910121e+01    0.3396409    0.2729642 -37.13   0.00177923    1.186    0.157
       137 -11.7809      4.9265     84.1305   1.0061975682e+02   5.7855549781e+01    0.5040101    0.2358626 -42.41  0.002216715    1.951    0.488
       138 -10.7498     47.7005     87.9712   8.5552187977e+01   5.3557343208e+01    0.2211562    0.1965288  39.39 0.0003322558    1.278    0.218
       139 -10.6004     67.4786     83.9247   7.7271194498e+01   5.1934786391e+01    0.3076882    0.2145031 -13.91 0.0008793778    1.774    0.436
       140 -10.4121     65.1998     87.2045   7.8987297363e+01   5.1516295980e+01    0.1982184    0.1871801  17.19  0.001056902    1.126    0.112
       141  -9.7420    120.9559     86.4910   6.0645639726e+01   4.1461871698e+01    0.2279902    0.1518926  44.16 0.0004142808    1.491    0.329
       142 -10.5304    115.6860     84.5761   6.1591524096e+01   4.2996188120e+01    0.3747314     0.242552 -39.27  0.001381074    1.552    0.356
       143 -10.0754     14.8313     83.9041   9.6934178207e+01   5.7360564814e+01    0.1895338    0.1397198 -46.18 0.0004375041    1.186    0.157
       144 -11.5573     30.8391     80.5883   9.0190970958e+01   5.6949332271e+01    0.4320944    0.2578976 -46.06  0.002292783    1.438    0.305
       145 -10.2595     74.1272     82.1515   7.4385596800e+01   5.1321686151e+01    0.2307155    0.1876613 -22.14 0.0007643785    1.249    0.200
       146  -9.9455     62.8150     82.5026   7.8572859274e+01   5.2919907972e+01    0.1998888    0.1392801  29.95  0.001010879    1.528    0.345
       147 -10.0756     42.1558     82.0965   8.6208822655e+01   5.5523358769e+01    0.2119969    0.1935862  52.99 0.0007473855    1.301    0.232
       148  -9.4280    146.5151     81.4299   5.2381547882e+01   3.6574574442e+01    0.1539826    0.1504335  44.24 0.0001803821    1.016    0.016
       149 -13.0926      4.7219     62.7752   9.6888668554e+01   6.2709783540e+01    0.7412271    0.5381611 -57.27  0.003302966    1.102    0.092
       150 -12.4302     13.7282     76.8799   9.6044845638e+01   5.9052712075e+01    0.3868867    0.3286294  25.95 0.0003456169    1.415    0.293
       151 -12.3059      7.9150     73.4397   9.7665637543e+01   6.0162669044e+01    0.6491628    0.3601794  -6.99  0.003522452    2.214    0.548
       152 -14.1895     16.5610     67.4346   9.2939399611e+01   6.1016463082e+01    0.6504731     0.465556 -69.16  0.001126097    1.364    0.267
       153  -9.4271    183.6198     80.6835   4.4190844077e+01   2.7712075931e+01    0.1596196    0.1166084  21.18 0.0001120798    1.815    0.449
       154 -10.6880    122.5532     79.5680   5.8082101043e+01   4.2499573513e+01    0.2507502    0.2428619  -9.85 0.0002485365    1.026    0.025
       155  -9.8293    114.5814     79.7096   6.0420578449e+01   4.4221599171e+01    0.4064047    0.1294328  40.95  0.001221191    3.323    0.699
       156 -10.4284     60.2951     78.0690   7.8264691734e+01   5.4259754926e+01    0.3440567    0.2718624 -29.94  0.001028379    1.209    0.173
       157  -9.6290     61.6125     73.7340   7.6504714274e+01   5.5031541312e+01    0.2244171    0.1287856 -48.08 0.0009618506    1.600    0.375
       158 -12.8734     44.9309     74.9500   8.3307683372e+01   5.6851694089e+01    0.3528195    0.2857408  57.00 0.0007935141    1.596    0.373
       159  -9.3137    184.4456     76.5330   4.2905259088e+01   2.8220113178e+01    0.1489647    0.1426383 -68.41 0.0002352942    1.032    0.031
       160  -9.3489     70.4363     76.4727   7.4036852789e+01   5.3140855799e+01    0.1436229    0.1299339 -25.66  4.95663e-05    1.011    0.011
       161 -10.2087     66.7674     93.2278   8.0009001154e+01   4.9900596772e+01    0.2243526    0.1891574  39.42 0.0003350762    1.289    0.224
       162 -10.4854     91.1142     74.7552   6.6241410174e+01   4.9970252209e+01    0.2872039    0.2095064  14.97  0.001039247    1.593    0.372
       163 -10.5254     76.3982     74.0894   7.1144044816e+01   5.2702188486e+01    0.3527854     0.228699  22.85 0.0005316663    1.725    0.420
       164 -11.3560     77.5701     69.8399   6.9370647196e+01   5.3393918497e+01    0.4783375    0.2790012  31.07  0.001582566    1.802    0.445
       165 -11.0040     51.9566     62.2761   7.6774923322e+01   5.8762960065e+01    0.3325712    0.3149556 -58.74   0.00172892    1.258    0.205
       166 -10.3017     47.3768     60.5553   7.8115856441e+01   5.9688538003e+01    0.3010734    0.2005953  -5.13  0.001549313    1.748    0.428
       167 -10.9029     54.0057     74.0284   7.9509504247e+01   5.5980595055e+01    0.2761181    0.1958154  40.21  0.001458877    1.612    0.380
       168 -12.0000     50.5770     67.9709   7.9088773811e+01   5.7728696902e+01     0.450527    0.2668233 -45.85  0.001226711    1.494    0.331
       169 -10.7604    207.6462     73.0881   3.8062315401e+01   2.3259099386e+01    0.2376456     0.200436  53.93 0.0003234741    1.245    0.197
       170 -10.6541    101.0165     71.7889   6.2047639670e+01   4.8635378280e+01    0.4294871    0.2606802  64.35 0.0008426027    2.692    0.628
       171 -10.6334    129.6020     70.4692   5.3294273719e+01   4.2612763123e+01      0.38144    0.2853107   3.40  0.001680275    1.722    0.419
       172  -9.7317    127.7094     66.3642   5.2475838744e+01   4.3794439356e+01    0.2202501    0.1845035  44.55 0.0007186754    1.155    0.134
       173 -10.9242     37.4037     69.0820   8.4742827710e+01   5.8947416916e+01    0.5182558    0.3012448  52.94  0.002381844    2.699    0.630
       174 -10.3247     42.7997     68.0870   8.2264878505e+01   5.8604497827e+01     0.248248    0.1923072 -17.05  0.001434037    1.296    0.229
       175 -10.0337    194.9657     69.8469   3.9255620788e+01   2.6775405470e+01    0.2067407    0.1938499  31.71 0.0004153625    1.173    0.147
       176 -10.5328    167.7538     69.4944   4.4146661051e+01   3.3502802201e+01    0.2391382    0.2234414 -47.36 0.0002923667    1.081    0.075
       177  -9.1473    230.3023     68.6743   3.3762978789e+01   1.8835948694e+01     0.143228   0.09471871 -62.48  0.000319111    1.640    0.390
       178  -9.7057    105.5141     68.5314   5.9564951479e+01   4.8338635556e+01     0.148656    0.1433875   8.72 -3.119017e-05    1.042    0.040
       179 -11.2467     94.7067     66.0333   6.2180806652e+01   5.1016443242e+01     0.576408    0.3076286  28.55  0.001465017    2.292    0.564
       180 -11.0285     28.9209     60.5862   8.5976673245e+01   6.1588787051e+01    0.4886634    0.2424615  15.60  0.002148355    2.328    0.571
       181 -11.0141     26.5809     55.7027   8.5618831128e+01   6.2829722871e+01    0.3435464    0.1970552 -53.73 0.0005620823    1.506    0.336
       182 -11.5559     26.8922     49.4340   8.3591927030e+01   6.4105123340e+01    0.5240873    0.4069589 -85.65  0.002389484    1.947    0.486
       183 -12.0815     37.0660    243.0994   1.0741888651e+02   1.9456113974e+01    0.5691664    0.2651523  84.50  0.002477118    2.277    0.561
       184 -11.5890     34.3280     42.5578   7.7818255550e+01   6.4756199065e+01    0.6080385    0.3169102  -5.43  0.002596683    2.812    0.644
       185 -11.3598     29.1779     65.7634   8.7264614220e+01   6.0439913322e+01     0.292745    0.2545128 -56.41 0.0004535579    1.163    0.140
       186 -11.0973     32.4852     63.5993   8.5288512826e+01   6.0618668478e+01    0.2775253    0.2107477  27.74  0.001316344    1.496    0.332
       187 -10.4628    184.8853     64.6490   3.9562105104e+01   3.0053403356e+01    0.3218969     0.215395 -12.67  0.001410554    2.028    0.507
       188 -12.5137    122.3720     63.6664   5.3030403873e+01   4.5510802953e+01    0.4669385    0.3946179  48.33   0.00047067    1.162    0.140
       189 -10.6062     69.4402     63.9783   7.0448093361e+01   5.5916469606e+01    0.3454698    0.1250861 -43.61  0.001145745    2.597    0.615
       190  -9.1465    143.8072     64.3776   4.7814802312e+01   4.0281432974e+01    0.2116565    0.1353681  44.10 0.0003110483    1.546    0.353
       191 -10.3259     77.6972     63.1757   6.7110673753e+01   5.4714476035e+01    0.3920636    0.2498357  62.05  0.001629642    2.699    0.629
       192  -9.9611    202.6136     61.2944   3.5796052415e+01   2.6270661783e+01    0.2398756    0.1776075 -23.45 0.0008464955    1.507    0.337
       193 -10.5586    113.1986     60.9219   5.4696132396e+01   4.8072137740e+01    0.2156724      0.20407 -76.82 0.0005331555    1.232    0.188
       194  -9.9647    169.0015     60.0779   4.1157316764e+01   3.4719111906e+01    0.2187103     0.213153  70.70 0.0002959839    1.018    0.018
       195 -10.8074     96.4924     58.6398   5.9043954021e+01   5.2038604938e+01    0.3887543    0.2968402  77.31   0.00144714    2.028    0.507
       196  -9.9876     99.3039     55.4363   5.7003545459e+01   5.2029033783e+01    0.2915138    0.1664846  32.82  0.000866387    1.881    0.468
       197 -13.0119    105.3821     52.4273   5.4042059346e+01   5.1248384458e+01     0.436193    0.3527035  37.19 0.0005332854    1.176    0.150
       198 -10.3352    104.3015     47.0850   5.2427515438e+01   5.2352979203e+01     0.302899    0.1890213  34.76  0.001097677    1.619    0.382
       199 -11.3159     58.9905     58.9125   7.2821394332e+01   5.8503114127e+01     0.361201    0.3239982 -15.25  0.001283969    1.035    0.034
       200 -10.3137     62.0525     54.6171   7.0105332759e+01   5.8902282133e+01    0.3509488    0.2005121 -33.24  0.001664481    1.715    0.417
       201 -11.5265      6.1572     50.6559   9.3541400742e+01   6.5265053726e+01     0.612635    0.3542156 -64.34   0.00355036    1.554    0.357
       202 -11.3253     12.8477     57.8252   9.2280322839e+01   6.3361695115e+01    0.3747059    0.2429695  62.55  0.001503479    2.476    0.596
       203 -11.9412     12.8991     50.3257   9.0338994718e+01   6.4958526958e+01    0.4931469    0.3691802 -57.00  0.003005353    1.223    0.182
       204 -11.1373     10.8604     44.1250   8.9584756487e+01   6.6368220774e+01    0.3650083     0.216202  19.79   0.00159953    1.904    0.475
       205 -10.6999      7.0537     40.6099   9.0442787184e+01   6.7301113523e+01    0.2880605    0.1421469 -45.15 0.0006522958    1.531    0.347
       206 -11.1998    147.2340     56.7513   4.4627222981e+01   4.0685701517e+01    0.3126226    0.2450521 -53.57  0.001044853    1.405    0.288
       207 -11.1097    132.1540     56.2702   4.8017338859e+01   4.4455713229e+01    0.3993672    0.3551569 -26.59  0.001394263    1.168    0.144
       208  -9.8798     69.1913     57.6431   6.8375657341e+01   5.7209575014e+01    0.3184788    0.1769088 -59.94   0.00127014    2.840    0.648
       209 -10.5732     75.3895     55.6873   6.5339403984e+01   5.6550140020e+01    0.2715183    0.2102541 -44.83 0.0004557875    1.361    0.265
       210  -9.4693     48.4900     55.5353   7.6012777562e+01   6.0581250913e+01    0.1350815    0.1152792 -22.95 1.648496e-05    1.008    0.008
       211 -11.5764     88.3307     52.5818   5.9587697013e+01   5.4738511699e+01    0.4656879    0.2173663 -43.59  0.001892351    2.264    0.558
       212  -9.1207     82.3281     53.7158   6.2098882819e+01   5.5674326864e+01    0.1320331    0.1162922  83.31 0.0003832497    1.607    0.378
       213  -9.6030     55.7261     52.7791   7.2030059898e+01   6.0172099239e+01    0.3246667    0.1908286  -1.39  0.001408712    2.486    0.598
       214  -9.4399    173.3077     52.3150   3.8102899487e+01   3.4818727975e+01    0.1484112    0.1120298  27.44 0.0007028271    1.628    0.386
       215 -12.2034    129.5163     49.2020   4.6298242160e+01   4.6204446253e+01    0.4514198    0.3721466  34.16 0.0005434394    1.199    0.166
       216 -10.6145    119.7295     52.6439   5.0012937162e+01   4.7983289269e+01    0.2702585    0.2284621  35.79 0.0005704081    1.129    0.115
       217  -9.6182    230.7627     54.7611   3.0430580386e+01   2.0755061094e+01     0.226379    0.1302685 -63.83  0.001055617    1.985    0.496
       218  -9.8400     77.9803     50.2782   6.2400046576e+01   5.7080586515e+01    0.2065537    0.1742361  22.24  0.001163805    1.133    0.117
       219  -9.8026     52.7136     50.0134   7.2303955760e+01   6.1118810072e+01    0.1933652    0.1548829 -28.23 0.0005265771    1.104    0.094
       220 -10.4487     45.9024     49.3928   7.5012555685e+01   6.2118036131e+01    0.3408475     0.225153  -3.27   0.00179417    1.707    0.414
       221 -11.9244     59.4089     47.6379   6.8634399651e+01   6.0613400358e+01    0.3316018    0.3148967 -87.64 0.0005952881    1.474    0.322
       222 -11.3258     52.5141     41.7922   6.9311596775e+01   6.2671907267e+01     0.602313    0.3475975 -18.26  0.002841667    2.073    0.518
       223 -12.8350     57.7014     34.2060   6.4023050935e+01   6.3207442665e+01    0.3103975     0.254996  -2.45 0.0006605523    1.059    0.056
       224 -10.2118    143.2809     45.6432   4.1924938663e+01   4.3349979063e+01    0.2371027    0.2115119 -89.21 0.0005047015    1.220    0.180
       225 -10.2484    112.6641     45.2533   4.9336277567e+01   5.0769012593e+01    0.3582681     0.196009  32.64  0.001465756    2.115    0.527
       226 -10.8410     91.8151     43.4852   5.5000879680e+01   5.5563298637e+01    0.4845478    0.2288499 -42.56  0.001996313    2.337    0.572
       227 -10.2928     95.4865     42.7833   5.3543360399e+01   5.4914448962e+01    0.3022976    0.2114623  12.12 0.0002748467    1.671    0.402
       228 -11.2156     97.5377     38.7643   5.1353910210e+01   5.5089422487e+01    0.3396271    0.2560618  26.31   0.00178882    1.299    0.230
       229 -11.9857    158.1271     42.6628   3.7979839137e+01   4.0031170003e+01     0.305024    0.2389112  68.94 0.0003152077    1.242    0.195
       230  -9.7391    139.4828     43.4880   4.2045945119e+01   4.4603268194e+01    0.1475871     0.137063  45.48 -7.714304e-05    1.021    0.021
       231 -10.5888    131.3822     41.8111   4.3323071447e+01   4.6836780591e+01    0.2976519    0.2508898 -57.56 0.0007705394    1.362    0.266
       232  -9.8419     72.5124     42.2102   6.1341336256e+01   5.9440566873e+01    0.3560113    0.2196161 -59.66 0.0008120382    2.947    0.661
       233  -9.5922    107.8772     42.1399   4.9549928601e+01   5.2321533845e+01    0.4405753    0.1229358  43.62  0.001014156    3.567    0.720
       234 -10.4368     18.2202     42.1840   8.5418077625e+01   6.6268434245e+01     0.626658     0.102713 -46.58  0.002209834    3.728    0.732
       235 -10.5481     33.7812     32.5843   7.4296021864e+01   6.6659369907e+01    0.5438191    0.1538737  32.30  0.002141241    3.611    0.723
       236 -11.2779     23.8959     41.3320   8.2373593437e+01   6.5984892675e+01    0.4803156    0.3375933  80.90  0.002381144    3.128    0.680
       237 -12.8130     27.6511     37.8278   7.9310206519e+01   6.6322898126e+01    0.3777901    0.2818808  -2.49  0.001600463    1.287    0.223
       238 -11.6037     24.2696     34.6020   7.9806567141e+01   6.7241801191e+01    0.3713801     0.213913  -6.63  0.001489637    1.943    0.485
       239 -10.0404    148.3553     40.6597   3.9248883117e+01   4.2775555669e+01    0.3138962    0.1960416 -20.83  0.001418543    1.875    0.467
       240 -10.4814     69.7534     37.1226   6.0353387141e+01   6.0754815897e+01     0.256604    0.1901688  16.24 0.0003747554    1.315    0.240
       241 -10.5761    151.4619     45.9755   4.0317614456e+01   4.1250834843e+01    0.2446776     0.227819  46.69 0.0006838085    1.052    0.049
       242 -12.0684     44.9428     38.3576   7.1324553183e+01   6.4301324735e+01    0.5158831    0.2915431  45.18  0.001530336    2.441    0.590
       243  -9.7095    152.3438     38.8859   3.7896938594e+01   4.2007315410e+01    0.1920995     0.185435 -15.75 0.0004188852    1.119    0.107
       244 -11.2173    225.1792     37.8943   2.7091711945e+01   2.4278105452e+01    0.3314325    0.2125924  89.45 0.0003413529    1.657    0.397
       245 -11.3607    221.7876     32.0546   2.6069714353e+01   2.5789318841e+01    0.2832046    0.1957529 -43.69 0.0003337761    1.341    0.254
       246  -9.4629     84.9298     34.5761   5.3788407604e+01   5.8310297074e+01    0.1996958    0.1254307  42.17 0.0004781746    1.499    0.333
       247 -10.4011     74.2624     35.4601   5.7956389936e+01   6.0213109057e+01    0.1796623    0.1279671  50.06 0.0009403168    1.620    0.383
       248 -10.6559     79.6063     28.1850   5.2973631083e+01   6.0267700005e+01     0.436409    0.1716383 -27.57  0.001437307    2.817    0.645
       249 -11.2345     81.0313     36.2294   5.5813122472e+01   5.8826953445e+01    0.3779942    0.2523866  58.26  0.001844946    1.962    0.490
       250 -10.4360     77.3795     33.1826   5.5867639856e+01   5.9979602171e+01    0.2183057    0.1705631  12.75 0.0006649843    1.218    0.179
       251  -9.5137      1.4433     37.5001   9.2375691351e+01   6.8208387028e+01    0.1199654   0.08812162 -41.22 7.890915e-05    1.031    0.030
       252  -9.4125    134.4133     35.1961   4.0366630713e+01   4.6988878991e+01    0.2026513    0.1307157 -42.26 0.0009506454    1.700    0.412
       253  -9.5820     89.7851     35.3647   5.2484968800e+01   5.7213168892e+01    0.1857453    0.1188479  37.50 0.0002106157    1.463    0.317
       254 -11.9985      8.8448     32.0635   8.6882161119e+01   6.8887989610e+01    0.3952243    0.2984365 -40.46  0.002084649    1.081    0.075
       255 -11.1421     17.3673     31.1023   8.2060684963e+01   6.8476365537e+01     0.372996    0.2148606  19.85   0.00218602    1.844    0.458
       256 -10.1096    184.3059     34.0113   3.1147688280e+01   3.4553638588e+01    0.1948455    0.1787862 -61.11 0.0003371277    1.087    0.080
       257 -11.3989    102.9650     29.3465   4.6071326804e+01   5.5202376799e+01    0.4282345    0.3222092  76.23  0.001438839    1.769    0.435
       258 -10.2873    246.9514     32.7228   2.3806858561e+01   2.0196365176e+01    0.1702073    0.1432521 -79.46 0.0004194957    1.109    0.099
       259  -9.8001     86.0418     38.5259   5.4997030253e+01   5.7497790381e+01    0.1950072    0.1299946  42.86 7.979388e-05    1.442    0.306
       260  -9.7737    205.8017     32.2020   2.7882262060e+01   2.9513577021e+01    0.1701896    0.1542179  45.23 0.0002456504    1.287    0.223
       261  -9.9438    166.5687     32.2749   3.3341548203e+01   3.9244937042e+01    0.1855758    0.1416115 -10.19 0.0009502515    1.603    0.376
       262 -10.1998     98.0010     31.4469   4.8346569241e+01   5.6022243691e+01    0.2204243    0.1279998  49.66 0.0007878724    1.610    0.379
       263 -10.2950     49.9234     29.0420   6.5207360527e+01   6.5203461308e+01    0.5074193    0.2127317 -26.02  0.001990591    3.101    0.678
       264  -9.5296     44.1957     31.4047   6.8835588231e+01   6.5605361148e+01    0.1542146    0.1147967  35.20 0.0002658479    1.530    0.346
       265 -10.4179    237.2373     29.5600   2.3985186592e+01   2.2654911087e+01     0.171005    0.1086576  59.46 0.0009449757    1.707    0.414
       266 -12.1563    111.8108     27.3979   4.2927494966e+01   5.3423247906e+01    0.3144856    0.2524434 -11.64  0.001737713    1.333    0.250
       267 -11.2754     65.8015     27.9946   5.8040118078e+01   6.2839235358e+01     0.338474    0.2219122  19.67 0.0009845176    1.543    0.352
       268  -9.7759     70.3056     25.3038   5.5115125922e+01   6.2420606987e+01    0.2040345    0.1539086  30.92 0.0005591274    1.209    0.173
       269 -10.6347    204.4996     26.1801   2.6509706835e+01   3.0557838569e+01    0.3537304    0.1862139 -52.58  0.001395971    1.899    0.473
       270 -10.5688    174.9936     26.4140   3.0335801076e+01   3.7816711892e+01    0.2713786    0.1952972 -33.83  0.001434933    1.471    0.320
       271 -13.2611     74.3093    238.1036   9.9948588687e+01   1.5797174943e+01    0.7867049    0.6324393 -89.89  0.005465071    1.289    0.224
       272 -10.5366     62.1605    242.1206   1.0264594506e+02   1.6637199588e+01    0.4078723    0.1080787  48.95   0.00170978    3.005    0.667
       273  -9.3631    109.6596    242.3304   9.3288371901e+01   1.0050122176e+01    0.1302695   0.07935957  60.14 0.0007051594    1.743    0.426
       274 -10.9713     88.6042    241.2099   9.7391902295e+01   1.3277629053e+01     0.207506    0.1402137 -49.88  0.001258481    1.930    0.482
       275  -9.8246    117.7895     26.4962   4.1095874209e+01   5.2121868685e+01    0.2355354    0.1727106   1.48 0.0008536635    1.584    0.369
       276  -9.3092    144.0188     25.7732   3.5237960238e+01   4.5744318843e+01    0.2577463    0.1235613 -58.83  0.000884186    3.562    0.719
       277  -9.4820     98.0338    242.0000   9.5587170953e+01   1.1801000953e+01    0.2033307   0.05768739  36.89 0.0006157182    2.897    0.655
       278 -10.0558    195.6524    238.3713   7.5572972608e+01  -2.5050406525e+00    0.2488516    0.1509074   5.30  0.001318779    1.981    0.495
       279 -10.8649    244.1828    236.7873   6.6421034616e+01  -9.1074247718e+00    0.2251991    0.1743076 -24.74  0.001447177    1.475    0.322
       280 -10.3735      9.5755     15.6076   8.0240518472e+01   7.1836808422e+01     0.275327    0.1471013 -13.62   0.00075619    1.886    0.470
       281 -11.1562      6.2308     20.4190   8.4150677481e+01   7.1220494154e+01    0.2329003    0.1778422  -1.68 0.0006322311    1.287    0.223
       282  -9.7437    134.7761    238.2188   8.7706091327e+01   6.9381330269e+00    0.1778138   0.09493039 -40.24 0.0008853084    2.482    0.597
       283 -11.7179     12.1736     23.5480   8.2003217914e+01   7.0253978685e+01    0.6491136    0.2455237   5.75  0.002700594    3.851    0.740
       284 -10.0679      1.6430     25.7367   8.8666543741e+01   7.0498012488e+01     0.193468    0.1092204 -48.54 0.0005734798    1.371    0.271
       285  -9.2762    219.2686     25.3383   2.4733153100e+01   2.7184629430e+01     0.119502    0.1002382  29.54 0.0003819403    1.598    0.374
       286 -10.2068    160.1467    235.7959   8.2213255669e+01   3.3538789450e+00     0.174254    0.1316541  14.84 0.0003924038    1.336    0.251
       287 -11.5149     30.4637    234.0684   1.0810832542e+02   2.1868380364e+01    0.4158359    0.1484234  83.68  0.001760499    3.778    0.735
       288  -9.7686    106.8661     22.6687   4.2388209549e+01   5.5134135323e+01    0.2673763     0.154121 -36.83  0.001268693    1.925    0.481
       289 -10.9565    100.4901     21.7314   4.3737539982e+01   5.6691659771e+01    0.5653615    0.2847772  42.55  0.002565124    1.800    0.444
       290 -10.1961     94.2387     21.9839   4.5635129338e+01   5.8041684531e+01    0.1953065    0.1901252  76.09 0.0006027242    1.261    0.207
       291  -9.8715    186.2034     22.2649   2.7665776859e+01   3.5485440140e+01    0.1960552    0.1439941 -72.01  0.001054084    1.377    0.274
       292 -10.6294     87.0237     20.9779   4.7423505588e+01   5.9699635793e+01    0.3992861    0.1986131  35.12  0.001783569    2.005    0.501
       293 -10.8878     59.2310     20.7749   5.7457966825e+01   6.4981494742e+01    0.3303141    0.2173283   0.67  0.001237295    1.616    0.381
       294 -10.2498    120.2320     20.9175   3.8456625467e+01   5.2177602235e+01     0.185505    0.1802389 -77.63 0.0002904374    1.168    0.144
       295 -10.5386     35.4871    161.4893   1.0128040898e+02   3.6966006214e+01    0.2130938    0.1975731  63.80 0.0006046494    1.157    0.135
       296 -10.5094     73.8628     16.2141   4.9729776697e+01   6.2918460128e+01    0.4931232    0.1616138  41.22  0.001913003    2.783    0.641
       297 -10.9610     66.8637     20.8375   5.4431011069e+01   6.3647446017e+01    0.2744113     0.220364  50.78  0.001631991    1.506    0.336
       298  -9.5878    177.2381    235.0000   7.8664521116e+01   7.9516742112e-01    0.1477886    0.1059164 -37.49 0.0008857254    1.630    0.387
       299  -9.5423    221.3137    234.3532   7.0106136206e+01  -5.7078251812e+00    0.1282915    0.0776508   3.88 0.0007045551    1.733    0.423
       300 -10.7940     86.7803    232.8963   9.6954804177e+01   1.5055056994e+01    0.2553894    0.1189242  55.08  0.001231501    2.101    0.524
       301 -10.0930     38.3098    232.4613   1.0653130463e+02   2.1307416814e+01    0.1806431    0.1294618  89.58 0.0004814758    1.299    0.230
       302 -10.1255     24.2080    232.1493   1.0916201315e+02   2.2897532161e+01    0.1670159    0.1382349  45.56 0.0005961343    1.330    0.248
       303  -9.0968     58.4804    229.4939   1.0237806796e+02   1.9476452279e+01    0.1204975   0.09504066  61.54 5.221539e-05    1.004    0.004
       304 -11.0121      4.3620    226.2564   1.1250022367e+02   2.5964987761e+01     0.305995    0.1624739 -83.57  0.001991738    1.658    0.397
       305 -11.2594     41.8189     18.6160   6.4237745590e+01   6.7944412276e+01    0.2816915    0.1904975  25.13 0.0008901226    1.396    0.284
       306  -9.1850    190.3417    226.3077   7.4712686138e+01   4.4821155276e-02    0.1334582   0.08720472   8.13 0.0007043295    1.689    0.408
       307 -11.0128    120.8233    225.8479   8.9043406206e+01   1.1278735806e+01    0.1918117    0.1671169  24.75 0.0007362247    1.200    0.167
       308  -9.4504    113.6557     20.2984   3.9763223427e+01   5.3817461708e+01    0.1353844    0.1072023 -76.86 0.0007035353    1.673    0.402
       309  -9.2375    177.9839     17.9725   2.7529973324e+01   3.8012489854e+01    0.1580444    0.1447269 -88.31            0    1.040    0.038
       310 -10.0403    108.3752     17.2191   3.9866235911e+01   5.5390857935e+01    0.2323281    0.1755048  32.19  0.000629465    1.252    0.202
       311 -10.5397    194.9739     16.8673   2.5191840526e+01   3.3924239559e+01    0.1947424    0.1709104 -87.70 0.0003600682    1.009    0.009
       312  -9.9372    152.6445     17.7092   3.1123112901e+01   4.4449084410e+01     0.147493   0.09339655  40.65 0.0002827274    1.682    0.406
       313  -8.9686     82.3290     17.2843   4.7331906523e+01   6.1106937467e+01    0.1402885   0.08863027  24.16 0.0007007497    1.609    0.379
       314  -9.9409    143.7394     16.2457   3.2143299244e+01   4.6851841147e+01    0.1951845    0.1440568  41.09 0.0009099261    1.359    0.264
       315 -10.7086    172.9439     19.9236   2.8758365997e+01   3.9068689537e+01    0.2313839    0.1504127 -68.49  0.001131523    1.730    0.422
       316  -9.7640    116.3201     15.3348   3.7256818685e+01   5.3709869186e+01    0.1926023    0.1351248  11.32 0.0007796957    1.656    0.396
       317  -9.3525    118.4838     12.5007   3.5713722884e+01   5.3471629711e+01      0.13798    0.1199249  47.51  0.000810465    1.006    0.006
       318  -9.7658     66.4545    226.4379   1.0050923524e+02   1.9050726923e+01    0.1207798   0.09937131  59.39 0.0004123463    1.035    0.034
       319  -9.8878     38.2316    217.3886   1.0552693828e+02   2.4285944719e+01    0.1682809   0.08505198  46.98 0.0008866912    1.637    0.389
       320 -11.4688     29.5102    215.6255   1.0715626844e+02   2.5594069478e+01     0.305992    0.1968834  33.79  0.001928478    1.642    0.391
       321 -11.3136    235.9146    214.3305   6.4045858373e+01  -5.1412568671e+00    0.2395052    0.1592902 -18.12 0.0007676409    1.380    0.275
       322 -11.6880    238.6584    210.2724   6.2832769218e+01  -4.9858947477e+00    0.3285892    0.2391095  39.16  0.002036124    1.613    0.380
       323  -9.8167     30.7376     12.4016   6.6806817352e+01   7.0286006608e+01    0.1462356   0.09840642  12.59 0.0004272533    1.353    0.261
       324  -9.5568    169.7666    213.0084   7.6746708769e+01   5.5161608882e+00    0.1606966    0.1126217 -41.43 0.0007761169    1.612    0.380
       325 -10.3049     20.3720    211.9878   1.0874560862e+02   2.7271858667e+01    0.2199396     0.116711  59.28  0.001306671    1.567    0.362
       326 -11.9903      5.4509    208.4930   1.1147644535e+02   2.9381322545e+01    0.3881097    0.2095242 -80.12  0.002104014    1.617    0.382
       327 -10.9040      1.4905    211.0087   1.1235428705e+02   2.9217025199e+01    0.2203503    0.1331859 -80.59 0.0008978921    1.465    0.317
       328 -10.5493     10.9566    207.8752   1.1037052568e+02   2.9012720572e+01    0.1876988    0.1535478 -85.49 0.0005973416    1.237    0.191
       329 -10.5519    246.4773    202.4790   6.0044646304e+01  -5.0446157586e+00    0.1965625     0.151732 -42.96  0.001156411    1.764    0.433
       330  -9.2840    188.2381    204.9706   7.1536877648e+01   3.7439078882e+00    0.1591103    0.1113298 -36.88 0.0005313905    1.541    0.351
       331 -10.5746    175.3389    202.3204   7.3757961922e+01   6.4023376117e+00      0.24134    0.2073322  34.22 0.0004409717    1.122    0.109
       332 -11.0129     19.9758    200.1284   1.0808787826e+02   2.9782471537e+01    0.4870421    0.1531312 -73.03  0.002218986    2.775    0.640
       333  -9.9247    117.0993    201.5043   8.6554019681e+01   1.6581213321e+01    0.2121095    0.1224115  38.95 0.0007628283    1.544    0.352
       334  -9.3524    238.6730    200.6620   6.1076337774e+01  -3.6582304781e+00    0.1346171   0.08327582   1.05 0.0007051681    1.728    0.421
       335 -11.6500     10.6036    216.7681   1.1090329535e+02   2.7245436443e+01    0.3011146     0.227111  36.76  0.002193575    1.487    0.327
       336 -11.5073     16.1506    193.0493   1.0843060534e+02   3.1659546262e+01    0.3940468     0.223042  31.04  0.002233298    1.919    0.479
       337  -9.4923    222.2999    192.3826   6.2505817058e+01   9.6724880505e-02    0.1414583   0.09042687  -1.62 9.348101e-05    1.774    0.436
       338 -10.2221    244.7160    188.0425   5.7635342148e+01  -2.7598330620e+00    0.1825455    0.1402742 -13.28  0.000476779    1.099    0.090
       339  -9.3314    211.6936    187.6796   6.3625670570e+01   2.5962883763e+00    0.1406686   0.09540424   1.62 0.0005296097    1.637    0.389
       340  -9.3821      2.3296    187.3202   1.1099589155e+02   3.4085872349e+01    0.1075148   0.07785952 -54.29 0.0005337218    1.690    0.408
       341  -9.5808     61.6363    184.7859   9.7407323234e+01   2.8498740363e+01    0.1859428    0.1143291 -84.45 0.0009448898    1.691    0.409
       342 -11.5570     15.7628    182.0322   1.0776955005e+02   3.4109798222e+01    0.4284037    0.2152231  75.85  0.001732718    1.904    0.475
       343 -10.4620    168.1667    183.4849   7.1875627831e+01   1.1121386961e+01    0.2919281    0.2303348  79.91  0.001442538    1.922    0.480
       344  -9.7938     58.9705    181.5216   9.7675288038e+01   2.9584311048e+01    0.1914214    0.1223484  36.96 0.0006252455    1.550    0.355
       345  -9.8601    244.5746    178.1749   5.5739230378e+01  -1.2914783331e+00    0.1918414    0.1059701 -22.07  0.000951699    1.781    0.439
       346 -10.5289     46.6882    177.4922   1.0019798682e+02   3.1996710694e+01    0.2543601    0.2146411  85.49  0.001033233    1.037    0.036
       347 -10.7223     18.2574    172.7953   1.0651595593e+02   3.5968561212e+01    0.3035159     0.143444  57.14  0.001544555    2.042    0.510
       348 -12.2618     49.8349    161.9786   9.7649201870e+01   3.5282448008e+01     1.412734    0.5740843  32.33  0.006090576    2.500    0.600
       349 -10.4291      5.0021    168.5230   1.0926524837e+02   3.8028470343e+01    0.1582727    0.1118525  33.94  0.001018318    1.586    0.370
