#   1 NUMBER                 Running object number                                     
#   2 MAG_AUTO               Kron-like elliptical aperture magnitude                    [mag]
#   3 X_IMAGE                Object position along x                                    [pixel]
#   4 Y_IMAGE                Object position along y                                    [pixel]
#   5 X_WORLD                Barycenter position along world x axis                     [deg]
#   6 Y_WORLD                Barycenter position along world y axis                     [deg]
#   7 A_WORLD                Profile RMS along major axis (world units)                 [deg]
#   8 B_WORLD                Profile RMS along minor axis (world units)                 [deg]
#   9 THETA_WORLD            Position angle (CCW/world-x)                               [deg]
#  10 FWHM_WORLD             FWHM assuming a gaussian core                              [deg]
#  11 ELONGATION             A_IMAGE/B_IMAGE                                           
#  12 ELLIPTICITY            1 - B_IMAGE/A_IMAGE                                       
         1 -18.0011    147.1035    123.5319   7.2300526135e+01   2.8090919188e+01     4.788154      2.48771 -41.85   0.01874556    1.949    0.487
         2 -17.8763     51.9574    123.8571   9.9978523844e+01   4.4986996835e+01     4.954852     2.141165  28.24   0.02011562    2.545    0.607
         3 -19.1410     73.8678    197.7883   1.0528737106e+02   2.3824708112e+01     5.914381     5.752875 -11.92   0.03430424    1.260    0.206
         4 -12.0466    210.6207      7.1931   3.2662766799e+01   3.2066088210e+01    0.1474521    0.1154718 -23.48 0.0009476437    1.686    0.407
         5 -12.2624    144.4582      5.4758   3.9403800220e+01   4.7578407044e+01    0.2477699    0.1112275  82.01   0.00104454    2.529    0.605
         6 -11.2092    234.3169      3.3440   3.0116471854e+01   2.7446929103e+01    0.1027073   0.08521619  50.06 0.0007048642    1.717    0.418
         7 -11.6902    131.3425      3.7027   4.0833678388e+01   5.0832373105e+01    0.1284575    0.0886185 -75.56 0.0004971173    1.667    0.400
         8 -12.2680    125.4701    220.5440   9.6345483759e+01   1.0859876913e+01    0.3008781    0.2143546 -46.11  0.001442956    1.583    0.368
         9 -11.3114    172.2177    249.8491   9.0697160324e+01  -1.6666069393e+00    0.1672675    0.1283982   0.77 0.0004730107    1.354    0.262
        10 -13.9198    158.3956    172.2274   8.0448297173e+01   1.5148900979e+01    0.3688498    0.2956997 -81.70  0.001545352    1.642    0.391
        11 -14.0333    160.6088    169.8053   7.9453324779e+01   1.5241151542e+01    0.4637454    0.2659729 -57.29  0.001922958    2.072    0.517
        12 -11.9116      9.3793    172.2598   1.1836896657e+02   3.7258422369e+01    0.1960984     0.152673 -70.33  0.000530707    1.207    0.171
        13 -12.3739     27.8928    171.0150   1.1363996364e+02   3.5874006441e+01    0.2443162    0.1857725  89.86  0.000448144    1.153    0.133
        14 -12.2600     27.0495    166.6385   1.1339970386e+02   3.7024157437e+01     0.258139    0.1729713 -70.86   0.00134776    1.312    0.238
        15 -12.0657     88.5238    240.9458   1.0693495824e+02   1.2461803949e+01    0.4354157    0.1661935  33.37  0.001852003    2.487    0.598
        16 -10.9379    115.3077    224.2824   9.9131043583e+01   1.1736019839e+01    0.1267595    0.1036382  -0.04 0.0006978551    1.562    0.360
        17 -13.2721     32.4804    167.9386   1.1212946788e+02   3.6159556466e+01    0.4107156    0.2293148 -70.73  0.002073275    1.583    0.368
        18 -12.5764    181.9694    218.9878   8.3912909481e+01   1.9258290990e+00    0.1589859    0.1411467   7.87 0.0003947449    1.026    0.025
        19 -12.4913    173.0729    218.4983   8.5674266268e+01   3.4433578948e+00    0.2063467    0.1208791  34.77 0.0007617104    1.559    0.358
        20 -11.7444    139.1312    217.7221   9.2883241990e+01   9.1809510168e+00    0.1982268    0.1831847 -82.34 0.0004544583    1.243    0.196
        21 -12.8715     20.0016    179.5241   1.1641059447e+02   3.4591161984e+01    0.5510774    0.1612542  50.54  0.002066527    3.530    0.717
        22 -13.5326    177.3014    215.2387   8.4244203021e+01   3.3379426062e+00    0.2637128    0.2310389   1.84  0.001082093    1.082    0.075
        23 -11.7485    116.8123    238.8678   1.0068976106e+02   8.6594849272e+00    0.3651974    0.1900076 -67.13   0.00171545    2.554    0.608
        24 -12.2334     28.3462    160.0920   1.1234161950e+02   3.8504842091e+01    0.1862209    0.1829456 -26.84 0.0004030452    1.243    0.195
        25 -11.6221      2.3196    159.3919   1.1906424762e+02   4.0872967889e+01    0.2593715    0.1303709  63.23 0.0007935006    2.063    0.515
        26 -13.0526    173.6952    236.0528   8.8350353595e+01   3.2615056148e-01    0.2626762    0.1719432  26.26 0.0009195147    1.381    0.276
        27 -14.8027    184.9747    212.7933   8.2239371080e+01   2.5255610461e+00    0.4877243    0.3245165  45.26  0.002051617    1.611    0.379
        28 -15.4629    146.9133    202.7687   8.8725839533e+01   1.0853343289e+01    0.9564986    0.5745066  52.15  0.003092426    1.858    0.462
        29 -11.1647    218.2978    153.6874   6.4301942469e+01   7.5515333213e+00    0.1323277    0.1075247 -70.17  0.000319145    1.602    0.376
        30 -13.2758    155.3438    213.7176   8.8676361286e+01   7.2550585795e+00    0.3448869    0.2285913  43.14  0.001015439    1.437    0.304
        31 -13.7498    180.4146    150.8603   7.1074486689e+01   1.5312674140e+01    0.3510023    0.2785772  74.00  0.001624826    1.638    0.390
        32 -14.0254    171.5595    144.5035   7.1575331593e+01   1.8421095817e+01     0.433367     0.274776  25.75  0.001292292    2.049    0.512
        33 -14.7929    165.1187    148.9786   7.4007041972e+01   1.8792911463e+01    0.5841436    0.3568583  56.66  0.002450765    1.956    0.489
        34 -13.8433    159.2541    149.5020   7.5463715166e+01   1.9874621104e+01    0.3179195    0.2909547  67.99 0.0005687751    1.182    0.154
        35 -12.0726    180.2339    244.3014   8.8288058684e+01  -1.9817798650e+00    0.1918635    0.1540521 -19.10  0.000645456    1.300    0.231
        36 -14.3879    153.2453    210.9117   8.8675054459e+01   8.1493820417e+00    0.8715333    0.4957297 -11.77  0.002906676    4.426    0.774
        37 -11.4014    128.0544    234.8308   9.7760050057e+01   7.6779050358e+00    0.2397918    0.1677655 -18.22  0.001228154    2.116    0.527
        38 -11.8603     31.9195    232.3618   1.1789924274e+02   2.1511434396e+01    0.3068181     0.181744 -63.18  0.001808377    1.839    0.456
        39 -14.8117    166.7328    181.3179   8.0359513173e+01   1.1688223576e+01    0.5777813    0.4357617  11.43  0.002867575    1.552    0.356
        40 -12.4832    117.7378    213.3396   9.7055048498e+01   1.3591548939e+01    0.3328068    0.2239348  42.22 0.0007957824    1.340    0.254
        41 -13.7297    159.9656    137.3689   7.2555151821e+01   2.2348406887e+01    0.4690872    0.2096159 -42.27  0.001584214    2.246    0.555
        42 -12.0342    113.5030    212.5541   9.7913887297e+01   1.4444167319e+01    0.2779849    0.1933073  32.51 0.0005931697    1.394    0.282
        43 -14.8745    117.4231    131.9119   8.2013893428e+01   3.2352493202e+01    0.7448751    0.4941385 -84.58   0.00287601    2.456    0.593
        44 -11.7572     20.0627    233.3417   1.2031091055e+02   2.2598313195e+01    0.1863375    0.1427613 -80.57  0.001293019    1.308    0.235
        45 -13.6970    125.8176    131.4164   7.9630728345e+01   3.0791671460e+01     0.336265    0.2563389 -29.78  0.001036041    1.497    0.332
        46 -11.5790    154.7565    230.7736   9.1478519904e+01   4.1947233307e+00    0.1771798    0.1419774  50.77 0.0004657358    1.328    0.247
        47 -13.4957    143.4205    211.5361   9.0957543867e+01   9.6870505574e+00    0.3080011    0.3067568  -2.10   0.00159348    1.101    0.091
        48 -14.7893    169.0351    205.9312   8.4390367380e+01   6.4253746079e+00    0.5046586    0.3489744  42.26  0.002094737    1.416    0.294
        49 -13.7931    119.9309    120.8018   7.8657771846e+01   3.4427914988e+01    0.3884773    0.2800695 -41.83 0.0008641675    1.408    0.290
        50 -11.7090    199.0031    119.9711   6.0411514681e+01   1.7611085767e+01    0.2355507    0.1739197 -70.31  0.001011308    1.664    0.399
        51 -16.2115     24.4186    150.0466   1.1225230804e+02   4.1357845589e+01     1.750347     1.384345  18.31   0.01053554    1.535    0.349
        52 -14.3358     12.2987    114.2926   1.1126321994e+02   5.1110746078e+01    0.4471997    0.1658379 -55.33  0.001988411    2.133    0.531
        53 -12.7944    185.0798    236.1628   8.6074585092e+01  -1.4164585687e+00     0.188741    0.1491106   8.92 0.0002667909    1.167    0.143
        54 -11.1287      6.4215    202.6820   1.2121371877e+02   3.0500522799e+01    0.3221105    0.1215503 -87.89   0.00145774    2.538    0.606
        55 -14.4889     89.0066    110.2537   8.5095513547e+01   4.2765911419e+01     0.504967     0.372615 -25.19  0.001854612    1.608    0.378
        56 -13.3700     78.3892    105.1342   8.7201733811e+01   4.5755175643e+01    0.3265523    0.2372784  13.30  0.001063227    1.677    0.404
        57 -10.7127    169.2983    246.7072   9.0828489591e+01  -7.3962281078e-01     0.116887   0.09226456  54.76 0.0002576487    1.564    0.361
        58 -11.8153     14.2119    201.7788   1.1948090604e+02   2.9984325402e+01    0.1788204    0.1351991  73.31 0.0009290812    1.079    0.074
        59 -12.3988    213.0824    200.8938   7.4550878285e+01   9.5424089044e-02    0.2557511    0.2056975  85.56  0.001356702    2.324    0.570
        60 -14.6177     75.1639    111.2266   8.9746163191e+01   4.4836221051e+01     0.508239    0.4509042  28.86  0.001748421    1.183    0.155
        61 -14.4236    127.2798    196.3566   9.2195143513e+01   1.5611796914e+01    0.5948527    0.4747791   2.41  0.003069439    1.568    0.362
        62  99.0000    105.3039    233.8164   1.0254435803e+02   1.1386289499e+01    0.7692704    0.2706361  52.54   0.00266475    3.706    0.730
        63 -12.9742     58.2533    100.2655   9.2804452566e+01   4.9887810279e+01    0.3604906    0.3141449 -61.50  0.001036891    1.144    0.126
        64 -14.7851     60.0386     96.0230   9.1133013221e+01   5.0627961583e+01     1.109204    0.3159913 -52.73  0.002648844    3.102    0.678
        65 -17.6797    109.4298    146.2299   8.7381494009e+01   3.0461829756e+01     2.904554     2.044477  72.14   0.01230229    1.878    0.467
        66 -14.6131     80.0184     99.8052   8.5294706921e+01   4.6712684765e+01    0.5410652    0.3820975  55.73  0.002567165    1.704    0.413
        67 -14.0576     72.4098     97.8321   8.7319332241e+01   4.8391487465e+01    0.4266236    0.2999235 -11.60    0.0019806    1.885    0.469
        68 -12.6520     69.0408     96.2165   8.8047908294e+01   4.9278564501e+01    0.2543381    0.2131558  33.48 0.0006810029    1.248    0.199
        69 -11.9406      1.4590    101.4938   1.1306255037e+02   5.4816028559e+01    0.1247459    0.1011152 -63.51 1.457561e-05    1.004    0.004
        70 -13.9561    123.9649    195.5140   9.2843104366e+01   1.6368237792e+01    0.5405649    0.3524056  47.16   0.00178779    1.480    0.324
        71 -14.2011    190.4950    190.4849   7.7054327489e+01   5.6484241147e+00    0.4170854    0.2439254  44.78  0.001538894    1.809    0.447
        72 -11.4580    214.4947     91.4987   5.1263920227e+01   1.9474023206e+01    0.1391444    0.1248864 -58.75 -0.0002031795    1.005    0.005
        73 -11.6498     20.4786     91.4601   1.0455767757e+02   5.5937223130e+01    0.1295566    0.1094718 -50.46  9.06991e-05    1.008    0.008
        74 -12.5547    121.2684    218.9098   9.7053804662e+01   1.1869939972e+01    0.4018964    0.2309167 -57.93  0.001945356    1.949    0.487
        75 -12.5761    137.0862     87.2348   6.5190238635e+01   3.7834991311e+01    0.4974824    0.2105059 -36.70  0.001215451    2.600    0.615
        76 -12.9347     71.5626     87.4018   8.4785181327e+01   5.0850450029e+01     0.326864    0.1406891  29.84  0.001228259    2.669    0.625
        77 -12.7335    113.7593    228.8701   1.0007953333e+02   1.1063105574e+01    0.3353386    0.2890709  39.39  0.002066485    1.062    0.059
        78 -12.9081     53.3471     84.9083   9.0665314303e+01   5.4031581211e+01    0.5156783     0.333526  39.56  0.002613759    1.701    0.412
        79 -11.4879    172.1563     80.1406   5.5640384045e+01   3.0953974979e+01    0.2093001    0.1976451  33.14 0.0003879645    1.191    0.160
        80 -11.3171    153.0352     80.2979   5.9562997972e+01   3.5426833018e+01    0.2086316    0.1876418  63.21 0.0004098812    1.087    0.080
        81 -11.1323    105.2207     79.4167   7.1506692379e+01   4.6320780249e+01    0.1920614     0.139875  55.04 0.0002401327    1.477    0.323
        82 -12.5870    156.1088    198.1228   8.5851357083e+01   1.0187543156e+01    0.2130635    0.1846013   4.24 0.0004055201    1.209    0.173
        83 -12.6353     59.0647     76.8338   8.6260362053e+01   5.4992402745e+01    0.1994578    0.1908229  67.75 0.0005636059    1.260    0.206
        84 -11.5586    126.1528    224.6158   9.6772396405e+01   9.9416365465e+00    0.1908233    0.1577003  34.57 0.0004162516    1.103    0.093
        85 -12.5617    114.8701     74.9629   6.7381888906e+01   4.5124047172e+01    0.4567023    0.2819802   4.17  0.001557666    3.610    0.723
        86 -13.0557     75.4674     75.6500   7.9957736386e+01   5.2680007003e+01    0.2661095    0.2629918  18.06 0.0005901827    1.122    0.109
        87 -12.1162     50.4824     75.9815   8.9276934942e+01   5.6335248401e+01    0.2114004    0.1246629 -51.33 0.0008954333    1.599    0.375
        88 -11.5565    125.1440     73.3569   6.4148662639e+01   4.3139767811e+01    0.2139893    0.1845003  56.86  0.001128328    1.148    0.129
        89 -10.5914    120.2887     72.2921   6.5095337950e+01   4.4420635318e+01    0.1449691    0.1148371  13.02 0.0003249559    1.545    0.353
        90 -12.2811     87.0418     68.6811   7.3818936798e+01   5.1969192042e+01    0.1992433    0.1813542  22.75 0.0004575505    1.060    0.056
        91 -15.3805    189.4870    193.9741   7.7919084575e+01   5.1743720752e+00    0.7298557    0.4163826  34.15  0.001797485    1.728    0.421
        92 -14.3795     35.9233    192.9986   1.1384357008e+02   2.9770149713e+01    0.5670588     0.418156  22.33  0.003310911    1.670    0.401
        93 -12.8941     98.3992     66.0209   6.9353236052e+01   5.0228836589e+01    0.3346414    0.2367518 -64.54 0.0009585912    1.978    0.494
        94 -11.4848    188.1533     65.1370   4.9008209268e+01   2.9689305728e+01    0.1997797    0.1538443 -71.49 0.0004498451    1.320    0.242
        95 -12.4192     45.1321     60.4157   8.6690423938e+01   6.0184015347e+01    0.2422209    0.1847259 -50.29 0.0007317888    1.356    0.263
        96 -11.5954      1.7644     60.8345   1.0564514360e+02   6.3894496467e+01    0.1766899    0.1237427 -41.92 0.0003352187    1.148    0.129
        97 -14.1519    159.7047    192.5397   8.4042278958e+01   1.0678384143e+01    0.3967116    0.2682714 -46.72  0.001018726    1.545    0.353
        98 -10.9572     10.1676    229.1773   1.2199631552e+02   2.4460035661e+01    0.3925264    0.1604279  59.87  0.002036077    2.103    0.524
        99 -11.6516    138.9487     56.4947   5.5760149378e+01   4.2754650369e+01    0.2149622    0.1351246  57.36 0.0004100607    1.504    0.335
       100 -14.7849    175.5286    187.5590   7.9638253132e+01   8.8391469321e+00    0.5437425    0.3507208  14.87  0.002443112    2.020    0.505
       101 -11.3725    224.4816     55.5279   4.1857537529e+01   2.3006992319e+01    0.1298283     0.111445 -68.18 6.265028e-07    1.026    0.025
       102 -13.2788    176.4693    183.4700   7.8650313149e+01   9.4753254095e+00    0.2552477    0.2159081 -73.95 4.407172e-05    1.527    0.345
       103 -11.2588     65.5257     52.5430   7.5909628475e+01   5.8678110895e+01    0.1332172    0.1201909   0.97 1.830075e-05    1.023    0.023
       104 -11.9597    198.3080     46.3172   4.2921927229e+01   3.0110628742e+01    0.1258148    0.1035476  33.47 0.0002583014    1.634    0.388
       105 -12.3076    228.0270    192.1941   7.0179411011e+01  -7.6169412805e-01    0.2127792    0.1644644 -27.98 0.0002640721    1.163    0.140
       106 -12.0744    165.1741    238.6668   9.0487396495e+01   1.1987702705e+00    0.1911742    0.1748111 -57.39 0.0005078224    1.374    0.272
       107 -12.0652     26.9010     36.1779   8.6379051073e+01   6.6717407520e+01    0.2485761    0.1239164 -26.66  0.001233619    2.128    0.530
       108 -12.1839     11.9194     36.6649   9.3993333809e+01   6.7998755968e+01    0.2240628    0.1598734 -50.35  0.001464428    1.393    0.282
       109 -11.9211     43.9564     34.4793   7.7838185511e+01   6.4914861928e+01    0.1818985    0.1125718  30.30  0.000529598    1.556    0.357
       110 -11.6485    106.5524     32.0279   5.5424414922e+01   5.3651364884e+01     0.192678    0.1327998 -29.11  0.001026566    1.589    0.371
       111 -11.6524     39.0640     28.9684   7.7769913592e+01   6.6425770261e+01    0.1956284    0.1274043  -3.82 0.0005590574    1.621    0.383
       112 -12.5424    117.0085    190.7031   9.3724455199e+01   1.8633882799e+01    0.4554444    0.2997433   8.94  0.001503745    2.398    0.583
       113 -10.9988     20.4182     23.7493   8.4673246974e+01   6.9421716079e+01    0.1673989   0.08901878 -31.88 0.0009469246    1.674    0.403
       114 -12.3358    172.5706     22.2710   4.0230569794e+01   3.9182420365e+01    0.2418822    0.1143232 -37.84  0.001138553    2.146    0.534
       115 -13.5586    188.8862    221.3429   8.2903840453e+01   4.3274563429e-01    0.2391164     0.184621 -34.48  0.001358351    1.347    0.258
       116 -11.4782    191.4902     21.4837   3.7760975486e+01   3.4823113614e+01    0.1282825    0.1092099 -87.92  0.000810201    1.030    0.029
       117 -12.4082    217.5560     14.3799   3.3625385778e+01   2.9776083542e+01    0.2486547   0.09398144  89.59 0.0009581956    3.510    0.715
       118 -14.3792    171.2748    158.9886   7.4805754574e+01   1.5446666913e+01    0.5043086    0.2704742 -57.68  0.001949113    2.391    0.582
       119 -14.9141    180.2085    179.2020   7.7015687248e+01   9.6383404815e+00     0.506641    0.3956747 -39.67  0.002227008    1.274    0.215
       120 -15.3326    174.6400    174.9526   7.7367122663e+01   1.1515848133e+01    0.5978351    0.5063484  41.53  0.001452382    1.197    0.165
