#   1 NUMBER                 Running object number                                     
#   2 MAG_AUTO               Kron-like elliptical aperture magnitude                    [mag]
#   3 X_IMAGE                Object position along x                                    [pixel]
#   4 Y_IMAGE                Object position along y                                    [pixel]
#   5 X_WORLD                Barycenter position along world x axis                     [deg]
#   6 Y_WORLD                Barycenter position along world y axis                     [deg]
#   7 A_WORLD                Profile RMS along major axis (world units)                 [deg]
#   8 B_WORLD                Profile RMS along minor axis (world units)                 [deg]
#   9 THETA_WORLD            Position angle (CCW/world-x)                               [deg]
#  10 FWHM_WORLD             FWHM assuming a gaussian core                              [deg]
#  11 ELONGATION             A_IMAGE/B_IMAGE                                           
#  12 ELLIPTICITY            1 - B_IMAGE/A_IMAGE                                       
         1 -12.9498    203.1484     33.4564   6.0419910589e+01   3.0923234370e+01    0.9166922    0.7696736 -76.57  0.005864305    1.068    0.063
         2 -13.4024    220.4487     15.7529   5.5026002256e+01   2.9311180127e+01    0.8288261    0.6958498  70.64  0.003438181    1.351    0.260
         3 -12.6113      2.6855     17.2971   1.0834066355e+02   7.0220326099e+01    0.5319262    0.4762723 -58.28  0.004170103    2.055    0.513
         4 -12.2417      4.1244      4.5780   1.0227597590e+02   7.1712778874e+01    0.5417599    0.3678824  -7.55   0.00421496    1.071    0.066
         5 -11.6582    102.8887    230.4510   1.2403384008e+02   1.1598977065e+01    0.7782642    0.4961884  13.63  0.003379937    2.679    0.627
         6 -11.9866    179.9695    249.5901   1.1044797762e+02  -4.8020915713e+00     0.805914    0.2790838  37.20  0.003253406    2.595    0.615
         7 -11.9009    179.3250    243.7578   1.0964233983e+02  -3.6957839508e+00     0.507215      0.27635  28.49  0.002445821    1.815    0.449
         8 -10.8777    169.1778    248.8089   1.1253454551e+02  -2.9578548856e+00    0.3510993    0.2444116  -5.88  0.001039983    1.887    0.470
         9 -11.4288    170.8635    244.0926   1.1144258471e+02  -2.3949966777e+00    0.3749093    0.2449685  56.93  0.001487788    1.999    0.500
        10 -10.6987    163.1173    249.9800   1.1396635501e+02  -2.1914577897e+00    0.2907075    0.2031305  41.60  0.001188962    1.317    0.241
        11 -10.6474    143.0002    249.4630   1.1807952744e+02   1.1691004230e+00    0.4904004    0.2283651  54.57  0.001956291    2.858    0.650
        12 -12.1043    149.9869    247.2986   1.1629777688e+02   4.2804116307e-01    0.5424424     0.484032  32.82  0.003396292    1.015    0.015
        13 -10.6554    136.1586    224.9465   1.1584639022e+02   7.1798363833e+00    0.4799021    0.2197673 -52.32  0.001222852    2.319    0.569
        14 -11.5202    133.4653    248.6825   1.1996955854e+02   2.8739269699e+00    0.7261928    0.3464584  42.79  0.003343501    1.845    0.458
        15 -12.1590    135.5900    236.6530   1.1777646066e+02   4.8750474712e+00     1.045847    0.4514717 -59.12  0.004201621    2.840    0.648
        16 -10.8559    109.6023    247.8721   1.2487436434e+02   6.8912076309e+00    0.4102775    0.3037108  56.68  0.002358604    1.246    0.197
        17 -12.7575    124.6594    245.3528   1.2136710812e+02   4.9593557034e+00     1.088596    0.8260195 -57.01  0.006258433    1.463    0.316
        18 -11.6356    112.4139    231.4825   1.2208327443e+02   9.8202188220e+00    0.6405033    0.4765622   4.57  0.002925959    2.028    0.507
        19 -11.2964     99.7507    247.7858   1.2692068039e+02   8.4623059155e+00     0.539453     0.375826  44.62  0.002930217    1.268    0.211
        20 -10.2673     97.1461    239.3354   1.2643140989e+02   1.0616119147e+01    0.3106754    0.2066541  71.78  0.001476643    1.670    0.401
        21 -12.0787    102.2513    238.9216   1.2528857022e+02   9.8954876207e+00    0.6525088    0.4749866 -62.65  0.001130916    1.465    0.318
        22  -9.7196     90.7932    250.4213   1.2907795039e+02   9.3083983474e+00     0.246874    0.2155008  35.95  0.001065585    1.271    0.213
        23 -11.0658     86.6493    248.0723   1.2966245734e+02   1.0414210446e+01    0.4323709     0.373586 -11.41 0.0009212159    1.713    0.416
        24  -9.9023     81.3881    248.1124   1.3074316512e+02   1.1192157267e+01    0.2996479     0.195614 -73.27   0.00112728    1.596    0.374
        25 -10.4247     84.1902    230.2896   1.2809591870e+02   1.4574770563e+01    0.3340463    0.2350727 -57.18  0.001375269    1.528    0.346
        26 -11.0273     83.0554    240.2074   1.2951513842e+02   1.2598275446e+01    0.5710235    0.2623939  55.43  0.002506449    2.235    0.553
        27 -10.9611     91.2710    241.6317   1.2795622135e+02   1.1047171221e+01    0.3980954    0.2939358  31.53  0.001421376    1.482    0.325
        28 -11.4893     87.7920    237.2329   1.2816535557e+02   1.2514527256e+01    0.6510828    0.3560345  61.97  0.002288528    2.012    0.503
        29  -9.2190     56.2456    250.4335   1.3598678372e+02   1.4272009198e+01    0.1665845    0.1422486  67.72 0.0007089326    1.115    0.103
        30 -11.0131     59.6561    246.0289   1.3490736721e+02   1.4726787165e+01     0.525253    0.2978945  76.20  0.002716545    1.880    0.468
        31 -10.7077     68.4545    245.6604   1.3310959244e+02   1.3578675523e+01    0.3901376    0.2646285  79.22  0.001440408    1.438    0.304
        32 -10.5674     50.8326    249.1229   1.3691917245e+02   1.5263788356e+01    0.3187836    0.2872051   3.44   0.00140657    1.720    0.419
        33 -11.3459     49.3565    217.7993   1.3420965433e+02   2.2336686941e+01    0.9064916    0.4143452  42.61  0.002816463    2.044    0.511
        34 -13.0176      5.9160    215.1769   1.4294618508e+02   2.7819279846e+01     1.816602     1.286321  -0.40  0.004227928    2.630    0.620
        35 -12.0799      9.8255    206.7007   1.4151215665e+02   2.9363811665e+01     1.089727    0.6435858   5.70  0.005343472    3.455    0.711
        36 -13.1441     40.4183    244.2368   1.3850972515e+02   1.7623674705e+01     1.421432    0.9568014  74.73  0.004620735    1.267    0.211
        37 -14.1522     29.8214    218.5551   1.3840421354e+02   2.4542734657e+01     1.645674      1.24302 -45.67  0.009997877    1.783    0.439
        38 -11.7694    117.8282    237.7458   1.2177841182e+02   7.6143277531e+00    0.7637402    0.4844301 -21.59  0.003140918    3.094    0.677
        39  -8.9580     63.6909    245.6751   1.3406858785e+02   1.4244624761e+01    0.1862289    0.1696118  73.19 0.0005008075    1.184    0.156
        40 -12.7560     26.0992    247.3890   1.4144941253e+02   1.8689962341e+01    0.9394589    0.7752247  65.59  0.005629815    1.176    0.150
        41 -13.8286      6.1714    245.2857   1.4489764289e+02   2.1314447300e+01     1.831975     1.033593 -77.46            0    1.533    0.348
        42 -10.4524    115.7069    250.4075   1.2392229826e+02   5.4151748242e+00    0.5888016    0.2399244  35.87  0.002479591    2.317    0.568
        43 -11.6993     21.8629    219.6952   1.4012471523e+02   2.5172328425e+01    0.2573079    0.2163985  89.70 0.0004497394    1.135    0.119
        44  -9.9069    156.6518    233.1664   1.1268612370e+02   1.9978116880e+00    0.2571003    0.1315535 -59.35  0.001079191    2.566    0.610
        45 -10.5529    250.0074    230.5199   9.3753891794e+01  -1.1858743210e+01    0.2284798    0.1600975 -44.33  0.001393071    1.631    0.387
        46  -9.4225     56.5534    228.7268   1.3382137792e+02   1.8901687109e+01    0.2919695    0.1534171 -82.13  0.001132088    2.004    0.501
        47  -9.5830     77.1910    220.8305   1.2846193634e+02   1.7756350323e+01    0.2746109    0.1808679  81.93 0.0009431338    1.658    0.397
        48  -9.9188     80.6804    226.6947   1.2841864985e+02   1.5905780687e+01    0.3670671    0.2565693 -38.16  0.001682897    2.014    0.504
        49  -9.6138     78.6635    224.7067   1.2861628324e+02   1.6655751510e+01    0.2513516    0.2080659 -29.36  0.001296146    1.700    0.412
        50  -9.3293     92.3172    226.3097   1.2581158172e+02   1.4196838308e+01    0.2831324    0.1298888  54.98  0.001141907    2.397    0.583
        51  -9.7038    117.3422    224.4663   1.1997475509e+02   1.0507000885e+01    0.2805432    0.2407074 -20.15  0.001085074    1.476    0.322
        52  -9.1488     64.9376    224.3322   1.3156124807e+02   1.8735525918e+01    0.3992984     0.168438 -47.70  0.001556452    3.307    0.698
        53  -8.7043     45.6238    225.2115   1.3575190737e+02   2.1123764467e+01     0.167911     0.106055 -65.46 0.0004478518    1.538    0.350
        54  -8.4650    164.4036    224.1793   1.0951726488e+02   2.4307621082e+00    0.1794945    0.1350971 -62.80 0.0004371128    1.609    0.379
        55 -10.8016     98.6778    222.7809   1.2391943610e+02   1.3969160839e+01    0.3136153    0.2676331  60.49  0.001018162    1.068    0.064
        56  -9.1134     87.5979    223.4824   1.2648800784e+02   1.5568274464e+01    0.2584166    0.1732598  59.83  0.001134631    1.454    0.312
        57 -10.3642    141.7187    219.8036   1.1377130572e+02   7.2928973966e+00    0.3913447    0.2712056 -57.78  0.001954149    1.569    0.363
        58 -10.1008     70.4141    219.0081   1.2974133347e+02   1.9170994405e+01    0.4041445    0.2417433 -68.62  0.001961159    1.622    0.383
        59  -9.2902     90.4059    219.5697   1.2534046150e+02   1.6015447631e+01     0.292078    0.1632476  64.34 0.0009532671    2.155    0.536
        60  -8.3030    156.2641    218.6757   1.1034725429e+02   4.9623334918e+00    0.1362976    0.1113541  79.81 0.0002738785    1.562    0.360
        61  -9.6026    117.1926    215.4739   1.1863691034e+02   1.2517610882e+01    0.3424882    0.2488997  11.71  0.001056632    1.933    0.483
        62  -8.9230    111.6926    215.0943   1.1984124716e+02   1.3542699543e+01    0.1895076    0.1776124 -73.94 0.0003066553    1.100    0.091
        63  -9.4022     88.0078    212.8909   1.2497132562e+02   1.7932303734e+01    0.3258016    0.2017711  78.44   0.00142869    2.040    0.510
        64 -10.6182     56.2967    209.1860   1.3172454703e+02   2.3437376262e+01    0.6969694    0.3847501 -89.43  0.002338941    2.051    0.513
        65  -9.9275     62.7948    208.4268   1.3016273825e+02   2.2729912837e+01    0.3495715    0.3201749  36.24  0.001355056    1.295    0.228
        66  -9.4226     63.6560    205.2087   1.2956440962e+02   2.3376999447e+01    0.2558247     0.170204 -72.02 0.0002933961    1.405    0.289
        67  -9.3349     99.0158    209.6967   1.2196024875e+02   1.6904822554e+01    0.4357307    0.1948798  65.04  0.001169852    5.520    0.819
        68  -8.4358     74.4186    208.4785   1.2750405546e+02   2.1047464531e+01    0.1391187    0.1227993  83.92 0.0001949575    1.015    0.015
        69  -8.4620    134.4778    207.5376   1.1334538986e+02   1.1250095384e+01    0.1441236    0.1397768  31.88 0.0008083659    1.059    0.056
        70 -12.7886     23.8789    225.2202   1.4017492434e+02   2.3713430400e+01    0.5390871    0.3797446 -49.28 0.0008013815    1.883    0.469
        71 -10.2442    247.9983    206.5017   8.9736892810e+01  -7.7519406073e+00    0.3403461    0.1609892  42.03  0.001635136    2.485    0.598
        72  -8.4720     89.5799    205.2719   1.2351807403e+02   1.9476773554e+01    0.1561638   0.09807236  64.80 0.0004957222    1.798    0.444
        73 -10.6724    106.8470    203.4443   1.1914813618e+02   1.7056932961e+01    0.2859986    0.2371383 -67.52  0.001527936    1.206    0.171
        74 -11.0796      2.9346    199.5607   1.4236496693e+02   3.1641993675e+01    0.5285819    0.2051429 -74.81  0.002548816    2.063    0.515
        75 -11.0083      2.4555    192.6746   1.4191244475e+02   3.3277415124e+01    0.5451729    0.2902855  76.88  0.002923106    1.806    0.446
        76  -9.3249      1.4769    182.5051   1.4126356962e+02   3.5739720229e+01    0.2242028    0.1434865 -82.64 0.0006320376    1.240    0.193
        77 -10.2119      3.6038    179.1546   1.4048868554e+02   3.6357008783e+01    0.3011914    0.1869465  28.84  0.001773345    1.966    0.491
        78  -8.9035     83.5822    201.6932   1.2441574748e+02   2.1277597000e+01    0.1884033    0.1301318 -79.29 0.0002978266    1.495    0.331
        79 -10.1433     74.9611    200.1438   1.2624378799e+02   2.2964713177e+01    0.2383076     0.189414 -80.59  0.000414787    1.183    0.155
        80  -8.0448     96.6941    199.2776   1.2091344583e+02   1.9753758910e+01     0.148103    0.1057685  70.33 0.0001909879    1.550    0.355
        81 -11.6388     53.9233    193.6342   1.3037214757e+02   2.7497434308e+01     0.495764    0.3520765 -55.46  0.001156301    1.438    0.304
        82 -10.5908      3.8358    186.5726   1.4109912057e+02   3.4586464722e+01    0.3213241    0.2363585 -81.68    0.0019661    1.072    0.067
        83 -10.1432    249.7486    194.0394   8.7090008679e+01  -5.8896447019e+00    0.3001867    0.2008527 -13.73  0.001632919    1.663    0.399
        84  -9.5980     33.9452    192.4674   1.3490839885e+02   3.0210340782e+01      0.31231    0.2109959  86.35 0.0006451841    1.373    0.272
        85  -9.3091     30.5364    193.4273   1.3579314225e+02   3.0357411216e+01     0.183182    0.1034265 -63.23 1.665064e-06    1.580    0.367
        86  -9.8728     25.9787    192.6871   1.3674961500e+02   3.1025694847e+01    0.2963051    0.1936102  48.41 0.0009934703    1.547    0.354
        87  -9.3583     21.5930    192.8437   1.3775150603e+02   3.1442773110e+01    0.3224461    0.1654686  76.69 0.0007957018    2.153    0.536
        88  -9.1954    191.5387    191.8216   9.7689108903e+01   4.1289133707e+00    0.2050231    0.1919861  21.63 0.0006673326    1.081    0.075
        89  -8.1992     38.6349    192.2617   1.3379998007e+02   2.9722929965e+01    0.1387434   0.08652861  65.79 0.0006980565    1.642    0.391
        90  -8.5339     14.6444    190.1744   1.3904199722e+02   3.2762318329e+01    0.1719088   0.09336662 -65.90 0.0003085819    1.564    0.361
        91  -9.2027     75.8779    186.4070   1.2400930425e+02   2.6197908453e+01    0.4421737    0.2381892  81.63  0.001490634    3.171    0.685
        92  -8.4537     40.6284    188.3151   1.3286835655e+02   3.0451676102e+01    0.1462238   0.08815625  68.53            0    1.786    0.440
        93 -10.1772      9.6457    186.8217   1.3983981747e+02   3.4020062334e+01    0.3894781    0.1938458  86.30  0.001905112    2.007    0.502
        94  -9.8692     71.2802    187.1213   1.2525887475e+02   2.6702077245e+01    0.2326838    0.1900775  55.01 0.0002594301    1.216    0.177
        95 -11.4773     60.4552    185.6517   1.2772167943e+02   2.8594534423e+01    0.2929748    0.2514415 -50.53 0.0005363574    1.282    0.220
        96  -9.1762    107.0123    185.6458   1.1610707713e+02   2.1299868847e+01    0.2041076    0.1811641  47.86 0.0003101034    1.129    0.115
        97  -8.8373     24.8382    184.0920   1.3610301198e+02   3.3217668186e+01    0.2039782     0.153485  76.18  0.001075471    1.233    0.189
        98  -8.6916     30.2484    183.4709   1.3476145188e+02   3.2802820892e+01    0.1702155    0.1122993  52.07 0.0005347764    1.547    0.353
        99 -10.2130     37.2160    180.0643   1.3268270663e+02   3.2873093509e+01    0.2919814    0.1902032 -58.12 0.0003852743    1.439    0.305
       100  -9.5191     27.1357    179.6270   1.3506318657e+02   3.4068761188e+01    0.2319578    0.1542458 -73.97 0.0001292812    1.263    0.208
       101  -8.2452     47.6433    179.7361   1.3007720043e+02   3.1725226105e+01    0.1309674    0.1022455 -34.52 0.0006983579    1.628    0.386
       102  -8.4525     12.3549    178.3010   1.3840362040e+02   3.5811207488e+01    0.1253484   0.08434514 -46.72  0.000703792    1.705    0.413
       103  -8.2250    105.6943    176.2541   1.1473444761e+02   2.3839128589e+01    0.1504039    0.1136499  71.13 0.0006902324    1.511    0.338
       104 -11.8579    248.3637    172.5623   8.3175932287e+01  -1.8902580970e+00    0.6688924    0.3638034 -40.10  0.003343446    1.564    0.361
       105 -11.5592    245.1121    162.3269   8.1688244259e+01   4.9794613545e-01    0.4677908    0.2718137 -44.31  0.002363442    1.487    0.327
       106 -10.5925    249.3913    161.2089   8.0774285971e+01   3.9926990075e-03    0.3023557    0.2112397 -46.75  0.001587351    1.271    0.213
       107 -10.7595    248.5579    157.4194   8.0156381151e+01   8.3176403136e-01    0.8883016    0.4031615  61.84  0.002939278    5.370    0.814
       108 -10.3184     71.8809    173.5301   1.2298950132e+02   3.0014312468e+01    0.2535731    0.2352812 -67.63 0.0003707051    1.083    0.077
       109 -10.1017     57.0479    173.3716   1.2679878166e+02   3.2119709698e+01    0.3505185    0.2237507  48.85  0.001407645    1.635    0.388
       110  -9.8033     18.1754    172.1093   1.3636876205e+02   3.6779380030e+01    0.3239114    0.1893303  73.54   0.00165769    1.856    0.461
       111 -11.5362     10.3055    157.5152   1.3665805717e+02   4.1004137750e+01    0.4585331    0.2391853  84.49  0.001514455    2.183    0.542
       112 -10.1709     12.4979    153.9710   1.3567839407e+02   4.1685332435e+01    0.2652547    0.1603003 -79.36  0.001166609    1.443    0.307
       113 -10.9188      2.3757    172.2603   1.4012598774e+02   3.8092755604e+01    0.5053647    0.2199214 -86.13  0.002330284    2.221    0.550
       114 -11.7677     11.6046    166.4734   1.3734178928e+02   3.8729170067e+01    0.6229497    0.4259904  46.24  0.002380362    1.602    0.376
       115  -9.7953     12.0890    173.4765   1.3797203476e+02   3.6995879090e+01    0.2596561    0.1398462 -59.02  0.001373716    1.638    0.389
       116  -9.9519     27.4541    171.5006   1.3402806387e+02   3.6029371559e+01    0.3593192    0.1832636 -47.96 0.0004934629    2.115    0.527
       117  -9.2250     51.8331    171.0204   1.2779306378e+02   3.3381939628e+01    0.2178709    0.1981705  48.39  0.000569624    1.210    0.173
       118  -9.7816     38.5367    168.2348   1.3081672805e+02   3.5658895314e+01    0.3575423    0.2051322 -42.02  0.001491205    2.080    0.519
       119 -10.2363     44.2579    165.4344   1.2894366459e+02   3.5703858345e+01    0.3844074    0.2269738 -35.99  0.001443733    2.266    0.559
       120  -8.3116    102.7204    168.2420   1.1398598675e+02   2.6351804169e+01    0.1460579    0.1140161  72.95 0.0006801059    1.449    0.310
       121 -11.3953     79.9314    165.6550   1.1952532579e+02   3.0785289672e+01    0.5458467    0.4597752  12.66  0.002251746    1.463    0.316
       122  -9.6862     81.8391    157.8239   1.1757003836e+02   3.2462053033e+01    0.5051001    0.2177872 -66.02  0.001761118    2.685    0.628
       123  -9.8515     68.1149    166.1256   1.2275412996e+02   3.2427845153e+01    0.2547933     0.193213 -72.67 0.0004384885    1.242    0.195
       124  -9.4207     29.6776    165.0416   1.3265730394e+02   3.7397431032e+01    0.1922834    0.1508133 -71.55 0.0005793876    1.075    0.070
       125  -9.3142     66.9934    161.4157   1.2225436193e+02   3.3777329353e+01    0.2372222    0.1814819 -53.22 0.0003383727    1.249    0.199
       126  -9.6711     23.9942    161.9976   1.3371933223e+02   3.8708482102e+01    0.1976393    0.1634123 -70.68 0.0003884885    1.054    0.051
       127  -8.3909     43.2616    161.2984   1.2859921211e+02   3.6855394902e+01    0.1343367   0.09486099 -44.56 0.0001888557    1.509    0.337
       128  -9.8825     28.7608    161.0518   1.3236904093e+02   3.8476752203e+01    0.1966588    0.1833002  89.40 0.0003396552    1.135    0.119
       129 -10.4469      5.1322    166.8473   1.3894373711e+02   3.9168288270e+01    0.2662328    0.1641903 -71.54 0.0009977469    1.285    0.222
       130  -9.0697     46.2875    156.0308   1.2698169174e+02   3.7822211740e+01    0.1953014    0.1630279 -68.47 0.0004574828    1.045    0.043
       131  -8.2579    228.4332    155.4800   8.3111745561e+01   4.6650357967e+00    0.1412135     0.123464 -46.24 7.913568e-05    1.054    0.052
       132 -10.8227     25.2380    154.9188   1.3246963035e+02   4.0333252229e+01    0.5096549    0.1456567  31.53  0.001964528    3.585    0.721
       133  -9.5838     32.6876    153.9410   1.3034533729e+02   3.9841198712e+01    0.1970827    0.1536947 -71.74 0.0005271945    1.093    0.085
       134 -10.7057    249.5344    151.0267   7.8731715559e+01   1.8401754329e+00    0.3658441    0.2423992 -43.47  0.001993533    1.271    0.213
       135  -9.1899     54.3997    151.5991   1.2402137642e+02   3.7942130110e+01    0.3067699    0.1806302 -33.24 0.0007155868    2.270    0.559
       136 -10.6390    240.8418    150.5293   8.0012200458e+01   3.4113709166e+00    0.2689726    0.2099211 -29.38  0.001378717    1.263    0.208
       137 -10.2429     93.9462    150.2741   1.1274798811e+02   3.2361744310e+01    0.3129485    0.2740162  32.58 0.0008630932    1.230    0.187
       138 -11.1724     21.6669    149.2700   1.3265380687e+02   4.2049032934e+01    0.4827922    0.2063793  42.36  0.002178287    2.618    0.618
       139  -9.2258     82.0666    149.0078   1.1578988304e+02   3.4640648888e+01    0.2238321    0.2076958 -72.47 0.0004555635    1.028    0.027
       140 -11.5578     68.0867    144.2022   1.1879979383e+02   3.7952178121e+01    0.7166694    0.4940642  86.51  0.002923394    1.890    0.471
       141  -9.5955     59.1509    146.8505   1.2184656337e+02   3.8517901879e+01    0.4003026    0.2178251 -30.36  0.001544291    2.860    0.650
       142 -12.8228      8.7710    143.2301   1.3532407690e+02   4.4569094956e+01    0.7001629    0.5949374 -14.98  0.004645389    1.481    0.325
       143 -12.7126    244.9473    121.2580   7.3430944101e+01   8.0962943944e+00     1.161428    0.4667348 -48.13  0.004860234    2.171    0.539
       144 -12.2038    247.9536    142.4787   7.7267481310e+01   3.6760931008e+00    0.7592931     0.580406 -47.61  0.004429026    1.120    0.107
       145 -10.9311    247.7704    136.1731   7.6028734256e+01   4.8654829148e+00    0.4451211    0.2974929  44.67  0.002314299    1.798    0.444
       146 -11.5611    249.0087    131.9949   7.5005664205e+01   5.4121063940e+00    0.4396433    0.3480539 -40.74  0.002613582    1.129    0.114
       147  -8.9577    236.0923    145.8771   7.9835814361e+01   5.1257370160e+00    0.1847534    0.1543855 -22.62 0.0005198084    1.285    0.222
       148  -8.6127     87.0003    151.0303   1.1482221544e+02   3.3338071185e+01    0.1805969    0.1638179 -63.50 0.0009609932    1.034    0.033
       149  -9.8689    133.1512    140.9806   1.0020804869e+02   2.7167628120e+01    0.3425845    0.2483597 -60.21 0.0009497466    1.445    0.308
       150 -10.9433     16.6102    140.0665   1.3275769638e+02   4.4721290676e+01    0.2755412    0.2256816  78.63 0.0004064752    1.291    0.225
       151  -9.3482    107.1548    136.0054   1.0595770007e+02   3.3488725188e+01    0.3983847     0.254923 -18.25  0.001483955    2.656    0.624
       152  -9.0677     94.0570    133.1199   1.0897648747e+02   3.6558629674e+01    0.2251264    0.1951923 -21.62 0.0003162722    1.278    0.218
       153 -13.4263      4.1416    124.6124   1.3410888829e+02   4.9307468861e+01     1.187618    0.4613982 -61.17  0.005673343    1.892    0.472
       154  -9.5847     58.8243    128.1433   1.1830207379e+02   4.3177969179e+01    0.1965463    0.1520996 -37.99  0.000478744    1.291    0.226
       155 -10.5938     31.5410    126.8290   1.2632595645e+02   4.6595603766e+01    0.3024617    0.1816323  31.04  0.001572043    1.900    0.474
       156  -9.1888     66.3366    126.3053   1.1563297622e+02   4.2597911158e+01    0.1491753    0.1060985 -25.67 0.0007040033    1.671    0.402
       157  -9.7414     44.2056    129.9106   1.2307176000e+02   4.4530346324e+01    0.2059265    0.1736273 -83.11 0.0005904579    1.239    0.193
       158  -8.1891     47.6963    126.3159   1.2131816575e+02   4.5000625078e+01    0.1362028    0.1042656  78.39 0.0001949492    1.622    0.383
       159 -11.5764     16.4705    122.1048   1.3007218689e+02   4.9025692946e+01    0.3426564    0.1984744  57.72  0.001702267    2.375    0.579
       160  -9.9925     30.5884    119.7506   1.2533065098e+02   4.8373050214e+01    0.1896132    0.1160643 -71.98   0.00095258    1.640    0.390
       161 -12.7439    248.1731    101.3191   6.8971721602e+01   1.1040090530e+01    0.9792951    0.6128573 -36.39  0.005165267    1.639    0.390
       162 -11.7620    248.2180    112.9197   7.1288043835e+01   8.9942660377e+00    0.5069801    0.4249511  48.58  0.003120549    1.464    0.317
       163 -10.1335    232.1060    116.6560   7.4383580537e+01   1.1369366323e+01    0.2470573    0.1701642 -54.03 0.0006741498    1.306    0.234
       164 -12.5831      8.9137    112.5238   1.3081293572e+02   5.1797863802e+01    0.6901407    0.2361955 -52.14   0.00134457    2.179    0.541
       165 -12.2124      2.6847    109.6026   1.3227966803e+02   5.2856498263e+01    0.7981882    0.2002608 -54.64  0.003326987    2.593    0.614
       166  -9.3361    167.5771    112.7470   8.5201923810e+01   2.5927345335e+01    0.3063468    0.2240009  86.80  0.001016532    1.781    0.438
       167  -9.8785     32.8601    115.1546   1.2373628064e+02   4.9236571959e+01    0.1947727    0.1381252 -38.44 0.0008393301    1.345    0.256
       168  -8.9676     59.8484    107.8396   1.1343963273e+02   4.7818348330e+01    0.1790832    0.1621577 -84.43 0.0002677507    1.285    0.222
       169 -10.4106     19.0530    105.7254   1.2635514336e+02   5.2614825914e+01    0.1732195    0.1542085 -40.48 0.0005339991    1.104    0.094
       170 -12.3889     14.4385    100.9302   1.2695485567e+02   5.4039256217e+01    0.4628399    0.2914599 -38.09   0.00208946    1.450    0.310
       171  -8.5038     71.6973    100.2638   1.0770756833e+02   4.7806969497e+01    0.1308164    0.1117658  75.36 0.0002146761    1.521    0.342
       172  -9.7705    249.8277    117.7911   7.2042124896e+01   7.8320085734e+00    0.2209204    0.1844885 -73.11  0.000677082    1.209    0.173
       173 -12.0862      2.3911     76.7482   1.2622460354e+02   5.9973869260e+01    0.7565964    0.1134847 -58.60   0.00267872    3.998    0.750
       174  -9.1158    160.7629     79.0263   7.8053895192e+01   3.3907100240e+01    0.1932028    0.1208438 -41.45 0.0006066514    1.633    0.388
       175 -11.2066      2.3922     46.2330   1.1843968743e+02   6.5744792625e+01    0.3563109   0.09374878 -54.19  0.001528461    3.309    0.698
       176 -11.0367    197.8350    246.1198   1.0628886369e+02  -6.9753815812e+00    0.2817519    0.2219852   3.43  0.001421375    1.213    0.175
       177 -10.8222     73.9634    244.4602   1.3186656629e+02   1.3041007269e+01     0.376386     0.290525 -71.16  0.001791612    1.335    0.251
       178 -10.4286    244.5052    242.4960   9.6825388287e+01  -1.2944096947e+01     0.215239    0.1006123  21.97  0.001040762    2.414    0.586
