#   1 NUMBER                 Running object number                                     
#   2 MAG_AUTO               Kron-like elliptical aperture magnitude                    [mag]
#   3 X_IMAGE                Object position along x                                    [pixel]
#   4 Y_IMAGE                Object position along y                                    [pixel]
#   5 X_WORLD                Barycenter position along world x axis                     [deg]
#   6 Y_WORLD                Barycenter position along world y axis                     [deg]
#   7 A_WORLD                Profile RMS along major axis (world units)                 [deg]
#   8 B_WORLD                Profile RMS along minor axis (world units)                 [deg]
#   9 THETA_WORLD            Position angle (CCW/world-x)                               [deg]
#  10 FWHM_WORLD             FWHM assuming a gaussian core                              [deg]
#  11 ELONGATION             A_IMAGE/B_IMAGE                                           
#  12 ELLIPTICITY            1 - B_IMAGE/A_IMAGE                                       
         1 -15.9610    111.0571    125.3422   8.0654726714e+01   3.5064108747e+01     3.466684     2.487533 -51.81   0.00999391    1.405    0.288
         2 -14.7484    193.6747     74.7772   4.9206359820e+01   2.7259658188e+01     1.597566     1.553829  27.99  0.007005353    1.186    0.157
         3 -13.1439    210.6246     36.7427   3.8056690709e+01   2.8944444587e+01     1.183403    0.6046507 -39.11  0.005976109    1.741    0.426
         4 -12.8869    226.7750     32.0444   3.5567705385e+01   2.6217149189e+01    0.8664806    0.6705695  40.27   0.00557967    1.853    0.460
         5 -16.3251     84.9130     14.1742   5.1628675676e+01   6.0782868977e+01     2.454471     1.868753  34.63  0.008366105    1.225    0.184
         6 -11.7752    249.9771      9.6926   2.9523188650e+01   2.4305677242e+01     0.463622    0.1631965 -34.60  0.002430472    2.428    0.588
         7 -12.5747    125.3254    230.6166   9.5896532889e+01   9.6213300020e+00    0.4240654    0.3205376  29.98  0.002533809    1.136    0.120
         8 -13.3034    129.7995    247.4075   9.7057387550e+01   6.0540771270e+00     1.044686    0.5165955  32.08  0.005400437    1.660    0.397
         9 -12.9636    140.7124    242.5296   9.4111527386e+01   5.4145400493e+00    0.8077884    0.4419499  18.35  0.004086152    1.876    0.467
        10 -14.4268     58.1090    246.9935   1.1247723260e+02   1.5183424227e+01     3.794724    0.6900709  27.36   0.01064123    6.518    0.847
        11 -13.6876      9.0186    113.0474   1.1303037651e+02   5.1584004801e+01     1.993691    0.7909858 -82.72  0.007787236    2.712    0.631
        12 -14.2282     33.4222    190.9944   1.1370918109e+02   2.9916512741e+01     3.166563    0.9588624  57.02  0.009669411    4.896    0.796
        13 -14.9064      5.9673    151.7064   1.1790435495e+02   4.1910875492e+01     2.856267     1.367557 -84.89   0.01165911    1.931    0.482
        14 -13.8128     24.0663    198.8802   1.1666603017e+02   2.8986338272e+01    0.8483627    0.7097768  71.07  0.002734486    1.037    0.036
        15 -11.9957     76.9180    226.2048   1.0645251317e+02   1.7019985533e+01    0.2861593    0.2279385  66.47 0.0005142016    1.287    0.223
        16 -12.0549     86.0667    222.5813   1.0393025837e+02   1.6576724074e+01    0.6085592    0.3664997  83.25  0.001606482    2.468    0.595
        17 -11.2098     44.3918    219.8591   1.1342364789e+02   2.2226276364e+01    0.3168721    0.1393182  56.31  0.001438125    2.319    0.569
        18 -12.5852    161.3638    205.7156   8.4115034927e+01   8.9542663203e+00    0.5808599     0.363319  -3.78   0.00272103    2.109    0.526
        19 -12.6617    176.8826    195.9536   7.9087074338e+01   8.3651061834e+00    0.5986266    0.3958368  37.00  0.002033971    1.528    0.346
        20 -11.6139    184.8005    203.1482   7.8726321032e+01   5.9128378667e+00    0.4950626    0.3713394 -33.47  0.001997225    1.313    0.238
        21 -11.9748    187.4199    196.3116   7.6980048813e+01   6.7058085858e+00    0.4267558    0.3325126  14.34  0.001468231    1.184    0.156
        22 -10.7296    214.0024    202.9804   7.3059708155e+01   1.8335926449e+00    0.3007501    0.2422663 -26.61  0.001905464    1.216    0.178
        23 -12.4895    102.4112    229.2875   1.0091634382e+02   1.3039018735e+01     0.700016    0.1478954  32.18  0.002246378    3.918    0.745
        24 -12.2859    165.7575    186.8928   7.9825663864e+01   1.1802374620e+01    0.3719111    0.3309998  32.19  0.002158156    1.192    0.161
        25 -11.5182     48.0942    179.0848   1.0865179399e+02   3.1219357356e+01     0.371925    0.2661402 -29.84    0.0013005    1.801    0.445
        26 -11.5371     55.0597    173.0771   1.0600891245e+02   3.1887607055e+01    0.2898473    0.2564992 -24.20 0.0004575904    1.313    0.238
        27  -9.9505    110.7841    167.7717   8.9672481884e+01   2.5085431997e+01    0.2036363    0.1740578  67.30 0.0005604904    1.334    0.251
        28 -11.9916    184.2870    162.2707   7.1056738976e+01   1.3399865321e+01    0.6911134    0.4234247  44.91  0.003325891    1.812    0.448
        29 -13.1878     52.8083    159.5595   1.0488139180e+02   3.5558744302e+01    0.5433134    0.3247609 -34.29  0.001612287    2.163    0.538
        30 -10.7977     67.0720    163.2874   1.0121915304e+02   3.2811021610e+01    0.2466392    0.2201044 -59.47 0.0003539944    1.123    0.110
        31 -11.9793     75.4283    156.6139   9.7700575634e+01   3.3332079459e+01    0.5295847     0.483673  19.99  0.001487889    1.143    0.125
        32 -12.2963      1.7141    208.8651   1.2246208568e+02   2.8679331563e+01    0.4587938    0.1768223 -82.45 0.0009852581    2.405    0.584
        33 -11.2819    192.7330    240.6231   8.3250991355e+01  -1.0937141742e+00    0.5326614    0.2477225  18.35  0.002594614    2.253    0.556
        34 -10.8097    176.8800    149.8237   6.9970562902e+01   1.7101848320e+01    0.3490489     0.320787  65.66  0.001979937    1.330    0.248
        35 -12.8092     67.9408    144.0377   9.7817650023e+01   3.7584115825e+01    0.8198494    0.5409519  62.68  0.003033473    1.858    0.462
        36 -11.8462     79.2723    141.2986   9.3772352455e+01   3.6630011753e+01    0.3057521    0.2686389 -47.57 0.0005529812    1.131    0.115
        37 -11.8196     56.6934    129.6760   9.8874637707e+01   4.2783271000e+01    0.6492069    0.2892533 -75.21  0.002192017    3.148    0.682
        38 -11.4238    156.3083    114.9190   6.6346666445e+01   2.8130309428e+01    0.6289585    0.4466831 -42.84  0.003003185    1.366    0.268
        39 -12.9785    151.3236    122.5018   6.9372719997e+01   2.7617934745e+01    0.8629385    0.7795283  11.75  0.003265986    1.165    0.142
        40 -12.9637    161.1396    122.1534   6.7045110135e+01   2.5670750185e+01    0.6988269    0.5497035   2.84   0.00298167    1.570    0.363
        41 -12.5043    140.1219    120.8231   7.1677184038e+01   3.0281325397e+01     1.128415     0.632098 -37.54  0.004610389    1.853    0.460
        42 -13.7523     13.0800    206.3912   1.1975588758e+02   2.8278959129e+01    0.8734699    0.4970791  18.86  0.004063191    2.036    0.509
        43 -12.5446    248.6342    114.6656   5.0497070534e+01   1.0713067595e+01    0.7583771    0.2958678 -48.71  0.003280348    2.671    0.626
        44 -10.1447     53.0060    115.9463   9.7492059984e+01   4.6781157219e+01    0.2182104     0.208178 -75.26 0.0004473967    1.068    0.063
        45  -9.5109    204.5901    110.8338   5.6021149475e+01   1.9067271045e+01    0.3002891    0.1511996  35.69  0.001236975    2.760    0.638
        46 -13.4891    180.1153    106.8253   5.9396343767e+01   2.4686280856e+01     1.081749    0.6891124  29.09  0.004826698    2.100    0.524
        47 -10.9751     65.6621    107.2073   9.0999579277e+01   4.7256035771e+01    0.3039897    0.2138248  12.60  0.001298528    1.657    0.396
        48 -10.7542    134.0807    102.4961   6.8450904868e+01   3.5419135750e+01     0.247606      0.20678 -42.38 0.0007584125    1.187    0.158
        49 -12.8479    248.5826     96.1751   4.6777076330e+01   1.3493160396e+01    0.6996872    0.3661632 -38.44  0.002474099    1.543    0.352
        50 -11.0368    250.0539     86.4188   4.4641535446e+01   1.4668057607e+01    0.3735177    0.1526469 -37.20  0.001809637    1.992    0.498
        51 -12.9499    167.8948     97.4782   5.9439519334e+01   2.9006617672e+01    0.8466161    0.5865047 -65.07  0.003907353    1.805    0.446
        52 -12.6251     42.4317     96.8539   9.7379752369e+01   5.2859891369e+01    0.7530316    0.3375024 -51.40  0.003114962    1.971    0.493
        53 -13.3127    189.6982     90.9207   5.3794056855e+01   2.5478709318e+01    0.9693299    0.6473811  29.31    0.0045788    2.083    0.520
        54 -10.3966    176.4329    241.1457   8.6526326831e+01   8.9834669814e-01    0.2995336    0.1853156 -15.73  0.001440647    1.770    0.435
        55 -12.4007    235.5858     49.3655   3.8460303947e+01   2.2358278135e+01    0.6084236    0.2941886 -46.37   0.00248586    1.690    0.408
        56 -13.7685    241.6680     73.2489   4.2841655328e+01   1.8002938531e+01     1.096636    0.5234053 -46.48  0.003407188    1.744    0.426
        57 -13.4754    229.0601     62.8855   4.1980462047e+01   2.1793774466e+01    0.8914826    0.6434345  51.75   0.00412017    1.678    0.404
        58 -12.8464    212.0435     74.5306   4.6585228628e+01   2.3468131565e+01     0.787169    0.5260584 -48.03  0.002937219    1.331    0.249
        59 -13.6205    210.6590     64.8093   4.4518627906e+01   2.5182229658e+01    0.9400463    0.6151393 -70.02  0.004724686    1.714    0.417
        60 -12.2632     53.1907     88.4412   9.1005328123e+01   5.3573081889e+01    0.7110419     0.294314 -45.27  0.002721004    2.302    0.566
        61 -11.0948    206.7569     89.4023   5.0755516502e+01   2.2216894060e+01    0.3732387    0.2804539 -63.83  0.002005595    1.421    0.296
        62  -9.3433     13.4723     60.0258   1.0141279759e+02   6.4264516498e+01     0.188898    0.1150525 -59.66  0.000411543    1.500    0.333
        63 -11.5922    246.3996     56.8466   3.9021473785e+01   1.9387635806e+01    0.4104283    0.3096833  51.08  0.002681235    1.716    0.417
        64  -9.9473     25.1248     82.8420   1.0143196440e+02   5.8020440335e+01    0.1895448    0.1835921  89.69 0.0004433747    1.178    0.151
        65 -12.2577    195.7786     48.7321   4.2524430066e+01   3.0591148994e+01    0.5569437    0.3581172 -35.04  0.002674468    1.528    0.345
        66 -13.1457    222.5110     48.0456   3.9418651587e+01   2.5074699596e+01    0.6856441    0.4938808 -75.98  0.003412927    1.366    0.268
        67 -13.1284     85.6585    234.4005   1.0529560503e+02   1.4260218343e+01    0.5281015    0.4037896  24.59  0.002450201    1.248    0.199
        68 -14.3316      7.7860    241.2204   1.2257880469e+02   2.1455403994e+01      1.99067    0.9501752  87.32   0.01137016    2.048    0.512
        69 -10.8398     11.3186     43.0970   9.7642003080e+01   6.8087468689e+01    0.4048089    0.2037108  39.22  0.001842289    2.600    0.615
        70 -11.3242    120.7392     28.7687   4.8652171577e+01   5.0817224636e+01    0.5625497    0.3163995 -73.06  0.001765842    3.134    0.681
        71 -13.2870    140.3081    230.5182   9.2567739709e+01   7.5399916869e+00     1.030746    0.3645752  35.83  0.004298166    2.413    0.585
        72  -8.9871    189.3573     15.3042   3.5018899159e+01   3.6007983446e+01    0.1207695     0.088269  45.17 0.0006281413    1.719    0.418
