#   1 NUMBER                 Running object number                                     
#   2 MAG_AUTO               Kron-like elliptical aperture magnitude                    [mag]
#   3 X_IMAGE                Object position along x                                    [pixel]
#   4 Y_IMAGE                Object position along y                                    [pixel]
#   5 X_WORLD                Barycenter position along world x axis                     [deg]
#   6 Y_WORLD                Barycenter position along world y axis                     [deg]
#   7 A_WORLD                Profile RMS along major axis (world units)                 [deg]
#   8 B_WORLD                Profile RMS along minor axis (world units)                 [deg]
#   9 THETA_WORLD            Position angle (CCW/world-x)                               [deg]
#  10 FWHM_WORLD             FWHM assuming a gaussian core                              [deg]
#  11 ELONGATION             A_IMAGE/B_IMAGE                                           
#  12 ELLIPTICITY            1 - B_IMAGE/A_IMAGE                                       
         1 -12.1366     50.9969     34.4104   1.0285620330e+02   6.2830365871e+01     1.104385    0.7588676   9.52  0.006833185    1.373    0.272
         2 -12.4035     20.3582     42.5046   1.1811184165e+02   6.4800377639e+01    0.6543633    0.5371463 -84.87  0.004307505    2.217    0.549
         3  -9.4620     54.6332     18.2434   9.5064749564e+01   6.4454314147e+01    0.4842216    0.2572886  22.42  0.001577676    1.889    0.471
         4 -11.8959     18.5827     13.5708   1.0822591692e+02   6.9369053434e+01    0.7140251    0.3908058  17.74  0.004640613    1.733    0.423
         5 -11.2924     24.5637      4.0717   1.0130937569e+02   6.9942415311e+01    0.8769521    0.3481446  31.69  0.002918165    2.387    0.581
         6 -10.6912     68.0008      5.1735   8.4933043639e+01   6.3677928710e+01    0.6945062    0.2870388  36.94  0.002644174    2.075    0.518
         7 -11.8127     29.7356     25.9852   1.0826663705e+02   6.6555976963e+01     1.253543    0.3326327 -39.69  0.005392605    3.254    0.693
         8 -11.4879     50.3075     10.1749   9.3291681704e+01   6.5993968583e+01    0.4232053    0.2802044  14.84  0.001606433    1.292    0.226
         9 -11.5953      8.8991     26.1549   1.1756601310e+02   6.8329017261e+01    0.8318681    0.4543782   2.27  0.005300252    1.873    0.466
        10 -10.0589     11.0149     19.0688   1.1396471168e+02   6.9243489908e+01    0.2978081    0.1686629 -10.15  0.001218328    1.643    0.392
        11 -11.0497     12.0200      7.2360   1.0862347006e+02   7.0784862795e+01    0.4953358    0.3982538 -54.62  0.003545344    2.404    0.584
        12 -11.2451     60.0297      4.2683   8.7211655105e+01   6.5090877830e+01    0.4481933    0.2525594  19.87  0.001781609    1.696    0.410
        13 -10.8654     55.2132      3.0431   8.8373810736e+01   6.5969464839e+01    0.2991478    0.2274422  12.51  0.001140498    1.037    0.036
        14 -11.2394     40.9048     21.5269   1.0180054669e+02   6.5903849189e+01    0.3333176    0.1731629 -32.53  0.000742416    1.773    0.436
        15 -11.3907     41.5961     14.6980   9.8670089655e+01   6.6673629216e+01    0.6315933    0.3750334  34.65  0.003966776    1.677    0.404
        16 -12.8369      3.9640     10.6281   1.1399269400e+02   7.0964907369e+01    0.7208232    0.3728657 -42.90  0.003449038    1.772    0.436
        17 -11.0660     67.0285     21.3839   9.1886317245e+01   6.2162228947e+01     0.425847    0.3379893 -22.85  0.002226619    1.330    0.248
        18 -11.2724     72.8935     17.4440   8.8347621957e+01   6.1617489890e+01    0.7394442    0.2623485  44.06  0.003329487    2.454    0.592
        19 -10.5717     90.9874     20.9326   8.4169465748e+01   5.7907420291e+01    0.5978091    0.3008726  14.29  0.002434619    3.250    0.692
        20 -11.7105     77.5542     29.9277   9.1678790359e+01   5.9345261430e+01     1.098808    0.5059553 -15.97  0.004519675    3.169    0.684
        21 -12.1142     67.1444     31.1041   9.5649811059e+01   6.0931416165e+01    0.9751155    0.6918941  43.20  0.005880957    1.547    0.353
        22 -11.8865    129.8934     20.4712   7.4502366174e+01   4.9596618803e+01     1.159041    0.4004379  56.45   0.00420289    2.349    0.574
        23 -10.9699    128.7635     14.4123   7.2789502881e+01   5.0453648275e+01    0.9517834    0.1939484  49.72   0.00317465    3.590    0.721
        24 -10.9573    123.6885      9.9474   7.2365726734e+01   5.2020226034e+01    0.4378685    0.2815452  62.89  0.001678926    1.395    0.283
        25 -12.0877    112.9596     21.9448   7.8769904025e+01   5.3253720842e+01    0.7357212    0.5513627 -35.55  0.004193416    1.547    0.354
        26 -12.2595    117.2025     15.4636   7.5578407368e+01   5.2969898179e+01    0.2988586    0.2585175  70.00 0.0002508289    1.252    0.201
        27 -11.1490    122.2248      3.4999   7.0548279268e+01   5.2890857395e+01    0.5706568    0.1926057  50.53  0.002379623    2.262    0.558
        28 -10.6975    101.0994     13.7476   7.8800324311e+01   5.6594077992e+01    0.2847179     0.255777  42.29 0.0006549682    1.136    0.120
        29 -13.4074     99.8636      6.1076   7.6332181443e+01   5.7529049849e+01    0.4323876    0.4064701  29.60 0.0007142156    1.184    0.155
        30  -9.8703    186.8443     21.8694   6.5389532285e+01   3.5648592518e+01    0.4291141    0.1911603 -47.50  0.001729379    2.409    0.585
        31  -9.1691    185.4138     14.0268   6.3612104942e+01   3.6853092992e+01    0.3493649     0.142784  54.97  0.001473464    2.206    0.547
        32 -10.5039    148.6361     24.4211   7.2075668428e+01   4.4739344777e+01    0.6824062    0.3175047  38.66  0.001524755    2.567    0.611
        33 -11.6665    113.9525      7.7981   7.3688982191e+01   5.4378407924e+01    0.9956249    0.3212174  57.33  0.004126846    2.472    0.595
        34 -10.7672    243.9115     12.2630   5.7211087078e+01   2.3411032331e+01    0.4068373    0.2776195 -49.95  0.001993126    1.378    0.274
        35 -10.9674    233.0496     10.8963   5.7865377513e+01   2.5968668331e+01    0.4506047     0.242145 -52.20  0.001330617    1.702    0.412
        36 -10.5718    244.6159     19.7138   5.8622506973e+01   2.2366587333e+01    0.4634431    0.2347082 -82.78   0.00172466    2.083    0.520
        37 -10.2006    239.1917     16.0675   5.8370996786e+01   2.3998973173e+01    0.4720101    0.1874475 -51.72  0.002210874    2.299    0.565
        38 -10.4623    232.6024     19.6027   5.9699258335e+01   2.5050144278e+01    0.4805695    0.1573621 -46.93  0.001678851    2.732    0.634
        39 -10.8166    202.6916     19.6739   6.2872849727e+01   3.2042621552e+01    0.3405978    0.2392189  86.19  0.001088787    1.266    0.210
        40 -10.2173    161.7739     17.2797   6.7799944479e+01   4.2299296140e+01     0.340913    0.2944497  69.45  0.001365187    1.016    0.015
        41 -10.3991    156.8097     16.2391   6.8295745848e+01   4.3614454225e+01    0.4716858    0.4518766 -50.60  0.003093422    1.204    0.170
        42 -10.7159    148.3584     17.9103   7.0198384370e+01   4.5490692228e+01     0.531723    0.2646903  31.31  0.001653067    2.900    0.655
        43  -9.8600    151.4503     14.9365   6.8800771614e+01   4.5041305057e+01    0.3327098    0.1658069 -53.40  0.001445481    2.720    0.632
        44  -9.8855    212.3079     14.4742   6.0618863707e+01   3.0339619178e+01    0.3751341    0.2002038 -38.75  0.001950587    1.941    0.485
        45 -10.0896    169.9914     13.7965   6.5625600621e+01   4.0644588401e+01    0.2423585    0.1953318  85.11 0.0002523779    1.144    0.126
        46 -10.3019    164.3174     11.8702   6.5926760732e+01   4.2219047382e+01      0.38861    0.2607919  80.66  0.001867032    1.414    0.293
        47  -9.3812    167.8260      7.7965   6.4332161371e+01   4.1754071418e+01    0.1928801    0.1860624 -56.57 0.0003121437    1.223    0.182
        48 -11.0804    164.0461      5.6184   6.4272937494e+01   4.2869632326e+01    0.4655739    0.3829334 -27.82  0.002090221    1.467    0.319
        49  -9.0514    225.3317      9.3057   5.8228905734e+01   2.7892852273e+01    0.2353487    0.1217273  63.44 0.0008188297    1.787    0.440
        50  -9.3190    141.5284     11.6556   6.9530818250e+01   4.7725804013e+01    0.1900283    0.1510734 -45.13 0.0003513827    1.471    0.320
        51 -10.3741    140.1246      4.1023   6.7498274669e+01   4.8717167173e+01    0.5288305    0.3076558  -6.22  0.002715817    2.349    0.574
        52 -10.1808    147.5368     11.6013   6.8481915003e+01   4.6300079492e+01    0.4028185    0.2598947  45.84  0.001808049    1.450    0.310
        53  -8.8098     81.7480      3.0145   7.9903026164e+01   6.1379335274e+01    0.2708094    0.1462965  35.68  0.001430876    1.562    0.360
        54 -10.0032     77.3221      9.5129   8.3784492842e+01   6.1629825764e+01     0.285837    0.2395652  23.28  0.001288198    1.075    0.070
        55  -9.2070     77.3572      4.8046   8.1886005504e+01   6.2046927802e+01    0.2407025    0.1486491  23.46 0.0005379905    1.492    0.330
        56 -10.2111    249.3119      8.0123   5.5959042488e+01   2.2738802635e+01    0.3458456    0.1609814 -66.67  0.001750826    2.079    0.519
        57 -10.6501    246.1946      3.8225   5.5400345501e+01   2.3878706934e+01    0.3445034    0.2314319  87.79  0.001711579    1.225    0.184
        58  -9.3452    200.9695      1.5232   5.8874457506e+01   3.4374906224e+01    0.5287266   0.08846588  65.73  0.001770612    3.928    0.745
        59 -10.7714    200.5573      6.6805   6.0093619137e+01   3.3959367921e+01    0.5550181    0.3138591  75.87  0.002460139    1.495    0.331
        60 -10.6944    204.2181      6.8123   5.9739756701e+01   3.3076303157e+01    0.3299436    0.2274417  76.31 0.0004837917    1.209    0.173
        61 -11.3595    208.8961      3.5768   5.8548041752e+01   3.2304896944e+01     1.047709    0.2958826  69.99  0.004141815    2.882    0.653
        62  -9.5855    189.4706      8.7591   6.1822708183e+01   3.6409288326e+01    0.3244763    0.1119741  56.66  0.001347007    2.506    0.601
        63  -9.5168    174.3190      8.8900   6.3743284466e+01   4.0072439267e+01    0.2457194     0.164043 -79.84 0.0006809897    1.594    0.373
        64 -11.8815      3.4425     17.2219   1.1683624560e+02   7.0055794697e+01    0.3996466    0.1910459 -28.66  0.001845272    1.669    0.401
        65  -8.9174    181.9333      7.6407   6.2454480289e+01   3.8344199474e+01    0.3223684    0.1849006  67.80  0.001702861    1.442    0.307
        66  -9.4098    180.8757      4.3907   6.1773518130e+01   3.8910451491e+01    0.2591876    0.1571205  46.33 0.0006630187    1.796    0.443
        67 -11.3177    132.7934      4.4247   6.8867399331e+01   5.0401241398e+01    0.6592928    0.3082543  48.62  0.003224445    1.795    0.443
        68  -9.9360    222.4737     11.8271   5.9027187425e+01   2.8267022827e+01    0.4306864    0.2134401 -63.21  0.002104233    2.076    0.518
        69  -9.2970    220.0261      3.9590   5.7588522633e+01   2.9683702796e+01    0.2750728      0.16839  -5.15  0.001311671    3.395    0.705
        70  -9.5529    223.8401      1.8601   5.6814930059e+01   2.9032655709e+01    0.3031659    0.1519163  71.07 0.0009010546    1.690    0.408
        71  -8.2568    151.5656      5.2790   6.6005370605e+01   4.5903349562e+01    0.1358724   0.08845045 -79.85 0.0006931606    1.860    0.462
        72  -8.3424     42.9297      4.6875   9.3751625756e+01   6.7610575436e+01    0.2908165    0.1807267  44.62  0.001828067    1.954    0.488
        73 -10.0313    175.7354      4.0244   6.2312676048e+01   4.0186692072e+01    0.3328513    0.1887092  81.18 0.0007620102    1.638    0.389
        74  -9.4223    230.2156      2.8846   5.6484171367e+01   2.7486731087e+01    0.2202662    0.1290464  53.90  0.001015691    2.005    0.501
        75  -8.3083    157.6750      1.3276   6.3999259608e+01   4.4776159256e+01    0.1304967   0.08827534 -73.89 0.0007049713    1.697    0.411
        76 -11.8546     93.2674      8.1961   7.8770330987e+01   5.8696018022e+01    0.5959295    0.3129288  41.14  0.003197651    1.582    0.368
        77  -8.6719     47.0523      1.0000   9.0482945164e+01   6.7390418463e+01    0.1681928    0.0544619  43.06  0.000360125    2.805    0.643
        78  -9.7943    133.6292    103.0898   9.8769214034e+01   3.5592566099e+01    0.3273831    0.2576011 -43.15  0.001219562    1.281    0.219
        79  -9.7274     75.5884    101.9672   1.1523959994e+02   4.6803984143e+01    0.3022971    0.2241757 -65.11  0.001156656    1.489    0.329
        80  -9.2204    105.9719    102.8720   1.0633509180e+02   4.1392690717e+01    0.2225816    0.2113702 -29.08    0.0006311    1.027    0.026
        81  -9.0985     81.0771    102.2974   1.1362663527e+02   4.5885125455e+01    0.1961219    0.1877268  36.70  0.001146688    1.128    0.114
        82  -9.2863    115.4746    100.5287   1.0298834316e+02   4.0010826213e+01    0.3209353    0.2142201  32.69  0.001431458    1.622    0.383
        83 -10.2283    117.6784     98.3099   1.0175806441e+02   4.0024332693e+01    0.2726486    0.2115936 -54.65 0.0006748635    1.372    0.271
        84 -10.4454    114.7468     95.7757   1.0187110582e+02   4.1155724621e+01     0.368422     0.309191 -88.43  0.001833478    1.516    0.340
        85 -10.3090     87.2375     99.1679   1.1091878360e+02   4.5567729338e+01     0.542136    0.3230788 -30.81  0.001965454    1.968    0.492
        86  -9.5862     91.4816     96.5172   1.0890949602e+02   4.5413837786e+01    0.3240948    0.2482208 -41.81  0.001070778    1.247    0.198
        87  -9.0197     63.2472     98.4131   1.1823969034e+02   4.9332827967e+01    0.1800526    0.1276415  42.89  0.000948946    1.611    0.379
        88  -9.5626    159.5623     97.0165   9.0726327937e+01   3.0798713215e+01    0.3088269    0.2184211  35.98  0.001365257    1.559    0.358
        89  -9.0190    188.1818     94.1979   8.3886886164e+01   2.4368956937e+01    0.2151163    0.1784769 -79.15 0.0005083558    1.312    0.238
        90  -9.1416      8.3983     93.9185   1.3488636287e+02   5.5501126460e+01    0.2759413    0.1203033  45.55  0.001305376    3.372    0.703
        91  -9.4392    121.3922     91.7025   9.8865028637e+01   4.0598986644e+01    0.2720159    0.1833594  55.30 0.0007027528    1.623    0.384
        92 -10.6506     89.1538     89.2782   1.0761120089e+02   4.7337205558e+01     0.575182    0.4061342 -28.12  0.002849964    1.499    0.333
        93  -8.2772    137.0000     90.9248   9.4506734747e+01   3.7302567009e+01    0.2459104   0.08820722 -41.03 0.0005647719    2.845    0.649
        94 -11.0629    102.1802     70.7665   9.8082365745e+01   4.8526623490e+01    0.5780091    0.3663245 -53.74  0.002645138    1.963    0.491
        95 -11.1438    121.5967     56.3240   8.8042813142e+01   4.6884561791e+01    0.5652244    0.4744485 -28.04  0.003125901    1.252    0.201
        96 -10.3771    115.4764     69.9508   9.4000739931e+01   4.5961795077e+01    0.5002035    0.3444468 -53.53  0.002365777    1.750    0.429
        97 -11.6748    110.8484     64.6632   9.3631771941e+01   4.7843835921e+01      1.33089    0.7067907 -16.79  0.004782368    3.252    0.693
        98 -11.9854    121.3928     65.4275   9.0977494446e+01   4.5461293250e+01     1.384294    0.8693268 -65.17  0.005540119    2.752    0.637
        99 -11.5852    107.1888     86.1926   1.0128729836e+02   4.4621230409e+01    0.7476123    0.5662822   6.84  0.002253413    1.622    0.383
       100 -10.6143     98.1396     77.4985   1.0138033139e+02   4.8055682548e+01    0.4073513     0.332469  53.53  0.001206717    1.391    0.281
       101 -10.3322     60.9563     53.8155   1.0607396885e+02   5.8417926203e+01    0.4844847    0.2440381 -45.49  0.001602524    2.021    0.505
       102 -10.9205     82.0771     86.7765   1.0912242065e+02   4.9036900068e+01    0.9265705    0.2965953 -46.79  0.003237651    2.944    0.660
       103 -11.7200     81.4343     75.0097   1.0586652300e+02   5.1477380140e+01    0.4830607    0.2976668  43.83  0.002358151    1.770    0.435
       104 -10.3975     79.6896     69.5646   1.0475291076e+02   5.2787715261e+01    0.4877164    0.2338489  29.72  0.001980497    2.369    0.578
       105 -10.9208     19.8577     72.8242   1.2671344107e+02   5.9164826381e+01     1.067879    0.3593411 -31.59  0.003883799    4.392    0.772
       106 -10.7447     56.4944     46.8472   1.0530779454e+02   6.0185129829e+01    0.6558291    0.4005648 -21.26  0.003575467    1.647    0.393
       107 -10.7498     32.8678     70.5091   1.2143288479e+02   5.8562461940e+01     0.448464    0.2497848 -38.74  0.002480362    1.533    0.348
       108 -10.2701    142.1745    243.6171   1.2490214629e+02   3.7129479318e+00    0.3405565     0.202723  27.22  0.001645342    2.038    0.509
       109 -11.9141     59.1342     72.2862   1.1255804866e+02   5.5299340070e+01     1.118481    0.6238987 -51.52  0.005552484    1.796    0.443
       110 -10.8571     55.3802     61.3873   1.1056221907e+02   5.7834670431e+01    0.9063975    0.4576905  36.83  0.004489456    2.159    0.537
       111 -10.8042     51.4570     71.4186   1.1500260680e+02   5.6428564110e+01    0.2818817    0.2725455  64.54 0.0006399248    1.358    0.263
       112 -12.2042     41.4418     66.9927   1.1733473794e+02   5.8408528796e+01     1.360518    0.7512221  45.07  0.006804921    2.595    0.615
       113 -11.3646     35.2549     58.1318   1.1704336594e+02   6.0704083358e+01    0.7647896    0.3683035 -26.49   0.00365283    2.367    0.578
       114 -11.0758     31.3066     43.0428   1.1379147795e+02   6.3739360429e+01    0.3374904    0.2731682  52.21   0.00131287    2.039    0.509
       115 -11.5392     42.4344     49.7611   1.1163332801e+02   6.1440530990e+01    0.5965885     0.256616  27.85   0.00224196    2.455    0.593
       116 -11.0972     38.0796     44.0004   1.1139556102e+02   6.2887736759e+01    0.4394099    0.3901566  65.53  0.002726474    1.914    0.477
       117  -9.1266     74.4904     89.0594   1.1218890078e+02   4.9751541293e+01    0.2167017    0.2004524  67.09  0.001278872    1.315    0.240
       118  -8.2376     69.6810     89.6866   1.1391552779e+02   5.0326767535e+01    0.1425256    0.0997906 -19.24 0.0005432201    1.649    0.394
       119  -8.9757     20.0569     89.5314   1.3031147033e+02   5.5672973804e+01    0.1506404    0.1191372  13.04 0.0004174791    1.501    0.334
       120  -9.8491    153.0631     87.4111   8.9585443658e+01   3.4210741053e+01    0.3413527    0.2401184  43.34 0.0007948648    1.421    0.296
       121 -11.0953    119.6610     86.4278   9.7815822164e+01   4.2013774195e+01    0.7006635    0.2926184  46.53  0.002558664    2.378    0.579
       122 -10.6665     76.0712     82.9615   1.0996435883e+02   5.0766133846e+01     0.333776    0.2370784 -58.94 0.0007407594    1.629    0.386
       123  -9.0158    186.4731     84.4903   8.1703420559e+01   2.6559905543e+01    0.2711927    0.1467113  68.53  0.001027713    2.240    0.554
       124 -10.8675    134.5795     80.6948   9.2168675590e+01   3.9807117491e+01    0.6268705    0.3650911 -33.16  0.002644726    1.866    0.464
       125 -10.6480    138.7471     76.4207   8.9864820585e+01   3.9622177159e+01    0.6197721    0.1965418 -37.64  0.001953594    3.318    0.699
       126  -9.7689    123.3783     81.0608   9.5216959357e+01   4.2242744264e+01     0.334181    0.2041904  31.70  0.001087957    1.876    0.467
       127  -9.7444    160.4290     81.8451   8.6353035085e+01   3.3454856264e+01    0.4387136    0.2930889  70.35  0.001894829    1.757    0.431
       128 -10.4724    149.3118     76.7133   8.7417904577e+01   3.7068903482e+01    0.5394998    0.2935362  30.10  0.001923172    2.791    0.642
       129 -10.5659    150.7528     72.4285   8.5847526501e+01   3.7469312459e+01    0.3761652    0.2356674  52.58   0.00167703    1.515    0.340
       130  -9.3308     88.7050     78.0199   1.0445582586e+02   4.9666067747e+01    0.2534309    0.2016403  54.65  0.001346258    1.513    0.339
       131  -9.0724     92.5207     77.5181   1.0311077877e+02   4.9086141229e+01    0.2328666    0.2116523   5.85  0.001042693    1.057    0.054
       132 -10.9164    102.0947     81.5862   1.0142492864e+02   4.6518727410e+01    0.7792282    0.4655934 -16.83  0.003068078    2.599    0.615
       133  -9.2889     37.0105     75.7093   1.2131254014e+02   5.7132319982e+01    0.2349079    0.1392177 -34.30 0.0009733201    1.556    0.357
       134  -9.1726     25.3291     74.5152   1.2516556144e+02   5.8405126072e+01    0.3775437    0.1811848 -12.05  0.001580596    3.362    0.703
       135  -8.9410    192.9496     73.9847   7.7790504473e+01   2.6780482807e+01    0.2395494    0.1698213 -70.84 0.0005539138    1.629    0.386
       136 -10.8025    126.7811     63.7448   8.9041715519e+01   4.4542647829e+01     0.312703    0.2356869  37.46 0.0002710442    1.291    0.225
       137  -9.5066    215.2953     71.5434   7.3527129066e+01   2.1752319033e+01    0.2633546    0.2345547 -23.78 0.0008817902    1.339    0.253
       138 -10.3898      6.3432     70.5286   1.3102581882e+02   6.0489914460e+01    0.5677512    0.3975335  -4.79  0.002125941    1.609    0.379
       139 -11.3055     25.8236     53.1550   1.1920503528e+02   6.2474557557e+01    0.3147415    0.2004988  -6.10 0.0006891799    1.654    0.396
       140  -9.8938     29.0454     49.0273   1.1665753838e+02   6.2927181795e+01      0.23311    0.1472604 -40.44  0.000428012    1.314    0.239
       141 -10.6096     13.5384     56.6721   1.2501040624e+02   6.2750799013e+01    0.2753426    0.2150906  22.63  0.001376032    1.552    0.356
       142 -10.8740     11.1247     63.6504   1.2770302211e+02   6.1569677905e+01    0.3596567    0.2561818 -47.59  0.001482538    1.104    0.094
       143  -9.8897     21.9576     62.8432   1.2343148720e+02   6.0975582568e+01    0.4034386    0.1461463 -42.53  0.001838973    2.201    0.546
       144 -11.1824     16.7150     61.4362   1.2504369442e+02   6.1630179763e+01    0.3875703    0.2300387  24.57  0.001985177    1.957    0.489
       145 -10.8183     20.1149     58.1202   1.2285681763e+02   6.2013963939e+01    0.2414546     0.156094 -38.31  0.001539989    1.221    0.181
       146 -10.1007    132.3526     68.1928   8.8993486775e+01   4.2534065338e+01    0.4173002    0.2700737  62.25  0.001679496    1.737    0.424
       147 -10.8509    139.0197     68.1523   8.7338356713e+01   4.0993224585e+01     0.570389    0.4047036  31.73  0.002693936    1.552    0.356
       148  -9.8310    143.3125     68.6828   8.6472737299e+01   3.9889750809e+01    0.2430456    0.2079221  55.28 0.0005820159    1.122    0.109
       149  -9.7989    250.3080     67.6092   6.7915883513e+01   1.4441313468e+01    0.3527088    0.1474255 -36.32  0.001328242    2.381    0.580
       150  -8.9182    202.3859     68.2182   7.4735998879e+01   2.5409415368e+01    0.2080663    0.1267919 -49.06 0.0006841639    1.636    0.389
       151 -10.6932    151.8579     66.8086   8.3966764866e+01   3.8146623211e+01    0.4399344    0.2641403  45.70 0.0004649544    1.619    0.382
       152 -10.2736     71.2111     53.2905   1.0227860188e+02   5.6988407317e+01     0.410482    0.2239294 -42.72  0.001356887    1.869    0.465
       153 -11.1220    105.2509     53.7875   9.1682445125e+01   5.0756246389e+01     1.029296    0.4231224  34.71  0.003722098    2.975    0.664
       154 -11.0118     76.2224     52.6988   1.0036723433e+02   5.6283436170e+01       0.7904    0.3089063 -43.65  0.003178752    2.718    0.632
       155 -10.5194     79.9134     60.3838   1.0172329812e+02   5.4389277264e+01    0.5116777    0.3768349  17.69  0.001976534    1.382    0.276
       156 -10.3972     92.5516     66.7231   9.9731299211e+01   5.1070817388e+01    0.4285598    0.2781976   9.00  0.001147291    2.103    0.524
       157 -11.1722     97.4290     61.5307   9.6549913686e+01   5.1053135410e+01    0.5036417    0.4008235 -43.84  0.001994813    1.375    0.273
       158 -11.1680     85.7906     51.8420   9.6927795583e+01   5.4782651290e+01    0.5638601    0.3772246  -2.68  0.002043975    1.807    0.447
       159 -10.0675     85.3042     67.9742   1.0242499712e+02   5.2135637487e+01    0.3304817    0.2153036  17.21  0.001468198    1.825    0.452
       160 -11.3574    164.7451     62.9507   8.0135516063e+01   3.5601507223e+01     0.593025    0.5201233  16.85    0.0024709    1.337    0.252
       161 -10.5064    165.1930     56.3436   7.8186300968e+01   3.6511803327e+01    0.4883517    0.3446797 -28.33  0.001890349    1.607    0.378
       162 -10.9830     67.2334     62.1291   1.0659542142e+02   5.6071180181e+01    0.3204375    0.2581648 -13.71 0.0008612576    1.146    0.127
       163  -8.3005      5.2941     63.6387   1.2986823731e+02   6.1910224998e+01    0.1029188   0.08370168  88.17 0.0004000981    1.704    0.413
       164  -8.8125    185.8615     60.8681   7.5620610122e+01   3.0661388054e+01    0.1964034    0.1605558 -82.56 0.0002816918    1.259    0.206
       165 -10.0435    178.6301     59.4117   7.6512311149e+01   3.2692091345e+01    0.5742225    0.3344126 -26.02  0.001882539    2.126    0.530
       166 -10.3859    173.9977     57.2615   7.6773608196e+01   3.4178036092e+01    0.3422911    0.2648895 -23.43 0.0005168528    1.525    0.344
       167 -10.7812    177.7834     51.6041   7.4558884318e+01   3.4070486360e+01    0.4732843    0.3334036  25.05  0.001179554    1.999    0.500
       168 -11.3437     88.7738     56.9226   9.7703386639e+01   5.3430254337e+01    0.5876405    0.3788019  31.54 0.0008350133    1.530    0.347
       169  -8.4801    239.3217     59.3072   6.7455612588e+01   1.8119016787e+01    0.1242184    0.1067111  30.15 0.0002696268    1.642    0.391
       170  -9.6068    200.4906     59.3079   7.2813742408e+01   2.7276504081e+01    0.3672606    0.1999962  50.95  0.001614844    1.881    0.469
       171  -9.6608    202.3393     56.3003   7.1781511412e+01   2.7279121925e+01    0.2151837    0.1761039 -45.13 0.0008016772    1.256    0.204
       172  -9.1852    158.2360     58.8330   8.0290016916e+01   3.7855238137e+01    0.2911049    0.1664225  37.39  0.001159302    2.070    0.517
       173 -10.0125      3.1748     57.2628   1.2916103850e+02   6.3251017916e+01    0.3915041    0.2373723 -70.20   0.00239411    1.903    0.475
       174 -10.3367    221.8611     57.3642   6.9250848845e+01   2.2421555047e+01    0.3693193    0.2538069 -86.61   0.00116894    1.529    0.346
       175  -9.6243    152.5494     56.0487   8.0669639885e+01   3.9674992602e+01    0.3759309    0.3409845  -1.60   0.00209325    1.245    0.197
       176 -10.9625    151.0599     50.8889   7.9462686371e+01   4.0799172856e+01    0.6609161    0.4547492  20.55  0.002137601    1.971    0.493
       177 -11.4274    192.7959     53.6545   7.2597579653e+01   3.0027781288e+01    0.3730047    0.2518896 -69.54 0.0002072038    1.678    0.404
       178 -10.9627    140.6837     51.9335   8.2031472363e+01   4.3148784951e+01    0.5320451    0.3028968  40.63  0.001705497    1.793    0.442
       179  -9.7513    135.2086     51.9557   8.3297605809e+01   4.4437844647e+01    0.3562883    0.2419813  14.49  0.001097179    2.018    0.504
       180 -10.7494    115.4231     50.1769   8.7674348269e+01   4.9162879634e+01    0.4677827    0.3565751   8.57   0.00170889    1.485    0.327
       181 -10.6172    118.6907     42.4611   8.4279396003e+01   4.9535326250e+01    0.5286116    0.3197182 -39.27  0.002064856    1.831    0.454
       182  -9.4560     10.5349     52.0177   1.2493658590e+02   6.3810313969e+01    0.1787849    0.1530098  16.38 0.0005730279    1.435    0.303
       183  -9.8801      7.0312     48.7286   1.2544054096e+02   6.4624849316e+01    0.2671039    0.1743793 -35.60  0.001062971    1.172    0.147
       184  -9.9974    158.7501     50.7796   7.7865984626e+01   3.8927434255e+01    0.4393985    0.2469419  64.51  0.001863157    1.762    0.432
       185  -8.2373    126.6525     50.7371   8.4973879210e+01   4.6589808314e+01     0.147579      0.10135  28.31 0.0006977205    1.607    0.378
       186  -8.5601     16.4953     50.5048   1.2213123157e+02   6.3685282464e+01    0.1213718   0.08433773 -30.81 -7.844496e-05    1.146    0.127
       187  -9.1090    171.4330     49.1114   7.5002918981e+01   3.6014425867e+01    0.2000094    0.1437137 -33.06 0.0008087098    1.534    0.348
       188  -9.7486     94.8780     47.6820   9.2663672264e+01   5.3734055461e+01    0.5888721     0.287529  31.55  0.002494738    2.313    0.568
       189  -9.0359     97.5826     42.8214   9.0169681987e+01   5.3907658934e+01    0.2682628    0.2292335 -86.50  0.001521655    1.740    0.425
       190 -10.1662     99.9917     38.1412   8.7833484618e+01   5.4063874842e+01     0.353866    0.2559359  17.41   0.00115898    1.433    0.302
       191  -9.3153    129.8198     46.3284   8.2801184412e+01   4.6493251673e+01    0.2218163    0.1880189 -38.65 0.0005624568    1.297    0.229
       192  -8.4777    125.4855     47.5199   8.4231403860e+01   4.7316513289e+01    0.1417786    0.1287311  37.90 6.532457e-05    1.000    0.000
       193 -10.1833     15.9082     31.5937   1.1635428431e+02   6.6953689085e+01    0.3327352    0.1884329 -43.38 0.0008079715    1.516    0.340
       194  -9.2455     12.9770    232.9768   1.4831013190e+02   2.4594803932e+01    0.1879592   0.09284686  68.47 0.0007634081    1.675    0.403
       195 -10.3009     11.7514     41.4123   1.2136438383e+02   6.5624067882e+01    0.4806608     0.237091 -13.48  0.002632779    2.335    0.572
       196  -9.8962    222.7084     45.9572   6.6525846096e+01   2.3889021265e+01    0.1910435    0.1631485 -68.04 0.0004792047    1.074    0.069
       197  -9.2034    152.7061     45.8989   7.7651622571e+01   4.1099561061e+01    0.1877523    0.1850476 -75.57  0.000488419    1.100    0.091
       198 -10.1927    105.8354     44.3830   8.8346254924e+01   5.2022435285e+01    0.4277755    0.3337045  28.99  0.002409708    1.198    0.165
       199 -10.1514    232.4725     43.9033   6.4902768245e+01   2.1914744901e+01    0.2879939    0.2272791  58.29 0.0009836039    1.406    0.289
       200  -9.8445    228.5269     44.0124   6.5385696642e+01   2.2806560143e+01    0.3163453    0.1868953 -60.35  0.001581924    1.666    0.400
       201  -9.2250    208.3726     45.6951   6.8329239851e+01   2.7348773068e+01    0.2229511    0.1148899 -88.28 0.0008423321    2.830    0.647
       202  -8.9501    214.6610     42.5178   6.6748310925e+01   2.6276764065e+01    0.2322983    0.1359831 -30.39  0.001109468    1.999    0.500
       203  -9.3328    156.8278     44.2124   7.6343495340e+01   4.0318071344e+01    0.1905018     0.154169  38.85 0.0002929159    1.279    0.218
       204 -10.3516     86.5877     41.6835   9.3110836388e+01   5.6157445742e+01     0.348849    0.2708391 -11.19   0.00133289    1.264    0.209
       205  -9.9721     67.1844     43.5601   1.0026904997e+02   5.9153233082e+01    0.3170554     0.198018 -41.80  0.001382814    1.727    0.421
       206  -8.4311      1.4529     44.2411   1.2648565179e+02   6.5742340296e+01    0.1167936   0.05848801 -27.00 0.0002204784    1.802    0.445
       207 -10.4868    162.6370     40.5554   7.4201967471e+01   3.9370377958e+01    0.5854978    0.3576393 -56.79  0.001569291    1.994    0.498
       208 -10.3108    134.6638     33.5835   7.7662365642e+01   4.7021084352e+01    0.5187877    0.3386036  24.22   0.00180411    1.881    0.468
       209  -9.8568    130.1457     40.2924   8.0801068365e+01   4.7231523900e+01    0.2446119    0.2214187  30.95 0.0005268479    1.072    0.067
       210  -9.9253    135.9016     39.9203   7.9382799052e+01   4.5936933767e+01    0.4124898    0.3023935 -17.45  0.001335105    1.582    0.368
       211  -9.3369    142.5175     38.5343   7.7532136841e+01   4.4543615300e+01    0.2877647    0.2066587  59.03   0.00113477    1.265    0.209
       212  -9.4961    143.9909     42.9977   7.8583255997e+01   4.3607051054e+01    0.2913354    0.2155007  55.62 0.0004686482    1.219    0.180
       213 -10.1275    140.2681     41.9726   7.9065718683e+01   4.4634171673e+01    0.3458265    0.3006563  57.52  0.001361649    1.064    0.060
       214  -9.8489    146.2120     35.3578   7.5812942978e+01   4.4053575743e+01    0.3284393    0.1651966  56.45 0.0007138939    1.729    0.422
       215  -9.9307    149.5161     34.4581   7.4893959813e+01   4.3363947679e+01    0.3268853    0.2390508 -61.41  0.001701157    1.651    0.394
       216  -9.5615    196.9515     41.9881   6.9022948636e+01   3.0652727271e+01     0.212887    0.1818471 -86.69 0.0003402197    1.067    0.063
       217  -9.4675    190.7698     41.1454   6.9716740485e+01   3.2293885866e+01    0.2928999    0.1963514 -22.11   0.00144338    1.916    0.478
       218  -9.3195     76.8319     41.1251   9.6073081776e+01   5.7955285360e+01    0.1812078    0.1712434  23.96 0.0006384238    1.265    0.209
       219 -11.2401     68.6304     74.7698   1.1003660062e+02   5.3506149184e+01    0.9193804    0.4111234 -39.23  0.003964894    2.140    0.533
       220 -10.0975    210.4402     33.3343   6.5137406452e+01   2.8513805509e+01    0.2700448    0.2210864 -52.58 0.0006342167    1.235    0.190
       221 -11.1911    203.6218     37.2586   6.6941336727e+01   2.9651492957e+01    0.5539191    0.3086224  46.71  0.002556529    2.104    0.525
       222  -9.9032    201.5779     32.5355   6.6071363935e+01   3.0760234995e+01    0.4732147    0.2272307  87.08  0.001841654    2.796    0.642
       223 -10.0237    180.1594     37.9971   7.0528266909e+01   3.5345916449e+01    0.3545904    0.2476434 -59.32  0.001159917    1.550    0.355
       224  -9.2300    182.4057     34.5079   6.9263774585e+01   3.5233658460e+01    0.2090083    0.1972132  22.31 0.0001053767    1.286    0.222
       225 -10.4365    169.6922     37.2850   7.2047833497e+01   3.8042297959e+01    0.4617904    0.3229487  89.92  0.001475511    1.601    0.376
       226 -10.1745    109.8070     37.7032   8.4982248315e+01   5.2088966291e+01    0.3473457    0.1829008 -35.05 0.0006223137    2.047    0.512
       227  -9.9468    124.8468     37.1467   8.1025070690e+01   4.8849517519e+01    0.2861465    0.2575569  60.48 0.0009664322    1.140    0.123
       228 -10.0288    125.5344     32.7365   7.9426220507e+01   4.9235807593e+01    0.3458573    0.2182325  -5.37  0.001068042    2.113    0.527
       229 -11.0030      6.3084    185.7908   1.4625940757e+02   3.5091704467e+01    0.5013216    0.1653758  55.59  0.002246322    3.202    0.688
       230 -10.3989     18.7739     26.0151   1.1307105696e+02   6.7584609282e+01    0.2077273    0.1313097   1.93 0.0002089544    1.485    0.327
       231 -10.3366     19.0284    184.2088   1.4352935750e+02   3.4272818088e+01    0.2480021    0.1684714  38.50  0.001579982    1.677    0.404
       232  -9.3462      1.5009    177.9857   1.4661261470e+02   3.7204554079e+01    0.1790929   0.08903744 -79.47 0.0007270055    1.566    0.361
       233 -10.8504     37.8681     29.1309   1.0606647084e+02   6.5217239107e+01    0.5225512    0.3105474 -34.27  0.002742989    1.512    0.339
       234  -8.8145     63.1559    168.1623   1.3162584210e+02   3.2915518357e+01    0.1953456    0.1464407  80.41  0.000721937    1.326    0.246
       235  -9.1002     27.4698    167.9826   1.4005809957e+02   3.7134828880e+01    0.1842199   0.08862782  83.87 0.0008094934    2.533    0.605
       236  -9.6090      9.1965    167.6482   1.4410447694e+02   3.8873859384e+01      0.21471    0.1564617 -74.10 0.0008949107    1.135    0.119
       237 -11.6455     24.9565     35.8425   1.1394662904e+02   6.5513073428e+01    0.4185209    0.1953259 -51.29   0.00109104    2.379    0.580
       238 -10.8503     23.4310     28.5661   1.1197351124e+02   6.6787249641e+01    0.3354534    0.2011228 -36.57  0.002169694    1.411    0.291
       239 -10.3488     14.1610    165.3848   1.4279174829e+02   3.8965474000e+01     0.279095    0.1900049  61.71  0.001362292    1.468    0.319
       240 -10.0918      2.4381    161.3861   1.4500797424e+02   4.0813127146e+01    0.3252597    0.1580887 -64.81  0.001847665    1.647    0.393
       241 -10.5536     16.6670    159.0771   1.4157091543e+02   4.0189119305e+01    0.3325627    0.2453153 -35.25  0.002091817    1.807    0.447
       242  -9.3327     10.1728    157.5141   1.4290172572e+02   4.1086812853e+01    0.2519522    0.1084053 -59.11 0.0009440343    1.958    0.489
       243  -9.8878     76.3601    155.6701   1.2631000573e+02   3.4039139732e+01    0.3217199    0.2174596  76.54  0.001530057    1.787    0.440
       244 -10.2304     32.9271    155.3711   1.3726439257e+02   3.9527213339e+01    0.2670946    0.1866664  64.15  0.001205795    1.494    0.331
       245 -12.3161     19.7797    148.2665   1.3960150700e+02   4.2412498251e+01     0.696286    0.5296166 -46.99  0.003169132    1.438    0.304
       246 -10.0531     34.4947    150.4796   1.3623310462e+02   4.0519057963e+01    0.2488129    0.2279855 -88.87 0.0008949524    1.129    0.114
       247  -8.8174    115.2352     36.4364   8.3144445334e+01   5.1080971952e+01    0.4828537    0.1556659  40.68  0.001631937    3.378    0.704
       248 -10.6482     88.5266     33.9324   8.9706839367e+01   5.6844819794e+01    0.7740811    0.4632759  28.05   0.00379663    1.674    0.402
       249 -11.3986     38.9914    145.9412   1.3445336257e+02   4.1126771904e+01    0.5223285    0.3129097 -75.55  0.002750654    1.527    0.345
       250  -9.7210     66.6555    148.2442   1.2756751165e+02   3.7223709756e+01    0.2249617    0.2114656  45.89  0.001361371    1.185    0.156
       251 -10.4525      6.8292    143.1706   1.4217142877e+02   4.4601964355e+01    0.3950294    0.2388983  65.99  0.002195027    1.821    0.451
       252  -9.9445     92.5933     15.7520   8.1782398913e+01   5.8126381469e+01    0.2381676    0.1609827  31.31 0.0002488871    1.304    0.233
       253  -9.6925      5.1678    147.0338   1.4298485295e+02   4.3845399443e+01    0.2956077    0.1364852 -61.98   0.00158899    1.706    0.414
       254 -11.0086      3.7321    135.6529   1.4209150931e+02   4.6518916092e+01     1.006954    0.2420995 -63.19  0.004269775    2.722    0.633
       255 -11.1319     83.0121     31.8041   9.0632775733e+01   5.8135852443e+01    0.6301234    0.3117093  20.02 0.0008268004    3.105    0.678
       256  -9.6740    192.7742     36.3813   6.8219017787e+01   3.2426615668e+01    0.2821966    0.1956001  63.09  0.001493336    1.309    0.236
       257  -9.6458    194.1890     31.4851   6.6799440840e+01   3.2700397457e+01    0.3020574    0.2124259 -16.74  0.001472749    1.947    0.487
       258 -10.7164    245.9933     33.4132   6.1255415690e+01   2.0318624251e+01    0.4031379    0.2111763  56.79 0.0003910268    2.097    0.523
       259 -11.2554    236.7229     32.6918   6.2033849237e+01   2.2471180719e+01    0.5564437    0.3420551  58.94  0.003031152    1.708    0.415
       260  -9.8322    242.5298     30.9818   6.1095657923e+01   2.1399990649e+01    0.2465486    0.1865768 -51.86 0.0006370358    1.250    0.200
       261  -9.8364    216.5872     35.2918   6.4842070067e+01   2.6790849899e+01     0.263475    0.1602679  60.48  0.001357043    1.581    0.367
       262 -10.0941      9.1143    134.9278   1.4065233078e+02   4.6313066285e+01    0.2999156    0.2096025   6.09  0.000932708    2.015    0.504
       263 -11.5543    107.4749     29.6580   8.2816852569e+01   5.3574888403e+01    0.8443815    0.3837646  56.16  0.002028983    2.172    0.540
       264 -10.9878     15.3816    132.2056   1.3869199868e+02   4.6472880925e+01    0.3605298    0.2785315 -68.98  0.001220165    1.033    0.032
       265 -11.3226     12.4192    129.7307   1.3914408576e+02   4.7259786198e+01    0.6383536    0.2905984 -64.68  0.002706482    1.675    0.403
       266 -10.0607     14.5149    144.5086   1.4044666417e+02   4.3714393042e+01    0.2626354    0.1611686 -51.68  0.001549175    1.575    0.365
       267  -9.8732    246.5043    140.4987   8.4294636757e+01   2.7715315268e+00    0.1400828    0.1264609 -33.12  4.39173e-05    1.006    0.006
       268  -9.0627     80.8855    139.8489   1.2217107232e+02   3.7171522765e+01    0.2206236    0.1868862 -38.64 0.0005036714    1.269    0.212
       269 -10.9396     22.2839    137.2393   1.3756370725e+02   4.4754889860e+01    0.5358399    0.1885774 -53.43  0.002379225    2.401    0.584
       270 -10.0458     13.4077    117.4611   1.3717253861e+02   4.9975530202e+01    0.3473587    0.2150087  12.12  0.002050911    2.146    0.534
       271  -9.1368    206.8972     42.6193   6.7791936498e+01   2.8133655053e+01    0.2952269    0.1003655  56.75  0.001108194    2.687    0.628
       272 -10.5098    226.8926     28.7549   6.2220507839e+01   2.5222112968e+01    0.4820754    0.2563804 -53.00  0.001435383    1.780    0.438
       273 -11.6177     24.8427    128.9828   1.3571641573e+02   4.6451011875e+01    0.4828153    0.4116132   6.58   0.00168003    1.497    0.332
       274  -9.7614    184.0097     17.5166   6.4669115690e+01   3.6824833857e+01    0.3681221    0.1678219  63.93  0.001688537    1.835    0.455
       275 -10.5122    178.0358     29.3670   6.8575342133e+01   3.6949150281e+01    0.5185349    0.3893356 -19.89  0.002845171    1.668    0.400
       276 -10.8502    183.6703     26.9897   6.7129663403e+01   3.5837964114e+01    0.3733234    0.2735298  48.96 0.0008906919    1.421    0.296
       277  -9.5178     28.1258    120.7880   1.3352812239e+02   4.8060681348e+01    0.3870707    0.1603238 -67.87  0.001359261    2.134    0.531
       278  -9.9168    159.4528     24.6435   7.0243999841e+01   4.2080814974e+01    0.3005948    0.2152733  67.11 0.0006654694    1.229    0.186
       279  -9.3851    154.2507     25.5972   7.1413166588e+01   4.3246579392e+01    0.2685533    0.1818006  59.84 0.0007622397    1.272    0.214
       280  -8.5713    153.5822     22.4749   7.0624308541e+01   4.3751102135e+01    0.2203339    0.1359402 -22.01 0.0004622456    1.966    0.491
       281  -9.5392    146.7550     30.0253   7.4101754030e+01   4.4561630327e+01    0.3821735    0.2330413  52.62  0.001627142    1.429    0.300
       282  -9.9709     17.5203    122.5199   1.3677077853e+02   4.8527039838e+01      0.36728    0.1801689 -81.93  0.001446761    2.249    0.555
       283  -8.5427    166.7346     29.5491   7.0406524557e+01   3.9725993477e+01    0.3045967    0.1207474  62.47  0.001221464    2.181    0.542
       284  -9.9965    166.7193     25.1003   6.9181659787e+01   4.0243178941e+01    0.3730947    0.2556589  33.83  0.001928056    1.764    0.433
       285  -9.1796    170.7981     23.6250   6.8142608167e+01   3.9403172869e+01    0.3241411    0.1719859  68.96    0.0015186    1.693    0.409
       286  -8.9927     19.9945    119.3505   1.3560433044e+02   4.9060154821e+01     0.414222    0.2094087 -75.51   0.00208271    1.902    0.474
       287  -8.2589    170.4616     27.4916   6.9241955816e+01   3.9045452566e+01    0.1381536    0.1199678  77.34 0.0002984233    1.036    0.035
       288 -10.0755     50.5243     25.4522   9.9559127897e+01   6.4136130895e+01    0.4607729    0.1677198  34.37  0.002133741    2.655    0.623
       289  -8.9559     54.0588     25.0000   9.8026481307e+01   6.3702176093e+01    0.2190563    0.1385582  31.64 0.0006567645    1.482    0.325
       290  -9.5223    241.2926     23.9598   5.9777829236e+01   2.2571335612e+01    0.3335042    0.1566486 -46.34  0.001088832    1.914    0.477
       291 -10.2611     54.5977    138.1492   1.2906602409e+02   4.1213655938e+01    0.3477239    0.2001267 -55.32   0.00172317    1.532    0.347
       292  -9.5280     48.1265    137.9703   1.3079728902e+02   4.2019745944e+01    0.3531081    0.1962877  52.75  0.001690825    2.131    0.531
       293 -10.7806     48.5892    127.7572   1.2890541097e+02   4.4388334864e+01    0.4316618    0.2406633 -37.23  0.002016737    2.139    0.533
       294 -10.9001     56.0549    127.3271   1.2669903417e+02   4.3610346173e+01    0.5820938    0.2607367 -52.63  0.002236433    1.938    0.484
       295  -8.3911    193.6972     23.7307   6.4951739596e+01   3.3756260827e+01    0.1285954   0.09387548  47.12  0.000278028    1.530    0.346
       296  -9.4207     98.5106     22.4503   8.2635382619e+01   5.6245834021e+01    0.2362729    0.1792761  39.68  0.000796591    1.131    0.116
       297 -10.7242     72.2256    129.1061   1.2242922473e+02   4.1035607826e+01    0.3174776    0.2752365  34.06  0.001351005    1.269    0.212
       298  -9.9672     74.7613    124.9936   1.2084094889e+02   4.1641565531e+01    0.2350461    0.2093307  39.25 0.0005909658    1.217    0.178
       299  -9.1106    197.9386     16.6496   6.2717745411e+01   3.3529515669e+01    0.1951019    0.1420094  75.42 0.0008823242    1.168    0.144
       300  -9.5912    178.3056     20.0962   6.6106778747e+01   3.7944127293e+01    0.2714085    0.2066398  47.41  0.001110747    1.382    0.277
       301  -8.5013     35.3138    130.3090   1.3305400686e+02   4.5184897899e+01    0.1309855   0.08571784 -40.99 0.0007028399    1.628    0.386
       302  -9.9670     38.6753    127.0280   1.3157938317e+02   4.5619934704e+01    0.1916149    0.1471153 -60.13  0.001147321    1.104    0.094
       303 -11.0763     67.4579    123.1646   1.2257461914e+02   4.3111970267e+01    0.6430141    0.3234724 -35.77  0.002557459    2.622    0.619
       304 -10.7156     47.7293    120.8371   1.2787514901e+02   4.6108760858e+01    0.4464083     0.309475 -18.15  0.001340187    1.929    0.481
       305  -9.6000    209.9318     18.8703   6.1864105891e+01   3.0402327081e+01    0.1993868    0.1683975 -72.04 0.0003877561    1.113    0.102
       306  -9.9562     36.9242     97.9669   1.2658780499e+02   5.2423032491e+01    0.5515649    0.2984928   0.65  0.002521533    2.915    0.657
       307  -9.3024    178.8500     14.9292   6.4696848238e+01   3.8361912295e+01    0.1914397     0.154102  56.61  0.001148074    1.213    0.176
       308 -10.7838     17.7817     81.8543   1.2947525326e+02   5.7458523213e+01    0.3918243    0.2323773  -5.91  0.002233983    2.112    0.526
       309 -10.5772     24.1916    108.2262   1.3254611955e+02   5.1249564408e+01     0.988633    0.4068943   7.48  0.003845682    4.589    0.782
       310 -10.3573     28.5229    102.1394   1.3009502568e+02   5.2254096930e+01     0.321225    0.3051045  24.18  0.001669059    1.263    0.208
       311 -11.5179     47.6549    100.0175   1.2360118392e+02   5.0868066652e+01     1.238352    0.5823249 -38.16  0.005285507    2.267    0.559
       312  -9.9627     42.3561     87.2336   1.2235670665e+02   5.4209179301e+01     1.392544    0.3072904 -53.04  0.004856334    3.433    0.709
       313  -9.1400    217.9900     13.5363   5.9831868129e+01   2.9113381344e+01    0.1967579    0.1073718  72.76  0.001026079    1.581    0.368
       314 -11.3086      4.3880     99.0347   1.3697608053e+02   5.4627148095e+01      1.14306    0.6090677  80.70  0.005516967    3.006    0.667
       315 -11.7095      5.3679    118.0731   1.3948713994e+02   5.0369279690e+01     1.115237    0.2566386 -59.61  0.004688071    2.736    0.634
       316 -11.0913     13.8846     88.8692   1.3220193766e+02   5.6240908387e+01    0.3565245    0.3232806 -53.88 0.0008953176    1.151    0.131
       317 -10.6876      3.4689     88.5909   1.3551716470e+02   5.6916805926e+01    0.4507698    0.2125584 -38.26  0.002484899    2.000    0.500
       318 -10.1283      9.0012     85.9317   1.3323870516e+02   5.7167793449e+01    0.2139374    0.1777851 -64.98  0.000434395    1.162    0.139
       319 -11.6913      4.5669     81.4174   1.3384950010e+02   5.8362981777e+01    0.7161331    0.2781712 -54.97  0.003431824    1.815    0.449
       320 -11.1411     22.0673     96.2667   1.3099404115e+02   5.4066796526e+01    0.4551251     0.304138 -31.93  0.002273268    1.527    0.345
       321 -11.2306     26.1695     85.9049   1.2751077020e+02   5.5976162395e+01     0.631157    0.4753439 -87.88  0.003838324    1.740    0.425
       322 -11.3989     29.6215     82.1116   1.2547448585e+02   5.6487203055e+01    0.6379623    0.4649437 -64.99  0.002513334    1.401    0.286
       323 -10.9981     51.6163     87.7929   1.1938447787e+02   5.3073959150e+01    0.5033843    0.4148585  -2.50  0.001928359    1.296    0.228
       324 -10.8591     57.5122     85.3307   1.1676837189e+02   5.2877640730e+01    0.4498787    0.2992134   5.36  0.002322735    1.872    0.466
       325 -11.7394     18.4519    104.3890   1.3360743529e+02   5.2545985060e+01     0.619992     0.351587   9.78   0.00342536    2.338    0.572
       326 -11.1453     16.1996     98.3360   1.3322902612e+02   5.4040230772e+01    0.4329154    0.2602938 -31.87  0.002508163    1.774    0.436
       327  -9.7675     92.6018    120.1175   1.1458153067e+02   3.9943378821e+01    0.2721241    0.1773586 -45.24 0.0009246369    1.483    0.326
       328  -9.5937     41.9639    118.4527   1.2911658325e+02   4.7282475889e+01    0.2026224     0.167158 -87.88 0.0004383615    1.294    0.227
       329  -9.4614     38.6808    115.3522   1.2950952904e+02   4.8331047005e+01     0.254001    0.1576742  77.69  0.001204915    2.423    0.587
       330 -10.7541     98.3526    115.0476   1.1169302895e+02   4.0100431710e+01    0.5477127    0.2449565  44.29   0.00208259    2.357    0.576
       331  -9.9003    133.0600    112.1109   1.0133732325e+02   3.3793260451e+01    0.4451622    0.3447624 -50.71   0.00210441    1.312    0.238
       332  -9.1000     67.6513    115.3011   1.2082522857e+02   4.4921734825e+01    0.1397083     0.106769  75.71  0.000253845    1.690    0.408
       333  -9.6741     64.1958    114.3603   1.2165633908e+02   4.5607048740e+01    0.2521672    0.1998426  29.00 0.0007940838    1.406    0.289
       334 -10.0132     35.6281    109.2564   1.2927587086e+02   5.0019189199e+01    0.3586928    0.2750054  24.71  0.001513851    1.537    0.349
       335 -10.1363     73.9035    107.9972   1.1724370930e+02   4.5704368810e+01    0.4132125    0.3075682  72.43  0.002052988    1.863    0.463
       336  -9.8175     66.4784    109.5005   1.1987047580e+02   4.6414944312e+01     0.257388     0.218529 -45.00 0.0009080094    1.073    0.068
       337 -10.0384     68.3191    106.3419   1.1856543439e+02   4.6877573271e+01     0.397655    0.2254055 -33.22  0.001358748    2.070    0.517
       338  -8.7971    120.5080    109.4460   1.0399886515e+02   3.7054081545e+01    0.1519612    0.1499476  -5.66 0.0001873194    1.017    0.017
       339  -9.4030    105.2934    109.1313   1.0818879212e+02   4.0149646522e+01    0.2915844    0.2241446  47.69  0.001082206    1.362    0.266
       340 -11.4691     36.0672     91.7190   1.2550082540e+02   5.3867899286e+01    0.9133061    0.5736697  23.33  0.005168173    1.839    0.456
