#   1 NUMBER                 Running object number                                     
#   2 MAG_AUTO               Kron-like elliptical aperture magnitude                    [mag]
#   3 X_IMAGE                Object position along x                                    [pixel]
#   4 Y_IMAGE                Object position along y                                    [pixel]
#   5 X_WORLD                Barycenter position along world x axis                     [deg]
#   6 Y_WORLD                Barycenter position along world y axis                     [deg]
#   7 A_WORLD                Profile RMS along major axis (world units)                 [deg]
#   8 B_WORLD                Profile RMS along minor axis (world units)                 [deg]
#   9 THETA_WORLD            Position angle (CCW/world-x)                               [deg]
#  10 FWHM_WORLD             FWHM assuming a gaussian core                              [deg]
#  11 ELONGATION             A_IMAGE/B_IMAGE                                           
#  12 ELLIPTICITY            1 - B_IMAGE/A_IMAGE                                       
         1 -12.2273     20.2506     17.3457   6.6713983689e+01   7.2261441462e+01    0.3394854    0.2196779  18.86  0.002033391    1.450    0.310
         2 -11.6886     49.7331     14.2487   4.9815688408e+01   6.8020301486e+01     0.328733    0.1807301  32.98  0.001688292    1.784    0.439
         3 -12.1676     34.3225     12.2189   5.5981318404e+01   7.0956600074e+01    0.3332605    0.2694234  89.32  0.001806884    2.429    0.588
         4 -11.5968     45.0465     11.8026   5.0593627794e+01   6.9170814249e+01    0.2063518    0.1726849 -10.85 0.0008381713    1.214    0.176
         5 -11.0563     27.5375     11.2454   5.9126059474e+01   7.2138329309e+01    0.2089476    0.1114596 -40.20  0.001122803    2.073    0.518
         6 -12.8431    123.7739      6.7240   2.7385454216e+01   5.2270653728e+01     0.365585     0.238552  88.59  0.001020374    1.502    0.334
         7 -12.9722     98.5379      7.8889   3.2248646372e+01   5.8177176740e+01    0.3920484    0.2773933 -80.21   0.00143345    1.661    0.398
         8 -12.0843     70.8471     10.1855   4.0204609069e+01   6.4211782375e+01    0.3581049     0.192614  63.01  0.001043154    1.850    0.460
         9 -12.7014     56.2305      9.1682   4.4663064482e+01   6.7339970739e+01    0.4027951    0.2849663  39.58  0.001790629    1.221    0.181
        10 -11.6136     60.2205      4.1349   4.0722882735e+01   6.7028936112e+01    0.2336441    0.1529176  34.22 0.0004979086    1.426    0.299
        11 -12.2846     78.3931      8.6373   3.7332499456e+01   6.2714838597e+01    0.2709153    0.2050772 -50.70 0.0009602469    1.607    0.378
        12 -11.7435    115.1490      9.0587   2.9561191271e+01   5.4129455158e+01    0.2027687    0.1592877  49.35  0.001223088    1.260    0.207
        13 -11.4841      3.7036      8.2815   7.3159876606e+01   7.5506714577e+01    0.2147367    0.1634122  -1.41 0.0009219215    1.098    0.090
        14 -12.9102     86.0526      7.2105   3.4759781860e+01   6.1124513939e+01    0.3911481    0.2302986  48.96  0.001251362    1.484    0.326
        15 -11.8609    134.5282      4.4766   2.5166273995e+01   4.9886855868e+01     0.227946    0.1654493  67.85 0.0007778746    1.209    0.173
        16 -11.9957    131.4875      3.5266   2.5264924304e+01   5.0699203813e+01    0.2189091    0.2016799  77.47 0.0007038473    1.119    0.106
        17 -11.8126    241.4318      9.6891   1.7506124672e+01   2.6028313141e+01    0.2176037   0.07728614 -40.14  0.001151807    2.154    0.536
        18 -12.3370    114.1232      2.0375   2.7272645232e+01   5.4985091354e+01    0.4701167    0.1848449  69.56  0.001421923    2.161    0.537
        19 -12.0378     38.9116      2.5855   4.8339325199e+01   7.1296452160e+01    0.2906896    0.2052172  55.07  0.001316849    1.565    0.361
        20 -10.3467    229.9728      2.0670   1.6642685319e+01   2.9005838917e+01    0.1437207    0.1313612  56.82 0.0006656002    1.605    0.377
        21 -10.6559    143.3945      1.7894   2.3280670427e+01   4.8003211201e+01    0.1468991    0.1230626  -0.46 0.0004829041    1.591    0.372
        22 -11.1581     80.3164      1.3908   3.3658031627e+01   6.2920169388e+01    0.2667831   0.09261229  58.64  0.001152101    2.255    0.557
        23 -12.4922     65.4647    227.5775   9.5057045891e+01   1.7607820720e+01    0.4769769     0.261912  40.58 0.0005797959    1.532    0.347
        24 -12.6652    102.6413    245.7497   8.8519699337e+01   9.1330171223e+00     4.386741     0.408324  33.87   0.01170287    6.034    0.834
        25 -14.5220     93.8650    210.3974   8.6369293829e+01   1.7475884120e+01     1.509534    0.7770199 -46.98  0.006786735    2.233    0.552
        26 -12.7590     52.8382    181.9660   9.3469349593e+01   2.9774683458e+01     1.600307    0.4943663 -68.17   0.00555318    3.187    0.686
        27 -13.6006     55.3051    170.1517   9.1314443453e+01   3.2447852299e+01    0.9695304     0.433943  28.59 0.0009068111    2.278    0.561
        28 -16.0454    118.0008    231.0362   8.3381877854e+01   9.7956937150e+00      2.86756     2.342445  43.81   0.01766391    1.169    0.145
        29 -10.4266     55.8472    226.2134   9.7167802222e+01   1.9090691222e+01    0.1905128    0.1419003  63.64 0.0008055347    1.243    0.195
        30 -10.6502     80.8248    223.9101   9.1093329285e+01   1.6383422699e+01    0.2934413    0.1817808 -63.13  0.001546006    1.775    0.437
        31 -10.8773     76.8565    219.5915   9.1566114938e+01   1.7837827581e+01    0.3175893    0.1544909 -54.25  0.001071082    2.266    0.559
        32 -12.1173     81.6625    217.8109   9.0218233489e+01   1.7574206933e+01    0.4605306     0.347586  87.71  0.002590418    1.495    0.331
        33 -10.8998     78.4766    213.4640   9.0493616198e+01   1.8958703113e+01    0.2787029      0.18967 -89.93  0.001439863    1.735    0.424
        34 -15.1107    110.3640    217.5599   8.3367755429e+01   1.3561638712e+01     1.522168    0.7680784 -60.65  0.006957555    2.289    0.563
        35 -16.1848     82.7640    186.6467   8.5987882742e+01   2.4545148176e+01     3.087003     1.910877  49.87   0.01449528    1.603    0.376
        36 -10.9628     32.1061    211.8776   1.0161418976e+02   2.5000643636e+01    0.2449661    0.1624337 -75.95    0.0013854    1.500    0.333
        37 -12.8898     59.4954    175.5890   9.0836175654e+01   3.0523511726e+01    0.7460063    0.3772956  48.80  0.001888274    1.974    0.493
        38 -11.3168    248.6072    211.5943   5.5061792163e+01  -4.2299526940e+00    0.2086498   0.08864363  18.64 0.0009609417    3.413    0.707
        39 -11.5289     72.5843    209.1781   9.1454265556e+01   2.0713386254e+01     0.514322    0.1755881  51.14  0.001742473    3.492    0.714
        40 -11.4270    158.9871    229.5182   7.4289389456e+01   4.3073154499e+00    0.1873852    0.1619631 -25.64 0.0005792617    1.203    0.169
        41 -11.7351     65.7284    249.7611   9.6935842639e+01   1.3096027354e+01    0.2418453    0.2190849  -8.70  0.001086182    1.414    0.293
        42 -12.3624     17.6891    186.7290   1.0334465591e+02   3.2412512183e+01     0.601025     0.342804 -70.39  0.003113379    1.650    0.394
        43 -11.0422    244.6709    199.3209   5.3620632567e+01  -2.0532330885e+00    0.1008522   0.08883853 -52.40 0.0005127328    1.690    0.408
        44 -10.7478     53.4330    198.0676   9.5085173100e+01   2.5771365379e+01    0.2731062    0.1762095  57.80 0.0007320421    1.494    0.331
        45 -14.0449    111.4211    188.8853   7.8906431456e+01   1.9603071738e+01    0.7271201    0.5085723 -89.60   0.00337052    2.006    0.502
        46 -13.2809    122.4940    191.0003   7.6506676799e+01   1.7350697101e+01    0.5650564    0.3301072  52.76 0.0006447129    2.007    0.502
        47 -14.0972     28.9196    189.1261   1.0060689050e+02   3.0723273038e+01     1.103057     0.648916  37.58  0.005702869    1.581    0.368
        48 -10.5189     41.5271    193.6364   9.7724510238e+01   2.8252490860e+01     0.232585    0.1190551  88.29  0.001005241    2.241    0.554
        49 -10.8107     59.2114    186.8247   9.2313356879e+01   2.7762676986e+01    0.2484753    0.1628817  44.56 0.0007138011    1.416    0.294
        50 -11.0291    128.4832    185.4691   7.4116621388e+01   1.7581238867e+01    0.1427331    0.1357051  15.89 5.376384e-05    1.021    0.020
        51 -13.4792    117.0703    194.2205   7.8353586349e+01   1.7512964804e+01     0.646068    0.3574693 -43.16  0.002391407    1.997    0.499
        52 -12.4454     15.4653    173.4935   1.0292225330e+02   3.5900758720e+01    0.2595744    0.2107611  45.29 0.0006965785    1.216    0.178
        53 -12.4661     11.9501    180.9186   1.0442627478e+02   3.4356879130e+01    0.3259868    0.2162333  31.24  0.000623279    1.544    0.352
        54 -13.0358      9.3855    177.6616   1.0487695931e+02   3.5381247586e+01    0.8941779    0.4459462  35.77  0.002990986    1.886    0.470
        55 -11.9302    243.7029    180.1819   5.0441765014e+01   9.0357641876e-01    0.1849641    0.1313051 -43.21  0.001183203    1.423    0.297
        56 -10.5684      6.0692    169.7783   1.0522063222e+02   3.7617298967e+01    0.1916785    0.1495396  62.16 0.0004581331    1.164    0.141
        57 -15.1770     28.0243    164.5468   9.8556691435e+01   3.7004153574e+01     3.681752     1.549511  69.46   0.01293729    3.366    0.703
        58 -12.6840     83.3667    164.4816   8.2417635481e+01   2.9907355074e+01    0.3647176    0.2590781  66.61  0.001439994    1.616    0.381
        59 -14.0335     48.2893    160.1059   9.2039443331e+01   3.5917000375e+01    0.9827602    0.5102324  44.63  0.004285908    1.889    0.470
        60 -12.7528     55.5803    158.2942   8.9598558855e+01   3.5471856314e+01      0.50001    0.2651901 -75.77  0.001598246    2.024    0.506
        61 -12.4472     53.0474    155.4523   8.9953138189e+01   3.6538495269e+01     0.332831    0.2708687  -0.67  0.001730348    1.520    0.342
        62 -13.0424     62.8919    154.9001   8.6876869388e+01   3.5374240044e+01    0.5347307    0.3585807  63.10  0.001062831    1.664    0.399
        63 -13.3009     26.7224    178.4702   1.0026330746e+02   3.3588765304e+01    0.5956135    0.4700993  -7.01  0.003345682    1.682    0.405
        64 -12.4299     71.5100    159.4566   8.5028097799e+01   3.2971008645e+01    0.3175213    0.2415029  16.88   0.00155689    1.522    0.343
        65 -15.8392      7.2966    131.7077   1.0160476945e+02   4.7319809709e+01     4.562211     2.144285 -78.06   0.02053487    1.900    0.474
        66 -12.0148     52.7180    148.5724   8.9027505510e+01   3.8383438167e+01    0.3965153    0.1454608  27.83  0.001400076    2.851    0.649
        67 -13.0816     74.9481    159.6862   8.4054813394e+01   3.2404369626e+01    0.4979251    0.2580775 -49.67  0.002041565    1.995    0.499
        68 -10.2773    107.9912    146.6803   7.2116195421e+01   3.0175675439e+01     0.206277    0.1994669  57.22 0.0006041823    1.029    0.028
        69 -13.3936     41.7384    142.6509   9.1635241013e+01   4.1276418960e+01    0.6875635    0.3587035 -77.83  0.002874706    2.018    0.505
        70 -12.7529     35.2527    137.7900   9.3052609524e+01   4.3278028847e+01    0.3862274    0.2557764  69.17  0.001769819    1.678    0.404
        71 -12.2944    248.2424    144.3894   4.3225681708e+01   5.8402238378e+00    0.1863368     0.166538  62.61  0.001318941    1.506    0.336
        72 -12.4999    244.7168    138.7931   4.2641673998e+01   7.2324836418e+00    0.2676093    0.1621708  26.23  0.001436852    2.418    0.586
        73 -11.8273     41.6735    249.9913   1.0208724565e+02   1.5862683211e+01    0.3380124    0.1270619  42.51  0.001658578    1.987    0.497
        74 -12.6923     46.8010    135.1863   8.8814287980e+01   4.2650847220e+01    0.4202546    0.2829102  23.68  0.001776095    1.626    0.385
        75 -10.6524     46.4036    131.1968   8.8281606110e+01   4.3751662900e+01    0.2070915     0.164884  72.11 0.0004419353    1.337    0.252
        76 -11.1614     58.5538    131.8405   8.4308697593e+01   4.2003968576e+01    0.3558119    0.1499302 -73.84  0.001140784    3.256    0.693
        77 -10.6389     81.6328    132.1144   7.6873631039e+01   3.8412966520e+01    0.2533268    0.2027241  49.38 0.0004650749    1.275    0.216
        78 -10.0703     61.3200    129.6706   8.2975395548e+01   4.2182820156e+01    0.1579811    0.1117309  69.13  0.000704811    1.689    0.408
        79 -11.8912    249.5913    127.3860   3.9819160209e+01   8.3060749077e+00    0.2550682   0.07884078 -48.26 0.0009599958    3.400    0.706
        80 -10.8983     50.1419    122.9504   8.5514214259e+01   4.5450011283e+01    0.2555414    0.1641521  79.16  0.001088306    2.058    0.514
        81 -15.3357     25.3507    200.9681   1.0245253679e+02   2.8240431366e+01     3.567316    0.4914037  40.50   0.01171877    4.024    0.751
        82 -12.6061     50.1534    247.9923   1.0014993377e+02   1.5290179053e+01    0.6454766    0.4061204  43.31  0.003904387    1.271    0.213
        83  -9.7847     73.4901    119.4827   7.6773057701e+01   4.2953903868e+01    0.1508077    0.1464128 -72.27 7.648569e-05    1.004    0.004
        84 -10.4809     53.1019    118.2981   8.3561783280e+01   4.6272847312e+01     0.353565    0.1484345 -46.15  0.001285369    2.483    0.597
        85 -10.2716     45.2934    118.6111   8.6412053116e+01   4.7188370340e+01    0.1553294    0.1070397  72.00 0.0007011695    1.773    0.436
        86 -10.3816     91.7175    116.0564   7.0049928261e+01   4.0644639080e+01     0.212764    0.1879056 -49.59 0.0003424751    1.121    0.108
        87 -11.6715    249.7624    111.9842   3.6827728280e+01   1.0673571842e+01    0.1731427   0.08273736 -39.49 0.0008929669    1.659    0.397
        88  -9.9224     79.2504    111.3934   7.2950383250e+01   4.4010521919e+01    0.1589191    0.1134197 -29.54 0.0006710099    1.681    0.405
        89 -14.8099      4.5262    202.2103   1.0758579557e+02   2.9894550096e+01     1.183399    0.5590056 -89.99  0.005894856    1.967    0.492
        90 -13.6437      7.3790    190.9087   1.0625448844e+02   3.2317063912e+01    0.7562962     0.294962 -66.34  0.003407339    2.378    0.579
        91  -9.4803    151.5139     94.5008   4.8519932453e+01   3.2815007521e+01    0.1474595    0.1418153 -66.05 0.0001607185    1.030    0.029
        92 -10.7540    132.1602     92.8233   5.2491827376e+01   3.7473526223e+01    0.2187399    0.1981459  86.25 0.0004537401    1.138    0.121
        93 -14.6733     21.0343    248.5301   1.0630485890e+02   1.8351631114e+01    0.9486163    0.4171202  45.28  0.005206541    1.708    0.414
        94 -10.0317    107.9862     89.2278   5.7905629076e+01   4.3514589101e+01    0.2031626    0.1247366  46.51 0.0008688371    1.621    0.383
        95 -11.4431      1.8086     87.9214   9.8167173670e+01   5.8854532412e+01    0.2920299    0.1622855 -81.01  0.001190812    1.785    0.440
        96 -11.7230    248.4166     87.8044   3.2247628602e+01   1.4563968602e+01    0.1744116   0.09954508 -32.00 0.0009539648    1.729    0.422
        97  -9.7227     35.2995     82.6477   8.2491829124e+01   5.7398011516e+01    0.1396189    0.1067868  71.52 0.0007036987    1.695    0.410
        98 -15.7233     33.3911    240.8314   1.0327785248e+02   1.8602147378e+01     1.480941     1.216192 -82.27    0.0101904    1.314    0.239
        99 -12.0746      2.4501     76.7612   9.6020753634e+01   6.1543942230e+01     0.486636    0.1458336 -67.31  0.001893561    2.736    0.635
       100 -10.5559    195.5526     78.8510   3.6809338080e+01   2.5957553875e+01    0.2144988    0.1752553  56.45 0.0004780602    1.366    0.268
       101 -11.4130     53.1469     77.9315   7.3637125471e+01   5.6159130474e+01    0.5517094    0.2482904  44.23  0.002160985    2.509    0.601
       102 -10.0657    215.9624     78.2992   3.3964068116e+01   2.1900362349e+01    0.1667876    0.1492084 -72.12 0.0003217461    1.104    0.095
       103 -10.7031     91.4289     75.0823   5.8658700965e+01   4.9909292376e+01    0.2310555    0.1936614  34.36 0.0005450128    1.210    0.173
       104 -11.1163      7.6974     67.8142   9.1716427699e+01   6.3355581866e+01    0.2703219    0.2165766  82.17 0.0007965165    1.508    0.337
       105 -10.6239      4.0816     64.5317   9.2792925305e+01   6.4335622231e+01    0.1981228    0.1512286 -55.09 0.0005391786    1.135    0.119
       106 -12.2748      4.1863     59.8471   9.1671489903e+01   6.5399322806e+01    0.3743647    0.3282045  22.88  0.002471003    1.297    0.229
       107  -9.7058    204.3364     65.6870   3.2566699524e+01   2.6183882979e+01    0.1402935   0.08748621 -67.00 0.0007046024    1.689    0.408
       108 -10.0011     67.0401     64.9978   6.3932468690e+01   5.6646754769e+01    0.1638182    0.1536137 -25.96            0    1.058    0.054
       109 -10.2550     43.8030     62.8273   7.2948660217e+01   6.0804562594e+01    0.1794039    0.1629713  61.46    0.0010521    1.334    0.250
       110 -10.9751    117.8562     61.1949   4.6647324745e+01   4.6654360783e+01    0.2407342    0.1967398  44.13 0.0003647279    1.243    0.195
       111 -14.7772     17.9187    233.6507   1.0620515453e+02   2.1693466064e+01    0.9051238    0.6541091 -67.56  0.005861992    1.561    0.359
       112 -10.0034     98.4463     60.5205   5.1694397073e+01   5.1169728366e+01    0.1435626    0.1372586  75.83 0.0001334701    1.072    0.067
       113 -11.4433     96.3857     55.8439   5.0699992208e+01   5.2433884516e+01    0.2323527    0.2086365  47.78  0.000323723    1.063    0.059
       114  -9.9304     78.2933     55.7307   5.6505737005e+01   5.6268298390e+01    0.1328956    0.1121098  83.84 0.0001793396    1.513    0.339
       115 -10.9097    236.3082     52.0447   2.6248794611e+01   2.1817860849e+01    0.1706183    0.1258314 -54.20 0.0003562082    1.067    0.063
       116 -15.8240      6.9204    243.6503   1.0897313965e+02   2.0702114857e+01     1.051516    0.6084663  67.53  0.006548057    1.447    0.309
       117 -11.2576     94.0506     48.9357   4.8946383205e+01   5.4089576586e+01    0.2000695    0.1903045  45.69            0    1.008    0.008
       118 -12.0310    249.5678     45.4325   2.3850367275e+01   2.0281874614e+01    0.3376797    0.1044904 -33.34   0.00140587    3.334    0.700
       119 -10.7880      6.8290     46.1569   8.6562215741e+01   6.8224348611e+01     0.183188    0.1182829 -36.74 0.0004468485    1.348    0.258
       120 -10.7030     38.8935     43.5896   6.8297546766e+01   6.5310116871e+01    0.2302836    0.1581795  36.15 0.0009228329    1.478    0.323
       121 -10.1874     20.5507     44.5698   7.8281704649e+01   6.7370479336e+01    0.1274476    0.1094295 -19.94 9.152608e-05    1.010    0.010
       122 -10.5891    119.6759     42.9434   4.0268023841e+01   4.9075491851e+01    0.1906902     0.170361 -49.02 0.0003478432    1.174    0.148
       123 -10.5164      3.8053     42.7857   8.7303846114e+01   6.9134123928e+01    0.1531214    0.1440525  62.96 0.0008355352    1.373    0.272
       124 -10.3856     69.2144     39.1844   5.3415998803e+01   6.0846500811e+01    0.1728556    0.1563789  74.23 0.0003893468    1.325    0.245
       125 -10.5397     40.1581     35.9457   6.4509894300e+01   6.6482573775e+01    0.1819972    0.1797795   5.75 0.0008138941    1.255    0.203
       126 -10.0236    108.8500     34.1867   3.9728371450e+01   5.2839596644e+01     0.183503    0.1519162  35.90 0.0004264589    1.287    0.223
       127 -10.3443     51.5204     32.9823   5.7913508716e+01   6.5111982863e+01    0.1760475    0.1078567 -10.77 0.0004969497    2.305    0.566
       128 -10.5598    154.1399     32.1080   3.0701397229e+01   4.2228568352e+01    0.1915546    0.1698736  62.21 0.0003615612    1.194    0.163
       129 -10.1314     48.2694     32.0127   5.8936315226e+01   6.5822999013e+01    0.1561753    0.1101174 -33.74 0.0005655754    1.452    0.311
       130 -10.5828     17.4324     31.8135   7.5155617796e+01   7.0138157547e+01    0.1867765    0.1540904  19.81 0.0004422718    1.244    0.196
       131 -10.1017     92.3603     31.2441   4.2818043364e+01   5.7039163402e+01    0.1717823    0.1243917 -42.99 0.0003868921    1.522    0.343
       132  -9.9608      3.5409     31.4733   8.3689328985e+01   7.1429147951e+01    0.1203872    0.0999362 -25.59 0.0001806071    1.019    0.019
       133 -10.8859    160.3782     26.9017   2.8385647160e+01   4.1377102974e+01    0.2089685    0.1619834 -84.80 0.0004808738    1.171    0.146
       134 -10.5090    131.4792     26.5054   3.2583997973e+01   4.8364617665e+01     0.134463    0.1200088  74.29 -8.819449e-05    1.038    0.036
       135 -12.1949     87.6852     22.3983   4.0602408644e+01   5.9186760155e+01    0.2657167    0.2551959 -36.36 9.231506e-05    1.162    0.140
       136 -10.5435    110.3531     24.5570   3.5965074338e+01   5.3670730863e+01    0.2472715    0.1242405  68.58 0.0009101072    1.965    0.491
       137 -12.3947     96.4432     22.1598   3.8246358927e+01   5.7213070764e+01    0.3195709    0.2407998  73.14 0.0003453656    1.337    0.252
       138 -10.8666     38.1707     22.6388   5.9383113714e+01   6.8903029883e+01    0.2075303    0.1913827  -9.75 0.0004549428    1.173    0.148
       139 -11.4104     35.2682     19.8820   5.9497259770e+01   6.9760457499e+01    0.2260418    0.1808538   3.23 0.0006241683    1.149    0.129
       140 -16.0865      5.0691    221.8150   1.0842245845e+02   2.5439798242e+01     1.875695    0.7075233 -87.38   0.00868712    2.593    0.614
       141 -10.2895     72.9174     22.5021   4.5062554096e+01   6.2404267045e+01    0.1950993    0.1178304  52.52 0.0004789506    1.500    0.333
       142 -10.1194     49.5164     19.5542   5.2547354445e+01   6.7395144678e+01    0.1262828    0.1103024  23.45 2.704114e-06    1.027    0.027
       143 -10.2109    147.4583     18.4958   2.7696565243e+01   4.5408384189e+01    0.1306331    0.1134917  87.12 5.867504e-05    1.021    0.021
       144 -15.4021     20.5136    215.0603   1.0456679312e+02   2.5476337170e+01     1.457888    0.9550728  59.04  0.008605521    1.297    0.229
       145 -11.3101     66.0705     16.4171   4.4628635552e+01   6.4553337404e+01    0.2095064     0.185424 -29.80 0.0004400334    1.272    0.214
       146 -15.6927    111.1483    203.1831   8.1166424476e+01   1.6479375770e+01     1.758339    0.9857943  57.24  0.007499859    2.324    0.570
       147 -11.2296    128.1664     14.3708   2.9221127328e+01   5.0486028505e+01     0.188446    0.1113766  81.75 0.0004263506    1.668    0.400
       148 -12.2247    116.3128     13.0697   3.0756437196e+01   5.3469562665e+01    0.2845089    0.1651306  67.66 0.0008292521    1.507    0.337
       149 -11.3784     76.7338    242.3271   9.3880499580e+01   1.3167235622e+01    0.3143997    0.2065333 -70.29  0.001821024    1.752    0.429
       150 -10.5963    151.6766     12.6808   2.5476574796e+01   4.5006787934e+01    0.1271768    0.0903376  44.76 0.0005972928    1.673    0.402
       151 -10.5308    189.4498    241.9546   7.0077021464e+01  -1.6638343628e+00    0.1773947     0.133202  15.69 0.0003769961    1.127    0.113
       152 -10.4658     66.8450    240.5827   9.5918974789e+01   1.4756972382e+01    0.1762474    0.1295076  45.88 0.0002863808    1.131    0.116
       153 -10.9135    161.5543     11.5008   2.4025997804e+01   4.2791050212e+01    0.1275616    0.1065424 -83.17 0.0003742336    1.008    0.008
       154 -10.5240     66.5918    237.4464   9.5699899136e+01   1.5420030486e+01    0.1933483    0.1629097 -68.15 5.149083e-05    1.352    0.260
       155 -14.5671     94.3218    228.0438   8.8408529272e+01   1.3690906885e+01     1.594069     1.372489 -41.82  0.009942029    1.350    0.259
       156 -12.3348     82.6264    238.4187   9.2188225482e+01   1.3176959113e+01    0.3834016    0.2499101  33.06   0.00104803    1.331    0.248
       157 -11.2049     79.6949    232.3422   9.2240565886e+01   1.4781886605e+01    0.3545594    0.2256068 -70.55  0.001833758    1.792    0.442
       158 -12.3034     75.7733    228.2794   9.2731934331e+01   1.6134676370e+01    0.5447113    0.3092591 -49.27  0.002122528    2.109    0.526
       159 -10.5750     44.7351    228.9250   9.9946259924e+01   1.9823682266e+01    0.2255363    0.1355593 -41.27  0.001135538    2.438    0.590
       160  -9.9482     73.3582    237.6753   9.4199585321e+01   1.4520774407e+01     0.160157    0.1159513 -59.64 0.0006219029    1.586    0.370
       161 -10.8070     55.7897    237.1850   9.8098726383e+01   1.6794630817e+01    0.2332287    0.1376543  67.49  0.001245434    1.783    0.439
       162 -11.4237     50.9367    233.9723   9.8931703813e+01   1.8035906964e+01    0.4654905    0.2399311  48.53  0.001284984    1.645    0.392
       163 -10.1809     52.0391    238.8157   9.9061583777e+01   1.6906669638e+01    0.1495606   0.08142607  34.14            0    1.574    0.365
       164 -11.2242     61.4501    209.7263   9.4267579108e+01   2.2045265259e+01    0.2947989    0.1888421 -75.40  0.001534548    1.648    0.393
       165 -11.0577     61.4737    220.9573   9.5369483458e+01   1.9534740184e+01    0.4522868    0.2165706 -59.04  0.002139156    2.240    0.554
       166 -12.5882     66.3384    214.8191   9.3594352968e+01   2.0269647121e+01    0.5070503    0.3590872 -55.20  0.001582217    1.580    0.367
       167  -9.8036     63.5148    234.9189   9.6170538947e+01   1.6318743225e+01    0.2186691    0.1590426 -40.28 0.0007545504    1.820    0.450
       168 -11.1029     64.6740    221.7909   9.4690677774e+01   1.8949245484e+01    0.4152277    0.1349646 -51.52  0.001252475    3.738    0.732
       169 -10.5758     67.3571    232.1577   9.5047457896e+01   1.6408783625e+01    0.2991842    0.1545312  36.29  0.001509545    1.626    0.385
