#   1 NUMBER                 Running object number                                     
#   2 MAG_AUTO               Kron-like elliptical aperture magnitude                    [mag]
#   3 X_IMAGE                Object position along x                                    [pixel]
#   4 Y_IMAGE                Object position along y                                    [pixel]
#   5 X_WORLD                Barycenter position along world x axis                     [deg]
#   6 Y_WORLD                Barycenter position along world y axis                     [deg]
#   7 A_WORLD                Profile RMS along major axis (world units)                 [deg]
#   8 B_WORLD                Profile RMS along minor axis (world units)                 [deg]
#   9 THETA_WORLD            Position angle (CCW/world-x)                               [deg]
#  10 FWHM_WORLD             FWHM assuming a gaussian core                              [deg]
#  11 ELONGATION             A_IMAGE/B_IMAGE                                           
#  12 ELLIPTICITY            1 - B_IMAGE/A_IMAGE                                       
         1 -14.5190    249.5914     47.9197   2.9518226105e+01  -4.3141068586e+01   0.07223067   0.03436408  65.33  0.006203927    2.535    0.605
         2 -10.7041    159.2938     54.9471   3.0964234726e+01  -4.3655293757e+01  0.009329431  0.008661768  53.17  0.001163138    1.108    0.098
         3 -10.5862    249.0000    228.9923   3.1111650053e+01  -4.1207526694e+01   0.01513079  0.003721403  59.25 0.0009659446    4.191    0.761
         4 -10.6303    249.7411    215.0309   3.0981861614e+01  -4.1352888210e+01   0.01494659  0.008310616  77.68  0.001278989    2.707    0.631
         5  -9.9658    232.9866    214.9866   3.1231628004e+01  -4.1460539192e+01   0.01370646  0.007020067 -63.91 0.0009542382    4.094    0.756
         6  -9.9741    198.6324    214.5216   3.1743397067e+01  -4.1683699998e+01   0.01164522  0.006196048  58.90  0.001049894    1.928    0.481
         7 -10.3922    236.9825    207.9948   3.1112346232e+01  -4.1510263386e+01   0.01460817  0.009234996 -85.17  0.001314452    2.569    0.611
         8 -10.6009     98.8605    205.4612   3.3187063690e+01  -4.2403372701e+01   0.01436199  0.008007831  81.34  0.001216363    2.768    0.639
         9  -9.9815    197.3865    204.1905   3.1674809394e+01  -4.1803223413e+01  0.009138362  0.006356334  75.98 0.0009481508    1.732    0.423
        10  -9.9282    183.6699    203.3285   3.1874776238e+01  -4.1899170210e+01  0.006865076  0.004896541 -61.96 0.0007051407    1.712    0.416
        11 -10.1043    243.6121    200.8275   3.0952008662e+01  -4.1544851832e+01  0.009164425  0.006364214  74.75 0.0009517148    1.726    0.421
        12  -9.9417    210.6140    200.7751   3.1446487604e+01  -4.1756199382e+01  0.009036126  0.006365499  74.62 0.0009484352    1.680    0.405
        13 -10.9076     88.3939    197.5974   3.3283208986e+01  -4.2553400819e+01   0.01265166  0.006375054  79.61 0.0009585875    3.399    0.706
        14  -9.9493    215.9996    195.2994   3.1318817039e+01  -4.1780956298e+01   0.01313249  0.008223345 -82.95  0.001160726    2.651    0.623
        15 -11.3307    246.1291    192.8753   3.0846224828e+01  -4.1614111343e+01   0.01847685   0.01303635 -85.08  0.001888588    1.965    0.491
        16 -10.4439    128.9736    187.7427   3.2576622020e+01  -4.2410586464e+01   0.01187208  0.008835452  82.67  0.001288098    1.634    0.388
        17 -11.1598     94.5801    186.4288   3.3094831063e+01  -4.2637444660e+01   0.02037718   0.01031709 -89.70  0.001217258    5.863    0.829
        18 -11.2156    120.4979    185.4818   3.2687724336e+01  -4.2487791196e+01    0.0210921  0.007316394  71.96  0.001036391    7.813    0.872
        19 -10.3871    224.4679    193.2609   3.1174120461e+01  -4.1748862614e+01   0.01558865  0.006756271  63.56  0.001286692    2.624    0.619
        20  -9.5531    235.2911    180.6926   3.0903858704e+01  -4.1814668358e+01  0.006545855   0.00495801 -63.81 0.0002427796    1.578    0.366
        21 -10.8001     59.0025    175.9885   3.3559647066e+01  -4.2969116009e+01  0.007955607  0.007759426  -9.06 0.0005377146    1.012    0.012
        22 -10.2794    149.8430    169.0367   3.2099010730e+01  -4.2483366970e+01   0.01085765  0.007549455 -76.19  0.001086577    1.989    0.497
        23 -10.4408    120.6188    169.8200   3.2554112081e+01  -4.2657446821e+01  0.009233989  0.006359233  75.88 0.0009537868    1.739    0.425
        24 -10.7556    212.8737    163.1002   3.1089897048e+01  -4.2147708755e+01   0.01335044  0.008953751  64.50  0.001251776    1.612    0.380
        25  -9.9000    138.6672    164.3299   3.2230295923e+01  -4.2604480323e+01  0.006894047  0.004885353 -61.67 0.0007052002    1.722    0.419
        26  -9.7887    151.3751    160.6880   3.2004553308e+01  -4.2564219752e+01  0.007034701   0.00478925 -59.03 0.0007030768    1.787    0.440
        27  -9.8473    227.2285    158.2431   3.0831372312e+01  -4.2107725203e+01  0.009956162  0.005562792  73.81  0.000812358    2.425    0.588
        28 -10.6098     90.8439    149.9651   3.2846810682e+01  -4.3058181896e+01   0.01604327  0.004665568  60.28  0.001120002    3.529    0.717
        29 -11.0752    249.3816    149.7184   3.0424187282e+01  -4.2055920355e+01   0.01271608  0.006488271  63.73  0.001146512    2.194    0.544
        30 -10.3796    198.7103    148.1611   3.1175472174e+01  -4.2399222630e+01   0.01032929  0.008533606 -88.47  0.001049071    1.431    0.301
        31 -10.2373    148.4771    144.9851   3.1914875984e+01  -4.2752548132e+01    0.0139452  0.006764209 -57.35  0.001036188    3.432    0.709
        32 -10.5071    104.8158    142.9797   3.2571028862e+01  -4.3047642363e+01   0.01103097   0.00748808 -73.41  0.001083454    2.059    0.514
        33 -10.3269    189.0000    149.0123   3.1330351090e+01  -4.2452080284e+01   0.01070948  0.003725404  59.35 0.0008054907    2.964    0.663
        34 -10.6711    197.4060    137.1901   3.1100345233e+01  -4.2525700123e+01  0.008979427  0.006389685  76.55 0.0005614651    1.692    0.409
        35 -10.2755     69.0419    135.9506   3.3068005587e+01  -4.3345437675e+01  0.009560258  0.009186747  10.07 0.0003603392    1.040    0.038
        36 -10.4593     21.4506    134.0437   3.3798944562e+01  -4.3656586969e+01   0.02508843  0.006513972  61.42  0.001653942    4.033    0.752
        37 -10.6045    179.4816    133.5399   3.1341791623e+01  -4.2679628875e+01   0.01154828   0.00658306  75.53  0.001029904    2.408    0.585
        38 -10.3487     82.4928    130.5581   3.2812513154e+01  -4.3321294495e+01   0.01162365   0.00660389  76.45  0.001038061    2.393    0.582
        39 -10.8357    152.7053    129.0088   3.1712736511e+01  -4.2898709738e+01   0.01797659  0.009632882  76.69  0.001511691    2.789    0.642
        40 -10.5860     54.4938    129.9883   3.3245358291e+01  -4.3499845947e+01  0.009630879  0.004766045  38.19 0.0008094579    2.470    0.595
        41 -10.4494    168.4985    129.4914   3.1474697378e+01  -4.2793269639e+01  0.006484847  0.006225564 -36.75 -8.500074e-05    1.041    0.040
        42 -11.3128     11.8034    128.3067   3.3903398478e+01  -4.3777812948e+01   0.01540525  0.009350707  84.23  0.001413641    2.372    0.578
        43 -10.4924     98.1292    126.9836   3.2538743864e+01  -4.3263216019e+01   0.01568291  0.008032802  77.76  0.001244231    3.124    0.680
        44 -10.8357     42.5868    122.3161   3.3367662335e+01  -4.3656554649e+01   0.01240917   0.00660835  67.31  0.001135687    2.146    0.534
        45 -10.4204    172.3745    121.2203   3.1343739578e+01  -4.2857815862e+01   0.00907662  0.006345558  73.33 0.0009504195    1.676    0.403
        46 -10.3032    192.5131    129.0572   3.1104225710e+01  -4.2644605740e+01  0.009968605  0.006466185  59.25  0.001034323    1.595    0.373
        47 -10.3303    130.2841    117.6527   3.1960411344e+01  -4.3163197099e+01  0.006669921  0.004971776 -66.75 0.0002865772    1.649    0.393
        48 -11.1259    185.5188    115.5065   3.1093031113e+01  -4.2835311877e+01   0.01145072  0.006591701  74.81  0.001034239    2.339    0.572
        49 -10.9901      1.5980    114.3159   3.3948151688e+01  -4.3992925024e+01   0.01262541  0.006590931  67.58  0.001143164    2.192    0.544
        50 -10.7002    108.5907    113.2971   3.2259117097e+01  -4.3346641864e+01   0.01242132  0.006594805  66.40  0.001135263    2.150    0.535
        51 -10.4188     92.1609    112.9064   3.2511450206e+01  -4.3453444878e+01   0.01571024   0.01038617 -81.82  0.001503697    2.240    0.554
        52 -11.2479     77.8493    110.3532   3.2713105245e+01  -4.3570124949e+01   0.02045508   0.01031675  78.66  0.001579686    3.348    0.701
        53 -10.4517     13.5667    108.5020   3.3709534611e+01  -4.3984367896e+01   0.01841815  0.006418176  61.11  0.001410523    2.970    0.663
        54 -11.2329    128.2720    100.5675   3.1844021752e+01  -4.3360877080e+01   0.01962774   0.01097423  67.71  0.001851242    2.078    0.519
        55 -10.1592    246.5109    101.5048   3.0043812231e+01  -4.2590251733e+01  0.006457832  0.006243791 -17.86 -8.702288e-05    1.001    0.001
        56 -11.1169     42.8045     99.4107   3.3170364325e+01  -4.3905562074e+01   0.01366634  0.007466142 -77.85 0.0009549471    4.221    0.763
        57 -11.2843     94.9076     93.4947   3.2301911610e+01  -4.3647226037e+01   0.03020324   0.01019101  51.52  0.002349329    2.852    0.649
        58 -10.3689    107.2043     98.2011   3.2150764717e+01  -4.3519127862e+01   0.00920067  0.007683636 -66.37    0.0008311    1.360    0.265
        59 -11.0908      6.1854     91.8521   3.3686376791e+01  -4.4211581964e+01   0.01329777  0.008303094 -34.55  0.001370485    1.530    0.346
        60 -11.6123    124.3095     90.3681   3.1817038223e+01  -4.3496282185e+01   0.01721008   0.01188354  76.45  0.001332997    1.757    0.431
        61 -11.3381     34.5633     85.9102   3.3185669076e+01  -4.4103560593e+01   0.03000962   0.01208595  50.59  0.002484675    2.448    0.592
        62 -11.3991     85.7249     86.0824   3.2381613243e+01  -4.3785102537e+01   0.01460818  0.009387423  87.88  0.001381915    2.263    0.558
        63 -11.3859    104.2841     83.0630   3.2065360989e+01  -4.3701603666e+01    0.0169224   0.01079925 -79.04  0.001335781    2.470    0.595
        64 -11.1552     47.6789     83.8579   3.2960795844e+01  -4.4045326832e+01   0.01392762  0.008294774 -81.80  0.001161083    2.974    0.664
        65 -10.3170     58.2923     90.6635   3.2851704169e+01  -4.3905638860e+01  0.006694508   0.00494408 -64.52 0.0005670992    1.642    0.391
        66 -10.8846     23.7314     77.1185   3.3282430727e+01  -4.4265958399e+01   0.02907598  0.006671863  56.59  0.001939379    3.871    0.742
        67 -10.9736    127.7867     74.3654   3.1623622965e+01  -4.3647297119e+01   0.01544624  0.009362509  80.87  0.001418283    2.367    0.577
        68 -11.5567     82.4571     73.4572   3.2323753086e+01  -4.3942631789e+01   0.02214497   0.01204975 -71.36  0.001601113    4.000    0.750
        69  -9.9386     12.3554     74.2843   3.3439177628e+01  -4.4366419410e+01    0.0068047  0.004903516  17.82 0.0007019732    1.668    0.400
        70 -13.0618    234.8375     68.2957   2.9925097520e+01  -4.3021273087e+01   0.02128311   0.01165327  54.83  0.002069827    1.840    0.456
        71 -10.5127     94.9480     71.6549   3.2112302683e+01  -4.3883929587e+01   0.01309457  0.008987681  87.25  0.001319178    1.965    0.491
        72 -10.8532    105.3665     70.9214   3.1942966024e+01  -4.3826334516e+01   0.01269106  0.006517266  70.65  0.001092596    2.507    0.601
        73 -11.0602    118.8700     69.8263   3.1722721787e+01  -4.3752877927e+01  0.009357755  0.008490128  12.97 0.0002484332    1.139    0.122
        74  -9.6873    157.6926     69.3658   3.1116319937e+01  -4.3510450227e+01   0.01109296  0.005874477 -35.67  0.001048778    1.792    0.442
        75  -9.6231    154.5699     67.8343   3.1151099270e+01  -4.3546956326e+01  0.008850222   0.00865534 -89.57 0.0004113146    1.081    0.075
        76 -10.7117     51.0173     69.0210   3.2780694972e+01  -4.4186410676e+01   0.01661101  0.008744629  89.04  0.001143186    4.375    0.771
        77  -9.7216    109.6653     63.3345   3.1809610824e+01  -4.3881320494e+01  0.006915119  0.004890829 -62.18 0.0007052153    1.739    0.425
        78 -10.6396     36.7483     62.0899   3.2947041500e+01  -4.4350066464e+01   0.02101704   0.00550763  51.05  0.001453958    3.566    0.720
        79 -11.1052     62.5707     74.4104   3.2644756292e+01  -4.4056138754e+01   0.01753188  0.009256743  82.15  0.001360905    3.359    0.702
        80  -9.8323    131.4536     57.5070   3.1418776156e+01  -4.3805989599e+01  0.006439269  0.006246247 -19.31 0.0002081457    1.008    0.008
        81  -9.9206    236.0000    229.9565   3.1313556898e+01  -4.1280104714e+01   0.01058108  0.003722171  59.32 0.0006869221    2.930    0.659
        82 -10.9582     62.5002     53.5495   3.2465448750e+01  -4.4283425730e+01   0.01792195  0.006887893  64.34  0.001376714    3.035    0.671
        83 -10.9567     21.8496     53.9857   3.3114247790e+01  -4.4530131972e+01   0.01519155  0.008824864 -87.39  0.001243584    3.088    0.676
        84  -9.9099     86.4225     54.5251   3.2096930400e+01  -4.4123173532e+01   0.00642015   0.00620982   1.70  0.000111697    1.025    0.024
        85 -10.6123     53.5049     52.5049   3.2598663848e+01  -4.4350748361e+01   0.01166412  0.006604871  76.24  0.001038698    2.409    0.585
        86 -10.9222     27.6668     45.7053   3.2950200469e+01  -4.4584667078e+01   0.01555067   0.01004287 -14.43  0.001132594    1.719    0.418
        87 -10.4249     28.4720     42.4819   3.2909512614e+01  -4.4614836808e+01   0.01125099   0.01080621  -4.98 0.0005612891    1.022    0.022
        88 -11.5682    238.3498     42.3352   2.9638585516e+01  -4.3274813037e+01   0.01099834  0.009549012  16.50 0.0005785581    1.232    0.189
        89 -10.2833    184.4862     41.4796   3.0455509437e+01  -4.3636908328e+01   0.00646448  0.006236718 -13.46 1.376669e-06    1.008    0.008
        90 -10.6425     69.4241     41.2197   3.2248682216e+01  -4.4374061186e+01  0.008916765  0.006429815  77.74 0.0008110818    1.658    0.397
        91 -10.6943     36.7052     40.1515   3.2758219053e+01  -4.4589347404e+01   0.01469712   0.01083641 -86.62  0.001568813    1.749    0.428
        92 -10.8748     38.0634     35.7551   3.2698437860e+01  -4.4628787785e+01   0.01971053   0.01116082  26.18  0.001715314    2.557    0.609
        93 -10.6591    121.9346     36.9413   3.1385811965e+01  -4.4088498733e+01   0.01215552  0.009378941 -26.77  0.001386091    1.262    0.208
        94 -10.0041     80.4864     36.4952   3.2032691495e+01  -4.4355861027e+01  0.006476492  0.006233011 -33.20 0.0008102939    1.033    0.032
        95 -10.8130    176.5840     33.2348   3.0503652310e+01  -4.3776576968e+01   0.01182354  0.008712466 -28.91 0.0005120463    1.316    0.240
        96  -9.7495     89.0000     32.9570   3.1867424217e+01  -4.4340520059e+01   0.01073756  0.003726979  59.70  0.000806666    2.972    0.664
        97 -10.0264     81.4815     27.0009   3.1933573571e+01  -4.4452404293e+01  0.009174502  0.005766755 -84.73 0.0007042776    2.565    0.610
