#   1 NUMBER                 Running object number                                     
#   2 MAG_AUTO               Kron-like elliptical aperture magnitude                    [mag]
#   3 X_IMAGE                Object position along x                                    [pixel]
#   4 Y_IMAGE                Object position along y                                    [pixel]
#   5 X_WORLD                Barycenter position along world x axis                     [deg]
#   6 Y_WORLD                Barycenter position along world y axis                     [deg]
#   7 A_WORLD                Profile RMS along major axis (world units)                 [deg]
#   8 B_WORLD                Profile RMS along minor axis (world units)                 [deg]
#   9 THETA_WORLD            Position angle (CCW/world-x)                               [deg]
#  10 FWHM_WORLD             FWHM assuming a gaussian core                              [deg]
#  11 ELONGATION             A_IMAGE/B_IMAGE                                           
#  12 ELLIPTICITY            1 - B_IMAGE/A_IMAGE                                       
         1 -15.8423     71.8438    127.8468   6.4533707267e+01   4.0835189053e+01     4.451478      2.49013  63.32   0.01726941    2.366    0.577
         2 -15.3457    240.1647     71.6184   1.4484998000e+01   1.7857178113e+01     2.268036     0.922782 -44.42   0.01058535    2.111    0.526
         3 -13.5863     21.5224     39.4708   6.5366303847e+01   7.0081199405e+01     1.308358    0.7672887  39.73  0.006029419    1.896    0.473
         4 -15.0399    138.8769     29.6076   1.5467174054e+01   4.6445707302e+01     1.731288     1.164782 -76.89  0.008090038    1.651    0.394
         5 -14.3171    120.2357     21.7795   1.5757710519e+01   5.2372140868e+01    0.8714823    0.6886771 -65.18  0.004529452    1.301    0.231
         6 -13.4928      5.5598     20.4872   7.0457772134e+01   7.5772089457e+01    0.9839569    0.6751308 -81.44   0.00523873    1.722    0.419
         7 -12.5012     79.7370     16.9101   2.3410991081e+01   6.3502360702e+01    0.5849446    0.4290474  69.91  0.002968648    1.409    0.290
         8 -12.4909    223.0844     14.8734   2.5765472696e+00   2.7883444798e+01    0.2799579     0.244837  27.90  0.001761913    1.567    0.362
         9 -12.9538     55.4473     11.4475   2.9484851446e+01   6.9905664361e+01     0.727517    0.4999303  46.97  0.003807358    1.363    0.266
        10 -13.6238    197.2169      4.2228   1.3998316556e+00   3.4599935758e+01    0.6745073    0.4507462 -75.87  0.003900774    1.374    0.272
        11 -11.7168      5.1069      5.4446   6.3116658847e+01   7.9040561250e+01    0.2944433    0.2220758  -5.96  0.001834175    1.272    0.214
        12 -13.1122    182.0682      3.7490   2.2374345911e+00   3.8215049792e+01    0.7740698    0.2982275 -89.70   0.00309881    2.814    0.645
        13 -12.6111    124.7941    205.0652   6.2258191187e+01   1.5789473871e+01    0.5422277    0.3642887 -24.91  0.002982602    1.888    0.470
        14 -13.6462     99.0720    211.0725   6.8851896624e+01   1.8246589350e+01     1.884915    0.6485626  47.87  0.007217261    3.249    0.692
        15 -14.4834    139.6266    243.1418   6.3794909726e+01   7.8248555026e+00      2.29554    0.7315501  43.54  0.009454397    3.642    0.725
        16 -14.3109     97.0574    228.2299   7.1086548702e+01   1.5459717106e+01     2.119608    0.7598085  37.16  0.009950409    2.093    0.522
        17 -14.3657    121.8311    248.3740   6.7887515345e+01   9.2387269037e+00    0.9991968    0.4704439  32.46  0.004080847    1.579    0.367
        18 -14.2045    108.5731    243.2117   7.0079519839e+01   1.1609388134e+01    0.7046474    0.5422813  41.87  0.002896952    1.195    0.163
        19 -12.7132     69.9035    227.0775   7.6999533810e+01   1.8962630208e+01    0.7550312    0.3549362  46.47  0.002885746    1.765    0.433
        20 -12.0227     81.3176    229.1008   7.4627795362e+01   1.7245468104e+01    0.4402407    0.2224762  54.20  0.002066392    2.064    0.515
        21 -12.2775     96.3873    249.8120   7.3173526334e+01   1.2048126305e+01    0.4607565    0.1882825  32.74  0.002293191    1.775    0.437
        22 -14.2496     87.6691    239.3400   7.4115092954e+01   1.4741293116e+01     1.319674    0.4632625  49.02  0.005823448    2.974    0.664
        23 -12.9386     16.2201    242.5951   8.9364721929e+01   2.1728575050e+01    0.9956248    0.4237955  61.09  0.005806758    1.977    0.494
        24 -12.1014      6.5269    221.6614   9.0843780068e+01   2.6427523301e+01     1.125377    0.5827807  72.78  0.006824698    1.742    0.426
        25 -13.7773      5.8396    208.0003   9.0639434653e+01   2.9192925408e+01    0.9390511    0.2446572  50.42  0.004234833    2.569    0.611
        26 -14.5702     65.6830    241.5379   7.8957087466e+01   1.6908506670e+01     2.230632    0.7133027  48.48   0.01021391    2.718    0.632
        27 -14.1022     54.1952    210.7885   7.9394906760e+01   2.3879006035e+01     1.634515    0.7675743  80.25  0.007467948    2.904    0.656
        28 -14.1000     38.5869    148.6785   7.8317760425e+01   3.9804805275e+01      1.43106    0.8132948  30.42  0.004768264    1.683    0.406
        29 -14.4229     18.0441    120.9894   8.2549215718e+01   4.8963366192e+01     6.481748     2.073562  83.50   0.01891971    4.597    0.782
        30 -15.0127      8.2293    140.4371   8.7331838028e+01   4.4611138487e+01     3.108098    0.8335391 -85.20   0.01056948    3.612    0.723
        31 -15.5340     30.0005    187.1087   8.3819653520e+01   3.1487621291e+01     3.720646     1.420235  68.98   0.01500544    3.033    0.670
        32 -14.7334     24.7934    215.7784   8.6560432550e+01   2.5944426067e+01     3.138805     0.967712  74.37    0.0118361    4.394    0.772
        33 -14.9451      5.1095    186.9510   9.0193911452e+01   3.3726822494e+01     1.614351    0.6950653 -78.63  0.005817998    2.293    0.564
        34 -11.5096     39.8983    247.4842   8.4686265340e+01   1.8629300399e+01    0.4190788    0.1392715  56.27  0.002031267    2.788    0.641
        35 -12.2414     27.4371    249.1173   8.7294433680e+01   1.9566973931e+01    0.4564467    0.1662077  45.77  0.002567857    1.845    0.458
        36 -11.9326      7.4001    248.3197   9.1279526664e+01   2.1510768583e+01    0.4332157    0.1063205  46.27  0.001813785    2.286    0.563
        37 -11.9027    249.8788    202.1609   3.8665004146e+01  -1.4580695393e-01    0.2794575   0.09441017 -33.89   0.00147152    2.643    0.622
        38 -12.1608    166.4291    202.8768   5.3101338043e+01   1.0244978700e+01    0.3051214    0.2162156  12.98  0.001862862    1.294    0.227
        39 -12.9084    118.3138    199.0034   6.2918598104e+01   1.7809018552e+01    0.5565464    0.4054071 -49.66  0.003261229    1.583    0.368
        40 -14.4296    104.1020    191.4848   6.5284562720e+01   2.1303375982e+01     1.566513    0.9667193  41.03  0.006322817    1.422    0.297
        41 -14.5729     73.3027    154.3745   6.8401711916e+01   3.3999981902e+01     2.545909     1.439162  67.80   0.01049947    2.335    0.572
        42 -13.6300     80.0329    216.6581   7.3817755958e+01   1.9661343222e+01    0.8985249    0.5504392  53.82  0.005108483    1.583    0.368
        43 -12.7735    118.7691    132.5236   5.1335874532e+01   3.1509293589e+01    0.7248125    0.3294222  48.96  0.002664139    2.399    0.583
        44 -12.4621    121.5355    168.6710   5.7560237738e+01   2.3236860708e+01    0.5626149    0.2529565  44.02   0.00230655    2.167    0.539
        45 -11.9684     45.9103    160.6711   7.7302111002e+01   3.6000154762e+01    0.3873625    0.2478323  72.67 0.0006047391    1.602    0.376
        46 -12.2803    230.4962    125.4872   2.7381828599e+01   1.2152481505e+01     0.322349    0.1987127 -20.20  0.001802601    1.538    0.350
        47 -13.8845    244.2425    111.3640   2.2643021901e+01   1.1925166303e+01    0.8704141    0.7228804  74.24  0.005490309    1.734    0.423
        48 -12.1773    230.7473    115.7430   2.5292852033e+01   1.3483170520e+01     0.324135    0.2261549 -17.90  0.001931958    1.350    0.259
        49 -13.2045     44.8522    228.2222   8.2658702621e+01   2.1539480835e+01    0.8628516    0.4950103 -76.72  0.004486607    2.022    0.506
        50 -11.0555    101.8081    116.8331   5.2634583668e+01   3.8371053324e+01    0.2138659    0.1809131  77.47 0.0003887534    1.320    0.242
        51 -13.5661     84.6011    103.0574   5.4824028665e+01   4.4962098550e+01     1.213301    0.7285008 -65.31  0.004199166    1.876    0.467
        52 -14.7499     86.1857    147.6917   6.3553365173e+01   3.3669225878e+01     1.897693     1.164382  87.41  0.007757789    2.425    0.588
        53 -12.2971     26.0622     92.9759   7.5880528022e+01   5.5848953208e+01    0.9068271     0.416776 -83.23  0.003537198    2.363    0.577
        54 -11.8954     22.4894     84.6420   7.6131714593e+01   5.8406459099e+01    0.7295499    0.4309696  61.91  0.003312974    1.926    0.481
        55 -12.6165     61.7874     92.9332   6.0732871269e+01   5.1439087694e+01     0.515376    0.3958602 -35.52  0.002481692    1.464    0.317
        56 -13.5975     47.4369     86.0580   6.5055004293e+01   5.5320038978e+01     1.237905    0.7535185 -63.50  0.004250557    1.571    0.364
        57 -11.0579    201.4969    108.0111   2.7838065136e+01   1.9808443099e+01    0.2163822    0.1199351 -35.30  0.001035748    1.599    0.375
        58 -12.8524     71.1468     90.9718   5.6558535911e+01   5.0394374143e+01    0.7523966    0.2903286  38.43  0.002600319    2.550    0.608
        59 -13.3077    163.8241    244.0289   5.9244709942e+01   4.7839394453e+00    0.6604254    0.3561643  43.27  0.003868483    2.133    0.531
        60 -14.1950    238.3213     49.2077   9.5772961952e+00   2.0993494303e+01    0.7962065    0.7263784   9.91  0.005609111    1.393    0.282
        61 -11.7049     70.8819     79.8599   5.3485830807e+01   5.3199192576e+01    0.3759499    0.3205521 -18.17  0.001742425    1.367    0.269
        62 -14.1788    182.5878     71.7770   2.1651623947e+01   2.9485661902e+01     1.328941    0.7921733 -49.49  0.006199911    1.651    0.394
        63 -14.5102    212.7516     74.8517   1.8277480138e+01   2.2602116311e+01    0.9647343    0.4999735  72.91  0.004356786    2.702    0.630
        64 -11.6842     11.8398     59.0706   7.6971396286e+01   6.5952837293e+01    0.3982217    0.2964004  80.03  0.001997171    1.448    0.309
        65 -12.5434     26.9209    160.3558   8.2887000797e+01   3.8065816168e+01     1.815946    0.4042062  48.76  0.005889327    3.865    0.741
        66 -12.8962     39.3404     54.6918   5.9972635731e+01   6.4359166384e+01     1.122933    0.5364816 -65.72  0.004378885    2.412    0.585
        67 -12.3840     24.9415     55.7478   6.8480900429e+01   6.5765062853e+01    0.5862541    0.4425549  56.25  0.002892608    1.531    0.347
        68 -11.2734      5.1222     52.1598   7.9675775212e+01   6.8097927654e+01    0.3411119    0.2104763 -10.71  0.001744235    1.828    0.453
        69 -13.1185     77.0749     45.3883   3.8280679950e+01   5.9566301055e+01     1.040946    0.6409987 -52.25  0.004522759    1.808    0.447
        70 -11.6216     57.6580     47.9249   4.7844772581e+01   6.2988960957e+01    0.3044554    0.2239498  47.22  0.001499266    1.420    0.296
        71 -12.8845    244.5991    240.8854   4.5236127529e+01  -3.6240650172e+00    0.2396762    0.1443103 -11.27  0.001853489    1.301    0.232
        72 -11.8999      1.9880    237.6234   9.2149500043e+01   2.3839342409e+01    0.3147176    0.1712135  88.00  0.002033128    1.895    0.472
        73 -12.5942     71.3814     29.9160   3.3235968423e+01   6.3595356208e+01    0.5742869    0.5093557 -62.07  0.002249451    1.267    0.211
        74 -13.9181    239.1409    230.9732   4.4647789779e+01  -2.0978901847e+00    0.5069891    0.3267535  18.60  0.003343663    1.304    0.233
        75 -12.9667    151.4926    225.8864   5.9350914625e+01   8.8053259834e+00     0.518922     0.347836  38.90  0.003281263    1.437    0.304
        76 -12.5597    134.1568    220.2922   6.2196626344e+01   1.1945227442e+01    0.3680333    0.3117113  25.99  0.001978762    1.077    0.071
        77 -12.8513    243.1476    212.0588   4.1212957292e+01  -5.0816133091e-01    0.2570821    0.2101936 -15.30  0.002084908    1.431    0.301
        78 -12.3357     66.3741    205.4251   7.6038950434e+01   2.3528150955e+01    0.6771328    0.3955455 -87.62  0.003564506    2.117    0.528
        79 -11.9223     88.7167     24.5921   2.4546344292e+01   6.0245033267e+01     0.434566    0.4101791 -10.38  0.002161017    1.123    0.109
        80 -11.3725     62.0947    194.4255   7.6115251823e+01   2.6329614713e+01    0.7439796    0.2320994  47.45  0.002837228    2.908    0.656
        81 -10.9973     57.1626    188.7178   7.6862399759e+01   2.8158675618e+01    0.3434974    0.1577673  49.74  0.001191551    1.969    0.492
