#   1 NUMBER                 Running object number                                     
#   2 MAG_AUTO               Kron-like elliptical aperture magnitude                    [mag]
#   3 X_IMAGE                Object position along x                                    [pixel]
#   4 Y_IMAGE                Object position along y                                    [pixel]
#   5 X_WORLD                Barycenter position along world x axis                     [deg]
#   6 Y_WORLD                Barycenter position along world y axis                     [deg]
#   7 A_WORLD                Profile RMS along major axis (world units)                 [deg]
#   8 B_WORLD                Profile RMS along minor axis (world units)                 [deg]
#   9 THETA_WORLD            Position angle (CCW/world-x)                               [deg]
#  10 FWHM_WORLD             FWHM assuming a gaussian core                              [deg]
#  11 ELONGATION             A_IMAGE/B_IMAGE                                           
#  12 ELLIPTICITY            1 - B_IMAGE/A_IMAGE                                       
         1 -14.4827    148.9032     62.2346   8.6638791739e+01   3.9744207731e+01     1.359542     1.168923  13.18  0.003496739    1.312    0.238
         2 -14.8260    160.1490     47.3232   7.9831783447e+01   3.9285712508e+01     1.224614     1.086288 -24.92  0.003875429    1.231    0.188
         3 -15.1295    173.2155     16.2791   6.8698900230e+01   3.9894734747e+01     2.264793      1.38425  59.63  0.009560897    1.426    0.299
         4 -14.3662    189.6904     14.4967   6.5984304862e+01   3.6033511772e+01     1.065416    0.6486081 -89.12  0.004219255    1.734    0.423
         5 -11.2059     14.0219    241.1320   1.5002801846e+02   2.3244359624e+01    0.2441665   0.09888959  89.05  0.001106389    2.230    0.551
         6 -19.8229     87.1222    219.5770   1.3529317560e+02   1.7989857172e+01     8.730044     6.756802  61.54   0.04495115    1.104    0.095
         7 -11.6259    134.6584    198.8414   1.2256229102e+02   1.4135263339e+01    0.4766008    0.3244754  19.77  0.001804837    2.226    0.551
         8 -10.6613     29.4183    200.9425   1.4455080817e+02   2.9589534527e+01    0.1618773    0.1397312 -76.59 0.0006359643    1.339    0.253
         9 -11.1976     20.4078    195.7613   1.4581609369e+02   3.1644761818e+01    0.1516005    0.1140281 -74.87 0.0005530281    1.262    0.207
        10 -10.6075     24.7246    202.8780   1.4559041373e+02   2.9689343441e+01    0.1566912    0.1142285 -81.21 0.0003010578    1.178    0.151
        11 -13.0866    204.5976    174.9167   1.0319848458e+02   4.9380402596e+00    0.5744427    0.5407584 -35.28  0.002127955    1.097    0.088
        12 -12.4858    196.6819    175.5585   1.0493659176e+02   6.4316380763e+00    0.5613195    0.4271581 -73.65  0.002463673    1.836    0.455
        13 -12.9792    193.2237    165.5089   1.0351906568e+02   9.1081553713e+00    0.4667884    0.3651543 -44.28 0.0009983296    1.302    0.232
        14 -13.5436    189.9863    161.0087   1.0321632984e+02   1.0694645335e+01      1.19649    0.5035547 -42.26  0.002701529    2.407    0.585
        15 -12.9630    230.2986    167.9333   9.6759596926e+01   1.0977265184e+00    0.5067036    0.2851746 -41.89  0.002042851    1.749    0.428
        16 -11.5766    139.8855    241.3986   1.2779295838e+02   5.0865362740e+00    0.2073708    0.1771518 -61.64  0.001162538    1.371    0.270
        17 -10.2475      5.3250    162.4274   1.4593694450e+02   4.0248553324e+01    0.1360392   0.09491236  58.78 0.0005225201    1.464    0.317
        18 -13.2861    134.8736    238.7898   1.2840655237e+02   6.4075051353e+00    0.3559304    0.3069821  72.97  0.001157846    1.140    0.123
        19 -12.1614    114.9390    250.0388   1.3351081877e+02   7.7793487971e+00    0.1759242    0.1572626  73.93 0.0009349994    1.174    0.149
        20 -11.1727     17.9102    154.0152   1.4237080034e+02   4.1071903424e+01    0.1979906    0.1432224 -60.63 0.0004133043    1.313    0.238
        21 -11.1487     18.5386    149.2510   1.4169440111e+02   4.2093039385e+01    0.2895296    0.2366183  72.64  0.002024997    1.236    0.191
        22 -19.2412     73.0038     95.9810   1.1731921677e+02   4.8201853441e+01     18.76314    0.9081495 -52.14   0.02695799   17.790    0.944
        23 -12.6660    161.1187    152.8194   1.0772215145e+02   1.8671099703e+01    0.3716278    0.2585557  51.24  0.001065606    1.438    0.304
        24 -11.8675    174.0682    148.3682   1.0381392560e+02   1.6783933719e+01    0.4367686    0.3491488 -65.26  0.001365238    1.399    0.285
        25  -9.8823      8.4423    148.4818   1.4390535633e+02   4.3090894468e+01    0.1184726   0.08875875 -75.18 0.0001706412    1.060    0.057
        26 -10.5897     32.6747    250.5563   1.4767016631e+02   1.9396496977e+01     0.106364   0.07524414  79.20 0.0002788176    1.071    0.066
        27 -11.1300    151.3358    236.1269   1.2486634629e+02   3.9911791522e+00    0.2690431    0.2071302  39.90 0.0009091891    1.178    0.151
        28 -10.1867      2.9629    134.9967   1.4371957492e+02   4.6486448281e+01    0.1727885    0.1077155 -50.63 0.0006393816    1.597    0.374
        29 -12.7491    160.4242    127.9697   1.0206351224e+02   2.4227518726e+01    0.5183343    0.3940375 -62.70    0.0016833    1.451    0.311
        30 -10.7975    139.5079    247.9550   1.2871649456e+02   4.0382640978e+00    0.4771382    0.2045126 -56.59  0.001625199    2.871    0.652
        31 -11.0212    167.3798    112.6250   9.6595179622e+01   2.5860734767e+01    0.3466541    0.2579789 -84.02  0.001235538    1.798    0.444
        32  99.0000     32.3270    222.0026   1.4572839654e+02   2.4908095583e+01    0.3460973    0.1939116 -49.96  0.001900289    2.814    0.645
        33 -10.8434    205.3398    110.2184   8.8155819004e+01   1.7326816683e+01    0.3130397    0.2153224  47.74   0.00093298    1.510    0.338
        34 -12.2116     25.6684    106.4517   1.3375119975e+02   5.1172136502e+01    0.3516012    0.2364821   0.31   0.00155792    2.064    0.516
        35 -11.2990    217.8626    218.5372   1.0910089724e+02  -5.0227167145e+00    0.2408934     0.168488 -52.94  0.000898213    1.932    0.482
        36 -12.9054     47.6020     92.7626   1.2436673979e+02   5.2102200258e+01    0.4645194     0.325576  16.56  0.002040643    1.729    0.421
        37 -11.0541     36.9701     95.9757   1.2836872368e+02   5.2484052484e+01    0.3246975    0.1915581 -68.50 0.0009643881    1.688    0.408
        38 -11.3660     40.0225     94.4674   1.2710563207e+02   5.2517557846e+01    0.2738102    0.2405696 -26.03 0.0009929512    1.200    0.167
        39 -10.4119    124.5239     95.5023   1.0243447502e+02   3.9099281297e+01    0.1498797      0.14681 -29.53 9.063937e-05    1.004    0.004
        40 -11.9844      6.0830     88.9915   1.3647674752e+02   5.6329601967e+01    0.4749222    0.2238364 -10.79  0.002326992    3.508    0.715
        41 -10.9111    143.1836     81.6607   9.3731320211e+01   3.7690715322e+01    0.2551986    0.2078342 -49.92 0.0006900209    1.273    0.214
        42 -11.0929     24.5555    215.8330   1.4662785581e+02   2.7029779323e+01    0.1473454    0.1166888  72.78 0.0003054868    1.168    0.144
        43 -11.4191    127.6954    246.0744   1.3068955026e+02   6.3574419449e+00    0.2710007    0.1748431  52.68  0.001572092    1.282    0.220
        44 -13.3386    164.3675     38.4806   7.6445377122e+01   3.9455639970e+01    0.4457267    0.4091202  49.17 0.0008193756    1.088    0.081
        45 -13.1093     11.5122    205.9129   1.4821222095e+02   3.0410477585e+01    0.3656198    0.2811835  28.65  0.002073447    1.930    0.482
        46 -11.1214     13.5283     59.9021   1.2788518026e+02   6.1769758981e+01    0.1726356    0.1589442  -5.10  0.000416684    1.297    0.229
        47 -11.8264    139.8833    200.9668   1.2179499030e+02   1.2715518196e+01    0.6001909    0.3423052  45.11  0.002796554    1.607    0.378
