#   1 NUMBER                 Running object number                                     
#   2 MAG_AUTO               Kron-like elliptical aperture magnitude                    [mag]
#   3 X_IMAGE                Object position along x                                    [pixel]
#   4 Y_IMAGE                Object position along y                                    [pixel]
#   5 X_WORLD                Barycenter position along world x axis                     [deg]
#   6 Y_WORLD                Barycenter position along world y axis                     [deg]
#   7 A_WORLD                Profile RMS along major axis (world units)                 [deg]
#   8 B_WORLD                Profile RMS along minor axis (world units)                 [deg]
#   9 THETA_WORLD            Position angle (CCW/world-x)                               [deg]
#  10 FWHM_WORLD             FWHM assuming a gaussian core                              [deg]
#  11 ELONGATION             A_IMAGE/B_IMAGE                                           
#  12 ELLIPTICITY            1 - B_IMAGE/A_IMAGE                                       
         1 -12.8017    249.5489     51.3509   3.5215681963e+02   2.1610348091e+01    0.9097227    0.1377425 -36.16  0.003309482    4.324    0.769
         2 -11.6178     78.7336     14.1412   3.5242353077e+00   6.3198663631e+01    0.2406456     0.232627  42.29 0.0001748628    1.117    0.105
         3 -10.7018     73.4849     14.3357   5.0920844332e+00   6.4424843468e+01    0.2848374    0.1901214 -66.84 0.0008496207    1.913    0.477
         4 -11.2246     50.8923     13.4763   1.2719675239e+01   6.9632550394e+01     0.218167    0.2115859  16.91 0.0002707709    1.096    0.087
         5  -9.9346    116.8174     11.1363   3.5467111640e+02   5.4173062065e+01    0.1706942    0.1482742  45.29 0.0004404888    1.330    0.248
         6  -9.2733     92.6819      8.3702   3.5767664971e+02   6.0397705613e+01    0.1425386   0.08960859 -64.83  0.000703519    1.791    0.442
         7 -10.5172     52.6030      8.5410   9.1118230802e+00   6.9844413291e+01    0.5446516    0.1296269  60.25  0.001668648    4.429    0.774
         8 -10.2402     83.0779      7.0831   3.5912712272e+02   6.2870104005e+01    0.1963061    0.1758738  79.60 0.0004406662    1.037    0.036
         9 -10.5910     73.2969      6.3190   1.1423023178e+00   6.5301953651e+01     0.253503      0.15116  44.65  0.001045145    1.664    0.399
        10 -10.8155     72.4992      2.9696   3.5964214512e+02   6.5800303290e+01    0.2459006    0.2252535 -55.76 0.0006871887    1.198    0.165
        11 -10.2078     66.3023      5.4521   2.6419013524e+00   6.7041310667e+01    0.2949058    0.1624426 -59.29  0.001329393    2.557    0.609
        12 -11.1019    178.2123      3.4750   3.4634665982e+02   4.0566605821e+01    0.4788875    0.1814435  75.36  0.002300069    2.464    0.594
        13  -9.3511    114.5516      1.4505   3.5141455945e+02   5.5623130899e+01    0.1299704    0.1094949 -85.44 0.0001048006    1.024    0.024
        14  -9.6661    221.1366    242.2053   2.9338101007e+01  -1.7922520229e+00    0.1271814    0.1048267  -5.25 0.0004570218    1.324    0.245
        15 -10.8745    139.2002    249.0582   4.5210299419e+01   5.2898485926e+00    0.2586988    0.1714448 -35.47  0.001281527    1.593    0.372
        16 -11.4697    125.1987    246.8461   4.7874517515e+01   7.1620922890e+00    0.3302423    0.1852091 -50.67 0.0007345531    2.040    0.510
        17 -10.8498    114.5346    248.4440   5.0332688906e+01   8.0609774373e+00    0.2891926    0.2190863 -53.85   0.00156835    1.597    0.374
        18  -9.7560     85.9657    250.5802   5.6822623075e+01   1.0785038627e+01    0.1915603   0.09952905  23.59  0.001020695    1.616    0.381
        19 -12.7256     15.2441    229.5876   7.1927008586e+01   2.1948449801e+01    0.6131346    0.4620954  60.50  0.003320653    1.166    0.142
        20 -12.6989     21.4973    241.2374   7.0945780489e+01   1.8994375876e+01     1.005023    0.5257813 -13.48  0.004316012    3.816    0.738
        21 -12.6411      5.7804    234.1179   7.4309161024e+01   2.1779425420e+01     0.571013    0.4807601 -31.21  0.002690446    1.590    0.371
        22 -12.5786      6.0604    248.4240   7.4666000767e+01   1.8874451911e+01    0.6718122    0.3201825  26.20  0.003753128    1.741    0.426
        23 -12.7189     10.3547    240.2517   7.3456557754e+01   2.0147150478e+01    0.8081338    0.4481744 -38.45   0.00416278    2.844    0.648
        24 -12.0434      4.3063    242.5265   7.4890117217e+01   2.0181391447e+01    0.7210868    0.1682132  45.14  0.003141912    2.674    0.626
        25  -9.6893    179.0821    241.4012   3.6451711649e+01   2.2789692347e+00    0.1625046   0.09182981  20.41  0.000370099    1.550    0.355
        26 -10.5968     32.9757    240.5507   6.8259404653e+01   1.8089373057e+01    0.2271727    0.1417019  50.35 0.0004720321    1.366    0.268
        27  -9.7461     64.4632    237.9515   6.0697130761e+01   1.5456975893e+01    0.1647291    0.1244421 -77.51  0.001019479    1.563    0.360
        28  -9.7173    211.5195    237.5703   3.0249443690e+01  -3.3454342336e-01    0.1070542   0.07985317  -7.52 -1.581852e-05    1.037    0.036
        29 -11.3571    119.9056    235.2271   4.7679262010e+01   9.7495274889e+00    0.2869549    0.1775442 -33.26  0.001427269    1.808    0.447
        30  -9.9638    250.6419    233.7301   2.3724038154e+01  -3.2161609563e+00    0.1234846   0.07298499 -33.91 0.0003404841    1.501    0.334
        31 -10.6842    158.5475    233.5413   3.9335329830e+01   5.6460601361e+00    0.2063962    0.1782011  14.66  0.001057698    1.191    0.161
        32 -11.6395     35.9928    230.4881   6.6986858946e+01   1.9874042955e+01    0.5124115    0.2112198 -70.24  0.002416427    2.630    0.620
        33 -10.2737    100.2785    233.1602   5.1871623506e+01   1.2395861316e+01    0.2463974    0.1298698  46.19  0.001221283    2.019    0.505
        34 -10.7557     72.5230    231.6351   5.8250863280e+01   1.5841924358e+01    0.3983381    0.2362524 -44.03  0.002111591    2.035    0.509
        35 -11.6685    152.9179    230.6929   4.0086108774e+01   6.7366948766e+00    0.4263247    0.2524988 -42.57  0.002297678    1.741    0.426
        36 -10.6199    155.3175    225.9100   3.8942964331e+01   7.2518364933e+00    0.2356503    0.1477992 -58.30   0.00130529    2.204    0.546
        37  -9.9917    217.5910    231.1984   2.8353496026e+01  -5.3937441876e-02    0.1520765   0.07761506 -27.79 0.0009464318    1.649    0.394
        38 -10.8391     60.6904    230.6406   6.1015179219e+01   1.7330648431e+01    0.4747252     0.147367  38.22  0.001962217    2.463    0.594
        39 -10.0801     24.5160    229.1824   6.9687034580e+01   2.1220455131e+01    0.2014867    0.1115984 -69.96 0.0005708961    1.997    0.499
        40 -10.9481    138.5581    227.9356   4.2714827774e+01   8.8594141417e+00    0.2888609    0.2066655  38.32 0.0005018665    1.473    0.321
        41 -13.0806    114.7701    227.0722   4.7855178187e+01   1.1836417179e+01    0.5008842    0.2956842 -50.85   0.00052268    1.860    0.462
        42 -10.6959    120.0001    227.0031   4.6664397144e+01   1.1225308808e+01    0.1925251     0.178345 -17.93 0.0003209745    1.155    0.134
        43  -9.4226    221.6507    228.7326   2.7347938894e+01  -1.0369858265e-01    0.1100164   0.06346894  -8.05 0.0006988231    1.619    0.382
        44 -11.6378    107.0668    226.2758   4.9528626918e+01   1.2906074621e+01    0.3138627    0.2785619 -41.14  0.002063765    1.254    0.202
        45  -9.7586     85.3568    226.7569   5.4706358740e+01   1.5369115714e+01    0.1629875    0.1161533 -50.04 0.0006501617    1.584    0.369
        46  -9.5753     49.4844    227.5243   6.3507033066e+01   1.9155923807e+01    0.1281825    0.1086564  39.08 -4.310327e-05    1.013    0.013
        47 -10.4610     30.1428    227.6998   6.8247668878e+01   2.1019668093e+01    0.2108745    0.1809021 -89.16 0.0007865462    1.269    0.212
        48 -10.0850     80.2899    224.9203   5.5744113185e+01   1.6325895486e+01     0.322308    0.1546795 -52.10  0.001409354    2.311    0.567
        49 -11.3018    147.6631    224.2715   4.0296074511e+01   8.4207199750e+00    0.3001358    0.2014491 -33.85 0.0008952671    1.488    0.328
        50 -10.1073     91.9645    224.8172   5.2919732478e+01   1.4984996457e+01    0.2043287    0.1851687 -64.80 0.0007882881    1.282    0.220
        51 -11.7046     47.2254    224.0247   6.3811927888e+01   2.0133247541e+01     1.048161     0.110538 -66.07  0.003106583    6.177    0.838
        52 -11.5120     49.2162    221.2381   6.3109796250e+01   2.0529320278e+01    0.5400881    0.2277998  62.17  0.002159654    3.074    0.675
        53 -11.7307    171.3778    219.4373   3.4822189534e+01   6.4640416403e+00    0.3988508     0.253642  26.28  0.001330151    1.484    0.326
        54 -11.2102    174.0000    222.9913   3.4836208079e+01   5.5997075580e+00    0.2360121    0.1527341 -38.22 0.0003500624    1.506    0.336
        55 -10.2855    176.7691    221.9798   3.4161177182e+01   5.4495581096e+00     0.179805    0.1434515  -4.17 0.0003223699    1.019    0.018
        56 -10.5781    230.9186    227.5092   2.5727710098e+01  -7.8578200496e-01    0.1419977   0.08810791  16.51 0.0005966068    1.542    0.352
        57 -11.8825     22.1824    221.8806   6.9897768816e+01   2.3007869454e+01    0.4596472    0.2034304  53.84  0.002198265    2.008    0.502
        58 -11.7453    159.8235    222.1687   3.7503343495e+01   7.3513000272e+00    0.4256219    0.1916109  39.33  0.002049781    2.471    0.595
        59 -11.8209    128.0212    214.8573   4.3271914127e+01   1.2511858852e+01    0.3746361    0.2289246  41.72  0.001557485    1.717    0.418
        60 -12.4250    126.3744    221.3418   4.4512194807e+01   1.1501562676e+01    0.6473383    0.3144559  22.23  0.002772348    1.970    0.492
        61  -9.9242    121.9642    217.5122   4.5005299582e+01   1.2764604244e+01    0.1890674     0.153511  21.20 0.0008211666    1.092    0.085
        62 -11.0264    120.4901    214.0306   4.4880656171e+01   1.3619160904e+01    0.2602272    0.2108209  46.42 0.0007200081    1.364    0.267
        63 -12.6844      3.6240    214.9474   7.4211249736e+01   2.6099840426e+01    0.8701544     0.434996 -64.00  0.004426082    2.241    0.554
        64 -12.5809     12.1374    190.7107   7.0962592616e+01   3.1148283497e+01    0.5503545     0.321314 -82.49  0.000698616    1.685    0.407
        65 -12.4089      7.1635    221.8524   7.3578776796e+01   2.4287413177e+01    0.9695694    0.4968372 -10.82  0.004164441    3.521    0.716
        66 -11.6082      1.5466    203.4804   7.4349801875e+01   2.8892777001e+01    0.5012394    0.1819944 -88.60  0.001587901    2.759    0.638
        67 -12.7842      6.7156    201.1575   7.2910482961e+01   2.9048198268e+01    0.9767508    0.3681555  52.71  0.004250681    2.262    0.558
        68 -10.7955     11.2968    217.3099   7.2392257814e+01   2.4956538266e+01    0.1818969    0.1699371 -16.67 0.0002321564    1.340    0.254
        69 -11.8645     13.5028    214.5145   7.1722819128e+01   2.5401791655e+01    0.3546951    0.2183889 -81.55  0.001238174    1.681    0.405
        70 -11.4516     41.1812    220.6326   6.5083749074e+01   2.1482001726e+01     0.382607    0.2240338   7.46    0.0018846    2.068    0.517
        71 -11.0198    192.4455    219.1904   3.0859835334e+01   4.1585914925e+00    0.2827019    0.2063485   8.82  0.001937326    1.217    0.178
        72 -10.3897     75.4097    219.6748   5.6420825231e+01   1.7978198593e+01    0.3741132    0.1432505  23.01  0.001458265    2.518    0.603
        73 -11.9856      5.1100    193.5616   7.3028309958e+01   3.0997384410e+01    0.5560578     0.319753 -58.47  0.002831584    1.948    0.487
        74 -11.7076     23.4082    216.7027   6.9327445473e+01   2.4047257309e+01    0.2801996    0.2223733  29.89  0.001121723    1.179    0.152
        75 -11.3340     29.5929    215.5757   6.7694767194e+01   2.3731392624e+01    0.3711108    0.2227931 -44.55  0.001898164    2.144    0.534
        76 -10.4235     91.4282    217.5774   5.2247794233e+01   1.6517721576e+01    0.2827821     0.213063 -61.33  0.001596618    1.502    0.334
        77 -10.9010     86.5052    215.5165   5.3228486533e+01   1.7542299947e+01    0.3164672    0.2010827  42.76  0.001044226    1.477    0.323
        78  -9.8404     83.4610    213.4465   5.3758246604e+01   1.8348458690e+01    0.2270412    0.1750972  63.84 -2.342282e-05    1.459    0.315
        79 -12.0067    140.0505    206.5800   3.9400967437e+01   1.2539995024e+01    0.5070409    0.2897206 -62.07  0.002434758    2.412    0.585
        80 -11.6174    146.0125    216.4865   3.9552685021e+01   9.9776952251e+00    0.4236489    0.3293007 -69.98  0.002516864    1.889    0.471
        81 -11.1876    142.3091    214.6790   4.0088647265e+01   1.0758756612e+01    0.2545783    0.2309712  71.51 0.0007179517    1.531    0.347
        82  -9.5421     68.3076    217.0329   5.7941843439e+01   1.9357622017e+01    0.1700969    0.1613481  53.88 0.0003457971    1.099    0.090
        83 -11.1862    108.5236    215.0042   4.7813899110e+01   1.4932805263e+01    0.2514551    0.2326492 -44.07 0.0007118966    1.198    0.165
        84 -10.2438    176.1551    215.1427   3.3262750903e+01   6.6075110485e+00    0.1476193    0.1365826   8.45 0.0003675461    1.296    0.228
        85 -10.9466    156.4495    213.2174   3.6888737763e+01   9.2747089831e+00    0.2700398    0.2207983 -71.35  0.001435514    1.850    0.460
        86 -10.4527    172.5290    212.3538   3.3538912077e+01   7.4862650323e+00    0.2403068    0.1100989 -44.68  0.001204094    2.148    0.534
        87 -10.6555     40.3403    212.3539   6.4719499149e+01   2.3413534146e+01    0.2620438    0.2345031 -12.73 0.0006998682    1.326    0.246
        88 -10.7181     72.9078    209.6085   5.6028043789e+01   2.0445913941e+01    0.3365035     0.266143  77.44  0.001072314    1.427    0.299
        89 -11.4092    162.2128    209.1021   3.5090413413e+01   9.2810804693e+00    0.2831207    0.2268492   6.28 0.0009920723    1.111    0.100
        90  -9.6104    114.4981    210.4426   4.5801855307e+01   1.5089317348e+01    0.1318488    0.1170917  16.68 3.444391e-05    1.010    0.009
        91 -10.4278     96.8178    208.2478   4.9810554169e+01   1.7799655552e+01    0.3109657    0.1661088 -56.44  0.001293014    2.010    0.503
        92 -10.4127     26.5569    208.8579   6.8080017191e+01   2.5548424876e+01    0.2387627    0.1199369 -73.79  0.001149572    2.071    0.517
        93 -10.4332    180.3733    207.8798   3.1346927931e+01   7.2926339905e+00    0.1987637    0.1556266  26.70 0.0009245402    1.349    0.259
        94 -11.2102     33.9864    207.7773   6.6061370161e+01   2.5094296127e+01    0.2986499    0.1649898  26.80 0.0009385264    1.630    0.386
        95 -11.4699     36.0050    204.9988   6.5333111594e+01   2.5544329426e+01    0.3931206    0.1855585  53.68   0.00176795    2.035    0.509
        96 -10.4265    103.1870    205.8960   4.7933401218e+01   1.7480090542e+01    0.2460045    0.2123272 -33.31  0.001069053    1.228    0.186
        97 -12.1225    146.8281    202.7285   3.7336352841e+01   1.2379817396e+01    0.5109132    0.3722463  20.99  0.002987938    1.286    0.223
        98 -11.3631     18.7361    204.5789   6.9895164031e+01   2.7248972243e+01    0.5154728    0.2338651  16.89  0.002290579    2.327    0.570
        99 -11.9283     85.0269    198.9810   5.1667355183e+01   2.1327839288e+01    0.8089305    0.3719912 -58.77  0.003512211    2.273    0.560
       100 -11.8863     91.6817    198.4442   4.9868359529e+01   2.0588432547e+01    0.7271554    0.3083584 -51.18  0.002117514    2.452    0.592
       101 -10.1657    163.4731    202.5034   3.3809856520e+01   1.0275267789e+01    0.1290029    0.1056484  -8.73 -5.505439e-05    1.082    0.076
       102 -10.5980    120.8516    201.1514   4.2998445258e+01   1.6134960474e+01     0.185556    0.1488494 -14.87 0.0005017289    1.300    0.231
       103 -11.3323    136.0096    198.0838   3.9017742076e+01   1.4707144509e+01    0.3314593    0.2942193  35.03  0.001851936    1.202    0.168
       104 -10.9001    176.3839    198.3197   3.0584489701e+01   9.3717138765e+00    0.2720311    0.1628859  23.88  0.001513469    1.669    0.401
       105 -10.6451    168.0470    204.0340   3.3132123730e+01   9.4336736500e+00    0.1838841    0.1597317  -3.49 0.0003222277    1.057    0.054
       106 -12.0472     36.6400    196.9715   6.4566422620e+01   2.7391970245e+01     0.394152    0.2348541  54.22  0.000374968    1.576    0.365
       107 -11.6350     20.6819    197.8102   6.8998513615e+01   2.8692614970e+01    0.4455805    0.2505296  12.73  0.002145454    1.990    0.497
       108 -12.2012     23.1997    194.1610   6.8086348496e+01   2.9355362525e+01    0.5278226    0.2574164  68.35   0.00163993    2.149    0.535
       109 -11.3478    122.9307    196.1729   4.1767459410e+01   1.6873139405e+01    0.3146593    0.2192453  44.04  0.001554185    1.522    0.343
       110 -11.1126    192.2729    193.4422   2.6826090682e+01   8.2184503804e+00    0.2892919    0.2239512  51.56  0.001132232    1.960    0.490
       111 -10.6430    145.8102    194.2227   3.6219886167e+01   1.4126178442e+01    0.1821304    0.1684875  11.77 0.0003837659    1.104    0.094
       112 -11.4804    159.5493    192.4020   3.2984441099e+01   1.2607567991e+01    0.3209683    0.2030066  44.53  0.001684697    1.898    0.473
       113  -9.8528    127.2498    191.9661   4.0095809759e+01   1.7141980737e+01    0.1663302    0.1149036 -51.51 0.0003363056    1.516    0.340
       114  -9.7045     50.0534    190.5087   6.0262855342e+01   2.7548094303e+01    0.2013716    0.1296873  26.12 0.0004014452    1.475    0.322
       115 -10.1897    237.7884    189.0794   1.8784769845e+01   3.7283443230e+00    0.1568693    0.1196858 -30.83 0.0003175862    1.201    0.167
       116 -11.1179    110.3875    187.7315   4.3566699460e+01   2.0416374980e+01    0.2805367    0.2427225  82.18  0.001304665    1.401    0.286
       117 -11.1702    133.2611    191.0786   3.8547951195e+01   1.6482252554e+01    0.3610791     0.252182 -15.95  0.001868065    1.653    0.395
       118  -9.5983    195.6804    187.3513   2.5197064443e+01   8.7937180413e+00    0.1092058   0.09727898 -72.53 0.0007047781    1.743    0.426
       119 -11.4179    128.2055    185.5568   3.8845249781e+01   1.8337273405e+01    0.2538099    0.1949292 -47.64  0.001394589    1.329    0.247
       120 -10.4994    163.7739    184.7557   3.0823068238e+01   1.3444351852e+01    0.2321241    0.2027268 -38.73 0.0007609183    1.187    0.157
       121 -10.1422     33.0160    184.4985   6.4608470805e+01   3.0834435706e+01    0.3195554     0.115035  60.45  0.001050553    3.564    0.719
       122 -10.9527     26.1466    183.8440   6.6553398113e+01   3.1655326852e+01     0.297215    0.1779861  77.77  0.001431135    1.706    0.414
       123 -11.6576      3.0060    184.0985   7.3215034632e+01   3.3489718353e+01     0.325036    0.2932148 -75.91  0.001201202    1.204    0.170
       124 -10.3878    181.9532    184.1184   2.7141325226e+01   1.1098395488e+01    0.1867601    0.1567801 -15.79  0.000333904    1.020    0.020
       125  -9.8327    105.3668    183.2013   4.4159868426e+01   2.2139205325e+01    0.1875608    0.1365675 -71.73 0.0004807162    1.630    0.386
       126 -10.7576     94.7868    180.7501   4.6589505937e+01   2.4207871001e+01    0.4042258     0.242058 -52.32  0.001279293    1.713    0.416
       127 -11.9006    136.5941    175.7818   3.5211366108e+01   1.9146041171e+01    0.5399806    0.3402284 -68.41  0.001485844    2.287    0.563
       128 -10.9378    116.8396    177.9757   4.0386439561e+01   2.1634403736e+01    0.2835029    0.1970155  39.58   0.00120659    1.427    0.299
       129  -9.3839     51.3440    178.2623   5.8634662552e+01   3.0461441169e+01    0.1402602    0.1081385 -22.38 0.0006973475    1.598    0.374
       130 -13.6540    127.7039    172.6591   3.6783171388e+01   2.1159505889e+01    0.6601961    0.3954442 -37.67   0.00135345    1.767    0.434
       131  -9.5925     62.7783    177.2191   5.5142236980e+01   2.9354920655e+01    0.2301033    0.1189015  12.92 0.0008855231    2.478    0.596
       132 -11.1200     31.2841    175.7838   6.4399317420e+01   3.3233858570e+01    0.3449261    0.2035021 -72.27  0.001461122    1.679    0.404
       133 -11.4302      1.9074    175.0829   7.3141001859e+01   3.5853672865e+01    0.4680223    0.1885705 -86.43  0.001941455    2.372    0.578
       134 -10.8955    107.2380    175.4888   4.2449652952e+01   2.3622164321e+01    0.2652695    0.2474403  30.56 0.0005774305    1.044    0.042
       135  -9.7891    168.3120    174.6309   2.8118322771e+01   1.4686588696e+01    0.1248738    0.1059154 -86.24 0.0007036191    1.771    0.435
       136  -9.9062     90.5369    174.4917   4.6809827618e+01   2.6296231201e+01    0.2597327    0.1730573  77.87  0.001137136    2.107    0.525
       137 -10.8706     91.4613    170.3165   4.5903083299e+01   2.7170147424e+01    0.3850975    0.2462865 -55.27  0.001095681    1.588    0.370
       138 -10.9791    143.6723    172.5713   3.3012164773e+01   1.8740052353e+01    0.3180778    0.2055567  40.71  0.001595829    1.625    0.385
       139 -10.6007     80.0797    173.0646   4.9554103823e+01   2.8116148266e+01    0.3712911    0.2138861  27.59  0.001641821    1.700    0.412
       140 -13.2489     15.9842    169.6058   6.8593840825e+01   3.6220832795e+01    0.6889394    0.5597308 -75.49  0.001356785    1.225    0.184
       141 -11.8186     21.5196    169.5273   6.6879684487e+01   3.5773076769e+01    0.3739216    0.2809151 -78.12  0.001619297    1.299    0.230
       142  -9.9939    208.5267    170.0835   2.0009203420e+01   9.9792595544e+00    0.1814671    0.1008609 -39.71 0.0004535718    1.524    0.344
       143 -10.3067    198.7945    170.2584   2.1662280758e+01   1.1225142392e+01    0.1998119    0.1522616  33.27  0.001125436    1.491    0.329
       144 -10.9309    152.9605    170.3085   3.0539435942e+01   1.7787585559e+01      0.18896    0.1723648  -3.94 0.0006479906    1.043    0.042
       145 -10.9049    121.2987    168.2162   3.7584257484e+01   2.3126493216e+01    0.4374351    0.1801067  36.89  0.001689284    2.356    0.576
       146 -10.9911      3.3574    168.0398   7.2375673263e+01   3.7580040410e+01    0.4088218    0.1925858  21.31  0.001830089    2.110    0.526
       147 -10.8554    201.8038    166.5217   2.0475733202e+01   1.1446780407e+01    0.2139198    0.1652678 -40.82 0.0003002835    1.226    0.184
       148 -11.3095    171.6926    166.4255   2.5939111687e+01   1.5724571323e+01    0.2547309     0.231101 -81.74  0.001239106    1.475    0.322
       149  -9.4653     99.2887    167.6433   4.3292271146e+01   2.6650236254e+01     0.150396    0.1120176  70.24  0.000702545    1.680    0.405
       150  -9.6725     39.0208    168.5254   6.1351715626e+01   3.4347755224e+01    0.2309624   0.08161497  45.12  0.000810043    2.664    0.625
       151 -10.2831    152.2752    165.0193   2.9706087945e+01   1.8951775815e+01    0.1946538    0.1726547 -33.45 0.0006469627    1.065    0.061
       152 -11.4488     24.7123    160.7126   6.5152765335e+01   3.7836901277e+01    0.4624991    0.2477184 -55.78  0.001612143    1.920    0.479
       153 -11.6936     12.8072    160.9577   6.9004306259e+01   3.8769232831e+01     0.388134    0.2705791  85.99  0.001141162    1.349    0.259
       154  -9.4737    182.9371    160.9951   2.2768985388e+01   1.5059818585e+01     0.152945    0.1336129 -22.81 0.0003423784    1.018    0.018
       155 -11.5062    170.0198    159.9002   2.5033871433e+01   1.7205507919e+01    0.3559298    0.2188102 -46.79  0.001820312    1.547    0.353
       156 -11.7643      5.6667    159.3085   7.1186355752e+01   3.9731773023e+01    0.3408375    0.3023821  65.87   0.00188121    1.022    0.022
       157  -9.7858    195.9816    160.2130   2.0297970689e+01   1.3315803300e+01    0.1469256    0.1012473  34.88 0.0005429076    1.637    0.389
       158 -10.5939    132.3850    156.8007   3.2712072268e+01   2.3872980280e+01    0.2255002    0.2109843  65.60  0.001283704    1.201    0.168
       159  -9.6570    117.8452    157.3945   3.6482323231e+01   2.6130720829e+01    0.2083656    0.1391855  20.50 0.0009460667    1.712    0.416
       160  -9.0240     90.6957    157.2541   4.3957397127e+01   3.0494891750e+01    0.1485432    0.1107705  60.54 0.0001934854    1.508    0.337
       161  -9.2063    113.2866    156.6703   3.7545321199e+01   2.7043186952e+01    0.1468001    0.1157154  76.02 0.0005063738    1.615    0.381
       162 -10.5638     42.4508    155.7808   5.8847429817e+01   3.7380703021e+01    0.2666093    0.1971037  27.67  0.000578045    1.353    0.261
       163 -10.1283    143.6959    152.7092   2.9237297410e+01   2.2875142779e+01    0.1935567    0.1737248  87.99 0.0005189537    1.355    0.262
       164  -9.4604    141.2904    155.6740   3.0379259982e+01   2.2646587980e+01    0.1371797    0.1136137  87.31 0.0002414527    1.615    0.381
       165  -9.7732     20.8222    155.1471   6.5944582373e+01   3.9685573655e+01    0.1946803    0.1584349 -54.98 0.0006855644    1.301    0.231
       166 -10.4407      1.6927    154.8347   7.2219255308e+01   4.1193288564e+01     0.242839    0.1550635 -78.83 0.0008658999    1.456    0.313
       167 -10.8493    172.9945    151.9837   2.2905231929e+01   1.8241745347e+01    0.2129828    0.1863319 -26.94 0.0007649194    1.030    0.029
       168 -10.3530     12.5454    154.0434   6.8602824833e+01   4.0653901684e+01    0.3307104    0.1198627  39.13  0.001273257    2.420    0.587
       169 -10.0964    134.2173    153.3906   3.1600214562e+01   2.4314015909e+01    0.1922013    0.1332979  46.57 0.0002587254    1.558    0.358
       170 -10.7966     81.8430    152.8453   4.5834176331e+01   3.2955020748e+01    0.2783052    0.2433172  89.21 0.0007307686    1.209    0.173
       171 -10.5641     84.5043    149.8708   4.4502006864e+01   3.3309571730e+01     0.277983      0.25791 -26.01 0.0006140724    1.154    0.134
       172 -10.8095     75.0255    151.1822   4.7658098383e+01   3.4395361553e+01    0.3363679     0.276159  84.68  0.001690539    1.321    0.243
       173  -9.8206    145.8087    155.2825   2.9267185938e+01   2.1984796757e+01    0.2321061     0.200755 -36.51 0.0007153234    1.094    0.086
       174 -10.3317     26.2065    151.2319   6.3778959227e+01   4.0275197198e+01    0.3409783    0.1926891  -6.13  0.001384953    2.505    0.601
       175 -11.5009      4.3745    149.6911   7.1037649641e+01   4.2411423391e+01    0.3678947    0.2218041  60.25  0.001386887    1.567    0.362
       176 -10.5661    108.9820    149.0235   3.7240948547e+01   2.9560228408e+01    0.2799805     0.211122 -56.56 0.0006146003    1.335    0.251
       177  -9.6089     54.0270    150.5022   5.4330073567e+01   3.7436730273e+01    0.2262818   0.09962243  48.65 0.0005861419    2.430    0.589
       178 -10.0663     96.3016    148.9741   4.0821621907e+01   3.1666403002e+01    0.2078308    0.1932894 -60.08 0.0003969969    1.079    0.073
       179  -9.1732     91.2588    149.3289   4.2371401903e+01   3.2388220244e+01    0.1516068    0.1142537 -28.80 0.0001882636    1.562    0.360
       180 -10.0184     18.7461    148.1752   6.6038508589e+01   4.1766670384e+01    0.3284167   0.07081017  26.50  0.001020804    3.645    0.726
       181 -10.0908    232.0074    145.4995   1.2053828602e+01   1.0804853436e+01     0.174036    0.1255362 -34.89 0.0003604303    1.075    0.070
       182 -11.1760      9.8323    142.1415   6.8639995410e+01   4.4110733759e+01    0.2124362    0.1770706  89.57  0.001095895    1.101    0.091
       183 -10.1121    104.9827    145.4839   3.7655583900e+01   3.1083686797e+01    0.2949391     0.215023  52.84  0.001339823    1.487    0.327
       184 -10.2279    102.3260    142.6500   3.7844154197e+01   3.2222705013e+01    0.3127547    0.2116762 -81.29  0.001250756    2.012    0.503
       185 -10.8754      3.5065    143.0431   7.0917316026e+01   4.4281209222e+01    0.2571594    0.1938602 -23.68  0.001224883    1.584    0.368
       186 -10.5225     50.6426    142.2908   5.4275393211e+01   4.0089137765e+01    0.2715412    0.1705874  37.52 0.0006235515    1.538    0.350
       187  -9.9760     47.3917    141.7500   5.5323145996e+01   4.0634817058e+01    0.2703578    0.1916176 -57.20  0.001250908    1.400    0.286
       188  -9.7372     34.1222    141.1675   5.9917013914e+01   4.2278859246e+01    0.2041799    0.1590551  65.88 0.0003254441    1.276    0.216
       189 -10.7208     72.3883    139.8170   4.6520620134e+01   3.7767497901e+01    0.2253838    0.1332783 -50.59 0.0009434126    1.705    0.414
       190 -10.0397     59.2997    140.2142   5.0975216205e+01   3.9529739191e+01    0.2101289    0.2000988 -11.29  0.001035813    1.147    0.128
       191 -10.5478     96.9501    138.0749   3.8484152180e+01   3.4264602438e+01      0.22291    0.2162961 -38.09 0.0003127044    1.052    0.050
       192  -9.5863     41.3183    137.9631   5.6926921137e+01   4.2388238770e+01    0.2563735    0.1104777  81.77 0.0007045969    4.400    0.773
       193 -11.0263     20.1210    137.8906   6.4580691948e+01   4.4498726616e+01    0.2770867    0.2496199  -4.76  0.000495591    1.258    0.205
       194 -10.5600      1.6012    137.4465   7.1229579332e+01   4.5933402206e+01    0.3447631    0.1100276 -74.21  0.001237975    2.705    0.630
       195  -9.8318     64.6914    136.7261   4.8539149281e+01   3.9719061354e+01    0.1514431    0.1175594 -25.28 0.0002071477    1.549    0.354
       196 -10.5642      7.9769    135.6442   6.8798781490e+01   4.6034927727e+01    0.2727067    0.1675626  61.95  0.001282684    1.603    0.376
       197  -9.6576    114.4690    134.9188   3.2824214725e+01   3.1951861665e+01    0.2210676    0.1456596 -51.36 0.0003301657    1.484    0.326
       198 -11.4569     14.2703    132.8048   6.6233417786e+01   4.6380765469e+01    0.3895501    0.2727322 -44.47  0.001397927    1.536    0.349
       199 -12.0308     20.3707    131.1594   6.3780190742e+01   4.6356781237e+01    0.5207266    0.2568822 -57.69 0.0009101475    1.919    0.479
       200 -10.6323     46.1496    132.8685   5.4427972506e+01   4.3230586103e+01    0.2454854    0.2042143 -42.90 0.0008791735    1.281    0.219
       201 -11.2311     50.1996    130.6237   5.2592072618e+01   4.3345531082e+01    0.3552203    0.1990317   9.59  0.001362451    2.399    0.583
       202 -11.2712     82.5684    127.2086   4.0694120482e+01   3.9450550868e+01    0.3173785    0.2720844 -61.31 0.0004997625    1.153    0.133
       203 -10.2868     67.5270    129.2607   4.6180110763e+01   4.1303432814e+01    0.4126647    0.2354168  87.47  0.001450593    2.808    0.644
       204 -10.2189    102.7980    127.4248   3.4467174136e+01   3.5857142887e+01    0.2766532    0.2092772 -52.66 0.0005285053    1.298    0.230
       205 -11.5858     57.6017    126.7589   4.9223609961e+01   4.3415747246e+01    0.3358901    0.2625759 -84.15  0.001365572    1.342    0.255
       206 -11.1255     54.1309    123.2428   4.9844982573e+01   4.4851232709e+01    0.4782902    0.2587241  74.52  0.001633978    2.990    0.666
       207  -9.3796    130.3279    127.6833   2.7081224653e+01   3.0682076507e+01    0.1508883    0.1178904  86.87 0.0007045576    1.677    0.404
       208 -10.4971     35.6861    126.8335   5.7409310158e+01   4.6104730804e+01    0.2464601    0.2138847 -47.67 0.0003788678    1.195    0.163
       209 -11.5885     10.2154    125.0963   6.7047628161e+01   4.8823314677e+01    0.3377589    0.1672425 -63.58  0.001447564    1.833    0.455
       210 -11.7848      4.3930    121.9803   6.9046734002e+01   5.0059433815e+01    0.4379014    0.2062776 -54.26  0.001846429    2.043    0.510
       211 -10.9123     26.6156    125.2414   6.0681122764e+01   4.7461550920e+01    0.2712449    0.2046312  26.09 0.0008108553    1.372    0.271
       212  -9.5789    126.5983    123.2504   2.6992170203e+01   3.2375791838e+01    0.2046792    0.1376027 -40.60 0.0004012213    1.499    0.333
       213  -9.1974     49.0389    123.7828   5.1847813274e+01   4.5376257751e+01    0.1906946    0.1233355  28.85 0.0003161173    1.569    0.363
       214 -12.4407     14.4326    120.6296   6.4931573665e+01   4.9775136257e+01    0.5706513    0.2728952  40.02  0.002382879    2.057    0.514
       215  -9.8514    194.0312    122.0191   1.2999332793e+01   2.0266322493e+01     0.160916    0.1336882 -40.06 0.0005285645    1.022    0.022
       216 -10.0108    179.0378    121.9386   1.5503536751e+01   2.2859033992e+01    0.2005167    0.1756563 -40.42 0.0003811624    1.010    0.010
       217  -9.4072    105.4827    121.4364   3.2307564843e+01   3.6807902294e+01    0.1516415    0.1482797 -81.07 0.0001602476    1.010    0.009
       218 -10.9986     28.4763    119.8556   5.9211271277e+01   4.8792911580e+01    0.3314088     0.301708 -73.87 0.0003497532    1.046    0.044
       219 -11.0738     79.7053    119.6898   4.0004139804e+01   4.1871120985e+01    0.3201742     0.185794 -63.12  0.000584279    1.796    0.443
       220 -11.1337     82.9890    118.7539   3.8691579656e+01   4.1548349564e+01    0.4458793    0.3747742 -70.92  0.002218361    1.216    0.178
       221  -9.4502    119.2198    119.6175   2.8050305246e+01   3.4615279601e+01    0.2013858    0.1450192  28.55 0.0004065937    1.607    0.378
       222  -9.7784     95.5531    119.4964   3.4830085927e+01   3.9119720197e+01    0.2222433    0.1516237 -68.22 4.565058e-05    1.646    0.392
       223 -10.2024     96.5140    116.4766   3.3816115678e+01   3.9683546617e+01    0.3033582    0.1862021 -49.27 0.0006556041    1.605    0.377
       224 -10.7784     54.6058    117.0308   4.8471312448e+01   4.6477513207e+01    0.2723189    0.2345405  60.39 0.0006308456    1.187    0.158
       225 -10.7352     18.2378    116.3956   6.2895218635e+01   5.0668990566e+01    0.1964796    0.1300452  33.99 0.0003105808    1.526    0.345
       226 -10.6283     60.4764    114.9286   4.5818925573e+01   4.6197895189e+01    0.2600437    0.2020045  44.17  0.000338336    1.294    0.227
       227 -12.0558     61.7357    109.7513   4.4212311312e+01   4.7386833604e+01    0.5679493    0.5150843 -82.21  0.002970903    1.107    0.096
       228  -9.4622    143.6186    114.3049   2.0797352629e+01   3.0992072502e+01     0.151568    0.1141122 -88.25 0.0007023597    1.785    0.440
       229 -10.8436     68.3227    109.3392   4.1650181161e+01   4.6452041409e+01    0.2640191    0.2353586 -19.82 0.0006180366    1.259    0.206
       230  -9.4393     20.0362    111.0000   6.1438346807e+01   5.2031900045e+01    0.2344559   0.08422721  18.06 0.0008059038    2.967    0.663
       231 -11.3607      2.1715    107.8982   6.8716166024e+01   5.4098985231e+01    0.4870298    0.1868918 -45.62  0.001828979    2.680    0.627
       232 -10.5437     38.1091    119.3192   5.5300245251e+01   4.7931586493e+01    0.2749572    0.2156461 -73.64  0.001014732    1.231    0.187
       233 -10.1133    115.2421    105.5592   2.5613451502e+01   3.8586521983e+01    0.2329124    0.1943801 -63.07 0.0004426339    1.206    0.171
       234 -10.4001     12.6258    104.7777   6.3815303962e+01   5.4333787067e+01    0.2941535    0.2001915 -37.84   0.00102539    1.558    0.358
       235  -9.6166     30.2246    104.0776   5.5966667157e+01   5.3008924038e+01    0.1993842    0.1587951  70.05  0.000370121    1.332    0.250
       236 -10.5649     78.5364    102.0318   3.6149171969e+01   4.6561776961e+01    0.3136519    0.2302338  39.93 0.0008650518    1.371    0.270
       237  -9.7759     70.0091    101.7271   3.9171466430e+01   4.8134674499e+01    0.2070813    0.1961918  38.84 0.0002481916    1.076    0.070
       238 -11.0371     55.9878    101.2776   4.4509301419e+01   5.0498799793e+01    0.2642257    0.2197754 -64.81 0.0003045297    1.183    0.154
       239 -11.1106      6.3869    100.4417   6.6076737293e+01   5.5934361163e+01    0.4061647    0.1757509  45.84  0.001600681    2.472    0.595
       240 -10.5027     94.5255     98.2336   2.9757531207e+01   4.4443673109e+01    0.3828611    0.2041125  58.37  0.001391528    2.475    0.596
       241  -9.1119    178.6832     97.7341   1.0064537585e+01   2.7289256789e+01     0.124753    0.1056167   0.93 0.0003043487    1.551    0.355
       242  -9.7224     57.9701     97.5034   4.2791985335e+01   5.1183614174e+01    0.2287026    0.1517444  31.64 0.0007399313    1.541    0.351
       243  -9.4946     41.5633     95.0149   4.9152600304e+01   5.4166414765e+01    0.2138999    0.1436129 -65.01 0.0003026171    1.452    0.311
       244 -10.1324      5.6811     95.2964   6.5788093011e+01   5.7392131112e+01    0.1472148   0.09759352  56.32 0.0002605298    1.613    0.380
       245 -10.4473     89.8746     93.9687   3.0079013637e+01   4.6364019120e+01     0.319393    0.1718631  35.20  0.001243594    2.055    0.513
       246 -10.7208     26.2355     92.6326   5.5653320172e+01   5.6541450334e+01    0.3146495     0.259639 -59.58  0.001667421    1.144    0.126
       247 -10.5511     57.7330     91.7377   4.1410201610e+01   5.2704556878e+01    0.2717795    0.2313909 -39.03 0.0004138894    1.220    0.180
       248 -11.3187     54.8328     85.2509   4.0873370930e+01   5.4803763036e+01    0.5053227    0.4639017   8.78  0.002715146    1.159    0.137
       249 -10.7913     73.6701     90.1671   3.4696451466e+01   5.0365682952e+01     0.270147     0.205412  51.36 0.0007234364    1.357    0.263
       250 -11.8828      2.5850     86.7058   6.6215292908e+01   5.9898297668e+01    0.5080644    0.2977348 -86.68   0.00194531    1.689    0.408
       251 -11.4164      7.4090     86.6106   6.3789069582e+01   5.9662058135e+01    0.2670074    0.2268112 -43.79 0.0005685698    1.147    0.128
       252  -9.7078    124.7296     87.4376   1.8216051052e+01   4.0454954061e+01    0.2483084    0.1839831 -22.56 0.0006845145    1.757    0.431
       253  -9.2657    160.7182     85.3067   1.0077680322e+01   3.3104187350e+01    0.1423107    0.1009333 -68.42 0.0001692826    1.559    0.359
       254  -9.1607    135.0000     84.9420   1.5113866616e+01   3.8702983859e+01    0.2537363   0.08036225 -42.18 0.0004253957    3.023    0.669
       255 -10.5347     64.1735     81.6694   3.5917567343e+01   5.4123321195e+01    0.2495919    0.2019526 -66.39 0.0003816987    1.295    0.228
       256 -10.7348     10.8483     81.1655   6.1170635932e+01   6.0909779508e+01    0.3046376    0.2578795 -30.88  0.001408632    1.193    0.162
       257 -11.1312     88.8066     79.1895   2.6030447494e+01   4.9930715174e+01    0.4532712    0.2637878 -38.03  0.001280034    1.931    0.482
       258  -9.5540    152.4763     79.4352   1.0038893102e+01   3.5908648267e+01    0.1424375    0.1284233 -65.11  6.84122e-05    1.012    0.011
       259  -9.3914      9.2880     76.6650   6.1213245530e+01   6.2209498895e+01    0.1436236    0.1002107  61.33  0.000701802    1.630    0.386
       260 -10.1629    105.8377     73.7342   1.9077195063e+01   4.7390026579e+01    0.3073299    0.2144948 -50.64  0.001447755    1.428    0.300
       261 -10.5043     87.7739     73.5103   2.4551779288e+01   5.1369719598e+01    0.2657818    0.2288108 -73.21 0.0002796239    1.234    0.190
       262 -11.1151     70.6099     70.5678   2.9793027598e+01   5.5494184807e+01    0.4614723    0.3098314 -25.19  0.001368225    2.034    0.508
       263 -10.8864     54.0379     71.1967   3.6996494262e+01   5.8348183011e+01    0.2576501    0.2130434 -53.30  0.000525773    1.208    0.172
       264  -9.5052    161.9937     69.9967   5.8549552471e+00   3.5461493726e+01    0.1769294    0.1415536 -48.77 0.0008231647    1.132    0.117
       265 -10.1983     51.6123     65.7766   3.6308431598e+01   6.0008394661e+01    0.1956641    0.1406636 -65.21 0.0002803718    1.554    0.357
       266  -9.2489     13.5571     66.5051   5.6769088003e+01   6.4549044839e+01    0.1370112     0.129332 -52.03 6.624086e-05    1.029    0.028
       267  -9.7960     46.9954     62.7593   3.7479372159e+01   6.1450742660e+01    0.1994383     0.181958  28.31 0.0002798782    1.090    0.082
       268 -10.6829    114.5554     61.9091   1.2962928221e+01   4.7636958010e+01    0.2605919    0.2047316  61.34 0.0003072799    1.252    0.202
       269  -9.3214    133.6842     61.3036   8.5047097372e+00   4.3286855308e+01    0.1494318     0.104427 -73.48 0.0004660722    1.621    0.383
       270 -11.2856     18.4632     59.7631   5.2162107011e+01   6.5818128616e+01    0.2795753    0.2530129 -35.32  0.000723222    1.038    0.037
       271 -11.4206     24.4700     56.1417   4.7475993030e+01   6.6074742317e+01    0.4920975    0.3288205  34.11   0.00114411    1.525    0.344
       272 -11.3255     12.7134     59.9029   5.5687527097e+01   6.6278718302e+01    0.2569157     0.231644  14.00 0.0003551567    1.149    0.130
       273  -8.9347     54.6868    249.3126   6.3783363785e+01   1.4268599492e+01    0.1283323   0.07157179  49.40 0.0002753863    1.635    0.388
       274  -9.6508     61.2450     58.9580   2.9522555249e+01   5.9792990302e+01    0.1968861    0.1873172 -49.93 0.0004477027    1.074    0.069
       275  -9.9139     41.9368     59.5263   3.8893230084e+01   6.2975075250e+01    0.2186583    0.1390282  31.80  0.001024169    1.568    0.362
       276  -9.4097    126.0414     54.9937   8.1088497185e+00   4.6122926290e+01    0.1708661    0.1562485 -75.43  0.000327275    1.016    0.015
       277 -11.3305    116.3113     54.2990   1.0027366135e+01   4.8538020778e+01    0.3526933    0.2378035 -86.00  0.001606068    1.876    0.467
       278 -10.7815     37.2229     53.9154   3.9376015662e+01   6.4940823389e+01    0.2114937     0.192902  67.09   0.00074383    1.252    0.201
       279 -10.1670    110.2917     55.0077   1.1713138473e+01   4.9839017711e+01    0.2062749     0.185315 -59.45 0.0009573788    1.097    0.089
       280 -11.5328     16.1723     49.9133   5.0661354677e+01   6.8401607567e+01    0.2425766    0.2199191 -59.04 0.0003191122    1.131    0.116
       281 -10.5227    109.6627     50.0120   1.0141432051e+01   5.0821523686e+01    0.2514747    0.1976755  85.57  0.001303575    1.335    0.251
       282 -11.0001     30.0428     50.2759   4.2123729614e+01   6.6750059335e+01    0.3458564    0.1861211  24.74  0.001549601    1.916    0.478
       283 -10.5191    179.0713     48.1288   3.5775546803e+02   3.5100516336e+01    0.3742119    0.1724256 -55.28  0.001314908    2.112    0.527
       284 -11.8033     98.4591     47.6713   1.2189049950e+01   5.3855456834e+01    0.5380184    0.3190447 -76.16  0.002048239    2.881    0.653
       285 -10.8395     38.9736     45.3581   3.5030592653e+01   6.6517385328e+01    0.6100435    0.2612952  50.34  0.001956451    3.305    0.697
       286  -9.3351    142.5175     45.5499   2.0980302940e+00   4.3689512594e+01    0.1377777    0.1238387 -77.15 0.0001357353    1.028    0.027
       287  -9.5582     49.8696     43.8806   2.8684632409e+01   6.4954812672e+01     0.181837    0.1589751  61.49 0.0004807503    1.269    0.212
       288 -10.5356     46.1718     41.8198   2.9639705887e+01   6.6018126794e+01    0.2374584    0.1806949  45.11 0.0004448339    1.310    0.237
       289  -9.6515     78.3517     47.1508   1.8207698870e+01   5.8547619586e+01    0.2030089    0.1301064 -51.63 0.0009359887    1.704    0.413
       290 -11.6127     32.6954     40.2137   3.6459209644e+01   6.8536496457e+01     0.365885    0.2094668  36.18  0.001494747    1.700    0.412
       291  -9.8716      1.4544     40.0295   5.8018151194e+01   7.1832984874e+01    0.1834152    0.1197991 -64.84 3.949213e-05    1.471    0.320
       292  -9.2235     68.6143     39.5079   1.8563266649e+01   6.1991252332e+01    0.1368903    0.1326596  40.59 0.0007991348    1.034    0.032
       293 -10.1073     80.6850     38.3133   1.3786334959e+01   5.9497822766e+01    0.3020076     0.191228  60.10 0.0009726399    1.546    0.353
       294 -10.5070     79.9888     35.0214   1.2612039066e+01   6.0167183488e+01    0.2879297    0.2233319 -56.64 0.0007364991    1.417    0.294
       295 -10.0311    104.3082     37.3162   6.8284300452e+00   5.4061772461e+01     0.139507    0.1077807  30.27 0.0004643468    1.632    0.387
       296 -10.3720     21.5178     34.9659   4.1379541601e+01   7.1138818170e+01    0.1927314    0.1283674 -53.59 0.0004666773    1.540    0.351
       297 -10.8197    100.5452     33.8243   6.3953118380e+00   5.5468709206e+01    0.2975737     0.160698  47.46  0.001318899    1.931    0.482
       298 -10.8202     89.3034     33.3401   9.1158522286e+00   5.8234720343e+01     0.212581    0.1305088  46.22 0.0008554779    1.651    0.394
       299 -10.9432     52.8373     32.9414   2.2211662832e+01   6.6369634669e+01     0.380497    0.1831949 -42.12  0.001176784    2.199    0.545
       300 -11.4487     42.5825     31.6915   2.6750698702e+01   6.8530457631e+01    0.3313469    0.2051742 -46.08  0.001585953    1.731    0.422
       301 -11.9804     29.1668     31.4003   3.4560294823e+01   7.0803941203e+01    0.5533751    0.2344903  32.76  0.002330307    2.315    0.568
       302 -11.5587     77.9515     30.1589   1.1137133967e+01   6.1354846908e+01    0.3835537    0.2447959  48.52 0.0007870732    1.486    0.327
       303 -10.6411    233.2769     29.9942   3.4896867098e+02   2.6889354910e+01    0.1608026    0.1104584 -49.55 0.0003288264    1.076    0.071
       304 -11.4935     67.8560     27.0556   1.3138069683e+01   6.4098740423e+01    0.3062218    0.2774554 -78.12 0.0008576309    1.216    0.178
       305 -11.7184     70.0017     21.4590   9.6825817673e+00   6.4374829606e+01     0.339678    0.2562161  10.12 0.0004961768    1.712    0.416
       306 -10.2231      1.3677     29.7646   5.4808359103e+01   7.4166824039e+01    0.1971028    0.1617591 -16.81 0.0003218355    1.115    0.103
       307 -10.5730      5.1983     29.6435   5.1558086603e+01   7.3921536456e+01    0.2853812    0.1911764  27.38    0.0016031    1.524    0.344
       308  -9.5039    135.9695     28.9688   3.5794356493e+02   4.7492199200e+01    0.1624429    0.1423554 -75.42 0.0003503633    1.020    0.019
       309 -10.3453     61.5949     28.1567   1.6063763231e+01   6.5314193044e+01    0.2250744    0.1785771  61.96 0.0004640331    1.274    0.215
       310 -11.1488     36.0999     26.9082   2.7942525711e+01   7.0507544076e+01    0.2523789    0.1774629  32.53 0.0003754671    1.354    0.261
       311 -10.2588      1.3557     25.1849   5.3085525098e+01   7.5161883819e+01    0.2068045    0.1082336 -58.63 0.0004465483    1.803    0.445
       312 -12.1754     85.3873     23.8245   6.1437890440e+00   6.0457334593e+01    0.2875174    0.2431813  78.69 0.0003402468    1.142    0.124
       313 -10.5439     81.8253     19.7955   5.3127972451e+00   6.1807863923e+01    0.2456085    0.1861834 -53.06 0.0004984529    1.436    0.303
       314 -10.7365    219.9577     59.0202   3.5607322490e+02   2.5580802641e+01    0.1789785    0.1376131 -52.14  0.001207654    1.002    0.002
       315 -10.6359    203.3926     23.7985   3.4957883337e+02   3.3170250896e+01     0.193859     0.155189 -73.50 0.0003395094    1.128    0.113
       316 -11.9089    174.2419     22.8652   3.5169156699e+02   3.9373980548e+01    0.2205307    0.1761596 -64.77 0.0002432511    1.019    0.019
       317 -10.9330     19.1503     23.5510   3.7528286298e+01   7.3698394136e+01    0.2165655    0.2017867  -5.23 0.0004138155    1.078    0.072
       318 -10.0889     40.0506     22.3326   2.3169432365e+01   7.0557213851e+01    0.1867535    0.1550578  38.18 0.0003593369    1.118    0.105
       319 -10.3054    227.0286     19.9959   3.4726952230e+02   2.9132879021e+01    0.1700563    0.1248254 -56.56 0.0003412973    1.017    0.016
       320  -9.7249     58.8423     20.1237   1.3084939168e+01   6.7053771046e+01    0.1851122    0.1479398  30.53 0.0004770586    1.294    0.227
       321 -10.6329    132.7872     17.2438   3.5457278687e+02   4.9631720652e+01    0.2387205    0.1983865 -16.57 0.0004106571    1.496    0.332
       322 -10.0722     20.8792    248.9175   7.1399964707e+01   1.7528909066e+01    0.1632349       0.1521  12.70 0.0007797154    1.288    0.223
       323 -11.6261     67.8625    246.5703   6.0582351478e+01   1.3437323461e+01    0.3597827    0.2814313  55.79  0.002087763    1.302    0.232
       324 -10.5564     36.4180    246.7782   6.7793348473e+01   1.6533132686e+01      0.36506    0.1451668  49.32  0.001774181    2.163    0.538
       325 -10.5754    226.1815    246.5162   2.9136032858e+01  -2.7551255650e+00    0.1661001    0.1089393 -23.38 0.0003145298    1.228    0.186
       326 -10.3055     44.3881    246.3881   6.5950104940e+01   1.5846018513e+01    0.2155706    0.1805597 -68.42 0.0008233699    1.433    0.302
       327 -10.5931     28.9649    246.3404   6.9467460423e+01   1.7309570817e+01    0.1971329    0.1618301 -34.06  0.001324719    1.602    0.376
       328 -10.1485    100.0609    246.2265   5.3274962351e+01   1.0032275295e+01    0.1874348     0.141252   8.99 0.0005633006    1.249    0.199
       329 -10.2069    246.1422    245.1969   2.5960152665e+01  -4.2019404480e+00    0.1461446   0.09213117 -12.79 0.0003429646    1.121    0.108
       330 -10.1950    132.5010    244.7999   4.6097745571e+01   6.6992914724e+00    0.2564414    0.1287015  20.89  0.001363316    1.754    0.430
       331 -10.5018    186.1191    242.9787   3.5380137759e+01   1.3527116614e+00    0.2351303    0.1493838 -37.44  0.001578908    1.581    0.368
       332 -11.7654    117.6305    241.7039   4.8923856185e+01   8.8722178117e+00    0.5015333    0.2428337  42.58  0.002509907    2.180    0.541
