#   1 NUMBER                 Running object number                                     
#   2 MAG_AUTO               Kron-like elliptical aperture magnitude                    [mag]
#   3 X_IMAGE                Object position along x                                    [pixel]
#   4 Y_IMAGE                Object position along y                                    [pixel]
#   5 X_WORLD                Barycenter position along world x axis                     [deg]
#   6 Y_WORLD                Barycenter position along world y axis                     [deg]
#   7 A_WORLD                Profile RMS along major axis (world units)                 [deg]
#   8 B_WORLD                Profile RMS along minor axis (world units)                 [deg]
#   9 THETA_WORLD            Position angle (CCW/world-x)                               [deg]
#  10 FWHM_WORLD             FWHM assuming a gaussian core                              [deg]
#  11 ELONGATION             A_IMAGE/B_IMAGE                                           
#  12 ELLIPTICITY            1 - B_IMAGE/A_IMAGE                                       
         1 -10.2116    220.4485     12.1966   6.0025821954e+01   2.7972366517e+01     0.455509    0.3159263  22.01  0.001403686    1.673    0.402
         2  -9.3386    233.5710      9.5572   5.8046604620e+01   2.5004932821e+01    0.3909362    0.2516757 -24.49  0.001624667    1.447    0.309
         3  -7.2291    205.5845      4.5118   5.9236006497e+01   3.2449046734e+01    0.1366098    0.1338259   2.37 0.0008042508    1.030    0.029
         4  -8.5396     12.0158    243.0030   1.4482348291e+02   2.5842048334e+01    0.1082716   0.07000709  60.31  0.000352341    1.039    0.038
         5  -8.0601    236.5067    249.9909   1.1048703786e+02  -2.9530874391e+00    0.1398573   0.06981886   3.85 0.0008104107    2.699    0.629
         6  -7.8348    119.0448    241.4859   1.2812893486e+02   1.4150867311e+01    0.1370636    0.1200064  59.73 0.0006672631    1.210    0.173
         7  -8.0333     44.0248    236.4819   1.3978210939e+02   2.3740213934e+01    0.1326243   0.07185622  43.16 -0.0001245325    1.494    0.330
         8  -8.0651    246.0098    233.0021   1.0670605228e+02  -2.8509104564e+00    0.1329112   0.09018341  22.70 0.0006751599    1.016    0.015
         9  -9.0943     29.2321    229.7947   1.4176775940e+02   2.6205462741e+01     0.181136     0.144496  71.17 0.0006078011    1.212    0.175
        10 -10.3184     24.4048    229.0092   1.4248210723e+02   2.6781324251e+01    0.2524487    0.2060745 -71.35  0.001296311    1.650    0.394
        11 -11.4174     29.6898    222.7530   1.4138434199e+02   2.7243104208e+01    0.5763775    0.3537033  62.75  0.003364651    1.179    0.152
        12  -7.5211    100.8495    214.8817   1.2878973345e+02   2.0322952521e+01    0.1419996   0.09751231  57.78            0    1.236    0.191
        13  -7.7715     56.0183    215.0020   1.3661340539e+02   2.5760998939e+01    0.1449958    0.1063188  64.81            0    1.042    0.040
        14  -7.4906     55.9887    219.9531   1.3693421674e+02   2.4979557022e+01    0.1181108   0.08444504  56.97            0    1.063    0.059
        15  -9.1144     10.7571    207.0838   1.4378263845e+02   3.1476284930e+01    0.2587008     0.159399  30.97  0.001998524    1.947    0.487
        16  -7.9415     49.0242    207.4856   1.3733418916e+02   2.7743532567e+01     0.142286    0.0819421  43.54 0.0003636027    1.483    0.326
        17  -9.9956    174.3327    203.3943   1.1419821322e+02   1.1065491450e+01    0.2051726    0.1672544  36.84 0.0002284336    1.061    0.057
        18  -7.6022    138.9951    199.0048   1.2005552607e+02   1.7260964833e+01    0.1528288     0.120809  23.48  0.001017632    1.371    0.271
        19  -8.7756     53.5659    196.3888   1.3576788063e+02   2.9133574266e+01    0.1764677     0.157586  86.92 0.0005302748    1.271    0.213
        20  -9.1000     60.6177    188.3066   1.3382277595e+02   2.9765197560e+01    0.1797119    0.1550775  70.22 0.0003665982    1.129    0.115
        21  -7.4757    247.6646    188.7051   9.9308772965e+01   9.9452736251e-01    0.1255513   0.07142783  16.35 0.0002789764    1.645    0.392
        22  -8.3950    223.0451    188.0242   1.0321918573e+02   5.0043062314e+00     0.177903     0.137422  18.11  0.001180222    1.031    0.030
        23  -7.0580    175.0303    188.7415   1.1185590543e+02   1.2938365789e+01    0.1531681    0.0904747  41.06  0.000338831    1.422    0.297
        24  -7.8927     72.0601    175.4853   1.3038981571e+02   3.0746167075e+01    0.1637312    0.1334274 -89.69  0.000376287    1.153    0.133
        25 -10.1807     58.1303    173.3834   1.3301301609e+02   3.2793420993e+01    0.3919116    0.2217391 -49.22  0.001667273    2.357    0.576
        26  -8.7316     78.8766    168.2108   1.2819703709e+02   3.1256954967e+01    0.2353929    0.1567415 -64.86   0.00126617    1.531    0.347
        27  -7.2462     49.8419    166.1481   1.3405785316e+02   3.5097057670e+01    0.1309004    0.1217129 -77.91            0    1.296    0.228
        28  -8.3910      3.1435    155.1660   1.4286018531e+02   4.1425378250e+01    0.1464089    0.1180926 -80.85 0.0005501572    1.260    0.207
        29  -8.8362    120.6629    148.5201   1.1626315466e+02   2.8871958369e+01     0.203678     0.195492  63.23 0.0002673749    1.034    0.033
        30  -9.0155     82.2984    150.3881   1.2522971098e+02   3.4305968712e+01    0.2230536    0.1850273 -44.25 0.0008822077    1.450    0.310
        31  -8.9117     66.8524    143.5692   1.2788397882e+02   3.7694527233e+01    0.6178015    0.2410443  54.27    0.0026255    3.010    0.668
        32  -8.3667    185.9314    140.2112   1.0073924795e+02   1.8226461815e+01    0.2063487     0.185189 -10.95 0.0003034478    1.117    0.105
        33 -10.4695    231.9293    133.1692   9.0762606248e+01   1.0193611705e+01    0.2636562    0.2201309  23.90  0.000402899    1.118    0.106
        34  -8.6420    118.2361    133.4218   1.1408146197e+02   3.2237072226e+01    0.2113905    0.1932956 -64.36 0.0002434459    1.114    0.103
        35  -7.5473     93.8172    134.0969   1.2005285518e+02   3.6016432975e+01    0.1651902    0.1489741 -35.16 0.0004170886    1.293    0.227
        36  -7.4584    161.0138    124.0261   1.0230982585e+02   2.5962434868e+01    0.1668784     0.156075  21.96 0.0009510774    1.008    0.008
        37  -7.3660     10.6751    121.3007   1.3899261411e+02   4.7816066645e+01    0.1154109   0.06625361  67.97  0.000473526    1.635    0.388
        38  -7.3319     41.6881    120.7145   1.3114540084e+02   4.5371106931e+01    0.1131295   0.08425016 -44.90 0.0002205373    1.577    0.366
        39  -7.8982    178.5412    117.9505   9.7151483486e+01   2.3375925908e+01    0.2160412    0.1809803  35.08 0.0002988603    1.140    0.123
        40  -7.7199     43.1427    117.1646   1.3031232467e+02   4.6008860292e+01    0.1638149    0.1212148  76.35  0.001030676    1.310    0.237
        41  -8.9452    249.8532    114.3907   8.3572408384e+01   9.1277612221e+00    0.2402367    0.1929581  -4.54 0.0001723255    1.057    0.053
        42  -8.0060    235.3624    114.0355   8.5753368447e+01   1.2032918544e+01    0.2347227     0.208915 -35.82 0.0007292643    1.331    0.249
        43  -7.9021    182.6906    113.0149   9.5090170029e+01   2.3313528525e+01    0.1975792    0.1794808 -12.93 0.0003741261    1.075    0.070
        44  -7.9988     21.2289    111.6411   1.3541587318e+02   4.9144799146e+01    0.1319964    0.1121703   4.70 0.0009408984    1.624    0.384
        45  -7.6536      2.5029    111.0142   1.4020324008e+02   5.0545187671e+01    0.1645633   0.05604158 -58.39 0.0008103979    2.586    0.613
        46  -7.8055    203.8296     92.4007   8.5649894932e+01   2.1880080105e+01    0.2048106    0.1293642  37.83 0.0004048912    1.598    0.374
        47  -6.9713    128.0168     90.9782   1.0183547287e+02   3.8996455453e+01    0.1665428    0.1618409 -14.02 0.0009315711    1.009    0.009
        48  -7.3501      6.7344     89.6353   1.3706636057e+02   5.4984138814e+01    0.1185278    0.0651283 -55.20 0.0002688158    1.648    0.393
        49  -7.7363    149.9097     73.1365   9.1172802072e+01   3.7611964534e+01    0.2166008    0.1995821 -53.47 0.0003207967    1.198    0.165
        50  -7.6543     10.7231     73.3350   1.3377799219e+02   5.8407290609e+01    0.1159963     0.075951  78.76 0.0002085274    1.607    0.378
        51  -8.6627    187.6108     70.3456   8.2383706200e+01   2.9050225014e+01    0.2675685    0.2309524  15.45 0.0003473509    1.150    0.130
        52  -7.4533    148.3880     64.7813   8.8871939848e+01   3.9419446324e+01    0.2139661    0.1434569 -20.28 0.0003846462    1.595    0.373
        53  -9.7447    242.9794     58.2769   7.0355697445e+01   1.7546350331e+01    0.2993746    0.2363978   1.27 0.0003661982    1.260    0.206
        54  -8.4625    128.6394     57.7885   9.1413366283e+01   4.5170152681e+01    0.2424701    0.2015352  39.28 0.0002663755    1.225    0.184
        55  -7.1319     15.3175     57.6519   1.2953868695e+02   6.1661386145e+01    0.1187083   0.08121463  77.96 0.0001440512    1.729    0.422
        56  -8.1737    247.0098     54.0633   6.8739738490e+01   1.7145710209e+01    0.2131023    0.1860224   5.84 0.0004830906    1.127    0.112
        57  -8.0785    172.0115     50.0112   7.8952432188e+01   3.5949930714e+01    0.2186515    0.2068188 -10.10            0    1.033    0.032
        58  -7.0187    114.0482     50.0186   9.2630479782e+01   4.9721781277e+01     0.168957    0.1537258 -16.39  0.000914511    1.016    0.016
        59  -7.5105    244.0000     47.9680   6.7469777283e+01   1.8527781248e+01      0.23682   0.07260682 -24.19 0.0008015466    2.936    0.659
        60  -7.5567    184.6836     43.9631   7.4673872160e+01   3.3550138164e+01    0.2087163    0.1862569 -13.80  0.000376502    1.080    0.074
        61  -7.4350      3.4707     42.5165   1.3121751450e+02   6.5650584731e+01     0.117113   0.08872874 -64.99 0.0008094034    1.040    0.038
        62  -7.5459    156.5686     36.5524   7.7350241456e+01   4.1766269315e+01     0.153731    0.1421018  11.46 0.0001467672    1.029    0.028
        63 -10.4305    139.0463     34.3900   8.0307417660e+01   4.6461206800e+01    0.2758055    0.2322907 -11.83 0.0004885103    1.148    0.129
        64  -7.2861    173.9929     33.9556   7.3179069213e+01   3.7606739308e+01    0.1828838    0.1639534 -13.06 0.0009550034    1.086    0.079
        65  -7.7845    150.3568     30.1457   7.6261386408e+01   4.4200678850e+01    0.2086761    0.1316862 -34.92 0.0001227218    1.584    0.368
        66  -7.9571     76.9498    249.4539   1.3541429490e+02   1.8313827940e+01    0.1428264   0.04799807  53.67 0.0008072584    2.421    0.587
        67  -8.3817     15.0200     18.0186   1.1900411289e+02   7.0209850603e+01    0.1740817    0.1283303 -43.01   0.00117241    1.036    0.035
        68  -7.4570    221.7002    250.3401   1.1276265597e+02  -9.9379458363e-01   0.08963912   0.07144468  46.65 0.0007035751    1.667    0.400
