#   1 NUMBER                 Running object number                                     
#   2 MAG_AUTO               Kron-like elliptical aperture magnitude                    [mag]
#   3 X_IMAGE                Object position along x                                    [pixel]
#   4 Y_IMAGE                Object position along y                                    [pixel]
#   5 X_WORLD                Barycenter position along world x axis                     [deg]
#   6 Y_WORLD                Barycenter position along world y axis                     [deg]
#   7 A_WORLD                Profile RMS along major axis (world units)                 [deg]
#   8 B_WORLD                Profile RMS along minor axis (world units)                 [deg]
#   9 THETA_WORLD            Position angle (CCW/world-x)                               [deg]
#  10 FWHM_WORLD             FWHM assuming a gaussian core                              [deg]
#  11 ELONGATION             A_IMAGE/B_IMAGE                                           
#  12 ELLIPTICITY            1 - B_IMAGE/A_IMAGE                                       
         1 -16.2325    241.4124    111.2942   1.5225935906e+01   1.2657502573e+01     2.948623      1.14369 -34.49   0.01378388    2.030    0.507
         2 -13.2817    249.2246     50.2922   1.2058201251e+00   1.9490205334e+01     1.319751    0.3099521 -43.00  0.005373477    2.932    0.659
         3 -14.1042    234.8863     46.5416   1.5022888728e+00   2.2570791493e+01     1.021621     0.663461 -37.47  0.005321074    1.229    0.187
         4 -14.5863    215.5431     53.5292   4.9337509283e+00   2.5478185336e+01     1.430624    0.9623306 -59.08   0.00809592    1.436    0.304
         5 -12.9465     81.2994     38.8703   2.5290290882e+01   5.9441831003e+01    0.7302011    0.4286827 -42.28  0.003275118    1.733    0.423
         6 -13.8962     44.3255     23.2671   3.3157874518e+01   6.9616411876e+01     1.178071    0.8892102 -34.52  0.006593497    1.301    0.231
         7 -12.0575    247.9788     22.4332   3.5522511038e+02   2.2922872928e+01    0.4679204    0.2949959  12.44   0.00237582    3.353    0.702
         8 -13.1495    178.2513     23.3333   6.2236484344e-01   3.7525626887e+01      0.88723    0.4715016 -69.70   0.00360837    2.081    0.520
         9 -12.1060    144.1819      5.0934   3.5834134739e+02   4.7806493391e+01    0.7594044    0.3978803  74.67  0.003593285    1.777    0.437
        10 -13.1224    169.2919      2.2981   3.5518488906e+02   4.1817121481e+01    0.7055055    0.5034492  74.32  0.004079074    1.372    0.271
        11 -13.7632    164.4529     11.4222   3.5838619576e+02   4.2135587471e+01    0.8140312    0.4897427  66.90  0.003645545    1.636    0.389
        12 -13.7083    156.3040     11.5164   3.5922432372e+02   4.4145646269e+01    0.7867125    0.6746904  39.85  0.003914112    1.380    0.276
        13 -13.2599    155.3366      4.1462   3.5692755227e+02   4.5082287850e+01    0.9388093    0.4751101  76.04  0.003897165    1.855    0.461
        14 -11.8547    227.2154     15.9087   3.5493393344e+02   2.7590039884e+01    0.4097036    0.2779958 -79.66  0.002483667    1.452    0.311
        15 -12.2971     21.0088     14.4903   4.2549024443e+01   7.4822668475e+01    0.4882259    0.2643493   1.68    0.0019536    3.362    0.703
        16 -11.4658     21.6939     11.3275   3.9940830169e+01   7.5278198015e+01    0.2315617    0.2174276  18.69  0.001261721    1.224    0.183
        17 -11.0919    231.4726      9.0114   3.5311321488e+02   2.7456152722e+01    0.3528493    0.2101092 -46.21  0.002179063    1.276    0.216
        18 -13.7040      3.8622      3.2521   4.9803329314e+01   7.8836787514e+01     1.193537    0.4811608  34.68  0.005627455    2.711    0.631
        19 -10.7117    192.5426      5.2299   3.5438769018e+02   3.6087095852e+01    0.2396032    0.1015924 -32.14  0.001130908    2.023    0.506
        20 -12.8645     39.9122     10.7423   2.7761873343e+01   7.2354183925e+01    0.7239089    0.3169878 -38.53  0.003206957    2.345    0.574
        21 -12.6388    206.5798      3.9675   3.5321802562e+02   3.3095688339e+01    0.6519952     0.290227  89.08  0.003174715    2.328    0.570
        22 -11.2493    223.7951      4.9293   3.5255157011e+02   2.9394376005e+01    0.3972622    0.1378551 -52.42  0.001867915    2.293    0.564
        23 -10.6865     85.7611      3.5609   6.7428183995e+00   6.2872247531e+01     0.276475    0.1119529  61.66  0.001144801    2.130    0.530
        24 -11.1797    217.5772      1.7487   3.5210283548e+02   3.0976464622e+01    0.2137784    0.1492482 -86.31   0.00120303    1.393    0.282
        25 -10.5986     39.8607    140.5907   6.8796796740e+01   4.1630309793e+01    0.3419704    0.1162019 -56.64  0.001242233    2.750    0.636
        26 -10.9981     11.6992    140.4060   7.7801585572e+01   4.4276561331e+01    0.3667018    0.1296838  46.51  0.001469981    2.595    0.615
        27 -11.9061    220.5006    137.1506   2.3562701667e+01   1.2161759075e+01    0.3217606    0.2276264 -16.51  0.001224158    1.351    0.260
        28 -14.4230    247.0465    224.9227   3.5196623306e+01  -2.8812552381e+00     1.903041    0.6483551 -36.42   0.01025077    2.848    0.649
        29 -12.3950    133.5048    119.8541   3.6659331436e+01   3.1464658485e+01    0.3292242    0.3145232  49.73  0.001275557    1.084    0.077
        30 -11.7555    142.1683    126.0810   3.6060863662e+01   2.8410423688e+01    0.3609984    0.2507197 -25.64  0.001649704    1.674    0.403
        31 -12.7358    147.9918    109.4816   3.0585558154e+01   3.0641239651e+01    0.6303234    0.3258013 -54.50  0.002408185    2.296    0.564
        32 -12.2013    143.7410    102.2334   2.9639988397e+01   3.3011974191e+01    0.5447391    0.2314668 -47.54   0.00195558    2.365    0.577
        33 -10.8581    108.2119    108.6132   4.0612886985e+01   3.9088754622e+01    0.2214144    0.1490876  31.06 0.0009538705    1.683    0.406
        34 -10.8970     95.1093    111.6426   4.5330853856e+01   4.0903965894e+01    0.3132856    0.2155136 -79.97  0.001309174    1.958    0.489
        35 -11.0797     92.1723    100.8150   4.3452431779e+01   4.4078003269e+01    0.2253041    0.1906747 -20.51  0.001097846    1.374    0.272
        36 -12.5228     59.2476     96.8704   5.4089247858e+01   5.0729125138e+01    0.3776601    0.2514791  46.95     0.001731    1.594    0.373
        37 -11.0836     86.6169    110.8030   4.7823410330e+01   4.2663064275e+01    0.2239468    0.1455631 -65.86 0.0009523603    1.673    0.402
        38 -10.4882     12.6741     89.3296   7.2041050499e+01   5.7826947021e+01    0.1463929   0.09406602  62.87  0.000705059    1.704    0.413
        39 -10.9774      2.9438     88.4733   7.6211575547e+01   5.8628110420e+01    0.2746288    0.1714387  79.67  0.001385931    1.595    0.373
        40 -12.5577    249.3863     81.9514   8.0620597585e+00   1.5409226340e+01    0.7212477    0.2620708 -30.80   0.00325184    2.293    0.564
        41 -13.2981    248.9529    159.7777   2.3891910199e+01   4.8609346364e+00     1.207565    0.2430569 -36.95  0.004433258    4.012    0.751
        42 -12.8390    227.0071     71.6626   8.0806867588e+00   2.0764189943e+01     1.352306    0.3513159 -42.21   0.00504046    3.018    0.669
        43 -13.3696    243.2057     75.9827   7.3786633640e+00   1.7252823970e+01     1.007646    0.6574952  12.61  0.005140082    2.684    0.627
        44 -14.7536    244.6515     63.3878   4.4614160004e+00   1.8655168292e+01     1.312564     1.023021  85.54  0.006845377    1.561    0.359
        45 -14.0304    244.8904    177.7729   2.7745713491e+01   3.0093250906e+00      1.29974    0.4288319 -33.04  0.006080939    2.522    0.603
        46 -13.8427    224.6649     60.2124   5.6286356969e+00   2.2772269322e+01    0.8015017    0.7191114  75.78  0.004521591    1.309    0.236
        47 -13.4450    242.4525    198.8924   3.1741989892e+01   6.3272226742e-01    0.6324717    0.3811801 -27.09  0.003499154    1.383    0.277
        48 -10.3454    221.0493     77.8073   1.0198349158e+01   2.1024088229e+01    0.2051693    0.1533207 -55.37 0.0007794105    1.314    0.239
        49 -12.0387     14.4642     73.9356   6.8607840144e+01   6.1780513806e+01    0.5351021    0.2700452  73.27  0.002105167    2.852    0.649
        50  -9.9030    194.6920     72.3392   1.2211146828e+01   2.7155013953e+01    0.1469522   0.09471867 -59.20 0.0007043083    1.684    0.406
        51 -10.9099    135.8688     71.1005   2.2306541557e+01   4.0842529753e+01    0.2464117    0.2088203 -69.06  0.001019668    1.246    0.197
        52 -10.6872     74.4632     69.2457   3.9988186935e+01   5.4875327253e+01    0.2836609    0.2141113  40.90 0.0009806436    1.365    0.267
        53 -10.4982    196.5831     68.1968   1.0874421657e+01   2.7376340759e+01    0.1881577    0.1238418 -23.15 0.0005613437    1.617    0.381
        54 -12.6224     40.1008     82.9239   5.8554728531e+01   5.6950672071e+01    0.6833071    0.2910059  41.47  0.002627295    2.524    0.604
        55 -10.7143    179.4243     66.0019   1.2709989246e+01   3.1486196754e+01    0.2797848    0.2231606  67.77  0.001524919    1.356    0.263
        56 -10.8939    199.5803     63.6637   9.3080209384e+00   2.7402961471e+01    0.2584096      0.21821 -19.35   0.00120721    1.282    0.220
        57 -10.4686    132.4858     63.1003   2.0470068503e+01   4.3086591250e+01    0.2341887    0.1458118 -37.28 0.0006429453    1.567    0.362
        58 -11.2147    195.5356     56.7584   7.9974632812e+00   2.9264768332e+01    0.2393745    0.1914989  72.38  0.001047682    1.369    0.269
        59 -10.9791    120.9918     56.4974   2.0885209270e+01   4.7030120160e+01    0.3324669    0.2553124 -84.93  0.001577114    1.566    0.361
        60 -11.1161    164.4992     53.0647   1.1245444239e+01   3.6935901573e+01    0.3273489    0.2466361 -30.72  0.001256185    1.321    0.243
        61 -10.1820    167.6813     52.3107   1.0531186985e+01   3.6286513666e+01    0.2608534    0.1947522 -81.31 0.0006651343    1.467    0.318
        62 -11.0930    144.6228     80.4674   2.3253027278e+01   3.7057121828e+01    0.3227873    0.2833408 -66.40  0.001419517    1.171    0.146
        63 -13.1134    181.9563     42.3950   5.7050845053e+00   3.4304329897e+01    0.7713476    0.5874255 -47.43  0.004316404    1.162    0.140
        64 -11.7373     84.8445     47.5610   2.7839109515e+01   5.7132590741e+01    0.5056464    0.3445335  43.57    0.0023878    1.482    0.325
        65 -11.3483    197.0219     43.5199   4.3004666672e+00   3.0735976908e+01    0.2143949    0.1630645 -39.58 0.0006969846    1.160    0.138
        66 -11.9824    223.3877     41.2201   1.2087564800e+00   2.5466265687e+01    0.3785137     0.260869  -8.85  0.002095706    1.936    0.483
        67 -13.2849    244.4909    193.1964   3.0482485775e+01   1.1024481099e+00    0.5927281    0.4940595  39.24  0.003719122    1.834    0.455
        68 -10.4080    175.6647     39.8410   5.7397047346e+00   3.6119507756e+01    0.2304414    0.1869293  60.28 0.0009494837    1.337    0.252
        69 -12.5334     96.6001     35.7273   1.9142103322e+01   5.6353279267e+01    0.5212599    0.3148416 -54.33  0.002256621    1.988    0.497
        70 -12.3485    245.5598     33.5516   3.5779746320e+02   2.2128551374e+01    0.3962664    0.2706166 -79.83  0.002528887    1.571    0.364
        71 -11.1955      2.7447     41.2774   6.7925852981e+01   7.0724630102e+01    0.2674442    0.1924437 -54.23   0.00156218    1.170    0.146
        72 -12.1763    154.0275    224.0000   5.1253957372e+01   8.1626978029e+00     0.285609    0.1381599  36.20   0.00150074    1.824    0.452
        73 -10.5554    247.6857     16.2744   3.5391033859e+02   2.3630935240e+01    0.2192662    0.1118685 -42.45  0.001179045    1.420    0.296
        74 -11.1666    235.9067     28.8881   3.5738654350e+02   2.4466835270e+01    0.3006271    0.1858546 -87.91  0.001801423    1.788    0.441
        75 -11.4450    241.0790     25.8029   3.5636423760e+02   2.3831024273e+01    0.2863374    0.1926702 -43.34  0.001857026    1.133    0.117
        76 -13.5952    203.8314    221.6523   4.1629881611e+01   2.2493374349e+00    0.7449877    0.5260487  23.11  0.004665138    1.282    0.220
        77 -11.0465    228.9808     28.2163   3.5769829423e+02   2.5890759765e+01    0.2584731    0.1300298 -32.46  0.001279329    1.657    0.396
        78 -10.5809    147.6666     29.3348   6.2133600804e+00   4.4341399642e+01    0.1455206     0.138437 -80.74 0.0008479939    1.054    0.052
        79 -10.5276     90.1665     28.1239   1.7587902315e+01   5.9010536750e+01    0.2300406    0.1965704  28.26  0.001250289    1.233    0.189
        80 -12.3826    146.0158    221.0109   5.2462434391e+01   9.6856374874e+00    0.5207084    0.3061066  64.12  0.002055225    4.742    0.789
        81 -11.4785    169.1572     26.5098   2.5347055684e+00   3.9345172333e+01    0.2547095    0.1865064 -34.55 0.0008148161    1.310    0.237
        82 -11.2323    224.5270     22.6413   3.5668546251e+02   2.7404365046e+01     0.320255    0.1853405 -39.46  0.001795861    1.370    0.270
        83  -9.8221    102.6985     25.6502   1.3200601452e+01   5.6251886465e+01    0.1496868    0.1065667  26.99 0.0007038792    1.694    0.410
        84 -10.3566    187.0012     19.7676   3.5879049356e+02   3.5869394374e+01    0.1862021    0.1583149 -68.42 0.0008563919    1.053    0.051
        85 -13.8230    176.1799    218.8017   4.6206704644e+01   6.0668449473e+00    0.7993765    0.2468825  36.45  0.003446057    2.936    0.659
        86 -10.8578     49.5197    218.0000   7.3426478531e+01   2.2440064825e+01    0.2755413    0.0598466  28.01 0.0009446215    4.015    0.751
        87 -11.8310    209.5499    215.7483   3.9741242071e+01   2.3364637330e+00    0.4767972    0.2906455  18.23  0.002851213    1.458    0.314
        88 -12.8476    173.4096    207.8769   4.5076997503e+01   8.0674411829e+00    0.4858233    0.3374808 -35.33  0.003006765    1.485    0.327
        89 -11.7563    151.9906    203.3017   4.8673656904e+01   1.1783327839e+01    0.5260908    0.3789413  39.35  0.003126527    1.386    0.279
        90 -10.5377    128.5210     18.2238   5.1462458649e+00   5.0527340453e+01    0.2696147    0.1890371  72.28  0.001015167    1.360    0.265
        91 -11.0394    136.8902    205.8573   5.2258172378e+01   1.3484857666e+01    0.2977889    0.2068471 -23.57  0.001674894    1.673    0.402
        92 -11.1467    202.6459    196.5103   3.7809816312e+01   5.8380227459e+00    0.2119508     0.172793 -18.50  0.001202795    1.158    0.136
        93 -10.5910    102.3196    192.3259   5.8257024006e+01   2.1028804993e+01    0.1335978    0.1015151 -12.76 0.0007046436    1.680    0.405
        94 -12.0639    196.2097    185.2653   3.7010470328e+01   8.3848553699e+00    0.2759845    0.2337991  57.52  0.001738597    1.815    0.449
        95 -12.5633    158.2982    225.0289   5.0549927793e+01   7.4520002472e+00    0.5254383    0.2782182 -26.77  0.002741858    2.347    0.574
        96 -11.4723    220.1316    174.6602   3.0980708921e+01   6.6304071844e+00     0.245611    0.1171502  35.46  0.001277837    2.214    0.548
        97 -12.0897    238.7425    169.4933   2.7148061283e+01   4.8760501436e+00    0.2428889     0.213457  20.13  0.001795107    1.383    0.277
        98 -10.5818    162.5809    151.8115   3.7188459048e+01   1.9443984628e+01     0.198386    0.1299912 -51.73 0.0009560252    1.693    0.409
        99  -9.9266    173.5254    144.0413   3.3290673996e+01   1.8959907565e+01    0.2090492    0.1289596 -39.81 0.0005450447    1.530    0.346
       100 -10.5480     53.5134    143.5074   6.4846863185e+01   3.9264946010e+01    0.1431606    0.1334934  83.33 0.0002340463    1.024    0.023
