#   1 NUMBER                 Running object number                                     
#   2 MAG_AUTO               Kron-like elliptical aperture magnitude                    [mag]
#   3 X_IMAGE                Object position along x                                    [pixel]
#   4 Y_IMAGE                Object position along y                                    [pixel]
#   5 X_WORLD                Barycenter position along world x axis                     [deg]
#   6 Y_WORLD                Barycenter position along world y axis                     [deg]
#   7 A_WORLD                Profile RMS along major axis (world units)                 [deg]
#   8 B_WORLD                Profile RMS along minor axis (world units)                 [deg]
#   9 THETA_WORLD            Position angle (CCW/world-x)                               [deg]
#  10 FWHM_WORLD             FWHM assuming a gaussian core                              [deg]
#  11 ELONGATION             A_IMAGE/B_IMAGE                                           
#  12 ELLIPTICITY            1 - B_IMAGE/A_IMAGE                                       
         1 -13.2874     57.6946    129.1594   1.0880052111e+02   4.2331614642e+01     2.634207    0.7783714 -72.26  0.006042267    7.585    0.868
         2 -14.6673     68.4947    144.1437   1.0834003011e+02   3.7299889210e+01     5.034414     2.060346  58.60  0.004796762    4.161    0.760
         3 -14.5283    200.3115     35.7352   4.8103522657e+01   3.0659934602e+01     2.258762     1.518478  31.42  0.008218379    2.023    0.506
         4 -12.6961      2.1681     25.2546   1.0507937295e+02   7.0113166499e+01     1.141968    0.1395961 -56.16  0.003981157    4.659    0.785
         5 -13.1314      3.5053      6.2643   9.6829256369e+01   7.3331178974e+01      1.06344    0.6185129 -30.60  0.007167633    1.291    0.225
         6 -11.4909    237.0809      1.7924   3.5953954873e+01   2.5825974949e+01    0.6125268     0.169502  74.07  0.002182052    3.378    0.704
         7 -10.0450     67.5057      3.4924   6.4899432893e+01   6.5529379384e+01    0.1262473    0.1027068  15.48 0.0008106211    1.002    0.002
         8 -10.8371     58.4519      2.1330   6.7527207773e+01   6.7260313821e+01    0.2925941      0.10502  35.26  0.001247385    2.785    0.641
         9 -14.4840    212.8274     22.5488   4.3104169040e+01   2.9209745270e+01     1.466375     1.109697  24.37  0.007867185    1.842    0.457
        10  -9.9670     34.7494    228.0495   1.2449976981e+02   2.3079216812e+01    0.1718812    0.1261012  58.48 0.0005219907    1.155    0.134
        11 -10.6086    140.4606    249.8665   1.0698525418e+02   4.5397769068e+00    0.2440845    0.1603868  56.57   0.00148968    1.498    0.332
        12 -10.3595    134.5491    248.9699   1.0797942715e+02   5.5944162290e+00    0.3247598    0.1541253 -68.80   0.00145947    3.837    0.739
        13 -15.6942     74.9228    246.9447   1.1869548645e+02   1.4647162028e+01     9.283199      3.01522  30.20  0.008451909    8.981    0.889
        14 -14.5026     44.6153    204.6471   1.2095464366e+02   2.6588072378e+01     2.709862     1.084963  58.56  0.008602883    2.416    0.586
        15 -14.0518     29.8932    248.1356   1.2648496952e+02   1.9961873713e+01    0.8901949    0.5414345  35.99  0.006131578    1.853    0.460
        16  -9.5075     56.9585    224.9884   1.2022050975e+02   2.1013063859e+01     0.169185    0.1300924  73.19  0.000337491    1.050    0.047
        17 -13.7957     87.3008    228.1736   1.1471957174e+02   1.6299547250e+01     1.764289    0.9715924  46.58  0.004163094    1.498    0.332
        18 -14.2544     52.4523    195.0471   1.1850654062e+02   2.7670724224e+01     1.327489    0.9127066  62.16  0.007685761    1.261    0.207
        19 -10.0942    209.9723    199.9285   8.5971907428e+01   6.9939198522e-01    0.1808529    0.1631755  71.45 0.0004058514    1.590    0.371
        20 -11.5929    193.2626    194.6945   8.8269412253e+01   4.4948788085e+00    0.9442551    0.5162693 -64.32  0.002991673    5.607    0.822
        21  -9.4480    113.0237    198.6273   1.0590745388e+02   1.8101373630e+01    0.3115013    0.1658481  77.45  0.001086666    4.018    0.751
        22 -16.3823      8.6126    241.9856   1.2963122178e+02   2.3271875020e+01     6.946546      1.39806 -75.61    0.0188932    4.184    0.761
        23 -10.6385     75.0059    189.5119   1.1306130687e+02   2.5897014291e+01    0.3148231    0.1876229  72.52 0.0009876265    1.835    0.455
        24 -10.1534     72.4265    186.5470   1.1327979471e+02   2.6908146863e+01    0.2348312    0.1688245  74.10  0.001347186    1.311    0.237
        25  -9.1386     94.8214    187.6265   1.0840045110e+02   2.3357344267e+01    0.1816276    0.1118886  50.11  0.000298999    1.498    0.332
        26 -15.5982      2.7042    198.3545   1.2859476122e+02   3.2154244610e+01     8.296688          nan -71.39     0.020979    9.443    0.894
        27  -9.7018    147.4851    185.0309   9.6158534286e+01   1.4767329180e+01    0.2025532    0.1415499 -49.66 0.0005213902    1.548    0.354
        28 -14.5486     10.4998    206.3533   1.2759031267e+02   2.9833065899e+01    0.7309895    0.5584719  32.05  0.002543838    1.715    0.417
        29 -10.1838     99.4353    180.8151   1.0637664175e+02   2.4112359647e+01    0.2367129    0.2151736  29.16 0.0006389124    1.279    0.218
        30 -12.0863     67.9041    178.3330   1.1330786027e+02   2.9361640029e+01     0.388991    0.2750404 -39.09  0.001487844    1.983    0.496
        31 -11.9584     72.4075    173.1330   1.1160139961e+02   2.9924810140e+01    0.3076698    0.2577468 -40.12 0.0007266997    1.526    0.345
        32  -9.9221     39.4828    177.1687   1.1958533550e+02   3.3110138067e+01    0.2197311    0.1485497  54.50 0.0004434531    1.378    0.274
        33 -12.5135     87.8824    156.6282   1.0537600571e+02   3.1481290544e+01    0.7080931    0.5070589 -35.73  0.001322535    1.808    0.447
        34 -12.8813     13.7002    189.7380   1.2598643452e+02   3.2962871848e+01    0.3513621    0.2736818 -86.47  0.000547713    1.162    0.139
        35 -13.1439     81.6663    163.3367   1.0798814053e+02   3.0855017262e+01     1.733966    0.4660918  48.69  0.001252847    4.384    0.772
        36 -13.5862     69.1160    159.2884   1.1049034035e+02   3.3599104967e+01    0.6274961      0.42816 -42.56  0.002067683    1.804    0.446
        37 -11.0238     62.5642    236.0605   1.2005856181e+02   1.8217517906e+01    0.3022259    0.1903189  87.41   0.00150605    1.530    0.346
        38  -9.5066    161.4926    165.9939   8.9419994249e+01   1.5897832425e+01    0.2167212    0.1468446 -48.71  0.001014817    1.561    0.359
        39 -10.1960    230.4960    166.4770   7.5505080426e+01   2.3677190292e+00    0.2425734    0.1194362 -45.09  0.001034066    2.311    0.567
        40  -9.1165     46.9691    159.4754   1.1595175118e+02   3.6331771618e+01    0.1774509    0.0859582  57.87 0.0004867251    2.255    0.556
        41  -9.1238    126.1415    155.1709   9.5540245924e+01   2.5167337299e+01    0.1923102     0.165859  80.73 0.0002340115    1.241    0.194
        42 -11.1649    133.6641    143.7653   9.1305497501e+01   2.6270987183e+01     1.164876    0.2903413 -54.69  0.002679996    6.082    0.836
        43 -10.5642    174.4572    148.7461   8.2838436821e+01   1.6725728288e+01    0.3159493    0.2798056  72.86 0.0009765251    1.310    0.236
        44 -11.0245     38.8352    145.9764   1.1632547466e+02   4.0406873370e+01    0.3122383    0.2440846 -89.57 0.0008597769    1.111    0.100
        45 -10.4775    137.5025    170.5115   9.5782594463e+01   1.9641611787e+01    0.2121111    0.2003904  58.96 0.0008960357    1.017    0.016
        46 -10.0457     84.3571    143.8535   1.0408525804e+02   3.5069029007e+01    0.3043163    0.2407634  56.54 0.0006971664    1.285    0.222
        47 -12.4946     89.4407    141.1526   1.0223541172e+02   3.4919199419e+01    0.2865508    0.2506187 -53.62 0.0004981505    1.153    0.133
        48 -10.9249    102.1684    141.1438   9.8849758860e+01   3.2796278881e+01    0.5639077    0.3377823 -31.53  0.002258003    2.484    0.598
        49  -9.7567     36.5280    140.2480   1.1619808924e+02   4.2006586602e+01    0.1921551    0.1714697  52.31 0.0002716951    1.257    0.204
        50 -10.2453    111.4175    131.0258   9.4245414736e+01   3.3521445712e+01    0.3305474     0.246048 -21.98 0.0008260262    1.793    0.442
        51 -10.2781    106.1000    130.7992   9.5630269425e+01   3.4551235346e+01    0.3413454    0.2975932 -83.94  0.001188365    1.197    0.164
        52 -10.9935    135.6433    123.7716   8.6168554833e+01   3.0364289866e+01     0.345593    0.1920677 -40.98  0.001016807    1.852    0.460
        53 -10.7623    117.2942    126.4777   9.1631121453e+01   3.3466751916e+01    0.5657761    0.2494278 -57.29  0.001974724    2.568    0.611
        54 -11.2116    121.6326    119.7335   8.8847769265e+01   3.4167197984e+01    0.7424606    0.3200664 -31.82  0.001954534    4.889    0.795
        55  -9.1410     47.3244    172.2998   1.1732561138e+02   3.3324489810e+01    0.1181579    0.0933707 -44.52 0.0003986691    1.631    0.387
        56 -10.2126    126.0937    127.9602   8.9650132184e+01   3.1385009486e+01    0.3783234    0.2089324 -70.59  0.001243087    3.233    0.691
        57 -10.4708    160.7676    127.8892   8.1037133651e+01   2.4011612675e+01    0.3110071    0.2248791 -61.29   0.00137629    1.626    0.385
        58 -11.0595     98.6156    127.3125   9.6920989598e+01   3.6705841614e+01    0.3103202    0.2633476 -13.09   0.00138721    1.462    0.316
        59  -9.9631    107.8377    119.8137   9.2643285077e+01   3.6821040438e+01    0.2103375    0.1984981 -23.98 0.0003355963    1.132    0.117
        60 -10.8816     34.8556    166.6940   1.1959902605e+02   3.5979293467e+01    0.3696382    0.2435671  57.48   0.00118104    1.439    0.305
        61  -9.8919    168.4277    113.1134   7.5520108123e+01   2.5347595805e+01    0.3990952    0.2666544 -69.35  0.001285619    2.215    0.549
        62 -11.3568    120.5222    111.2110   8.6993674659e+01   3.6333512762e+01    0.3494828    0.2479761  72.08  0.001491253    1.938    0.484
        63 -10.8651    134.7065    105.3571   8.1637434864e+01   3.4635669104e+01    0.5490419     0.139302 -42.22  0.001456056    4.013    0.751
        64 -11.6728     18.0906    110.3966   1.1732595642e+02   5.0714643492e+01    0.3068291    0.2051815 -77.13 0.0009021914    1.257    0.205
        65 -11.7931     43.5052    104.8854   1.0864762176e+02   4.9804364035e+01    0.5972409    0.2287713  45.15  0.002374243    3.248    0.692
        66  -9.4232     91.9961    102.9807   9.3081318237e+01   4.3595817554e+01    0.2190841    0.1759719  83.21 0.0004883215    1.563    0.360
        67  -9.5337     66.4885    103.5173   1.0110754649e+02   4.7390926567e+01    0.2504236    0.1194141  45.32  0.001037041    2.441    0.590
        68 -10.0859    205.4792    110.1527   6.7129123758e+01   1.7361570652e+01    0.3207514    0.2174031  40.58 0.0008844749    1.586    0.369
        69 -10.4229     41.9993     92.0088   1.0653033937e+02   5.3003924163e+01    0.2305846    0.1893224  34.57 0.0005750399    1.421    0.296
        70 -10.1611     53.1117     90.5006   1.0244652919e+02   5.2143112447e+01    0.2420713    0.1661087 -41.39  0.001289183    1.372    0.271
        71  -9.8628    158.2878     81.0334   6.8863776996e+01   3.4086143317e+01    0.2220203    0.2021747 -41.21 0.0004844105    1.093    0.085
        72  -9.3087     55.9879     66.2982   9.4898581494e+01   5.7179122045e+01     0.180396    0.1607459 -15.33 0.0001989866    1.108    0.097
        73 -10.5548     13.5304     59.8566   1.0970827666e+02   6.2530536107e+01     0.225716    0.1742447 -57.52 0.0003899708    1.103    0.093
        74 -12.1177    191.4376     42.2697   5.1177730824e+01   3.2017873072e+01    0.5576042    0.5090207  69.13 0.0009380186    1.080    0.074
        75  -8.6416     43.5089    236.5148   1.2349562417e+02   2.0489219899e+01    0.1121142    0.0833295  67.91 0.0001857794    1.021    0.020
        76 -11.5133    145.1423     49.7384   6.1996390993e+01   4.2688986199e+01     0.582771    0.3710089 -80.76  0.002024275    2.732    0.634
        77 -10.2697    147.1594     43.5318   5.9496726297e+01   4.3109254916e+01    0.2617702    0.2371016 -45.84 0.0004034695    1.160    0.138
        78 -10.3334     50.1624    234.6449   1.2219020048e+02   2.0035452601e+01    0.2270669    0.1356559  67.76 0.0006685547    1.384    0.278
        79 -10.9500    170.7815    233.5379   9.9104714069e+01   2.1661178561e+00    0.2324744    0.2059763  33.62 0.0007998727    1.091    0.084
        80  -9.4296    189.5266     14.9647   4.3749936215e+01   3.5855558256e+01    0.1951821     0.133384 -30.74 0.0006766176    1.552    0.356
        81  -8.9547    138.0135     14.5012   5.1374724272e+01   4.8959106362e+01    0.1850777    0.1156261 -83.00 0.0008053293    2.284    0.562
        82  -9.6832     74.9436    231.2458   1.1736645916e+02   1.7461538843e+01    0.1845379    0.1237193  61.76  0.000562927    1.229    0.186
        83 -12.8189     47.9759    222.7856   1.2172947807e+02   2.2548070336e+01    0.6543413    0.3136308 -72.61  0.001023841    2.015    0.504
        84 -10.7702     40.3654    224.2765   1.2323947400e+02   2.3159414963e+01    0.2838803    0.1895532  77.65 0.0008472367    1.218    0.179
