#   1 NUMBER                 Running object number                                     
#   2 MAG_AUTO               Kron-like elliptical aperture magnitude                    [mag]
#   3 X_IMAGE                Object position along x                                    [pixel]
#   4 Y_IMAGE                Object position along y                                    [pixel]
#   5 X_WORLD                Barycenter position along world x axis                     [deg]
#   6 Y_WORLD                Barycenter position along world y axis                     [deg]
#   7 A_WORLD                Profile RMS along major axis (world units)                 [deg]
#   8 B_WORLD                Profile RMS along minor axis (world units)                 [deg]
#   9 THETA_WORLD            Position angle (CCW/world-x)                               [deg]
#  10 FWHM_WORLD             FWHM assuming a gaussian core                              [deg]
#  11 ELONGATION             A_IMAGE/B_IMAGE                                           
#  12 ELLIPTICITY            1 - B_IMAGE/A_IMAGE                                       
         1 -12.6690    185.9656     38.0197   5.6758993574e+01   3.3641753833e+01     1.357933    0.9835979  23.02  0.004316121    1.599    0.375
         2 -11.6122    190.3807     31.5187   5.4074529342e+01   3.3301667090e+01    0.5755654    0.5109687  47.50  0.001190893    1.179    0.152
         3 -12.4546    208.9406      5.9175   4.4211430583e+01   3.1256397386e+01    0.8980569    0.8296761 -88.18  0.004475941    1.121    0.108
         4 -10.7772     59.1831      3.6984   7.2168944193e+01   6.9060384949e+01    0.4104126    0.2053298  43.85   0.00189548    2.033    0.508
         5  -9.8950    113.0046    215.8061   1.1078840504e+02   1.8259224249e+01    0.2407531    0.1523463  89.52  0.001433613    2.492    0.599
         6 -11.0970    139.7206    247.8696   1.0919780993e+02   1.0496825099e+01    0.3059347     0.264963 -63.22  0.002663815    1.648    0.393
         7 -10.2600    113.0569    195.5262   1.0856197359e+02   2.1425551340e+01    0.4363229    0.2652817   5.45  0.001933517    3.783    0.736
         8  -9.0692     97.4913    195.4844   1.1171817921e+02   2.3589922642e+01     0.224516    0.1188929  45.68  0.001099642    1.563    0.360
         9  -7.6454    207.6856    192.3106   9.0279274579e+01   7.5699609324e+00    0.1010306   0.09094243  51.42 0.0007030885    1.633    0.388
        10  -8.5205    154.6569    186.3142   9.9019801853e+01   1.6612827769e+01      0.11966   0.08995535  62.18 0.0007047457    1.708    0.415
        11  -8.8496     93.3535    185.6686   1.1151093843e+02   2.5863347227e+01    0.1968625    0.1179511  61.84 0.0007292774    1.783    0.439
        12  -8.1694    104.2975    214.3030   1.1228874340e+02   1.9642196369e+01    0.1002263   0.08146898  10.30 0.0005509525    1.582    0.368
        13  -8.4049    126.7532    208.9689   1.0743773359e+02   1.7388450416e+01    0.1239316   0.09899022 -53.86 0.0004447829    1.560    0.359
        14  -9.4109     99.3456    180.9008   1.0967847526e+02   2.5889025916e+01    0.2226962    0.1593577  33.43  0.000659964    1.340    0.254
        15  -9.0089    204.0234    175.9704   8.8127952728e+01   1.0124368625e+01    0.1966958    0.1575781  13.08  0.001304167    1.034    0.033
        16 -10.7868    114.3263    208.0684   1.0972473914e+02   1.9253108491e+01    0.2579136    0.2051289 -70.89  0.001251793    1.553    0.356
        17  -9.1306    119.4755    173.5072   1.0436057798e+02   2.4235700880e+01    0.1252147    0.1094967  44.86 7.366894e-05    1.004    0.004
        18 -10.6915    104.3368    172.2863   1.0749867247e+02   2.6743815405e+01    0.4517134    0.2568294  40.38  0.002444572    1.539    0.350
        19  -8.5427    111.0000    168.8803   1.0555466214e+02   2.6374559606e+01    0.1928974   0.07220813 -55.97 0.0008088311    2.987    0.665
        20  -7.8813    163.4967    168.5400   9.4394900208e+01   1.7885026310e+01    0.1287471    0.1106525  25.01 0.0001247098    1.016    0.016
        21 -11.1583    107.0018    203.8127   1.1069765998e+02   2.0924246864e+01    0.3414668    0.2840694 -52.67  0.002489784    1.485    0.327
        22  -7.6674    117.6940    162.3214   1.0308742553e+02   2.6547328320e+01      0.12996   0.09439421  68.59 0.0003777702    1.638    0.390
        23 -10.1401     93.4454    159.3124   1.0821972836e+02   3.0831007920e+01    0.2584208    0.2224021 -60.40 0.0004468935    1.265    0.210
        24 -10.6198     95.8019    200.0539   1.1253491864e+02   2.3046563343e+01    0.3674367    0.2938308  20.00  0.001570619    1.476    0.323
        25 -10.9390     98.8564    152.4587   1.0594405395e+02   3.1397813720e+01    0.5372078    0.3948354 -26.12   0.00247635    1.939    0.484
        26  -9.4439    134.4567    148.4589   9.6961126065e+01   2.6323098215e+01    0.4197046    0.1628204 -52.29  0.001635662    3.009    0.668
        27  -9.3458    133.0000    139.9842   9.5689512624e+01   2.8172116795e+01    0.3284063      0.17872 -58.18  0.001441746    2.302    0.566
        28  -8.5039     86.9855    203.0625   1.1459008127e+02   2.3691557660e+01    0.2755636    0.1671058 -84.27  0.001681592    2.066    0.516
        29  -8.2452    144.0000    147.0122   9.4561746526e+01   2.4895744965e+01    0.2107663   0.07743935 -45.80 0.0008009284    2.932    0.659
        30  -8.3461    115.7688    144.5708   1.0059877653e+02   3.0273552119e+01    0.1923321    0.1165381  49.90  0.000674681    1.631    0.387
        31  -9.4577     83.4546    141.6599   1.0811869654e+02   3.5924667021e+01    0.3008247    0.1879486  72.76   0.00147276    1.994    0.498
        32 -10.3831    109.0939    138.6829   1.0117082723e+02   3.2573318456e+01    0.4215584    0.2707662 -29.16  0.001964381    2.264    0.558
        33 -10.8226     97.8429    138.1347   1.0389074353e+02   3.4507605859e+01    0.2579829    0.2501066  14.68 0.0003333044    1.160    0.138
        34  -9.3269     78.3183    134.8498   1.0841354945e+02   3.8133598483e+01    0.2313383    0.1609851  50.38  0.000716049    1.377    0.274
        35  -9.7823    105.8658    130.9275   1.0055116271e+02   3.4722887637e+01    0.3286735    0.2972392 -83.85  0.001330602    1.136    0.120
        36  -9.6735    115.5257    129.6880   9.7865318531e+01   3.3323008380e+01    0.2948781    0.2435951 -26.73 0.0009703087    1.415    0.293
        37  -9.7318    103.7583    125.2164   9.9993604402e+01   3.6289618061e+01    0.2986963    0.2415376 -21.12  0.001174953    1.570    0.363
        38  -8.8249    110.7364    118.5312   9.6783690961e+01   3.6504650792e+01    0.2528875    0.1883533 -50.75 0.0006999824    1.356    0.263
        39  -9.3744     68.0692    115.6561   1.0812862369e+02   4.3893289937e+01    0.1852187    0.1691922  55.01 0.0007432781    1.119    0.106
        40  -8.6754    168.4636    113.5458   8.1931462802e+01   2.6083058687e+01    0.2862516    0.2031692 -55.90  0.001352169    1.784    0.440
        41  -8.3998    205.7587    110.3736   7.4054622476e+01   1.8872535114e+01    0.1904951    0.1218268  37.06 0.0004283155    1.572    0.364
        42  -9.0995    152.3786    197.6854   1.0110596746e+02   1.5294716715e+01    0.2387453    0.1552198 -52.68  0.001451564    1.995    0.499
        43 -10.0403     81.8444    196.0522   1.1497297665e+02   2.5542856152e+01    0.3499972    0.2748164 -23.48  0.001128145    1.988    0.497
        44  -9.3251    134.7787    103.6431   8.7099137027e+01   3.4941512625e+01    0.5459791    0.1163692 -45.46   0.00142297    4.852    0.794
        45  -9.8034    192.5084    194.3894   9.3238566651e+01   9.6148956256e+00     0.590366    0.2896004 -53.65  0.002388601    5.154    0.806
        46 -10.1809    166.5275     66.8304   6.9287762092e+01   3.4408718196e+01    0.3964552    0.2988693 -71.56 0.0004418758    1.769    0.435
        47 -11.5523    171.1454     52.5575   6.3855484711e+01   3.5439699345e+01    0.6165376    0.5020284  -1.43  0.001118924    1.308    0.235
        48 -19.4808     26.3145    154.5900   1.2381877163e+02   3.9803244208e+01     17.25468     2.795038 -77.52   0.05273469    6.305    0.841
        49  -8.6282    167.7803    233.4837   1.0291081571e+02   8.4889868052e+00    0.2267398    0.1380241  51.73  0.001461491    1.950    0.487
        50  -9.4852    189.6371     15.2354   4.8922500341e+01   3.5246834054e+01    0.2576767    0.1846057  -6.35  0.001276614    1.488    0.328
        51 -11.0606    157.3724    219.2894   1.0301343997e+02   1.1637416087e+01    0.2730165    0.2374841 -13.74  0.001836847    1.358    0.264
