#   1 NUMBER                 Running object number                                     
#   2 MAG_AUTO               Kron-like elliptical aperture magnitude                    [mag]
#   3 X_IMAGE                Object position along x                                    [pixel]
#   4 Y_IMAGE                Object position along y                                    [pixel]
#   5 X_WORLD                Barycenter position along world x axis                     [deg]
#   6 Y_WORLD                Barycenter position along world y axis                     [deg]
#   7 A_WORLD                Profile RMS along major axis (world units)                 [deg]
#   8 B_WORLD                Profile RMS along minor axis (world units)                 [deg]
#   9 THETA_WORLD            Position angle (CCW/world-x)                               [deg]
#  10 FWHM_WORLD             FWHM assuming a gaussian core                              [deg]
#  11 ELONGATION             A_IMAGE/B_IMAGE                                           
#  12 ELLIPTICITY            1 - B_IMAGE/A_IMAGE                                       
         1 -14.4205    162.0435     49.0510   8.0509082023e+01   3.8727022130e+01     1.846004     1.406325  20.53  0.006551496    1.634    0.388
         2 -13.5708    179.1036     26.1271   7.1008404081e+01   3.7493130950e+01    0.5701319    0.5530992  80.24  0.001528293    1.108    0.097
         3 -14.2267    175.2436     32.9641   7.3512195902e+01   3.7621369482e+01    0.9405353    0.8858353 -56.21  0.003413646    1.128    0.114
         4 -13.4384    190.3602     14.6367   6.6386573926e+01   3.6004368638e+01    0.9783959    0.5403536 -80.79   0.00440843    2.237    0.553
         5 -13.7952    192.8273      3.2489   6.3198927098e+01   3.6563745176e+01      1.35732    0.5418532  63.28  0.004741043    2.070    0.517
         6  -9.1408      2.2630     19.6415   1.2076369242e+02   6.9537152673e+01   0.08896407   0.07622128 -54.51 0.0004039266    1.630    0.386
         7 -19.8070     53.2619    167.3529   1.3637513738e+02   3.4393112971e+01     19.43967     5.484459 -68.47   0.06863222    3.476    0.712
         8 -12.1846    207.5961    183.7736   1.0506522991e+02   2.9469614173e+00    0.3762315    0.3643076 -67.15  0.001082929    1.187    0.158
         9 -12.1784    210.7784    181.2422   1.0392368660e+02   2.7758552697e+00    0.4538488    0.3216136 -23.48  0.001711025    1.552    0.356
        10 -10.8388     21.3609    214.2513   1.4738050118e+02   2.7843668828e+01    0.2348917    0.2147633 -51.52  0.001818213    1.733    0.423
        11 -11.0965    145.0131    178.5269   1.1724031746e+02   1.6642281651e+01    0.3098099    0.2326392  -5.39  0.001332242    2.133    0.531
        12 -11.4461    197.9061    175.9109   1.0539058588e+02   6.3449694435e+00    0.4194187    0.3062717 -53.90  0.001211928    1.548    0.354
        13 -10.6403      1.3536    177.4197   1.4829506672e+02   3.7418345987e+01    0.1111976   0.07931394 -82.46 0.0003223267    1.088    0.081
        14  -9.8472    168.4583    175.8873   1.1156918801e+02   1.2430767590e+01    0.2124078    0.1471601 -45.76 0.0002788735    1.504    0.335
        15 -10.1226     12.4645    215.2571   1.4898045056e+02   2.8561948843e+01   0.09383348   0.07828388 -50.58 0.0003360756    1.880    0.468
        16 -12.5055    136.9354    171.5486   1.1773134433e+02   1.9762472935e+01     0.790925    0.4523725  51.55  0.003424071    1.748    0.428
        17 -10.9160    128.9007    206.3704   1.2548349956e+02   1.3869006921e+01    0.2761838     0.176836  30.04  0.001315927    1.933    0.483
        18 -11.8567    230.0423    166.1376   9.7083057651e+01   1.6831944217e+00    0.3331023    0.2108832 -49.04  0.001438905    1.744    0.427
        19 -11.3073    225.9748    167.2589   9.8077961354e+01   2.2823042272e+00     0.449089    0.2445987 -59.08  0.001662799    3.183    0.686
        20 -11.5092    204.0458    168.3795   1.0256484354e+02   6.5109992936e+00    0.6058985    0.5310822  75.15  0.003254299    1.361    0.265
        21 -10.4674      4.7464    214.3429   1.5022105037e+02   2.9499448061e+01     0.114107   0.09820259 -87.33 0.0005666293    1.404    0.288
        22 -10.9384      1.4681    250.1587   1.5266199447e+02   2.3079759484e+01    0.1391629   0.07414586 -84.62 0.0009915192    1.487    0.327
        23 -11.6209    144.9471    168.4486   1.1529808141e+02   1.8841658412e+01    0.4669373    0.3303232  70.43  0.001790328    1.704    0.413
        24  -9.8210    122.9963    166.0187   1.1989716641e+02   2.3702394005e+01    0.2239119    0.1664203  77.81  0.001072265    1.546    0.353
        25 -11.4931    165.0146    205.5676   1.1784696977e+02   7.2547473594e+00    0.5575234    0.2855323 -61.72  0.002228656    2.869    0.651
        26 -10.7451     14.0292    160.4416   1.4423472824e+02   4.0054132440e+01    0.2689118     0.134286 -78.93  0.000465197    1.614    0.381
        27 -11.7771    163.5782    155.8961   1.0844614078e+02   1.7666808256e+01    0.3747891    0.3031082 -56.80  0.001129031    1.280    0.219
        28 -12.4464    134.0137    145.3805   1.1303201948e+02   2.6238737921e+01     1.233439    0.3256157 -54.71    0.0030599    5.092    0.804
        29 -10.6342    140.0421    156.4653   1.1397861783e+02   2.2499858208e+01    0.2169828    0.2008299 -70.58 0.0003537499    1.067    0.063
        30 -12.6517     16.0328    206.2505   1.4773808049e+02   3.0026412642e+01    0.2159733    0.1444279 -84.64 0.0008082585    1.171    0.146
        31 -10.3977    232.4908    149.0112   9.2901272607e+01   4.2530313610e+00    0.2057504    0.1172751 -57.94 0.0005699098    2.504    0.601
        32 -11.0592    174.3575    148.2533   1.0434194857e+02   1.6938619742e+01    0.4127347    0.2827567 -53.52  0.001156061    1.539    0.350
        33 -12.0394    144.7690    145.8121   1.1054988289e+02   2.3904814417e+01    0.5006807    0.3755502  73.65  0.002292849    1.603    0.376
        34 -10.3436      1.9314    147.0143   1.4553853347e+02   4.3973966576e+01    0.1699068    0.1240088 -80.08 0.0002827658    1.013    0.012
        35 -12.5940    102.8263    140.3732   1.1973248744e+02   3.3355593684e+01    0.4004011    0.3029771  60.08 0.0004976625    1.413    0.293
        36 -10.9705     11.5051    142.5888   1.4291031966e+02   4.4242600804e+01     0.206251     0.164347 -68.40 0.0005923032    1.148    0.129
        37 -11.1391    143.4081    139.6153   1.0946630737e+02   2.5580764357e+01    0.3131319    0.2347675  -0.56  0.001337145    2.056    0.514
        38 -13.3980     11.5521    205.9635   1.4850846861e+02   3.0530013384e+01    0.3483279    0.2717712  51.08  0.001984595    1.459    0.315
        39  -9.2408    171.6685    138.2904   1.0261943842e+02   1.9646338071e+01    0.1585809    0.1240719  89.26 0.0004504336    1.627    0.385
        40 -12.3742    112.9713    140.0690   1.1708791311e+02   3.1586151091e+01    0.6504595    0.4736845 -14.71  0.002862867    2.168    0.539
        41 -11.1571    150.5063    134.5775   1.0659334488e+02   2.5167535686e+01    0.4031999    0.2820115  85.69 0.0008775252    2.118    0.528
        42 -11.8998     22.2141    135.7722   1.3952832355e+02   4.4905692726e+01     0.213952     0.190212 -69.23 0.0003789028    1.172    0.147
        43 -11.6295    118.6695    130.0801   1.1340099499e+02   3.2808968376e+01    0.4182292    0.3545457 -54.41  0.001198662    1.137    0.120
        44 -11.5998    105.6089    130.7817   1.1694643367e+02   3.5099277688e+01     0.396471    0.3506824 -80.50  0.001204835    1.140    0.123
        45 -11.4983    106.8559    126.8192   1.1572241889e+02   3.5790402757e+01    0.2977558    0.2531059 -33.47 0.0006957485    1.281    0.219
        46 -13.5494    194.2498    194.2770   1.0980594271e+02   3.6672018611e+00     1.202808    0.8105574 -67.49   0.00521253    2.298    0.565
        47 -10.1443     25.5153    206.4136   1.4604806451e+02   2.9003828031e+01    0.1706833    0.1159719  59.75 9.401316e-05    1.317    0.241
        48 -11.0403    160.3167    128.2911   1.0277679582e+02   2.4352117615e+01    0.4682617    0.2636742 -40.60  0.001870753    1.816    0.449
        49 -12.1751    135.3829    122.5251   1.0734405823e+02   3.1108894701e+01    0.7430402    0.2280804 -49.49  0.002199461    3.361    0.702
        50 -10.8881     22.2725    204.9906   1.4652469871e+02   2.9643954983e+01     0.161365    0.1311654  72.58 0.0003107467    1.201    0.168
        51  -9.6828    170.3576    205.2440   1.1669314477e+02   6.2900089227e+00    0.1785678    0.1321932 -59.72 0.0004157939    1.582    0.368
        52 -10.4196     20.2434    219.6689   1.4795572768e+02   2.6876332031e+01    0.1212079   0.09657178  46.56  0.000293551    1.547    0.354
        53 -10.8301    112.9040    119.3662   1.1235905491e+02   3.6365475277e+01    0.2730402    0.2359524 -55.09 0.0003420461    1.109    0.098
        54  -9.9175    211.0347    202.2746   1.0802467931e+02  -9.2249473057e-01     0.185172    0.1617139  31.09 0.0002728469    1.070    0.066
        55 -11.7504    137.9930    198.1210   1.2224866963e+02   1.3876927047e+01    0.6412064    0.3026302  59.87  0.002363864    2.882    0.653
        56 -10.4249    177.9677    196.9617   1.1363293460e+02   6.3624101815e+00    0.3213262    0.2530275  78.39  0.001098089    1.641    0.391
        57 -11.4273      3.4347    112.4644   1.4120208086e+02   5.1480162029e+01    0.2842995    0.2144252 -31.52  0.001936006    1.586    0.370
        58 -11.5328    180.2464    193.5061   1.1251522239e+02   6.5651237318e+00     0.455866    0.2856593 -64.23  0.001503621    2.284    0.562
        59 -11.2519    167.8535    113.1805   9.7246696684e+01   2.5801593237e+01    0.4701767    0.3302197  72.29  0.001754845    1.788    0.441
        60 -11.8728    124.0249    126.6174   1.1121377785e+02   3.2539461433e+01    0.5965223    0.3864423  75.41  0.002306553    2.422    0.587
        61 -11.0017    134.4993    102.9734   1.0248901709e+02   3.5535525622e+01     0.304201     0.192839 -42.37  0.001143569    1.559    0.359
        62 -10.6748    205.4864    110.2535   8.8762454922e+01   1.7463466312e+01    0.3245216    0.2439809  45.54  0.001020748    1.399    0.285
        63 -10.0085    217.5076    218.5006   1.0978707325e+02  -4.6766996624e+00    0.1318479    0.1127451  17.81 0.0008104639    1.030    0.029
        64 -11.6935     89.3699    108.5920   1.1618234983e+02   4.2980644384e+01     0.276336     0.244771 -53.97 0.0007252307    1.050    0.047
        65 -10.9139    119.8721    215.8542   1.2872502973e+02   1.3564992693e+01     0.424409    0.2445566  85.07  0.001800946    2.770    0.639
        66 -11.3071    157.6589    192.7323   1.1711499516e+02   1.1184301449e+01    0.2574977    0.2240194  73.93 0.0004366845    1.204    0.170
        67 -12.2892    205.0168    198.1024   1.0840044135e+02   9.1555747740e-01    0.4905745     0.364815  -2.49  0.001342241    1.629    0.386
        68  -9.9659    148.4826     78.9209   9.2258119914e+01   3.7106142589e+01    0.2287817    0.1495198 -39.03 0.0006142737    1.546    0.353
        69 -10.7236     87.9626     77.9947   1.0831257514e+02   4.9687400657e+01     0.209124     0.191406 -21.71  0.000354832    1.014    0.013
        70 -10.5516    112.9906     76.4583   1.0056962002e+02   4.5359596931e+01    0.2212756    0.1419593  45.20 0.0008077178    1.588    0.370
        71 -10.0019    168.5654    248.7607   1.2389610802e+02  -7.8067643983e-01    0.1533859    0.1208528 -70.43 0.0009487146    1.677    0.404
        72 -10.4413    200.0518    246.4709   1.1772433546e+02  -5.7950292721e+00    0.2611508    0.1669121  64.48  0.001299503    2.590    0.614
        73 -10.2613     13.4320     59.8948   1.2834111938e+02   6.1827119227e+01    0.1574154    0.1443847 -36.02 0.0003988645    1.223    0.182
        74  -9.3038    203.3003    245.3206   1.1694752096e+02  -6.1759362540e+00    0.1241266   0.08625092  12.68 0.0003386388    1.624    0.384
        75 -11.3500    181.9448    234.1688   1.1920126445e+02  -8.3786796992e-01    0.2289513    0.1967345  -2.50  0.001441947    1.333    0.250
        76 -11.3043    157.1550    218.8339   1.2164081336e+02   6.2726632943e+00    0.2106435    0.1756158  68.27 0.0008306625    1.246    0.198
