#   1 NUMBER                 Running object number                                     
#   2 MAG_AUTO               Kron-like elliptical aperture magnitude                    [mag]
#   3 X_IMAGE                Object position along x                                    [pixel]
#   4 Y_IMAGE                Object position along y                                    [pixel]
#   5 X_WORLD                Barycenter position along world x axis                     [deg]
#   6 Y_WORLD                Barycenter position along world y axis                     [deg]
#   7 A_WORLD                Profile RMS along major axis (world units)                 [deg]
#   8 B_WORLD                Profile RMS along minor axis (world units)                 [deg]
#   9 THETA_WORLD            Position angle (CCW/world-x)                               [deg]
#  10 FWHM_WORLD             FWHM assuming a gaussian core                              [deg]
#  11 ELONGATION             A_IMAGE/B_IMAGE                                           
#  12 ELLIPTICITY            1 - B_IMAGE/A_IMAGE                                       
         1 -14.4568    160.6725     49.6357   8.2269697041e+01   3.8773680410e+01      1.99962     1.452751   3.05  0.006001711    1.522    0.343
         2 -14.2806    172.9699     33.6299   7.4277514008e+01   3.7788409701e+01     1.108646    0.9645706 -14.48  0.003193638    1.128    0.113
         3 -13.6673    176.8323     26.4614   7.1114850639e+01   3.7623736453e+01    0.7265195    0.6411144  14.33  0.001242792    1.095    0.087
         4 -13.0494    191.4355     15.3727   6.5138961028e+01   3.4908430815e+01    0.6952325    0.4913569 -62.40  0.002646913    1.709    0.415
         5 -13.8195    189.1408      3.7652   6.1597407554e+01   3.6587862377e+01     1.349381    0.6022825  61.38  0.004390598    2.032    0.508
         6  -9.4545      2.1672     19.3961   1.2860794952e+02   7.0099285275e+01    0.1175133    0.1075917  25.89 0.0002594055    1.469    0.319
         7 -19.0653     59.9183    243.8111   1.3880714199e+02   2.1229977449e+01     5.233387     4.027766  44.31   0.04730118    1.318    0.241
         8 -19.2194     48.5116    100.3456   1.2793582374e+02   4.8894005697e+01     16.65195     1.002648 -65.00   0.02879048   15.309    0.935
         9  -9.8391    170.2309    205.2215   1.1627665667e+02   1.1720713565e+01    0.1449853    0.1239833  53.81 0.0004544527    1.336    0.251
        10 -10.4073    217.5069    218.5089   1.0999764113e+02   2.8145715368e+00    0.1166005   0.08301375  25.57 0.0003546768    1.013    0.012
        11  -8.3168     23.3421    204.6977   1.4271964496e+02   3.0756572818e+01    0.1755365    0.1662863   5.29  0.001218221    1.710    0.415
        12 -10.0538    211.0395    201.9999   1.0855493321e+02   5.5579801692e+00    0.1779633    0.1359113  26.10 0.0003244315    1.041    0.039
        13  -9.4900     19.3183    200.4670   1.4320683333e+02   3.1806816197e+01   0.09479835   0.06589731  72.21 0.0001126303    1.080    0.074
        14 -11.3105    137.0182    197.6522   1.2141446463e+02   1.7978293179e+01    0.4350877    0.2262474  59.25  0.002153286    2.543    0.607
        15 -10.7912    177.9796    189.4749   1.1250676606e+02   1.2542388579e+01    0.2222796    0.1521607  47.64 0.0007085241    1.412    0.292
        16 -10.7259    178.0203    197.0008   1.1366128419e+02   1.1535468789e+01    0.2620827    0.2019907  59.19  0.001331809    1.635    0.389
        17 -11.4801    180.2424    193.5282   1.1272111904e+02   1.1624678541e+01    0.3642094     0.281404 -67.94  0.002018771    2.194    0.544
        18 -10.1048    169.4816    195.2759   1.1498060835e+02   1.3162878725e+01    0.1374982    0.1195496 -63.16 0.0009340788    1.599    0.375
        19 -11.1660    157.8982    193.1671   1.1684642607e+02   1.5343159004e+01    0.1986675    0.1724544  51.74 0.0003210877    1.212    0.175
        20 -10.2102    182.2197    189.2248   1.1167681281e+02   1.1863651992e+01    0.1604841    0.1341342  50.86  0.000639968    1.361    0.265
        21 -12.3788    207.5888    183.7637   1.0612006387e+02   8.2507519493e+00    0.3489407    0.2984112  10.31  0.001192304    1.149    0.130
        22 -12.3117    210.7782    181.2408   1.0510368292e+02   8.0119126228e+00     0.381644     0.260383  -3.98  0.001534633    1.554    0.357
        23  -9.9285     27.7846    180.0171   1.4066334294e+02   3.4581781411e+01    0.1664374    0.1227797  51.73 0.0006839692    1.230    0.187
        24 -11.4038    197.8023    176.0349   1.0654075487e+02   1.0925403762e+01    0.3373016    0.2898166 -41.19  0.001369905    1.537    0.350
        25 -10.7616    145.2596    178.3202   1.1711053936e+02   1.9652570855e+01    0.1644289    0.1489118  27.56  0.001111355    1.103    0.094
        26 -11.1301    178.1364    174.1185   1.0993443019e+02   1.4657712678e+01    0.3894141    0.1668756 -31.52  0.001681114    3.026    0.669
        27  -9.7588    135.9674    219.2449   1.2417546546e+02   1.5055797864e+01     0.154652    0.1125945  42.26 -0.000430966    1.058    0.055
        28 -11.4389    225.8495    167.1231   9.9801154238e+01   7.0893788629e+00     0.211307       0.1882 -44.75  0.001346995    1.699    0.411
        29 -11.3917    204.6942    170.0072   1.0416084961e+02   1.0491516835e+01     0.748077    0.5599533 -72.35  0.003687185    3.065    0.674
        30  -9.6070    207.6567    168.2923   1.0329226277e+02   1.0183332470e+01     0.186326    0.1668021  81.88 0.0006699312    1.821    0.451
        31 -11.8767    144.9084    168.7245   1.1567896567e+02   2.1265523978e+01    0.3821844    0.2939767  50.61  0.001654336    1.240    0.193
        32  -9.6849     24.9816    165.4867   1.4031946333e+02   3.7500525335e+01    0.1383128   0.09522633  36.92 0.0006476874    1.551    0.355
        33 -11.2744     17.4247    212.4649   1.4401666755e+02   3.0032955166e+01    0.1164165    0.1042776  46.02  0.001105032    1.495    0.331
        34 -12.7798     23.3946    157.5199   1.4012329885e+02   3.9154339882e+01    0.4928311    0.2878552  20.11  0.002833286    2.384    0.581
        35 -11.6435    164.4655    157.4051   1.0966654722e+02   1.9663180308e+01    0.2731768    0.2285157  18.74 0.0008296927    1.157    0.136
        36 -13.3506    133.4815    145.5802   1.1416002545e+02   2.7279919682e+01     0.940386    0.4872364 -57.49  0.004220177    2.405    0.584
        37  -9.3203    229.2805    240.6676   1.1124638560e+02  -9.3098651040e-01   0.09025201   0.07388087  40.54 0.0004908435    1.609    0.378
        38 -11.6342    174.0632    148.8051   1.0602351428e+02   1.9245883010e+01    0.3784153    0.3094319 -18.09  0.001307568    1.299    0.230
        39 -13.0157    144.6116    145.6816   1.1169972607e+02   2.5279235781e+01    0.7525008    0.4181964 -64.50  0.003074867    3.110    0.678
        40 -10.7499      3.0317    144.9920   1.4358662598e+02   4.3128093913e+01    0.1558902     0.139284  52.04 0.0005129325    1.338    0.253
        41 -11.4108      7.8551    143.6443   1.4249805473e+02   4.3063644224e+01     0.395189    0.2128676   7.84  0.002301952    3.301    0.697
        42 -10.2829      4.1424    137.7739   1.4295317067e+02   4.4481728369e+01    0.2855177    0.1184208  77.58   0.00157075    2.265    0.559
        43 -11.3532     30.5249    133.5136   1.3668375635e+02   4.3365309561e+01    0.2601425    0.1579064  82.58  0.001621638    1.526    0.345
        44 -13.1219    119.1142    130.1730   1.1460240407e+02   3.2715780417e+01    0.6101858    0.5116431 -19.95  0.003498792    1.411    0.291
        45 -12.3425    125.5141    127.4936   1.1252589862e+02   3.2128355029e+01    0.4395605    0.2986748  69.09  0.002077261    2.059    0.514
        46 -12.2056    122.4791    125.5026   1.1285529876e+02   3.3057972616e+01    0.4139177    0.2625205 -40.68   0.00177808    1.694    0.410
        47 -11.6146    107.4910    126.4803   1.1673917530e+02   3.5395140416e+01    0.3218889    0.2255027 -41.26 0.0009970833    1.554    0.356
        48 -12.4655    135.3669    122.4353   1.0908926627e+02   3.1309443711e+01    0.7001856    0.2361817 -50.37  0.002370838    3.436    0.709
        49 -11.4790    160.4180    128.3461   1.0461716345e+02   2.5344134177e+01    0.3651059    0.3085733 -22.61  0.002029037    1.232    0.188
        50 -11.8591     26.4976    135.1619   1.3776554399e+02   4.3362453628e+01    0.1940793    0.1734998  65.06 0.0002843401    1.197    0.164
        51 -10.4150    165.7185    207.3655   1.1738847198e+02   1.2153665436e+01    0.2208555    0.1898444  49.29 0.0007999653    1.247    0.198
        52 -12.0625    106.0948    130.8854   1.1790151930e+02   3.4721569161e+01    0.3538204    0.2946559  67.77  0.001300162    1.263    0.208
        53 -11.3049    113.3082    119.2123   1.1383757566e+02   3.5915553152e+01    0.2446099    0.2366773  51.22 0.0002530044    1.021    0.020
        54 -11.3002    134.5114    104.3419   1.0507135618e+02   3.4994900801e+01    0.6094486    0.1425829 -43.86   0.00172097    4.319    0.768
        55 -10.9075      4.1558    112.3517   1.4128334965e+02   4.9714481626e+01    0.2296106    0.1938583  -2.78  0.001393128    1.675    0.403
        56 -10.7901    205.3422    110.4372   9.1009946848e+01   1.8783647986e+01    0.3524113    0.2310995  28.37   0.00100284    1.515    0.340
        57 -11.3980    168.0019    113.5352   9.9462897492e+01   2.6372050805e+01    0.3548242    0.3161267 -67.12 0.0007909245    1.431    0.301
        58 -11.6798     84.6650    107.5475   1.1902768820e+02   4.2892710850e+01    0.3468482    0.1761476 -35.20  0.001397716    2.913    0.657
        59 -11.8757    181.8266    234.0835   1.1804985931e+02   6.5326621109e+00     0.279236    0.1432612  35.16  0.001746165    1.458    0.314
        60 -10.0199    121.3549     99.2974   1.0719601063e+02   3.8545511045e+01    0.1483075    0.1128642   0.61 0.0007034918    1.696    0.411
        61 -10.8384    125.2474     94.6395   1.0497060275e+02   3.8739190734e+01    0.3067842    0.2259089  21.80  0.001486332    1.563    0.360
        62 -10.8454    164.6953    204.3499   1.1716134586e+02   1.2711942535e+01    0.2780902    0.2027979 -83.13   0.00144193    2.585    0.613
        63 -10.0878    147.7745     78.7741   9.4709538639e+01   3.7027670681e+01    0.2013119    0.1850109 -68.06 0.0005331247    1.311    0.237
        64 -10.2923     90.5153     78.5112   1.1054840853e+02   4.8312819352e+01    0.1396811    0.1300345 -44.06 3.878439e-05    1.024    0.023
        65 -13.7296     11.7133    205.5259   1.4467400848e+02   3.1627528015e+01    0.3522272    0.2794383  37.66  0.002561289    1.529    0.346
        66 -13.9054    194.1348    194.1324   1.1028113529e+02   9.2416202249e+00    0.9607129    0.7298792 -64.14  0.004471622    2.431    0.589
        67 -11.2114      1.5311    248.2078   1.4746585050e+02   2.6130428541e+01   0.09764107   0.06309856  83.15 0.0009387973    1.370    0.270
        68 -10.7481    128.4168     27.8165   8.1681881404e+01   4.9904094047e+01    0.3081983    0.2223837  64.57 0.0007620146    1.641    0.391
        69 -10.3851     13.4985     59.8489   1.3248692545e+02   6.0739344408e+01    0.1706113    0.1582281 -60.05 0.0003845589    1.195    0.163
        70 -10.7888    203.3027    245.0561   1.1591454474e+02   2.3377586268e+00    0.1436482    0.1090776  26.93 0.0006304358    1.125    0.111
        71 -12.5402    204.6904    198.3437   1.0907653788e+02   6.9996601806e+00    0.4808767    0.2613734  20.61  0.001985797    1.984    0.496
