#   1 NUMBER                 Running object number                                     
#   2 MAG_AUTO               Kron-like elliptical aperture magnitude                    [mag]
#   3 X_IMAGE                Object position along x                                    [pixel]
#   4 Y_IMAGE                Object position along y                                    [pixel]
#   5 X_WORLD                Barycenter position along world x axis                     [deg]
#   6 Y_WORLD                Barycenter position along world y axis                     [deg]
#   7 A_WORLD                Profile RMS along major axis (world units)                 [deg]
#   8 B_WORLD                Profile RMS along minor axis (world units)                 [deg]
#   9 THETA_WORLD            Position angle (CCW/world-x)                               [deg]
#  10 FWHM_WORLD             FWHM assuming a gaussian core                              [deg]
#  11 ELONGATION             A_IMAGE/B_IMAGE                                           
#  12 ELLIPTICITY            1 - B_IMAGE/A_IMAGE                                       
         1 -15.9483    149.0190    113.6503   4.1940671091e+01   2.9855242035e+01      3.66682     2.163141 -53.55   0.01465827    1.878    0.468
         2 -16.5503      6.0171    103.0160   8.4388927650e+01   5.3849820791e+01     3.110122     1.327292 -68.83   0.01468269    1.891    0.471
         3 -16.3651     22.0459    111.8093   8.0486788269e+01   5.0696814471e+01     5.041309     1.007392 -49.53   0.01667877    3.802    0.737
         4 -13.9325    220.6427     89.3063   2.1615509978e+01   1.8305407964e+01     2.287137     1.435681 -26.96   0.01062655    1.836    0.455
         5 -13.5772    196.5127     16.0186   7.3145647539e+00   3.4187782342e+01     1.046441    0.4110646 -55.33  0.004345811    2.878    0.652
         6 -13.7139    189.5448      2.6979   4.8435386013e+00   3.7152637299e+01     1.054553    0.3478534  80.92  0.003964867    3.367    0.703
         7 -13.8612    214.9535     28.9051   8.3716387892e+00   2.8474800309e+01     1.184921    0.4775839 -55.35  0.004893078    2.635    0.621
         8 -15.1376    207.4466      8.9491   4.6097440717e+00   3.2428204743e+01     1.598642    0.9059294 -65.12  0.007088884    1.706    0.414
         9 -13.4571    190.7264     34.1942   1.2457090787e+01   3.3434421211e+01      1.56523    0.7122616 -84.61  0.005085681    4.395    0.772
        10 -12.9523    245.6638     26.9251   5.1147378074e+00   2.2136191529e+01    0.7651637    0.2896899 -48.73   0.00369479    2.192    0.544
        11 -13.0877    227.5134     23.4401   5.9581847699e+00   2.6366553758e+01     1.024757    0.3272376 -47.38  0.004396752    2.705    0.630
        12 -13.8642    244.8946     10.2700   1.9034065470e+00   2.4245189707e+01     1.243159     0.488347 -67.24  0.005660135    2.824    0.646
        13 -12.6115    229.2878      4.6034   1.9024438246e+00   2.8095389285e+01    0.5895357    0.3785894 -57.89  0.003741096    1.331    0.249
        14 -14.6688     29.3953      2.2332   4.2468152453e+01   7.1064777411e+01    0.8639585    0.5456192  32.86  0.005660038    1.520    0.342
        15 -15.0688     13.3141      5.3023   5.2628172302e+01   7.2546570894e+01     1.161766    0.6944543  22.57  0.007727601    1.580    0.367
        16 -13.7654      4.3619      4.0804   5.7259339993e+01   7.3516889748e+01    0.6866092    0.3644917 -32.24  0.003280679    1.523    0.343
        17 -15.8801    158.4525      6.1398   9.2587229981e+00   4.4214996631e+01     2.702368    0.8982066  74.85   0.01004196    3.130    0.680
        18 -13.9130     74.3811      3.0142   2.5151313656e+01   6.3498044734e+01    0.7038283     0.298519  46.96  0.003495089    1.875    0.467
        19 -13.5046     88.0010      6.7491   2.2838487342e+01   6.0419736225e+01    0.3914824    0.1982461  46.01  0.002027988    1.604    0.376
        20 -15.8854    192.0028    176.2210   4.6719440961e+01   7.6907427735e+00     2.660821     2.141463 -48.18   0.01117108    1.344    0.256
        21 -15.1325    237.8830    247.4110   5.0926273263e+01  -1.1048581283e+01     2.054035    0.4677051  32.82  0.007673045    4.128    0.758
        22 -15.7794     12.6727    241.6499   9.5039036029e+01   2.1518625047e+01     2.095895     1.030333  54.10   0.01285656    1.602    0.376
        23 -15.8742     31.3579    113.8924   7.7793820219e+01   4.9421648082e+01     2.334834    0.8672345 -70.61  0.008789003    2.828    0.646
        24 -12.2743     52.3506    127.2697   7.3513489895e+01   4.3935446433e+01    0.5241265    0.3371431 -50.56  0.002140651    1.414    0.293
        25 -13.0095     47.2132    122.0549   7.4157233274e+01   4.5824651355e+01    0.8404731    0.4678921 -47.59   0.00394919    1.657    0.396
        26 -12.9090    239.4361    121.1565   2.5930921391e+01   9.0081552948e+00      1.23394    0.2948604 -45.40  0.003698811    4.134    0.758
        27 -14.7963    172.5228    174.5729   5.0634831384e+01   1.1718802870e+01     1.311779    0.8827744 -32.66  0.005272096    1.558    0.358
        28 -13.8305    235.2343    101.5074   2.2234851058e+01   1.3211955499e+01     1.546089    0.5996409 -37.84  0.006165454    2.317    0.568
        29 -13.9063    240.7072     88.2925   1.8565675466e+01   1.4320955735e+01      0.93291    0.4308329 -41.67  0.004243195    1.857    0.461
        30 -12.3294    128.5946    123.3540   4.9768812747e+01   3.2134028204e+01    0.4362415    0.2927512 -30.82  0.001838117    1.705    0.413
        31 -12.2843     72.9054    104.3853   6.1796457375e+01   4.6786208872e+01    0.5540537    0.3375952  37.69  0.002545282    1.745    0.427
        32 -11.3604     54.3940    102.5063   6.7647643071e+01   4.9757169707e+01    0.2883847    0.2104677   1.46  0.001482054    1.628    0.386
        33 -12.6180     44.1163     98.8676   7.0409411364e+01   5.1799764098e+01    0.3520306    0.2394914  17.34  0.001851521    1.670    0.401
        34 -13.5790    127.5235     91.9837   4.1515756103e+01   3.9204804983e+01    0.9985442    0.6171336 -68.39  0.003636558    2.788    0.641
        35 -12.6555     55.6800     92.2759   6.4674897150e+01   5.1986295066e+01    0.6460151    0.3959501  36.22  0.003158504    1.793    0.442
        36 -13.2603     97.3149     78.0277   4.6163926564e+01   4.8326043811e+01     1.122358    0.6353407 -43.02  0.004891575    1.764    0.433
        37 -12.6257    113.7788     81.8662   4.2351590439e+01   4.4213059230e+01    0.4279082    0.3571971  46.09  0.001838597    1.209    0.173
        38 -13.0830    106.6305     80.8936   4.4170581607e+01   4.5897226942e+01     0.734984    0.3325836  43.35  0.002806685    2.197    0.545
        39 -13.0013    126.0075     78.1989   3.7809175756e+01   4.2238486934e+01    0.8893695    0.5666487  28.18  0.003764967    1.916    0.478
        40 -12.8038    248.1765     78.8166   1.5591066887e+01   1.4352992175e+01    0.4647782    0.3184125 -62.20  0.002395904    1.421    0.296
        41 -13.0357    211.7810     72.5295   1.8967349003e+01   2.3019987768e+01     1.035411    0.3113126 -36.11  0.003529117    3.226    0.690
        42 -13.7412    147.5510     71.0418   3.0316720720e+01   3.8501907108e+01      1.07836    0.7741756 -39.60  0.005200901    1.430    0.300
        43 -12.3963    249.1068     63.7553   1.2318125416e+01   1.6451427975e+01    0.5870188    0.2423526 -44.97  0.002718634    2.013    0.503
        44 -11.6995      6.7559     63.6334   7.6709117026e+01   6.2696850936e+01    0.2785014    0.2357851  33.85  0.001926264    1.526    0.345
        45 -12.5326     15.1644     61.6314   7.2616891549e+01   6.2611582072e+01    0.5167297    0.3426889  15.23  0.003150897    1.673    0.402
        46 -12.9849    209.8469     57.5233   1.5647607800e+01   2.5768279664e+01    0.7648721    0.4724677 -88.31  0.003583788    1.959    0.490
        47 -14.0150     24.9996     48.2619   6.4264432675e+01   6.4513299785e+01    0.9293494    0.6795604 -42.93  0.003883602    1.232    0.188
        48 -12.5117     34.3806     46.0974   5.9254877827e+01   6.3994271343e+01    0.3600652    0.3239116  -7.53   0.00150939    1.203    0.169
        49 -12.5404    223.7027     41.3089   1.0225573294e+01   2.4940500050e+01    0.5944782    0.3148622 -57.58  0.002656869    1.848    0.459
        50 -14.3231    141.4268    141.9835   5.0922812376e+01   2.5169401334e+01     1.301552    0.8621179 -33.95  0.004479334    1.661    0.398
        51 -14.4937    177.2477    114.8596   3.5752958029e+01   2.3223313356e+01     2.181364     1.002962 -46.80  0.008048788    2.191    0.544
        52 -11.4752     45.2803    176.0804   8.2795140936e+01   3.2547770177e+01    0.3197307    0.2079986  89.29  0.001334173    1.527    0.345
        53 -12.2532    149.5148    171.3281   5.5342587075e+01   1.6878812334e+01    0.3046573    0.2741104 -83.77  0.001582935    1.291    0.225
        54 -11.3954    104.9562    160.6590   6.4615996920e+01   2.7718253615e+01    0.3223151    0.2457248 -36.72  0.001344225    1.455    0.313
        55 -14.6994    193.1567    136.9436   3.7792113539e+01   1.5302492764e+01     2.483005     1.225176 -36.82   0.00975226    2.013    0.503
        56 -12.4818    124.3694    146.8468   5.6505037115e+01   2.7467854761e+01    0.7153659    0.4801836 -12.25   0.00275836    2.425    0.588
        57 -13.3596    160.9146     27.4048   1.4907604489e+01   4.1461475633e+01    0.4321284    0.3394012 -59.93  0.002470033    1.351    0.260
        58 -11.8519    128.4952    140.5101   5.3960098989e+01   2.8153788832e+01    0.4513834    0.3446389 -49.20  0.002107602    1.300    0.231
        59 -11.8599     78.1164    149.1033   6.9879370971e+01   3.4969522492e+01    0.3685049    0.2351286  27.72  0.001684698    1.756    0.430
        60 -11.0960     52.9519    148.9970   7.7050896615e+01   3.8389927629e+01    0.2233334    0.1986651 -74.73  0.001086549    1.008    0.008
        61 -13.5472    215.2665    136.4359   3.3393543598e+01   1.0900165641e+01     1.232245    0.5472555 -33.84  0.004732169    2.306    0.566
        62 -14.6505    165.2184    125.9041   4.1204583446e+01   2.3622390140e+01     2.213898    0.8694041 -43.41   0.00749385    2.494    0.599
        63 -13.7021    113.6103    127.8987   5.5070483620e+01   3.4093120466e+01      1.27644    0.6926805 -45.36  0.004867154    1.816    0.449
        64 -14.6152    166.2816    146.4733   4.5901846419e+01   1.8963342467e+01     1.560562     1.227048 -47.14  0.007538957    1.274    0.215
