#   1 NUMBER                 Running object number                                     
#   2 MAG_AUTO               Kron-like elliptical aperture magnitude                    [mag]
#   3 X_IMAGE                Object position along x                                    [pixel]
#   4 Y_IMAGE                Object position along y                                    [pixel]
#   5 X_WORLD                Barycenter position along world x axis                     [deg]
#   6 Y_WORLD                Barycenter position along world y axis                     [deg]
#   7 A_WORLD                Profile RMS along major axis (world units)                 [deg]
#   8 B_WORLD                Profile RMS along minor axis (world units)                 [deg]
#   9 THETA_WORLD            Position angle (CCW/world-x)                               [deg]
#  10 FWHM_WORLD             FWHM assuming a gaussian core                              [deg]
#  11 ELONGATION             A_IMAGE/B_IMAGE                                           
#  12 ELLIPTICITY            1 - B_IMAGE/A_IMAGE                                       
         1 -13.2723      7.4564     42.5701   1.3642570469e+02   6.9542751062e+01      1.40712     1.298324  63.10  0.009271277    1.253    0.202
         2 -11.6504      8.8231     29.8117   1.3246601272e+02   7.2579457787e+01    0.7402817    0.5877538  87.37  0.003594927    1.447    0.309
         3 -13.1247      9.2371     18.7996   1.2856806244e+02   7.5106313068e+01     1.513723     1.444033 -40.22   0.01051465    1.173    0.148
         4 -12.4271    241.8678     51.8848   6.5547168062e+01   1.8720489059e+01    0.7933244    0.3516763 -36.70  0.003792923    1.803    0.446
         5 -12.3471     12.5157      4.8394   1.1880384942e+02   7.7885223357e+01      1.47005    0.6255734  23.50  0.007090814    2.372    0.578
         6 -11.9337    244.5466     22.8597   5.8528855887e+01   2.1557597592e+01    0.5113196    0.1575587 -39.37  0.002241197    2.320    0.569
         7  -8.3991    127.9770      7.3020   6.5836014319e+01   5.2680598140e+01     0.202923     0.174617  71.83 0.0002752994    1.049    0.047
         8  -9.5320    250.3844      3.8225   5.3889395420e+01   2.2329356126e+01    0.1560727    0.1035968 -19.33 0.0004887611    1.658    0.397
         9  -8.2834     64.5088      4.5783   8.1674430509e+01   6.9496364409e+01    0.1381354    0.1243049  32.24 6.904159e-05    1.051    0.048
        10  -9.5427     50.8954      3.6820   8.7770639294e+01   7.2513575009e+01    0.2166179    0.1823696 -16.63 0.0002601613    1.192    0.161
        11  -9.0214    239.4977      1.9840   5.3990111408e+01   2.4743967778e+01    0.1880618   0.05588349 -46.23 0.0008091347    2.438    0.590
        12  -8.3769    121.5950      2.1523   6.4716280964e+01   5.4918516882e+01    0.1850315     0.137744  11.52  0.000390397    1.596    0.373
        13  -9.1579    187.4310    245.7423   1.1314610013e+02   9.4256748543e-01    0.1457182   0.09253033 -14.28 0.0009543612    1.731    0.422
        14  -8.3583    201.4879    250.5199   1.1122498206e+02  -1.3334858232e+00    0.1129717   0.07671089  16.12 -4.224148e-06    1.027    0.027
        15  -9.0222    184.4743    250.4842   1.1429568850e+02   7.6859339611e-01    0.1147016   0.07991792  19.95 0.0008099156    1.005    0.005
        16  -9.8455    168.2702    249.9798   1.1726576811e+02   2.8935483468e+00     0.211181    0.1222219  25.01 0.0003230041    1.283    0.220
        17  -9.8305    177.0616    243.3736   1.1478096020e+02   2.5603134631e+00    0.2944479    0.1611699   8.39  0.001620201    2.146    0.534
        18  -9.8659    209.8043    242.9685   1.0874317900e+02  -1.5284983425e+00     0.247472     0.135322  -6.24  0.001145608    2.011    0.503
        19  -9.1573    225.3465    239.4998   1.0557846212e+02  -3.0162675631e+00    0.1616388   0.08939831 -26.58 0.0008633757    1.880    0.468
        20  -8.9166    170.5294    239.4871   1.1553619820e+02   3.9094544268e+00    0.1200148   0.08647808  20.78 0.0001432162    1.039    0.038
        21  -9.1005    236.4937    235.0089   1.0307229013e+02  -3.8480396644e+00    0.2043913   0.09181651 -38.55  0.001146615    3.087    0.676
        22 -10.4862    235.2697    229.5250   1.0245764680e+02  -3.1455449915e+00    0.3253734    0.2088531 -28.31  0.001639871    1.740    0.425
        23  -9.7840    216.8669    222.5678   1.0453870925e+02  -1.3118954473e-01    0.3242582    0.1953351 -36.49  0.001906013    2.046    0.511
        24  -9.9244    216.3571    233.8481   1.0630686185e+02  -1.3367137145e+00    0.2211042    0.2095818  78.93  0.001625468    2.406    0.584
        25  -9.3259    216.8478    228.6284   1.0545493792e+02  -8.1832603494e-01    0.2851466    0.1401934 -16.83  0.001581952    2.299    0.565
        26  -9.3501    240.0369    231.7819   1.0201602996e+02  -3.9271224256e+00    0.1697183    0.1228637 -25.98  0.001097924    1.691    0.409
        27  -8.3212    207.5291    231.5148   1.0752936946e+02   2.9726126352e-02    0.1170869    0.0828636  13.16 0.0001692934    1.025    0.024
        28 -10.3858    229.1627    226.6681   1.0304479015e+02  -2.1172312692e+00    0.3504469    0.1071914 -30.74  0.001662414    3.408    0.707
        29 -10.3813    240.4444    216.7979   9.9642138532e+01  -2.4133187664e+00    0.3031606    0.2372062  -1.81  0.001964881    1.246    0.197
        30  -9.5723    247.1131    177.9347   9.1943114262e+01   1.1909851053e+00    0.4104324     0.200189 -39.60  0.002156974    2.428    0.588
        31 -10.6667    250.1400    200.9392   9.5498379348e+01  -1.8584691276e+00    0.4368935       0.1624 -30.25  0.001668298    2.471    0.595
        32  -9.4866    249.0946    185.4383   9.2983391278e+01   3.5993887030e-02    0.2950654     0.196945 -41.52  0.001346851    2.148    0.534
        33 -11.0711    245.0269    190.7338   9.4557370537e+01  -5.6588164148e-02     0.616165    0.3105287 -43.94  0.003055463    3.279    0.695
        34 -11.6505    241.6547    180.7436   9.3318736171e+01   1.5879239511e+00    0.6743212    0.3307626 -41.18  0.003457992    2.607    0.616
        35 -10.7439    247.5029    207.4287   9.6993285672e+01  -2.2491966924e+00    0.3589573     0.307092 -39.87  0.002228473    2.132    0.531
        36  -9.9695    239.4952    220.5201   1.0038298297e+02  -2.6978771746e+00    0.2597771    0.1720907 -20.41  0.001376051    1.443    0.307
        37  -8.5429    235.6275    218.2497   1.0066289719e+02  -1.9886507592e+00    0.1473644   0.08531243 -15.60 0.0008073009    1.561    0.359
        38  -9.8785    218.1400    214.5576   1.0306852950e+02   6.4209277541e-01    0.3594094    0.2810536 -54.88  0.002220513    2.702    0.630
        39  -9.3183    232.6575    212.5290   1.0024697487e+02  -9.8691259213e-01    0.2955361    0.1453391 -32.36  0.001730207    2.099    0.524
        40  -8.9045    234.6835    208.6510   9.9278805550e+01  -8.0222580328e-01    0.1813633   0.09827822 -20.61  0.000835413    1.711    0.416
        41  -9.1224    212.3580    211.4176   1.0359932146e+02   1.7925466092e+00    0.2038768    0.1290388 -28.90 0.0007903817    1.655    0.396
        42 -10.3254    240.2786    208.2396   9.8288899414e+01  -1.4557498193e+00    0.3435966    0.1964676 -40.54  0.001871475    2.517    0.603
        43  -9.1144    228.9027    206.3347   9.9872087501e+01   2.0767221844e-01    0.2689373    0.1127122 -34.73  0.001404978    2.484    0.597
        44 -10.2761    242.8358    200.2235   9.6539511579e+01  -8.7186156296e-01    0.3614575    0.1810537 -25.53  0.001854838    1.815    0.449
        45 -10.4496    237.1838    196.6736   9.6857609405e+01   2.6604744675e-01    0.5062342    0.1813677 -27.33  0.002384027    2.769    0.639
        46  -8.9440      1.4453    194.5023   1.4918327123e+02   3.2690589626e+01      0.11606     0.087429  59.87 8.757763e-05    1.018    0.018
        47  -8.1583    185.4793    193.4886   1.0576175158e+02   8.1382918292e+00     0.133183    0.1040679  12.25 0.0008091233    1.074    0.069
        48  -9.4888    236.9738    187.2117   9.5241026392e+01   1.4319606731e+00    0.2840919    0.1431948 -31.35  0.001588977    1.885    0.470
        49  -8.9820    229.7196    187.1716   9.6446550022e+01   2.4354110781e+00     0.174248    0.1394248 -26.51 0.0009193118    1.431    0.301
        50  -9.1577    210.6023    182.7883   9.9036139774e+01   5.8051070475e+00    0.1653486    0.1128906 -37.90 0.0007357252    1.685    0.407
        51  -9.4243    235.2843    181.0381   9.4410143069e+01   2.4307817715e+00    0.1732865     0.129445 -13.64  0.000760769    1.154    0.133
        52  -9.0526    100.9904    176.0062   1.2259137082e+02   2.5122934554e+01    0.1986977    0.1715525  43.24            0    1.008    0.008
        53 -11.0361    247.4857    216.0716   9.8394159235e+01  -3.1702361523e+00    0.5366505    0.2375232 -27.91  0.003172461    2.115    0.527
        54  -8.2852    223.3252    173.6608   9.5071452542e+01   5.1316124548e+00    0.1078599    0.1024882 -58.35 0.0006957034    1.726    0.421
        55  -8.2948    227.6722    171.9806   9.4007610413e+01   4.7058342011e+00    0.1813504   0.09090793 -49.77 0.0007038914    4.228    0.763
        56  -9.4236    237.1213    169.9043   9.2044630112e+01   3.5897347253e+00    0.2751428     0.145414 -37.61    0.0014737    1.997    0.499
        57 -10.0346    243.8999    149.0945   8.6923744937e+01   5.3070947977e+00    0.5083356    0.2654142 -45.11  0.002478035    2.539    0.606
        58  -9.0930    250.3318    140.4319   8.4225831723e+01   5.4679173639e+00    0.2401587     0.150694 -31.93 0.0009069775    1.411    0.291
        59  -9.3154    248.7142    135.6175   8.3474686563e+01   6.3499345161e+00    0.3228604    0.1712952 -37.11  0.001177718    1.756    0.430
        60  -9.6977    247.8719    129.8749   8.2403352405e+01   7.2471016942e+00    0.2964561    0.2272127 -47.36  0.001318328    1.619    0.382
        61  -9.5276    241.4898    153.5258   8.8177101441e+01   5.0864273032e+00    0.2377423    0.1796898 -32.78  0.001404848    1.386    0.279
        62 -10.0026    242.2579    134.2679   8.4135328324e+01   7.5547782079e+00     0.390966    0.2012966 -41.83  0.001944209    2.064    0.516
        63 -10.2252    250.3207    158.1464   8.7735108839e+01   3.1937294009e+00    0.5322228    0.2150802 -24.06  0.002479969    2.389    0.581
        64 -10.0599    249.7827    150.5859   8.6338272068e+01   4.2341053863e+00    0.5177997    0.1626008 -34.76  0.002216707    2.776    0.640
        65  -9.9373    247.1037    143.7161   8.5361385155e+01   5.5287753633e+00    0.2967289    0.2206392 -41.98  0.001475405    1.605    0.377
        66  -9.9238    243.4245    140.2506   8.5201811360e+01   6.5593211557e+00    0.3931503    0.1739579 -33.26  0.001537634    1.964    0.491
        67 -11.3443    246.4328    162.7038   8.9201751842e+01   3.1723894301e+00    0.8821616    0.2308169 -29.64  0.003318323    3.690    0.729
        68 -10.1886    245.5142    157.4745   8.8332531450e+01   3.9732185996e+00    0.4027072    0.2144511 -20.85  0.001820104    1.708    0.415
        69  -9.5846    233.9758    164.4620   9.1518300504e+01   4.7661598527e+00    0.2485263    0.1382635 -44.51  0.001251698    2.408    0.585
        70  -9.0729    199.4128    165.2079   9.7826802633e+01   1.0179048591e+01    0.1792563    0.1218743 -43.32 0.0009487718    1.734    0.423
        71  -8.9956    239.9853    163.9951   9.0458013059e+01   3.9383242736e+00    0.1897824    0.1535701 -11.17  0.000777733    1.113    0.102
        72 -10.5463    237.9008    158.6153   8.9745724817e+01   4.9534613862e+00    0.3854877    0.2387827 -36.83  0.001624372    1.672    0.402
        73  -9.3210    205.2956    162.2215   9.6116189083e+01   9.6454100704e+00    0.2945694     0.225181 -70.33  0.001462603    2.673    0.626
        74  -8.8831    226.5022    157.4982   9.1394834261e+01   6.8671450503e+00     0.217412    0.1074151 -41.14  0.001032948    2.246    0.555
        75  -9.4234    197.1802    158.1853   9.6859737345e+01   1.1662772720e+01    0.1708422    0.1704967   8.38 0.0009297673    1.364    0.267
        76  -8.4899    182.4732    155.0283   9.9185117719e+01   1.4819218081e+01    0.1961208    0.1146167 -13.46 0.0008083296    2.416    0.586
        77  -9.1204    212.9597    163.7590   9.5005754971e+01   8.1494830085e+00    0.2253352    0.1624972 -40.45   0.00128477    1.611    0.379
        78 -10.3171    235.3160    147.7102   8.7977771242e+01   6.8256182966e+00     0.414179    0.3192892 -57.24  0.002379103    2.104    0.525
        79 -10.1826    223.4071    146.7102   8.9722124619e+01   8.9069964427e+00    0.3142366    0.2656731 -45.66  0.001504379    1.518    0.341
        80  -9.0040    238.5135    140.4948   8.5996354991e+01   7.3060468344e+00    0.2276033    0.1401178 -35.79   0.00126178    1.544    0.352
        81  -9.8270    235.0159    136.2964   8.5659351851e+01   8.4582626861e+00    0.3698742    0.2237749 -50.06  0.001498026    2.336    0.572
        82  -9.8736    224.0199    140.4543   8.8306746903e+01   9.7135000593e+00    0.2528279    0.2269625 -11.92  0.001028983    1.141    0.123
        83  -9.9319    219.8649    139.1588   8.8729792286e+01   1.0622039930e+01    0.2499159    0.2219095  81.40  0.001376848    1.732    0.423
        84 -11.2372    221.3174    127.0848   8.5852873886e+01   1.2169719563e+01    0.8681435    0.2227859 -36.31  0.002950852    3.465    0.711
        85 -10.2198    239.7445    126.6266   8.2888250357e+01   9.0190552384e+00    0.2862644    0.2345805  24.96  0.001465783    1.278    0.217
        86  -8.6529    235.3892    124.1811   8.3006200614e+01   1.0102385529e+01    0.2007311    0.1529663 -55.29  0.001138499    1.773    0.436
        87  -8.9687    205.8371    131.0416   8.9412101468e+01   1.4428592523e+01    0.2192849    0.1575093 -57.99  0.001076105    1.997    0.499
        88  -8.7020    180.3421    125.6748   9.3139099401e+01   2.0406191047e+01    0.1448569    0.1201457 -82.56 0.0007051021    1.733    0.423
        89  -9.3534    249.2898    123.9921   8.0968847778e+01   7.8064011322e+00    0.2796511      0.16576 -32.64 0.0008432501    1.438    0.305
        90 -10.7992    247.9557    119.2724   8.0148180036e+01   8.6582940218e+00    0.3979953    0.2365001 -45.66  0.002073534    1.892    0.471
        91  -8.7414    242.3020    118.6508   8.0798530896e+01   9.6910675403e+00    0.1254413   0.09190968 -51.15 0.0007039245    1.693    0.409
        92  -9.2639    238.2984    117.6401   8.1148094690e+01   1.0520482633e+01    0.1280367   0.09320517 -51.86 0.0007034778    1.711    0.416
        93 -10.1054    247.3673    112.5329   7.8774000564e+01   9.6677754422e+00    0.2560194    0.1317355 -33.57 0.0009486304    1.629    0.386
        94 -11.2542    241.4147    106.2185   7.8181814724e+01   1.1565973134e+01    0.3355286    0.1826662 -37.89  0.001535068    1.623    0.384
        95 -11.0660    238.6725    102.1261   7.7630816301e+01   1.2629313111e+01    0.3449683    0.2460336 -56.78  0.001396082    1.762    0.433
        96  -9.7887    230.5655    110.9957   8.0790088314e+01   1.2852631773e+01    0.3551803    0.1427933 -31.94  0.001499574    2.190    0.543
        97 -10.8050    248.2515    106.4980   7.7340479822e+01   1.0333084753e+01    0.6050254    0.1976709 -43.94  0.002246197    3.486    0.713
        98  -8.7109    222.0000    104.0031   8.0452138217e+01   1.5508014727e+01    0.2366647   0.07015397 -33.04 0.0008125749    3.013    0.668
        99 -10.4031    248.8789     99.0028   7.5608741607e+01   1.1233352456e+01    0.3753279    0.1296355 -41.89  0.001524014    2.744    0.636
       100 -10.2927    248.2890     93.0496   7.4355161549e+01   1.2135793062e+01    0.4451631     0.191445 -49.20  0.001850668    2.924    0.658
       101 -11.0955      9.0861     99.7815   1.4283694947e+02   5.4760513191e+01    0.2829782    0.2172278 -53.02  0.001662975    1.320    0.242
       102  -8.4114    216.6943     99.3296   8.0147256396e+01   1.7269191730e+01    0.1389379    0.1026551 -58.44 0.0007037319    1.656    0.396
       103 -11.2252     15.9126     94.7538   1.3965154956e+02   5.5707871822e+01    0.5564187    0.2242459 -28.63  0.002000358    3.792    0.736
       104  -8.2387    188.3040     92.6623   8.3238339848e+01   2.4464191588e+01    0.1519001    0.1140198 -65.17 0.0005851268    1.671    0.401
       105  -9.0982    218.0013     89.9844   7.7668748936e+01   1.8410034822e+01    0.1725715    0.1484693 -29.14 0.0008543437    1.042    0.041
       106 -10.0011    249.7758     81.8284   7.1657990078e+01   1.3355864966e+01    0.4290961   0.09025487 -36.35  0.001499249    3.410    0.707
       107 -10.4355    242.7153     82.5114   7.2626077863e+01   1.4574452841e+01    0.3126795    0.1394105 -35.24 0.0009943043    1.839    0.456
       108 -10.1442    248.9835     87.8136   7.3097643393e+01   1.2709332642e+01    0.2750146    0.1638637 -31.59 0.0009104648    1.385    0.278
       109 -10.2705    246.4150     84.7370   7.2701660425e+01   1.3586829534e+01    0.2385657    0.1768197 -17.76  0.001034095    1.292    0.226
       110 -10.0807      9.8350     83.9097   1.4108606947e+02   5.8871176548e+01    0.2087499    0.1587255 -54.60 0.0005474522    1.249    0.199
       111 -11.9153    237.3445     76.6155   7.1883429484e+01   1.6404337911e+01    0.6934658    0.3911393 -30.28  0.003540393    1.533    0.348
       112  -8.3943    183.6372     77.8356   8.0031976849e+01   2.8031734680e+01    0.2202203    0.1274303 -43.99 0.0007204754    1.703    0.413
       113 -13.3788      9.2466     58.0475   1.3809566037e+02   6.5592126398e+01     1.438746    0.8188787 -76.96   0.00733326    1.566    0.361
       114 -10.3926    246.5914    225.2711   9.9975570032e+01  -4.0153837245e+00    0.3398652    0.2178567  -1.50  0.002279919    1.188    0.158
       115 -10.0617    237.4406    244.7195   1.0431937851e+02  -4.9094214384e+00    0.2170705   0.09021938 -31.93  0.001305262    2.610    0.617
       116 -11.6185    241.5424    241.5349   1.0320297176e+02  -5.0548881675e+00    0.5403653    0.3774346 -30.11  0.003260928    1.930    0.482
       117 -10.2030    246.0004     56.2361   6.6176948313e+01   1.7358191007e+01    0.3071468    0.2321028   4.64  0.001792192    1.719    0.418
       118 -10.5303    250.0102    245.7532   1.0246587120e+02  -6.3567391623e+00    0.3644265    0.1576651 -20.60  0.001373186    2.208    0.547
       119  -8.3863    217.4216     58.4955   6.9783914407e+01   2.3049213649e+01    0.1384531    0.1207917 -44.42 0.0001004734    1.023    0.023
       120  -9.6350     32.9719     57.7481   1.2494289958e+02   6.4108301035e+01    0.1900407     0.178013 -23.46 0.0003247138    1.080    0.074
       121  -8.8360    223.3704     66.8052   7.1175857648e+01   2.0612231113e+01    0.1939681    0.1206717 -21.68 0.0009382909    1.652    0.395
       122 -11.5475    248.6230    235.6867   1.0122386168e+02  -5.2677163151e+00    0.6305955    0.3424741 -25.70  0.003848524    1.811    0.448
       123 -11.0100     19.9337     60.4634   1.3270407329e+02   6.4436195844e+01    0.4086558    0.1831689 -70.30  0.001416956    1.986    0.496
       124  -8.8215     58.3156     40.0930   1.0463837072e+02   6.4863513312e+01    0.1962747    0.1802492 -33.23 0.0004728116    1.086    0.080
       125 -11.9072    235.7271     27.5481   6.0257414217e+01   2.2881884848e+01    0.5367768    0.2432949 -33.94  0.002613183    1.808    0.447
       126 -11.3347     69.2663     26.9632   9.2750423983e+01   6.5252391337e+01    0.2874474    0.2454478  32.93 0.0004862282    1.110    0.099
       127  -9.7224    224.4695    248.4699   1.0698280094e+02  -3.8218239513e+00    0.1800365   0.09316187 -29.13 0.0008489322    2.107    0.525
       128  -9.8683     82.5585     21.2656   8.4185594654e+01   6.3141843916e+01    0.4643339    0.2455045  62.59  0.001319421    2.161    0.537
       129  -8.7498    136.7376     24.9880   7.1359431869e+01   4.8317070055e+01    0.1990299    0.1922349 -59.11 0.0002380358    1.081    0.075
       130  -8.2405    118.2978     24.6896   7.5153290968e+01   5.3440954099e+01    0.1548039    0.1146813 -67.68  0.000289807    1.598    0.374
       131 -10.4916     29.6801     13.0190   1.0858103764e+02   7.4528970845e+01    0.2297894    0.1801966  15.64 0.0002524494    1.236    0.191
       132 -12.5051    248.7595     60.9820   6.7009728034e+01   1.6229426246e+01     1.164707    0.3997037 -28.67  0.004808453    2.557    0.609
       133  -8.5235    151.5117    249.4807   1.2043778940e+02   5.1406996736e+00     0.118019   0.08433524  27.58   5.6376e-05    1.014    0.014
       134  -9.4274     20.5374    248.7807   1.4657235924e+02   2.0896621102e+01    0.3094741   0.04707807  43.28  0.001463704    2.699    0.630
       135  -9.9204    218.6367    244.1462   1.0737433273e+02  -2.7087247279e+00    0.3819191    0.1425938 -27.34   0.00203034    3.025    0.669
       136  -9.4902    232.5468    246.3018   1.0534106238e+02  -4.5195202878e+00    0.2236517   0.08867305 -28.06  0.001305259    2.617    0.618
       137  -9.5859    193.2510    244.9254   1.1197138483e+02   3.0111517055e-01    0.3089806   0.08341719 -35.00   0.00133163    4.622    0.784
