#   1 NUMBER                 Running object number                                     
#   2 MAG_AUTO               Kron-like elliptical aperture magnitude                    [mag]
#   3 X_IMAGE                Object position along x                                    [pixel]
#   4 Y_IMAGE                Object position along y                                    [pixel]
#   5 X_WORLD                Barycenter position along world x axis                     [deg]
#   6 Y_WORLD                Barycenter position along world y axis                     [deg]
#   7 A_WORLD                Profile RMS along major axis (world units)                 [deg]
#   8 B_WORLD                Profile RMS along minor axis (world units)                 [deg]
#   9 THETA_WORLD            Position angle (CCW/world-x)                               [deg]
#  10 FWHM_WORLD             FWHM assuming a gaussian core                              [deg]
#  11 ELONGATION             A_IMAGE/B_IMAGE                                           
#  12 ELLIPTICITY            1 - B_IMAGE/A_IMAGE                                       
         1 -13.0153    198.9523     32.6124   6.0745112781e+01   3.1175281977e+01    0.9662586    0.8566807  33.45  0.005200089    1.156    0.135
         2 -13.6187    214.7864     14.4598   5.3214216520e+01   2.9056095502e+01     1.339592    0.9307472  26.99  0.006502401    1.690    0.408
         3 -11.1193      2.3385      6.4191   1.1113264501e+02   7.2917540032e+01    0.4490368   0.09829677 -50.90  0.002045407    2.676    0.626
         4  -9.6102     14.5289     12.5149   1.0711212714e+02   7.0979382644e+01    0.1137249   0.08876878 -46.13 9.499663e-05    1.073    0.068
         5  -8.9221    250.3269    250.3124   9.9637202616e+01  -5.5097781766e+00    0.1059643   0.05465472  22.47 0.0007041939    1.665    0.399
         6 -11.2701    142.7836    250.2221   1.1576450730e+02   9.9137231530e+00    0.3099275   0.09106056  40.47  0.001518433    2.731    0.634
         7 -12.6082    128.3310    244.9693   1.1752083370e+02   1.2588741958e+01    0.3838468    0.2962008  87.37  0.003139148    1.556    0.357
         8 -11.3955     57.9084    194.6369   1.2504143199e+02   2.9480268300e+01    0.2333321    0.1984193 -56.94  0.001235502    1.672    0.402
         9 -14.7397     13.8397    240.6037   1.3450920233e+02   2.6801234901e+01     2.540807     1.881107  61.93   0.02462801    1.255    0.203
        10 -11.5735     64.2624    186.9775   1.2325747304e+02   3.0060486547e+01    0.2089768    0.1899193  78.33 0.0004587113    1.300    0.231
        11 -11.5205     61.5713    244.4133   1.2772800245e+02   2.1262372317e+01     0.276545     0.153928  69.09  0.001055818    1.482    0.325
        12 -10.6604     74.8383    174.7996   1.2008081330e+02   3.0929667151e+01    0.2018625     0.171978  74.90 0.0003619313    1.098    0.089
        13 -13.0716     61.4863    172.2889   1.2245727902e+02   3.3081488807e+01    0.4015975    0.2416149 -50.15  0.002119805    2.268    0.559
        14 -11.6348     82.9940    165.8455   1.1745207317e+02   3.1508731510e+01    0.4785132    0.4310311  77.92  0.003475303    1.149    0.130
        15 -13.7572      8.9508    207.7925   1.3405120393e+02   3.2299982048e+01    0.9446175    0.5778654  75.42  0.004281532    1.167    0.143
        16  -9.7341     96.2910    150.5888   1.1263599084e+02   3.2526916718e+01    0.2221121    0.2065835  74.11 0.0007815636    1.126    0.112
        17 -11.8549     84.5256    149.4979   1.1504825498e+02   3.4472791194e+01    0.2501529    0.2084771 -62.48 0.0005870278    1.290    0.225
        18  -8.7062    134.4324    148.4983   1.0409273332e+02   2.6552664741e+01    0.1320359    0.1185899  66.20 7.878679e-05    1.051    0.049
        19 -12.1811     67.5126    143.6965   1.1804914337e+02   3.7939464629e+01    0.6069248    0.3407857  63.78   0.00244299    1.856    0.461
        20  -8.8428     99.4613    146.5053   1.1133108403e+02   3.2843620237e+01     0.124037    0.1136783  76.50 7.594688e-05    1.072    0.067
        21  -8.4539    192.2742    144.3132   9.1674070623e+01   1.6012436438e+01    0.1354401    0.1001456  13.10 0.0002716017    1.558    0.358
        22 -14.8532    107.2885    229.4132   1.1949215340e+02   1.7591173782e+01     6.789524          nan  46.47   0.01462703   13.575    0.926
        23  -9.5480    109.0315    135.9051   1.0744312741e+02   3.3409740679e+01    0.1956196    0.1650698  -7.51 0.0007512646    1.708    0.415
        24 -10.3237     95.5440    133.2795   1.1009814633e+02   3.6117318439e+01    0.2089701    0.2057307 -80.00 0.0004798504    1.201    0.168
        25 -10.4747     50.1928    129.8664   1.2029846084e+02   4.2883710810e+01    0.2043325    0.1629525  79.00 0.0006672305    1.095    0.086
        26  -8.9535    106.0226    123.2151   1.0581512995e+02   3.6490383042e+01    0.1736488    0.1587032  69.77  0.001064225    1.048    0.046
        27 -11.7794     54.6883    238.7181   1.2844485274e+02   2.2859380670e+01    0.2907301    0.1407003 -79.70  0.001339176    2.175    0.540
        28 -12.4891     29.8172    227.2675   1.3164212737e+02   2.7229377421e+01    0.2148938    0.1674727  78.02 0.0007615758    1.261    0.207
        29  -9.6775    167.5201    112.7899   8.9558857994e+01   2.6438333917e+01    0.2718073    0.2236331  87.61 0.0009526839    1.540    0.351
        30 -13.9100     35.7248    219.7940   1.3036678887e+02   2.7781395444e+01    0.6411914    0.4372319  61.95   0.00274637    1.070    0.065
        31 -15.4664     10.7014    152.4545   1.3100408223e+02   4.2051707551e+01     7.042548     2.149607  85.58   0.02941952    4.054    0.753
        32 -12.5065     99.4677    247.3808   1.2218440703e+02   1.6191569903e+01    0.3730605    0.2619168  34.36   0.00289323    1.681    0.405
        33 -11.2315     81.4752    247.8798   1.2495194121e+02   1.8407826780e+01    0.2476046    0.1174321  65.97  0.001632317    2.023    0.506
