#   1 NUMBER                 Running object number                                     
#   2 MAG_AUTO               Kron-like elliptical aperture magnitude                    [mag]
#   3 X_IMAGE                Object position along x                                    [pixel]
#   4 Y_IMAGE                Object position along y                                    [pixel]
#   5 X_WORLD                Barycenter position along world x axis                     [deg]
#   6 Y_WORLD                Barycenter position along world y axis                     [deg]
#   7 A_WORLD                Profile RMS along major axis (world units)                 [deg]
#   8 B_WORLD                Profile RMS along minor axis (world units)                 [deg]
#   9 THETA_WORLD            Position angle (CCW/world-x)                               [deg]
#  10 FWHM_WORLD             FWHM assuming a gaussian core                              [deg]
#  11 ELONGATION             A_IMAGE/B_IMAGE                                           
#  12 ELLIPTICITY            1 - B_IMAGE/A_IMAGE                                       
         1 -14.4701      7.1843     46.6525   1.0761464878e+02   6.8291166403e+01     1.777322    0.9107367 -67.45  0.008953943    1.633    0.388
         2 -15.0584    121.6552     36.9954   5.5213707923e+01   5.0426773322e+01     2.198984    0.9174902  46.01  0.007934106    2.586    0.613
         3 -14.2131    137.6806     22.6151   4.6479309789e+01   4.8223592917e+01     2.683666    0.1828258  59.39  0.006565335    5.698    0.824
         4 -12.1420    232.5079      2.4200   3.1177683127e+01   2.7456292545e+01    0.4256849    0.2669291  53.53   0.00226738    2.033    0.508
         5 -15.4054    218.3645     16.9007   3.5647866868e+01   2.9030474664e+01     2.100101     1.059994 -26.19   0.01038233    1.855    0.461
         6 -15.2539    212.7337     41.2112   4.2501480837e+01   2.7454796222e+01     2.325603    0.8017717  74.57  0.008345972    3.845    0.740
         7 -14.1486    189.3972     26.6791   4.0897667320e+01   3.4634743053e+01     1.758118    0.4655056 -50.60  0.005087419    4.665    0.786
         8 -14.9321    147.2801     29.5982   4.7429554143e+01   4.4874436363e+01     1.540263    0.9420424  64.40  0.005315259    1.606    0.377
         9 -13.7345    242.0696     34.7944   3.8291068758e+01   2.2070630993e+01    0.7565338    0.5613867  89.18  0.003013418    1.509    0.337
        10 -14.9039    166.6362     29.8408   4.4613176283e+01   3.9888316390e+01     1.132972     1.040209  73.16  0.003990359    1.115    0.103
        11 -14.5847     41.2266      6.1208   6.7585363361e+01   7.2734591904e+01     2.297132     1.269159   3.53  0.009147727    3.322    0.699
        12 -13.5764      2.7321     10.7458   9.8726610237e+01   7.6700060418e+01     0.974605    0.4668657 -61.58  0.005020511    1.913    0.477
        13 -13.1331      7.8931      2.7015   8.9478502187e+01   7.7891007746e+01    0.6024178    0.4324633  50.73  0.002921117    2.106    0.525
        14 -16.0068     14.2848     20.1623   9.4000267995e+01   7.3857621818e+01      2.18227     1.035192 -38.18    0.0105733    1.965    0.491
        15 -14.1411     25.2991     14.0549   8.2786714288e+01   7.3878238734e+01    0.7732912    0.4402805  31.22  0.004088571    1.851    0.460
        16 -15.4879     97.7546     12.3610   5.0214127355e+01   5.9626287042e+01     1.954046    0.8487689  56.71  0.008051758    2.082    0.520
        17 -12.2136     71.3031     17.6003   6.0958936559e+01   6.5175078872e+01    0.3895833    0.2554529 -31.83  0.001057639    1.515    0.340
        18 -12.5414     60.4279     17.7431   6.5417503379e+01   6.7424173866e+01    0.4528627    0.2739816 -37.23  0.002237728    1.643    0.391
        19 -14.4260    189.8167     15.4591   3.7576311270e+01   3.5783865946e+01     1.575507    0.6348417 -49.98  0.006495536    2.347    0.574
        20 -11.3730    152.3682     14.2529   4.1255533350e+01   4.5335154444e+01    0.2583315    0.1672917 -39.15   0.00121636    1.482    0.325
        21 -11.6496     46.6025     13.3328   6.9389517964e+01   7.0714011657e+01    0.2880761    0.2492163  42.43  0.001543591    1.261    0.207
        22 -11.8143    152.9668      9.1255   3.9384262278e+01   4.5697236553e+01    0.2795237    0.2064028 -13.77 0.0008321592    1.514    0.339
        23 -11.7023     68.2641      9.5775   5.7566459971e+01   6.6882581984e+01    0.2407626    0.1967879  77.10  0.001345025    1.498    0.332
        24 -10.5583     58.4813      6.9703   5.9813777019e+01   6.9291064353e+01    0.1854544    0.1025315 -49.21 0.0008094832    2.478    0.597
        25 -12.0375    119.6891      3.6849   4.1884524504e+01   5.4883420364e+01    0.3897625    0.2171018  76.03  0.001431902    1.776    0.437
        26 -11.5939    117.3344      1.6558   4.1392435614e+01   5.5670907982e+01    0.2684691    0.2328371  58.33 0.0007598683    1.098    0.090
        27 -11.7693     78.0904      2.7647   5.0432219077e+01   6.5385828786e+01     0.369049    0.2740172  41.80  0.001678608    1.264    0.209
        28 -11.1700     83.0314      1.2290   4.8218188968e+01   6.4352966417e+01    0.3069271        0.126  64.77  0.001242419    2.343    0.573
        29 -12.2265     61.6596      2.0095   5.5407541711e+01   6.9187160669e+01    0.4051324    0.2239871  59.79  0.001329765    1.866    0.464
        30 -10.6419    171.9260      1.6708   3.4982103587e+01   4.1545898186e+01    0.1858103    0.1586115 -75.75 0.0005798297    1.065    0.061
        31 -10.3069     32.0112     31.0000   8.7322696711e+01   6.9700288017e+01    0.1997439   0.07525889  30.44 0.0006009378    2.867    0.651
        32 -11.6808     52.5032    250.5119   1.1462701151e+02   1.7411417600e+01    0.1750447    0.0923973  53.82 -8.800573e-05    1.521    0.342
        33 -12.3438     57.0740    246.8356   1.1355260613e+02   1.7517641176e+01    0.5898922    0.1394028  31.69  0.002529246    3.295    0.697
        34 -13.5283     28.3470    246.1575   1.1897566045e+02   2.0590080769e+01    0.4468926    0.2603673  56.84  0.002999505    1.306    0.235
        35 -11.9290      2.8315    249.7871   1.2374951920e+02   2.2311052771e+01    0.2862017    0.1522782  37.09   0.00174842    1.464    0.317
        36 -13.8331      9.0951    245.6016   1.2252120027e+02   2.2466180510e+01    0.7294844    0.3361483  49.12  0.003499961    1.468    0.319
        37 -13.4426    196.7517    179.0897   7.7097000366e+01   9.4574367499e+00    0.6466072    0.4411087 -65.87   0.00305042    3.274    0.695
        38 -12.3754     85.7935    180.8864   1.0156538644e+02   2.6422622550e+01    0.2537465    0.1805822  79.85  0.001381812    1.598    0.374
        39 -12.0004     95.6180    171.5538   9.7893007446e+01   2.7001917203e+01    0.2447506    0.2277376 -55.97  0.001507488    1.178    0.151
        40 -12.9706    124.6109    167.8090   9.0230528602e+01   2.3210902839e+01     0.493887    0.2861635 -53.74  0.002363008    1.865    0.464
        41 -13.1573     74.0565    153.1846   1.0092536469e+02   3.4305383695e+01    0.6732309     0.467374  30.52  0.002887224    1.491    0.329
        42 -14.9366     15.9121    175.6358   1.1846675820e+02   3.5585332661e+01     2.225164    0.4841064  50.95  0.008357786    3.570    0.720
        43 -12.9141    208.8472    154.3019   7.0205891885e+01   1.1296148780e+01    0.5879152    0.4462432  25.87  0.003541518    1.304    0.233
        44 -11.1247    155.0319    157.5249   8.1391476359e+01   2.0009651947e+01    0.1973299    0.1163324  59.86  0.000810121    2.606    0.616
        45 -10.8516    112.5098    157.4923   9.1421637510e+01   2.7381370533e+01    0.1398848    0.1320082  50.56 0.0008105416    1.011    0.011
        46 -13.0436     13.8732    159.2992   1.1807762685e+02   3.9506133685e+01     0.436496    0.2811699 -76.72  0.002561066    1.439    0.305
        47 -11.3197     55.9971    155.9887   1.0629407135e+02   3.6009787240e+01    0.2089609    0.1584277 -37.50 0.0009404179    1.687    0.407
        48 -11.8186     85.9894    152.7755   9.7592097320e+01   3.2664723148e+01    0.4368158    0.2186227 -52.74  0.001900173    2.063    0.515
        49 -11.7607    103.1751    150.1697   9.2547110752e+01   3.0547676384e+01    0.3935978    0.2603801 -33.69  0.001823039    1.942    0.485
        50 -11.8848     77.3876    156.9279   1.0054821794e+02   3.2955786911e+01    0.3999409    0.2617661  29.19  0.001456512    1.598    0.374
        51 -12.1705     60.0340    148.7275   1.0425382078e+02   3.7255384489e+01     0.245333    0.1968171  38.11  0.000936922    1.251    0.201
        52 -10.7688     62.9552    138.7052   1.0199604641e+02   3.9335415814e+01    0.1932209    0.1723276  64.96 0.0004198806    1.057    0.054
        53 -12.3319     44.6037    136.3244   1.0721869820e+02   4.2179688774e+01    0.5035391    0.3062446 -48.76  0.002459671    1.836    0.455
        54 -13.0021    246.5803    133.1282   6.0003618849e+01   8.3267489516e+00    0.4872599    0.3424481 -28.55  0.003056357    1.181    0.153
        55 -14.7031    230.1724    128.8550   6.1454757894e+01   1.1555203003e+01     1.091713     1.022384  67.91  0.007322674    1.446    0.309
        56 -12.5404     93.1198    103.9583   8.5711799944e+01   4.3190853814e+01    0.4990362    0.3650197  36.51  0.002382378    1.434    0.303
        57 -13.4253    120.7587    102.3180   7.7164661893e+01   3.8136981319e+01    0.7086711    0.3615868  42.90  0.002787732    2.011    0.503
        58 -14.3501    105.8441    121.6942   8.6127104389e+01   3.6652346581e+01     1.679979     1.117774  31.17  0.007649886    1.650    0.394
        59 -14.8492    106.8385    105.1706   8.1856519016e+01   4.0307203352e+01     1.755798      1.26587 -19.08   0.00769629    1.936    0.483
        60 -11.1928     59.6869    125.4259   1.0091936690e+02   4.3100998455e+01    0.1875401    0.1419951  15.66 0.0009498804    1.615    0.381
        61 -11.9162    182.2063    121.8745   6.8013453208e+01   2.1466396705e+01    0.4446003    0.3139921  85.59  0.001940399    2.594    0.614
        62 -12.5505     28.2606    122.1945   1.1070336703e+02   4.7442804974e+01    0.3389828    0.2302427 -75.83  0.001827541    1.307    0.235
        63 -12.4820     77.2125    117.1792   9.3785832274e+01   4.2649375391e+01     0.751097     0.437039 -65.14  0.003288071    1.736    0.424
        64 -13.1729     85.0494    115.3043   9.0911901961e+01   4.1844517225e+01    0.8903781    0.4891256  44.29  0.003703869    1.843    0.458
        65 -12.3255     88.1593    109.8941   8.8711684434e+01   4.2639269569e+01     0.421202    0.2910039 -66.07  0.001596702    1.507    0.337
        66 -11.7191      3.1108    119.9429   1.1873863511e+02   4.9903728023e+01    0.4342542    0.1665612  16.50  0.001892555    3.080    0.675
        67 -13.9132     17.6957    111.0008   1.1303888789e+02   5.1210749730e+01     1.174637    0.7012583 -42.83  0.005912947    1.922    0.480
        68 -14.1988     11.4271    102.5664   1.1438598544e+02   5.3831728705e+01     1.351671    0.7888404 -62.44  0.007064189    1.518    0.341
        69 -12.1539     36.9197     93.1784   1.0328217886e+02   5.4138905374e+01    0.4760211    0.3027133  10.28  0.001574568    2.025    0.506
        70 -14.3441     20.7514     96.0296   1.1006671409e+02   5.4864589913e+01     1.036841    0.8871584 -79.61   0.00630265    1.009    0.009
        71 -13.8096     29.5280     89.6289   1.0557898178e+02   5.5786611737e+01      1.03507    0.5759758  68.40  0.003428709    2.270    0.559
        72 -13.4192      2.1792     97.3029   1.1731085385e+02   5.5721858532e+01    0.8222753    0.2470395 -80.70  0.003117331    2.835    0.647
        73 -11.6907    121.5749    112.4489   7.9569454420e+01   3.5729250274e+01    0.2824615    0.2545723  80.82 0.0008081939    1.207    0.172
        74 -11.8189    177.0606    110.5672   6.6270295132e+01   2.4528849105e+01    0.4039062    0.2883296  -4.93  0.001885363    1.832    0.454
        75 -12.0675     61.9402    109.0158   9.7179010437e+01   4.6980399209e+01    0.6337845    0.3749602 -79.03  0.002729678    1.942    0.485
        76 -11.9172     32.3704    110.6013   1.0781811064e+02   5.0056692568e+01      0.27311    0.2363047 -60.17  0.001613974    1.159    0.137
        77 -12.5995    133.9762    102.9040   7.3854549316e+01   3.5216958343e+01     1.201656    0.3148127  49.94  0.003234331    4.398    0.773
        78 -11.5354     32.3975    105.3547   1.0704332368e+02   5.1419875083e+01    0.2548777    0.1707956  32.12 0.0008846787    1.598    0.374
        79 -13.2881    249.3074     96.6823   5.1856897822e+01   1.2829458080e+01    0.7599711    0.2055516 -33.78  0.002949857    2.839    0.648
        80 -12.2699     52.4688     98.0297   9.8307640150e+01   5.1071181915e+01    0.7854606    0.4289456 -17.59  0.002597928    4.174    0.760
        81 -12.4195     49.0350     94.2198   9.8797106445e+01   5.2485854068e+01    0.7565832    0.4155798 -55.80  0.003283143    1.651    0.394
        82 -11.9357    163.1727     97.8662   6.5780499058e+01   2.9834847088e+01    0.3217749    0.2905744  41.77 0.0008937047    1.159    0.137
        83 -12.3435     61.2513     98.3268   9.5150507117e+01   4.9804487515e+01    0.3696468    0.3020491  79.53  0.001754114    1.315    0.239
        84 -12.8825    136.8125     95.6963   7.1166878791e+01   3.6097896970e+01    0.4869434    0.3658322  61.52  0.001620483    1.483    0.326
        85 -11.0353     65.6396    126.3598   9.9191309437e+01   4.2057350992e+01    0.2334305    0.1592199  68.65    0.0011073    1.640    0.390
        86 -11.8675     42.5317     90.4207   1.0052634804e+02   5.4240525579e+01    0.2967371    0.2293213 -67.04 0.0006102113    1.170    0.145
        87 -11.9355     90.3054     88.3594   8.2428574955e+01   4.7416780015e+01    0.4458339    0.3375814  54.50  0.001932739    1.421    0.296
        88 -11.5041     34.2901     86.8849   1.0312854483e+02   5.6039621177e+01    0.2477345    0.2071625  -1.00  0.001188693    1.430    0.301
        89 -14.0042    241.7763     82.4000   4.9508419766e+01   1.6091627111e+01     1.099743    0.6142303  80.39  0.005053787    3.173    0.685
        90 -13.3275    188.3979     84.3034   5.7393697844e+01   2.6628507754e+01    0.7651752    0.3742867  40.56   0.00264958    2.550    0.608
        91 -13.2094    135.1098     80.0787   6.6998014678e+01   3.9618468323e+01    0.7504959    0.6169569  28.11  0.002977336    1.387    0.279
        92 -14.3036    160.8036     80.9744   6.1541292076e+01   3.3466146498e+01     1.747145     1.129426   0.16  0.006673094    2.747    0.636
        93 -14.8285    169.3193     77.1450   5.8776116392e+01   3.2154299058e+01     1.886733     1.420434 -78.74  0.008669015    1.680    0.405
        94 -13.3888     65.9603     49.5494   7.8338423218e+01   6.0618850760e+01    0.8312486    0.6294714 -41.90   0.00213346    1.255    0.203
        95 -13.6070     60.5720     60.5193   8.4762481279e+01   5.9140510381e+01     2.207187     1.250288 -14.45  0.006972488    4.398    0.773
        96 -13.5531     87.5350     65.3382   7.6035032465e+01   5.3145204746e+01     1.006663    0.6746245   8.29  0.003699436    2.536    0.606
        97 -13.2042     91.6314     58.2874   7.2065680547e+01   5.3762398780e+01    0.6995866    0.4933965 -55.23  0.003258023    1.527    0.345
        98 -12.9418     70.4189     75.6825   8.5741193357e+01   5.3981860060e+01    0.5985063    0.5003462 -18.96  0.002220061    1.379    0.275
        99 -12.3912     77.1776     73.5616   8.2533751447e+01   5.3296958949e+01    0.6243913    0.3593928 -35.20  0.002176776    2.033    0.508
       100 -13.2820     55.1811     82.1476   9.3551610343e+01   5.4748105061e+01    0.5922516    0.5109163 -31.35  0.002471062    1.247    0.198
       101 -14.1272     60.9440     75.8073   8.9494185373e+01   5.5473755321e+01    0.8871564    0.6955411 -62.55  0.001450396    1.233    0.189
       102 -13.6920    213.4485     78.7445   5.2160677808e+01   2.2132407995e+01    0.9533643    0.6208469  86.60  0.004556198    2.277    0.561
       103 -12.7217    218.4880     74.7789   5.0497938788e+01   2.1672130618e+01    0.3773333    0.3649509   2.73  0.001871133    1.159    0.137
       104 -12.4224    214.6483     71.9005   5.0265909917e+01   2.2881035873e+01     0.406807    0.3529013   7.28   0.00190354    1.335    0.251
       105 -11.9917    114.2920     80.2154   7.2552199418e+01   4.4302510943e+01    0.4043272    0.3364653 -59.05 0.0008487588    1.239    0.193
       106 -11.9805     18.1675     71.6131   1.0718515740e+02   6.1370212939e+01    0.4208177    0.2215925  25.03    0.0011411    2.104    0.525
       107 -11.5330    209.4900    249.5050   8.5725656588e+01  -1.2117968825e+00    0.1059119   0.07566813  12.75 0.0008105873    1.005    0.005
       108 -14.9048      6.4818     71.5787   1.1258287384e+02   6.2103971924e+01     1.159292    0.8731517 -65.70   0.00466034    1.119    0.107
       109 -14.3677    198.9618     69.7830   5.1849513630e+01   2.6572247233e+01     1.363975    0.7381005  34.22  0.005520904    2.789    0.641
       110 -12.6134    199.5122     62.4543   4.9790610936e+01   2.7531981304e+01    0.4218186    0.2471106 -33.54  0.001645995    1.526    0.345
       111 -11.4798     42.0062     76.4223   9.7560755303e+01   5.7878281066e+01    0.2835212    0.2253502 -71.31  0.001238134    1.197    0.165
       112 -13.3498      4.1276     63.6056   1.1249585944e+02   6.4240379714e+01    0.5543847    0.3472586  20.75   0.00307019    1.852    0.460
       113 -12.9042    242.0226     71.5789   4.6970628941e+01   1.7496107925e+01    0.4495302    0.2899416 -58.23  0.002478562    1.731    0.422
       114 -13.5118    133.8032     65.6697   6.2708943660e+01   4.2654390943e+01    0.8395839    0.7465437  -7.15    0.0025757    1.258    0.205
       115 -12.2274     37.4623     68.2359   9.7476163993e+01   6.0449500958e+01    0.8151699    0.2393406  28.10  0.002819366    3.600    0.722
       116 -11.6746     43.3240     64.8965   9.3847234561e+01   6.0578804233e+01    0.2167264    0.1888248 -48.79 0.0006129232    1.053    0.050
       117 -11.4698    100.4291     64.9182   7.1614436380e+01   5.0522103139e+01    0.3465203    0.2799661 -11.45   0.00128113    1.498    0.332
       118 -12.3834     79.7555     61.1374   7.7327267989e+01   5.5585557683e+01     0.492317     0.443839  33.15  0.002158064    1.158    0.137
       119 -13.1010     81.4164     54.4818   7.4208557519e+01   5.6649586030e+01    0.7330167     0.527994  36.21  0.003428383    1.474    0.321
       120 -14.1548    178.0649     57.2712   5.1447001967e+01   3.3280084882e+01    0.9224855    0.6698947 -47.36  0.003175588    1.301    0.231
       121 -12.0784     24.6163     60.1091   1.0152546566e+02   6.3750242923e+01    0.3649145    0.2181035 -61.89  0.001351015    1.443    0.307
       122 -10.5716     38.4868     59.9928   9.4652141274e+01   6.2353638724e+01    0.1980733    0.1197413 -88.16 0.0008104393    2.573    0.611
       123 -14.6172    119.8269     54.5498   6.2309431932e+01   4.8023819252e+01     0.989738    0.7824444  34.86  0.002338416    1.393    0.282
       124 -14.2691    170.3705    242.8131   9.1594142962e+01   4.2545207997e+00    0.8931224    0.5568223  16.97     0.005876    1.450    0.311
       125 -12.4378     24.8992    217.5943   1.1847190864e+02   2.6043792296e+01    0.6223096    0.3465953  47.75  0.003960284    1.358    0.263
       126 -11.1054     47.6612     57.0339   8.9332527095e+01   6.1882060478e+01    0.2599766    0.1991007  64.71  0.001331375    1.668    0.400
       127 -12.9526    247.4263     53.7367   4.2286836824e+01   1.8763955855e+01    0.5081378    0.3379427 -37.14  0.002753969    1.195    0.163
       128 -12.6001    248.4491     49.3763   4.1187815884e+01   1.9104842493e+01     0.403603    0.2709439  51.36  0.002405758    1.863    0.463
       129 -12.1658    230.5825     55.3113   4.4269049430e+01   2.1862110941e+01    0.3883208    0.1800311  68.24  0.001798696    2.580    0.612
       130 -12.7482    135.4595     50.6000   5.7166906635e+01   4.4846893646e+01    0.5806082    0.3553894  36.13  0.001903834    2.027    0.507
       131 -13.6780    103.1185     50.4691   6.5415065748e+01   5.2707280038e+01     0.904166    0.6241278 -70.11 0.0005974255    2.039    0.510
       132 -12.1003     97.8173     50.7959   6.7168634359e+01   5.3857357777e+01    0.5140438    0.3384801 -61.02  0.001735777    1.943    0.485
       133 -11.0931     22.8081     50.2445   9.9771529549e+01   6.6315824605e+01    0.2461769    0.1774534   0.42  0.000904628    1.614    0.380
       134 -11.7790     14.7220    224.3912   1.2081130994e+02   2.5713622913e+01    0.3705591    0.1714727  60.57  0.001467457    1.710    0.415
       135 -13.8102     25.7717    227.5445   1.1872491051e+02   2.4100845554e+01    0.6140782     0.346289 -58.61  0.003829203    2.323    0.569
       136 -13.6051     20.8395    225.3516   1.1962371006e+02   2.4972672811e+01    0.4451404    0.3694912  61.36   0.00282793    1.145    0.127
       137 -12.4877    147.4522    239.0329   9.5366689042e+01   7.6802326385e+00    0.1939784    0.1832866  70.15  0.001053746    1.433    0.302
       138 -13.2985    237.4374    230.6397   7.8644069184e+01  -2.3829170873e+00    0.3117605    0.2508072  20.23  0.002527202    1.433    0.302
       139 -10.8819     55.2273     41.1395   7.9581199217e+01   6.4214046123e+01    0.2017346    0.1754261 -19.97 0.0004561526    1.131    0.116
       140 -11.7248     40.1506    243.7453   1.1663605850e+02   1.9820091732e+01    0.2473152    0.1408477  84.48  0.001639731    1.864    0.464
       141 -12.6299     75.8425     37.3342   6.9081200469e+01   6.1071180026e+01    0.3703573    0.2857468  47.80 0.0008310532    1.334    0.250
       142 -12.0584     69.5355     36.6068   7.1238115544e+01   6.2477863732e+01    0.4779911    0.2361277  38.22  0.001226166    2.194    0.544
       143 -13.8724     63.2418    214.4413   1.1011613749e+02   2.2544158799e+01    0.7910255    0.4606092  61.80  0.004594446    1.656    0.396
       144 -12.5151     46.1771     33.7967   8.0724891400e+01   6.7149064630e+01    0.5198252    0.3700212 -26.31  0.002736797    1.452    0.311
       145 -12.4401     68.4726    221.6753   1.0956164329e+02   2.0578121959e+01    0.5670483    0.2063628 -65.24  0.002750397    3.048    0.672
       146 -12.7112     63.9149    224.2754   1.1071506600e+02   2.0640063743e+01    0.5804802    0.2388602  41.39  0.003063014    1.832    0.454
       147 -13.9784     96.6254    238.9111   1.0523406818e+02   1.4192340549e+01    0.5429408    0.3987231  43.83  0.002530251    1.095    0.086
       148 -12.7132     94.6654    218.3831   1.0371276592e+02   1.7904382348e+01       0.3223    0.1865251  39.74  0.001473396    1.399    0.285
       149 -12.5254    185.3239    213.7014   8.4901604186e+01   6.1337942720e+00    0.1962982     0.173755  26.79  0.001378463    1.279    0.218
       150 -12.9786     56.3433     27.3978   7.2509578570e+01   6.6634418090e+01    0.7249644    0.3415437  46.25  0.002249882    2.249    0.555
       151 -12.9339     68.2754     24.5962   6.5853273523e+01   6.4778049339e+01    0.7528012    0.3892167  47.72  0.003349596    1.932    0.482
       152 -10.8964     98.0768     27.3150   5.7129564487e+01   5.7658303303e+01    0.2123465      0.18207  58.15  0.001144243    1.163    0.140
       153 -11.1451     35.6595     24.1747   8.1794155812e+01   7.0586774865e+01    0.2468856    0.1629342 -60.73  0.001134225    1.925    0.481
       154 -12.2020     46.5004     21.0457   7.3990528850e+01   6.9473013192e+01    0.3631341    0.2906176  -2.22 0.0006024647    1.289    0.224
       155 -10.9418     52.9667     20.5003   7.0408067030e+01   6.8423630663e+01    0.3797793    0.1760561  34.03  0.001562015    2.510    0.602
       156 -13.5597      9.3247    211.0309   1.2145600763e+02   2.8733678945e+01    0.9441113    0.5572304  57.94  0.006260511    1.284    0.221
       157 -13.5594     16.7207    195.6292   1.1925240906e+02   3.1192273406e+01    0.9805716    0.2909886 -76.24  0.004366051    3.158    0.683
       158 -13.6868     30.1594    169.0888   1.1446613338e+02   3.5762364616e+01    0.7520092    0.5099488 -38.28  0.001627176    2.082    0.520
       159 -10.6136    248.4910     18.4684   3.4054233010e+01   2.2611738835e+01    0.1213426    0.0964457 -45.83 0.0008096434    1.025    0.024
       160 -13.2959     22.1762    181.3196   1.1725348971e+02   3.3763634572e+01    0.6220703    0.4086565 -64.42  0.002795132    1.661    0.398
       161 -14.9054      8.6311    183.3354   1.2057523300e+02   3.4501790611e+01     1.152004    0.8666057  58.22  0.007901115    1.075    0.070
       162 -11.3124    136.7549    211.4698   9.4060203853e+01   1.3312277363e+01    0.2007428    0.1744891 -48.46 0.0009462265    1.367    0.269
       163 -10.9233     80.5089    208.5028   1.0581443609e+02   2.1555330773e+01    0.1248933    0.1009738  50.57 2.068219e-05    1.044    0.042
       164 -11.0262    150.7351    206.9782   9.0585899241e+01   1.2028749816e+01    0.2395971    0.1428277  22.50  0.001290904    1.681    0.405
       165 -12.6315     41.3449    206.2251   1.1433197404e+02   2.6606378351e+01    0.2332202     0.159556  70.79  0.001494559    1.314    0.239
       166 -13.4755    158.0036     44.2258   5.0636612344e+01   4.0144836069e+01      0.76738    0.5942768  28.79  0.003449346    1.574    0.365
       167 -12.4400     57.3638    203.2412   1.1053363951e+02   2.5421182271e+01    0.4443953    0.2305408  86.35  0.002258085    2.303    0.566
       168 -13.0624     40.4931    195.4326   1.1381260497e+02   2.8905425379e+01    0.4107075    0.1974926  84.06  0.002038704    2.285    0.562
       169 -10.7312    212.4871    200.4916   7.8005953943e+01   4.2021921875e+00    0.1193211   0.09236258   4.03 4.104088e-05    1.044    0.042
       170 -13.2833    164.3977    194.7531   8.5985439208e+01   1.1965162896e+01    0.5586681    0.3348706 -60.32  0.002745447    2.695    0.629
       171 -12.6842    200.9021    192.3398   7.8664693420e+01   6.9184790517e+00    0.4507366    0.2462714 -21.34  0.002083332    2.030    0.507
       172 -11.8914     49.0764    181.6695   1.1070087525e+02   3.0919506189e+01     0.357801    0.2389835 -55.33  0.002037297    1.732    0.423
