#   1 NUMBER                 Running object number                                     
#   2 MAG_AUTO               Kron-like elliptical aperture magnitude                    [mag]
#   3 X_IMAGE                Object position along x                                    [pixel]
#   4 Y_IMAGE                Object position along y                                    [pixel]
#   5 X_WORLD                Barycenter position along world x axis                     [deg]
#   6 Y_WORLD                Barycenter position along world y axis                     [deg]
#   7 A_WORLD                Profile RMS along major axis (world units)                 [deg]
#   8 B_WORLD                Profile RMS along minor axis (world units)                 [deg]
#   9 THETA_WORLD            Position angle (CCW/world-x)                               [deg]
#  10 FWHM_WORLD             FWHM assuming a gaussian core                              [deg]
#  11 ELONGATION             A_IMAGE/B_IMAGE                                           
#  12 ELLIPTICITY            1 - B_IMAGE/A_IMAGE                                       
         1 -13.6857     30.2950     59.6677   1.1707480329e+02   6.0812875524e+01     1.206527    0.8208532  42.02  0.005738689    1.993    0.498
         2 -12.9456     42.1998     20.5869   9.8657467704e+01   6.5665666268e+01    0.6637412    0.3381796  30.08  0.001619293    1.848    0.459
         3 -12.0896    216.6416     14.3824   5.9173510582e+01   2.9840953519e+01    0.4625048    0.3158696 -84.61  0.001224426    1.280    0.218
         4 -13.4451    186.0454      6.4763   6.0642440786e+01   3.7755630018e+01    0.7858237    0.5227122 -70.75  0.004542529    1.520    0.342
         5 -10.4709     56.6735      9.3312   8.8579301704e+01   6.4882156704e+01    0.2363541    0.1688089  45.92  0.001245237    1.570    0.363
         6 -11.5459     59.0225      7.0000   8.6795294014e+01   6.4741085427e+01    0.3190063    0.1506661  45.37  0.001748831    1.960    0.490
         7 -11.6675     43.8475      8.6353   9.3001206198e+01   6.6836133142e+01    0.2694542    0.1981399  31.72  0.001087782    1.349    0.259
         8 -11.7031    166.8010      1.8899   6.1836288232e+01   4.2695515662e+01     0.516593    0.1310545  70.91  0.001775247    3.708    0.730
         9 -10.2879    173.9895    221.6926   1.1311841518e+02   1.6608459491e+00    0.2710247    0.1487277 -58.23  0.001182431    2.456    0.593
        10 -11.9175    220.0322    248.5890   1.0856805691e+02  -1.0362530684e+01    0.2867336    0.2651178  55.14  0.001978001    1.518    0.341
        11 -10.4744    211.3245    217.9062   1.0490729274e+02  -4.2388016662e+00    0.2789696     0.161335 -51.03  0.001327243    2.178    0.541
        12 -11.6470    222.3501    214.1727   1.0208886166e+02  -5.4668312642e+00    0.2571666    0.1736355  37.09  0.001404507    1.443    0.307
        13 -10.4990    232.6628    211.2947   9.9607454985e+01  -6.6814974052e+00    0.1172834    0.1065454  81.41 0.0006284826    1.649    0.394
        14 -10.7677    115.4213    208.9160   1.2364123945e+02   1.4847126129e+01    0.2537657    0.1899252 -47.76  0.001337122    1.520    0.342
        15 -10.9844      5.0790    199.5534   1.4583536618e+02   3.1867136051e+01    0.2859943    0.1482266  57.02 0.0009838106    1.777    0.437
        16  -9.5010     41.3396    201.6915   1.3877221926e+02   2.7565439103e+01    0.1356398   0.07852332  69.99 0.0006354456    1.686    0.407
        17  -9.9949    133.4451    196.2562   1.1754062354e+02   1.4354459098e+01    0.2012993    0.1399386 -70.53 0.0009441221    1.660    0.398
        18 -12.4260    159.5902    191.6337   1.1080759994e+02   1.0326432765e+01    0.7480216    0.5174818 -85.80  0.002749844    2.271    0.560
        19 -10.1400    215.2001    193.0101   9.9406509877e+01  -5.7018651333e-01    0.3765618   0.09903441 -48.20  0.001035108    5.183    0.807
        20 -10.0102    193.0412    188.5254   1.0298242629e+02   4.4200415109e+00    0.2060045    0.1253058  63.82 0.0008099201    2.598    0.615
        21 -11.1175    223.9944    183.7432   9.5852747488e+01  -4.7718706633e-01    0.2522387    0.1748333 -51.60  0.001014783    1.632    0.387
        22 -10.4853    183.2655    182.8692   1.0390541310e+02   7.4656665041e+00    0.3413717    0.1764436 -34.75  0.001343527    2.246    0.555
        23 -10.0837    191.6815    178.3429   1.0119500579e+02   6.7093886617e+00    0.1485559    0.1191584 -88.39 0.0007049307    1.718    0.418
        24  -9.5705     28.3416    177.2513   1.3902463549e+02   3.4645708931e+01    0.1138449   0.08969066 -45.73 0.0003543335    1.574    0.365
        25 -10.7532     34.3869    173.2480   1.3720721801e+02   3.4945626578e+01    0.1905667    0.1041227 -82.16 0.0007470266    1.705    0.413
        26 -11.1934     55.5595    167.6405   1.3145875562e+02   3.3792430095e+01    0.3676283    0.2250016 -80.38  0.001813997    1.612    0.380
        27 -10.1116     44.3398    168.3255   1.3426389247e+02   3.4998758913e+01    0.1314815   0.09330413 -41.99 0.0007051348    1.729    0.421
        28 -11.2417     24.3616    159.6478   1.3795564431e+02   3.9172773414e+01     0.252802     0.149241 -42.63  0.001063811    2.078    0.519
        29 -11.6407    106.3236    157.6029   1.1692185911e+02   2.8405265078e+01    0.6635512    0.4537844  87.35  0.002878122    1.958    0.489
        30 -11.0705    167.2934    156.9485   1.0193104595e+02   1.6283535370e+01    0.4002647    0.2664865 -80.25  0.001534724    2.470    0.595
        31 -10.8119    118.2533    156.7477   1.1371337767e+02   2.6395561746e+01    0.2798096    0.1850936 -56.88  0.001251924    1.494    0.330
        32 -10.0388     23.4973    153.5476   1.3742692577e+02   4.0692913138e+01    0.1273579    0.1025231 -79.84 7.601571e-05    1.019    0.019
        33 -10.6495    189.5891    150.2703   9.5556935128e+01   1.2933505055e+01    0.3481178    0.1855936 -55.94  0.001314652    2.249    0.555
        34 -10.6943    218.4090    156.2049   9.1125578188e+01   5.7614631625e+00    0.3743734    0.1318228 -44.12  0.001298803    2.702    0.630
        35 -11.4086    233.6784    147.4143   8.6445576141e+01   4.4424656335e+00     0.296267    0.1683831 -37.31  0.001349091    1.637    0.389
        36 -11.0539    106.7725    145.2222   1.1426596811e+02   3.1314420278e+01    0.4735558    0.2653099  79.57   0.00130581    5.068    0.803
        37 -10.4467    148.4836    144.9849   1.0363189365e+02   2.3002116190e+01    0.2282433    0.1379015 -71.01 0.0008102856    2.550    0.608
        38 -10.2633    181.8288    141.7109   9.5246688958e+01   1.6429518984e+01    0.3043202     0.201083 -69.09  0.001223672    2.096    0.523
        39 -10.1646    131.6825    131.0343   1.0452907351e+02   2.9768770142e+01    0.2631469    0.1264216 -66.45 0.0007047182    4.375    0.771
        40 -12.2210     98.6035    127.8660   1.1263606963e+02   3.6938240175e+01    0.8172442    0.4839959 -84.98  0.002725626    3.587    0.721
        41 -11.0563     27.4655    121.4522   1.3177506564e+02   4.7891255650e+01    0.4447648    0.2051494  85.93  0.001293255    6.413    0.844
        42 -11.7992    192.9910    118.3561   8.7378223080e+01   1.8768809154e+01    0.5902292    0.4396908 -75.18  0.002188339    1.649    0.393
        43 -11.4296     84.9884    119.3820   1.1453715849e+02   4.1241901624e+01    0.5233462    0.2831968  35.00  0.002262641    2.013    0.503
        44 -11.5818    141.1688    115.0769   9.8144297125e+01   3.1305116102e+01    0.8224024    0.2446158 -41.39  0.002346215    3.589    0.721
        45 -10.5462      1.9247    116.1679   1.3818681745e+02   5.0976291208e+01    0.3019308    0.0972587 -59.75  0.001416112    2.140    0.533
        46 -10.8444    108.4549    113.3214   1.0635211554e+02   3.8483777825e+01    0.5668191    0.2703751 -60.82   0.00194126    2.884    0.653
        47 -10.5393     78.6613    112.7785   1.1484162634e+02   4.3770165645e+01    0.3807385    0.2220372 -81.45  0.001335248    3.537    0.717
        48 -11.9121    159.7868    110.3764   9.2470473296e+01   2.8088446877e+01    0.7650132    0.4051415 -57.12  0.002799919    2.341    0.573
        49 -10.6902    174.1268    111.1827   8.9495727582e+01   2.4587066008e+01    0.3548548    0.2154295 -47.91  0.001078816    1.637    0.389
        50 -11.2908     70.5014    118.7271   1.1863042299e+02   4.3598686630e+01    0.4620888    0.2226103 -70.84  0.001628799    3.203    0.688
        51 -11.7216     14.0297    109.9900   1.3379096042e+02   5.1580575766e+01    0.5189417    0.2594251 -84.33  0.002399863    2.587    0.613
        52 -12.5952    140.5578    104.6828   9.5567916144e+01   3.3660531179e+01    0.5521885    0.4469831 -86.31  0.002624167    1.513    0.339
        53 -12.2043    150.3792    102.2197   9.2523408235e+01   3.1942030553e+01    0.4688395    0.2862855 -57.47   0.00190974    1.914    0.477
        54 -11.9615     44.2792    100.9399   1.2272132309e+02   5.0949436525e+01    0.5811402    0.3590131 -83.45  0.002686756    2.482    0.597
        55 -12.0684    127.5554    100.6032   9.7789584340e+01   3.7363246030e+01    0.6372327    0.2724489 -53.65  0.002123972    2.902    0.655
        56 -10.6758     81.8683    100.3253   1.1076726134e+02   4.6062677831e+01    0.2204299    0.1809184  57.62  0.001018277    1.442    0.307
        57 -12.7797    170.3509     90.8694   8.5044743300e+01   2.9477530961e+01    0.4589862    0.3666748 -81.56 0.0008820652    1.434    0.303
        58 -11.7133     42.2112     87.8837   1.2035742039e+02   5.4013389001e+01    0.6299006      0.34192  -4.19  0.002719948    3.092    0.677
        59 -10.8110     45.4670     81.9855   1.1776479958e+02   5.4898163781e+01    0.2521878    0.1636698 -70.75  0.001235064    2.074    0.518
        60 -11.0969     86.6199     87.1459   1.0570922413e+02   4.8068597446e+01      0.26595    0.1937038  63.95  0.001194154    1.927    0.481
        61 -10.6310    140.5648     82.8041   8.9523132140e+01   3.7995376755e+01    0.3730876    0.1430468 -42.64   0.00129663    2.643    0.622
        62 -11.1162    104.6058     83.6995   9.9326962018e+01   4.5484801995e+01    0.3469999    0.2586922  87.48  0.001579202    2.158    0.537
        63  -9.8857      1.7712     77.9514   1.3193130083e+02   5.9247147999e+01    0.1575796   0.07436271 -60.21 0.0008705721    1.626    0.385
        64 -11.1508     82.4563     73.4850   1.0298232536e+02   5.1446362494e+01    0.3764505    0.2517829 -75.52  0.001552371    3.130    0.681
        65 -11.9087    107.5191     98.4995   1.0269279765e+02   4.1904793777e+01    0.6247072    0.4321121 -77.50  0.002639771    2.281    0.562
        66 -11.6164    223.3293     71.5448   7.1083754471e+01   2.0359528321e+01    0.3118893    0.2449657 -83.14 0.0003486179    1.245    0.197
        67 -10.8497     62.4197     70.2798   1.0862961629e+02   5.5113291001e+01    0.2548688    0.1126313 -42.37 0.0007560754    2.062    0.515
        68 -10.5724     51.9716     70.2387   1.1224809593e+02   5.6484606633e+01    0.2314608    0.1690062 -41.65 0.0008747893    1.222    0.182
        69 -10.7490    195.1505     67.0727   7.4285543658e+01   2.7676423056e+01    0.3914929    0.2737632 -69.43  0.001909884    1.568    0.362
        70 -12.1989     39.8249     51.6061   1.1094937746e+02   6.1292564330e+01    0.5664719    0.1527529 -41.78  0.001675463    3.188    0.686
        71 -11.5412     22.8693    239.9539   1.4543754886e+02   2.1574591741e+01    0.2688186    0.1301923  70.48   0.00152227    1.818    0.450
        72 -12.9435    234.6428     62.3451   6.7542136091e+01   1.9296773410e+01    0.8578186    0.4192106  83.23  0.003425758    2.934    0.659
        73 -11.5722     19.4825     59.4449   1.2113401731e+02   6.1772293452e+01    0.2978735    0.2051703 -33.78   0.00126048    1.178    0.151
        74 -11.7411     10.2627     58.6143   1.2444970115e+02   6.2580590423e+01     0.462123    0.3189256  59.28  0.002465797    2.601    0.616
        75  -9.7369     73.0000     58.9889   1.0147092366e+02   5.5581142131e+01    0.2168934   0.07046069 -41.92 0.0008070672    2.975    0.664
        76 -11.5772    149.5792     52.4047   7.8707872175e+01   4.0947165449e+01     0.299989    0.2296759  61.97 0.0008895288    1.237    0.192
        77  -9.4126    205.7682     46.9829   6.7807945011e+01   2.8198241128e+01    0.1612457    0.1101496 -40.50 0.0002228861    1.504    0.335
        78 -10.3709     82.4082     47.2266   9.4421209909e+01   5.5901438161e+01    0.1764281    0.1193568 -43.25 0.0007194226    1.659    0.397
        79 -10.4846    156.8879     44.9787   7.5134389844e+01   4.0252720912e+01    0.2425716    0.1839053  60.14 0.0005062396    1.204    0.169
        80 -11.1707      7.3399     43.2774   1.2135717292e+02   6.5553924689e+01    0.4235405    0.2429331  36.03  0.002603452    2.417    0.586
        81 -11.5434     71.0300     42.5471   9.6493859329e+01   5.8507105359e+01    0.4792902    0.2603719  51.47   0.00229052    2.452    0.592
        82 -12.1068     46.9149     36.5807   1.0300773309e+02   6.2866183567e+01    0.3833413    0.3032899 -30.92  0.002428116    1.271    0.213
        83 -12.1436     42.1496     37.1511   1.0506244335e+02   6.3369768249e+01    0.5974866    0.3218964   5.84  0.002825273    2.479    0.597
        84 -10.4095     83.2585     38.3865   9.1042499227e+01   5.7015027561e+01    0.1776828    0.1168312  50.54 0.0009561163    1.663    0.399
        85 -10.8679    119.5146     34.1543   7.9724071244e+01   5.0286672633e+01    0.2502421    0.2498317  60.78 0.0008817611    1.141    0.123
        86 -11.0332    104.4522     30.3549   8.2174126785e+01   5.3943863286e+01    0.5024711    0.1651019  51.30  0.001980719    2.669    0.625
        87 -10.5134      8.0004    240.5079   1.4798146445e+02   2.3077048604e+01    0.1503176   0.09176388  47.82 0.0006031898    1.561    0.359
        88 -11.0945    239.7662     20.6946   5.8304911660e+01   2.3975525815e+01    0.2417143     0.185835  79.79 0.0005835132    1.218    0.179
        89 -10.0366    134.2296     18.1639   7.1536875263e+01   4.8758948865e+01    0.1709315    0.1430688  89.06 0.0004359535    1.319    0.242
        90 -10.6537      6.1575    235.6364   1.4800471711e+02   2.4229250624e+01    0.1842025    0.1102768  82.84 0.0005354416    1.261    0.207
        91  -9.8022     88.3977     17.2381   8.1802405340e+01   5.8572993345e+01    0.1569806    0.1112091 -33.79 0.0006034945    1.630    0.387
        92  -9.6254      5.3945     14.4759   1.1229668873e+02   7.0224796443e+01    0.1064027   0.07494767 -19.63 8.235013e-05    1.024    0.023
        93 -10.6254     12.5827    227.4601   1.4639658988e+02   2.5220326862e+01    0.1984228    0.1417053  83.46 0.0005600373    1.043    0.041
        94 -10.1428    104.4703    224.9824   1.2825996785e+02   1.3285851367e+01     0.194976    0.1287958 -64.93  0.001002169    1.593    0.372
        95 -11.0153    149.7996    221.9250   1.1823019885e+02   5.9950900015e+00    0.5612725    0.2462523 -49.68  0.002346644    2.506    0.601
        96 -12.1853    226.5475    220.3224   1.0242625760e+02  -7.1419133353e+00    0.3555944    0.2222961 -21.12  0.001866794    1.725    0.420
