#   1 NUMBER                 Running object number                                     
#   2 MAG_AUTO               Kron-like elliptical aperture magnitude                    [mag]
#   3 X_IMAGE                Object position along x                                    [pixel]
#   4 Y_IMAGE                Object position along y                                    [pixel]
#   5 X_WORLD                Barycenter position along world x axis                     [deg]
#   6 Y_WORLD                Barycenter position along world y axis                     [deg]
#   7 A_WORLD                Profile RMS along major axis (world units)                 [deg]
#   8 B_WORLD                Profile RMS along minor axis (world units)                 [deg]
#   9 THETA_WORLD            Position angle (CCW/world-x)                               [deg]
#  10 FWHM_WORLD             FWHM assuming a gaussian core                              [deg]
#  11 ELONGATION             A_IMAGE/B_IMAGE                                           
#  12 ELLIPTICITY            1 - B_IMAGE/A_IMAGE                                       
         1 -14.9375    170.2447     45.5511   6.7582363249e+01   3.7002882180e+01     1.467476     1.140776  -1.72  0.004176709    1.430    0.301
         2 -15.1507    188.3886     13.5298   5.3894260035e+01   3.6201486552e+01     1.943206       1.4188  70.09  0.005312604    1.383    0.277
         3 -11.5501     97.9222    248.6822   1.2211935936e+02   1.4895256779e+01     0.159905    0.1016767  54.90 0.0005393186    1.129    0.114
         4 -14.1862    179.4550    246.3984   1.0925297269e+02   3.6777012281e+00    0.6125094    0.4383813  36.97  0.004722675    1.075    0.069
         5 -10.9205    186.2278    250.4255   1.0867844578e+02   2.2687860826e+00     0.192749    0.1262457  46.70 0.0006878796    1.270    0.212
         6 -13.7520    190.9759    248.2787   1.0770322951e+02   1.7999609117e+00    0.5244356    0.3475781  57.91  0.003678474    1.821    0.451
         7 -10.5839    126.9616    250.7301   1.1782503272e+02   1.0707615338e+01     0.114278   0.06728996  45.52 0.0002965055    1.258    0.205
         8 -19.3519     65.1617    156.7450   1.1943083894e+02   3.5097378573e+01     15.55113     5.324101 -70.51   0.06596419    2.953    0.661
         9 -10.7419    134.1386    196.7127   1.1075855430e+02   1.7360462032e+01    0.1843056    0.1532034  86.67 0.0004052351    1.305    0.234
        10 -10.8068    134.6783    242.8090   1.1588327596e+02   1.0626407842e+01    0.3310671    0.1264269 -47.11  0.001797755    3.731    0.732
        11 -14.1024    197.5733    245.9442   1.0641419684e+02   1.0757481371e+00    0.4797299    0.3892332  41.28  0.003936305    1.205    0.170
        12  99.0000     12.0254    190.6265   1.3242077600e+02   3.4193842386e+01    0.2879312    0.0769492 -84.44  0.001340387    3.505    0.715
        13 -11.1057    141.5984    188.2392   1.0821320257e+02   1.7508349447e+01    0.1534331    0.1172372 -39.38 0.0005964543    1.620    0.383
        14 -10.7062    138.9836    243.2363   1.1524527706e+02   9.9539634143e+00    0.1733051    0.1370212 -63.28 0.0005484365    1.647    0.393
        15 -10.3583     97.3513    241.5340   1.2165640483e+02   1.5959805806e+01    0.2456679    0.1208734 -66.15  0.001614667    2.447    0.591
        16 -11.4923    164.7107    187.0086   1.0374295639e+02   1.3737084490e+01    0.1651793    0.1570018  50.53 0.0006200114    1.109    0.098
        17 -10.9091    238.5160    184.9670   9.0687637332e+01   1.1898607368e+00      0.16771    0.1099498 -21.49 0.0006244555    1.545    0.353
        18 -12.3154     28.2950    183.8774   1.2915717634e+02   3.3886555093e+01    0.1851715    0.1506633  55.29  0.001015276    1.349    0.259
        19 -11.8714    125.2734    238.3517   1.1695012107e+02   1.2555810288e+01    0.2546865    0.1241592 -57.85  0.001491005    2.621    0.618
        20 -10.3768    150.9247    239.5564   1.1297093769e+02   8.6743545868e+00    0.1422864    0.1237804  49.61 0.0004931192    1.160    0.138
        21 -11.2169      4.4276    180.3232   1.3325704063e+02   3.6772448004e+01    0.1193833    0.1095562  87.75  0.001051034    1.518    0.341
        22 -13.1517    188.3665    175.9188   9.7569127262e+01   1.1165670899e+01     0.668442     0.404538 -54.08  0.001901658    2.310    0.567
        23 -11.5530    187.0168    166.0359   9.6005859154e+01   1.2895054070e+01    0.3713237     0.257082 -52.00  0.001479334    1.793    0.442
        24 -14.1131    102.7522    240.7850   1.2074700348e+02   1.5343988215e+01    0.5716802    0.2022489 -56.56  0.003180845    3.542    0.718
        25 -10.8651    167.0956    176.4849   1.0158593754e+02   1.4952055528e+01    0.1913604     0.113434  45.35 0.0004139748    1.498    0.333
        26  -9.9263      9.9773    175.0291   1.3198972313e+02   3.7299176137e+01    0.1431153   0.09967771  69.00 0.0006427308    1.115    0.103
        27 -12.2025    174.2315    182.8969   1.0133774661e+02   1.2681220606e+01    0.2561195    0.1525792 -46.25  0.001381213    1.955    0.488
        28 -11.3412    194.6725    172.5318   9.5821136831e+01   1.0501297978e+01    0.2418061    0.2227569  11.91 0.0007709953    1.081    0.075
        29 -10.0607    207.5662    171.3195   9.3315320128e+01   8.3021458747e+00    0.2332743    0.1067159 -49.13  0.000940084    3.439    0.709
        30 -11.0389    160.3457    237.6073   1.1125256933e+02   7.5144671393e+00    0.1587768    0.1319255 -42.81 0.0005038293    1.596    0.373
        31 -13.3426    196.6400    235.0325   1.0518192175e+02   2.3402645448e+00    0.2801431    0.2079925 -43.49  0.001929187    1.845    0.458
        32 -10.4166    135.7044    237.0033   1.1514256808e+02   1.1232636908e+01    0.1383881    0.1139058  61.57 0.0005252938    1.158    0.136
        33  -9.8954    159.3335    248.2890   1.1257829069e+02   6.4015783563e+00    0.1010809   0.06803858  26.87  0.000701862    1.628    0.386
        34 -11.8516    139.6361    161.9416   1.0447231954e+02   2.2411822004e+01     0.227497     0.169834  38.12 0.0006169495    1.346    0.257
        35 -12.0840    129.6489    157.3729   1.0574953184e+02   2.5048083932e+01    0.2734766    0.2042486  69.58 0.0006244573    1.426    0.299
        36 -10.8337     16.5703    156.2702   1.2957123749e+02   4.0436696355e+01    0.1653234    0.1481894  23.77 0.0008517142    1.691    0.409
        37 -11.1086    188.5076    154.4814   9.3477535863e+01   1.4406242774e+01    0.2766921    0.2090912  52.34  0.001041282    1.354    0.261
        38  -9.8598      1.5438    153.3756   1.3241507777e+02   4.2268836583e+01    0.1038772   0.07700646  85.85 0.0001603135    1.089    0.082
        39 -10.4557    191.5503    151.5416   9.2310407603e+01   1.4271419549e+01    0.2271601    0.1243511 -48.27 0.0007971224    2.209    0.547
        40 -11.7235    161.7718    149.4727   9.7673194812e+01   2.0501284543e+01    0.2569862    0.2103639 -89.64 0.0007967847    1.532    0.347
        41 -11.2653    174.4283    148.9071   9.5043159882e+01   1.8102270562e+01    0.2766925    0.2355787  76.46 0.0008130973    1.410    0.291
        42 -12.4355    160.6353    128.0741   9.3359642557e+01   2.4642787076e+01    0.4052693    0.3228229 -63.99  0.001810668    1.444    0.308
        43 -10.9115    231.2609    113.7696   7.6734599427e+01   1.1818414290e+01    0.2499299    0.2173328  23.79 0.0007289802    1.129    0.114
        44 -12.0141    167.9582    112.8199   8.8168246712e+01   2.5914932453e+01    0.4226052    0.3279327 -63.20  0.002067797    1.533    0.348
        45 -13.2943    117.6066    109.4712   9.8854943976e+01   3.7068239283e+01    0.4238159    0.3306409  77.59  0.001729638    1.493    0.330
        46 -11.0781    205.5219    110.1503   8.0198205675e+01   1.7967273999e+01    0.3243847    0.2059744  40.25  0.001012852    1.611    0.379
        47 -12.8987    189.9258    229.3586   1.0550471951e+02   3.9844400139e+00    0.2339216    0.1551132 -32.64  0.001611763    1.911    0.477
        48 -10.9289    107.4946    229.1364   1.1897480778e+02   1.6364366347e+01    0.3802455    0.1456032  35.23   0.00178021    3.235    0.691
        49 -10.9488    126.5531    227.8955   1.1570740025e+02   1.3813485969e+01    0.2732353    0.1770269  50.27  0.001155812    1.192    0.161
        50 -10.8459    140.9917    227.7763   1.1330272432e+02   1.1684545841e+01    0.1539138    0.1167248  49.45 0.0004088148    1.020    0.020
        51 -10.8972    163.0282     85.1873   8.1695910182e+01   3.2169460281e+01     0.258117    0.1860976 -87.67  0.001085811    2.056    0.514
        52 -10.6226    147.7361     82.2160   8.4203724388e+01   3.6303804519e+01    0.2130669    0.1820331  10.79 0.0009552927    1.345    0.256
        53 -10.9029     91.0600     78.9558   9.8062006000e+01   4.8537665488e+01     0.212084    0.1926878 -50.68 0.0004070911    1.028    0.027
        54 -10.6905    127.5712    223.2479   1.1505180838e+02   1.4327113861e+01    0.2503727    0.1586788 -70.94  0.001632417    2.024    0.506
        55 -14.3206    157.4113     60.1095   7.5037347632e+01   3.7975819126e+01      1.40163     1.046015  44.39  0.002743447    1.392    0.282
        56 -10.6580    218.4200    220.7369   9.9769340651e+01   5.2448956316e-01    0.1824943    0.1043106 -37.84  0.001135158    2.223    0.550
        57 -13.0928    174.7217     38.1786   6.4273367282e+01   3.6876769014e+01    0.4532092    0.4083263  -5.83 0.0008287184    1.120    0.107
        58 -10.9858    113.1341    206.8486   1.1577529933e+02   1.8985923853e+01     0.187283    0.1340341  52.88 0.0005701319    1.134    0.118
        59 -10.7948     13.4840     59.8407   1.1896893952e+02   6.2026782571e+01    0.1746475    0.1569345 -68.33  0.000409355    1.192    0.161
        60 -10.2948     11.4456    206.0520   1.3322124774e+02   3.1506149210e+01    0.1776395    0.1199789  44.37  0.001431673    1.566    0.361
