#   1 NUMBER                 Running object number                                     
#   2 MAG_AUTO               Kron-like elliptical aperture magnitude                    [mag]
#   3 X_IMAGE                Object position along x                                    [pixel]
#   4 Y_IMAGE                Object position along y                                    [pixel]
#   5 X_WORLD                Barycenter position along world x axis                     [deg]
#   6 Y_WORLD                Barycenter position along world y axis                     [deg]
#   7 A_WORLD                Profile RMS along major axis (world units)                 [deg]
#   8 B_WORLD                Profile RMS along minor axis (world units)                 [deg]
#   9 THETA_WORLD            Position angle (CCW/world-x)                               [deg]
#  10 FWHM_WORLD             FWHM assuming a gaussian core                              [deg]
#  11 ELONGATION             A_IMAGE/B_IMAGE                                           
#  12 ELLIPTICITY            1 - B_IMAGE/A_IMAGE                                       
         1 -12.9723    248.3268    101.2674   7.6877406932e+01   9.6077918275e+00     1.132693    0.5907772 -31.31  0.004918763    2.062    0.515
         2 -13.7912    244.7059    157.8466   8.9921384628e+01   3.3086134489e-01      2.67339    0.8594733 -46.32  0.008945889    3.420    0.708
         3 -13.4277    193.4545     30.8452   6.7755447804e+01   3.3210846483e+01     1.544283      1.20081  35.33   0.00859252    1.615    0.381
         4 -13.5320    204.2823     17.3428   6.3112874082e+01   3.2190771562e+01     1.090713    0.7558067 -86.63  0.004283743    1.343    0.256
         5 -13.3701    209.4395     10.8738   6.1055728935e+01   3.1682418043e+01    0.8327758    0.6828371  33.96  0.001440673    1.659    0.397
         6 -12.0393      2.1588     14.3079   1.1553620088e+02   7.0581224556e+01    0.8189287    0.1380458 -46.90  0.003130719    4.964    0.799
         7 -12.6438      2.2472      5.0113   1.1158753222e+02   7.1845043636e+01    0.5623568    0.3897788 -32.22  0.004274449    1.335    0.251
         8 -11.4135    190.2809     15.7403   6.4356779061e+01   3.5725593002e+01     0.273581     0.234826 -72.95 0.0009007289    1.124    0.111
         9 -11.4333    225.9706      5.4238   5.8303426570e+01   2.8455582251e+01     0.348314    0.1926418  52.69  0.001840777    2.121    0.529
        10 -11.8730     89.9815    239.0953   1.3534835514e+02   1.3443820814e+01    0.7094702    0.3871897  76.84  0.002463495    2.266    0.559
        11 -10.2311    184.1364    250.4149   1.1883345052e+02  -4.2716659833e+00     0.222441    0.1297516  36.21 0.0003882832    1.465    0.317
        12 -11.0130    116.3816    239.0850   1.3029684613e+02   9.2028843039e+00    0.5278438     0.285334 -40.87  0.002228745    2.905    0.656
        13 -11.5622    149.8446    248.5447   1.2508966688e+02   1.8516490372e+00    0.4622497    0.3792069  78.60  0.002922595    1.398    0.285
        14 -11.6122    133.7372    249.2652   1.2825476194e+02   4.4627479816e+00    0.5912113    0.3905794  39.70  0.003412907    1.371    0.270
        15 -11.3745     99.5464    247.6702   1.3449198718e+02   1.0335560716e+01    0.6967162    0.3115754  50.54  0.003459457    1.873    0.466
        16 -10.5947    126.6380    248.6494   1.2952350895e+02   5.7591888555e+00    0.3789276    0.2587696  54.68  0.001827929    1.251    0.201
        17 -13.0479    124.7273    241.6860   1.2901126946e+02   7.3241095481e+00     1.469841    0.9800898  19.97  0.007362866    2.389    0.581
        18 -10.8214    115.1787    250.3140   1.3187997705e+02   7.3537734672e+00    0.6680045    0.1696329  42.53  0.002483465    3.262    0.693
        19 -11.5541    109.2639    246.9734   1.3260090209e+02   8.9143041026e+00    0.5292838    0.3524765 -69.16  0.002345917    1.662    0.398
        20 -11.8460    135.3596    241.1916   1.2688525633e+02   5.6037935584e+00    0.3797974    0.3325448  26.37  0.001698836    1.321    0.243
        21 -11.3504    135.3824    236.5260   1.2624561983e+02   6.4420716849e+00    0.4124033    0.3059766   0.51  0.001425446    2.338    0.572
        22 -11.6868    134.0131    232.5289   1.2596112684e+02   7.4173821131e+00    0.3430792    0.2740214 -48.14  0.000388589    1.479    0.324
        23  -9.6086     82.7021    238.4038   1.3664162836e+02   1.4686070586e+01     0.262826    0.1346529  43.60  0.001381675    1.763    0.433
        24  -9.2511     83.8196    242.1773   1.3682367423e+02   1.3789168721e+01    0.2236526    0.1663418 -59.67   0.00111284    1.597    0.374
        25 -11.2661     81.1613    246.0846   1.3770346775e+02   1.3442901809e+01    0.6552177    0.3329723  76.74  0.003153829    2.486    0.598
        26  -9.9663     89.0838    250.5831   1.3671419566e+02   1.1415543740e+01    0.3068608    0.1057763  40.55 0.0003773133    2.668    0.625
        27 -10.6058     89.1155    247.2425   1.3636882428e+02   1.2029631914e+01    0.4455396    0.2241844  46.40  0.002230159    1.675    0.403
        28  -9.0636     74.7892    250.5546   1.3927219927e+02   1.3537205760e+01    0.2221933    0.1036231  40.29  0.001148785    2.078    0.519
        29 -11.2914     56.4829    195.4511   1.3712603841e+02   2.7498794507e+01    0.6364573    0.5029407 -44.37  0.003839358    1.703    0.413
        30 -12.3112     62.2306    245.7370   1.4105985597e+02   1.6216246536e+01     1.133731    0.5530779  33.88  0.005691675    2.660    0.624
        31 -14.9559      3.3687    193.7988   1.4756575238e+02   3.3695771038e+01     7.338624    0.3864714 -69.22   0.02290377    5.891    0.830
        32 -14.0758      9.5294    209.8443   1.4759227602e+02   2.9730910933e+01      2.52339     0.718652 -68.29   0.01191468    2.760    0.638
        33 -14.2802     45.6746    218.7437   1.4167267821e+02   2.3823261467e+01     1.665007    0.8015984  47.87  0.009053273    1.870    0.465
        34 -11.9265    103.7091    238.4508   1.3266381935e+02   1.1401183113e+01    0.6898397    0.5501215   2.45  0.003898344    2.239    0.553
        35 -11.5275     99.3533    223.4968   1.3170177421e+02   1.5058178481e+01    0.4641733    0.3159453  67.26 -0.0004881098    1.401    0.286
        36 -11.1352     98.4727    231.7909   1.3288985934e+02   1.3535923682e+01    0.3568307    0.2912245 -81.56 0.0007551636    1.226    0.184
        37 -11.0344    112.7240    230.1030   1.2987295962e+02   1.1530741618e+01    0.3941736    0.2523734  40.88  0.001045343    1.490    0.329
        38 -11.2162    105.3151    228.8371   1.3118258750e+02   1.3010124689e+01    0.5129132    0.2457598  45.57  0.002027217    1.825    0.452
        39 -10.9366    164.4809    241.7407   1.2129584840e+02   4.5728946080e-01    0.3612376    0.2426747  72.64  0.001821921    2.231    0.552
        40 -11.1333    172.9427    239.7542   1.1935081917e+02  -6.8984111792e-01    0.3629906    0.2426381 -58.69  0.001976368    1.952    0.488
        41 -11.6248    122.2764    232.9598   1.2835229601e+02   9.3634289328e+00    0.4258665    0.3258263 -59.46  0.002247488    1.461    0.316
        42 -13.9854      5.9818    245.3771   1.5036650446e+02   2.3055431050e+01     1.228012    0.6640999  86.23  0.008406254    1.409    0.290
        43 -11.0560    156.6879    232.2372   1.2139676841e+02   3.4600556465e+00    0.3846269    0.2266913 -47.19  0.001620018    1.947    0.486
        44 -10.3191    165.5389    234.9500   1.2005886659e+02   1.4142981391e+00    0.2104152    0.1737535  22.43  0.001196514    1.270    0.212
        45  -9.5350     77.8986    233.0962   1.3699163771e+02   1.6448800306e+01    0.2827428    0.1710036 -86.77  0.001239261    1.707    0.414
        46  -9.0575     62.9036    233.0496   1.3978956642e+02   1.8605616538e+01    0.1485322    0.1446775 -72.53 0.0003709965    1.513    0.339
        47 -10.7061    141.9514    230.1680   1.2403495161e+02   6.4587903410e+00    0.3686904    0.2374328 -38.12  0.001255995    2.031    0.508
        48  -9.0833     92.3860    232.3008   1.3413204690e+02   1.4399337535e+01     0.166434    0.1112593 -81.72 0.0009398797    1.543    0.352
        49 -12.2077    245.6103    227.9046   1.0367178447e+02  -1.0946617635e+01    0.3982224    0.3284238  20.33  0.002669217    1.139    0.122
        50 -10.8597     84.6890    229.5764   1.3531320466e+02   1.6134236120e+01    0.4261888    0.2606696  48.05  0.002395184    1.452    0.311
        51 -10.8643     77.4831    220.9430   1.3575538229e+02   1.8991712602e+01    0.3029596    0.2035017  66.33 0.0004718406    1.332    0.249
        52 -10.6626     68.0366    214.6450   1.3692765295e+02   2.1696938096e+01    0.2836439    0.1876379 -89.78 0.0008314468    1.418    0.295
        53 -10.4245     80.0382    227.4862   1.3598212914e+02   1.7260955369e+01    0.3050306    0.2476929 -20.31 0.0005641614    2.256    0.557
        54 -10.1438     78.9672    224.5526   1.3586696853e+02   1.8021977338e+01    0.2397521    0.2272714 -28.61 0.0007068231    1.573    0.364
        55 -12.7502     13.8060    238.7577   1.4874915286e+02   2.3489787423e+01    0.5698446    0.3145089  63.07  0.001544328    1.416    0.294
        56  -9.0659    180.0188    228.5146   1.1616648310e+02  -7.0423931002e-02    0.2488477    0.1656707  86.68  0.001033334    3.368    0.703
        57  -8.8475    190.6867    228.2819   1.1402830385e+02  -1.9269046327e+00    0.1246767    0.1008665  65.76 0.0001978278    1.573    0.364
        58 -10.1822    166.0581    227.1377   1.1872404090e+02   2.6795596502e+00    0.2232442    0.2010097  84.95 0.0009032709    1.285    0.222
        59  -9.9045    197.6848    226.7123   1.1239493360e+02  -2.9018863029e+00    0.2560602    0.2148523  74.18   0.00125499    1.653    0.395
        60 -10.5182    132.2080    224.7803   1.2521862736e+02   9.2058283983e+00    0.2615419     0.240622 -30.03   0.00135031    1.363    0.266
        61 -10.0108    129.1917    221.0100   1.2528555270e+02   1.0476977466e+01    0.2769001    0.2096131  84.60 0.0007242761    1.492    0.330
        62  -9.2302    147.1134    225.1742   1.2224373677e+02   6.4648787834e+00    0.1920171     0.171336  27.00  0.000324345    1.214    0.176
        63 -10.7412    117.3247    224.3379   1.2818255157e+02   1.1886947122e+01    0.2371639    0.2139922  66.90 0.0002727332    1.072    0.067
        64 -10.7945    160.3641    223.7402   1.1932621516e+02   4.3240305588e+00    0.3319997    0.2211199  31.70 0.0009136065    1.531    0.347
        65 -11.4059    142.0098    221.7889   1.2276737703e+02   8.0284493995e+00    0.4111482    0.3452911  34.71 0.0003969787    1.217    0.178
        66 -10.9964    137.3337    214.5558   1.2261536028e+02   1.0294056464e+01     0.532536    0.4314643  39.50  0.002126703    1.209    0.173
        67 -10.7631     73.0239    209.9922   1.3539333554e+02   2.1979549152e+01    0.4460872    0.3341314  36.29  0.002562055    1.572    0.364
        68 -10.3486    110.9519    221.1618   1.2904794998e+02   1.3610380375e+01    0.3700614    0.2011891 -56.34  0.001172295    1.973    0.493
        69  -9.5693    104.8426    218.7964   1.2998039810e+02   1.5120054500e+01    0.1839467     0.166877  64.46 0.0003115804    1.123    0.109
        70 -10.6803     92.6021    225.9157   1.3334345554e+02   1.5646729548e+01    0.3945461    0.1983867  53.08  0.001724306    1.789    0.441
        71  -9.0231     23.4772    217.5571   1.4565784995e+02   2.6681156296e+01    0.1576931   0.08813555 -69.40 0.0006645281    1.624    0.384
        72 -10.6274     20.7845    214.8589   1.4593793338e+02   2.7533069759e+01    0.2595291    0.1903622  35.55   0.00157099    1.773    0.436
        73  -9.2133     24.6676    212.6642   1.4506127733e+02   2.7572017224e+01     0.177628    0.1222651 -69.55 0.0005364124    1.422    0.297
        74  -8.6818    119.2235    217.0390   1.2676917124e+02   1.3028185492e+01    0.1671693    0.1100493 -59.32 0.0003752906    1.621    0.383
        75  -9.6595     88.1601    212.9183   1.3264568635e+02   1.9055935981e+01    0.2466191    0.1612891 -85.67 0.0007485701    1.593    0.372
        76 -10.7650     70.8598    219.8496   1.3693826019e+02   2.0190548189e+01    0.4149495    0.2658545 -70.61   0.00151861    1.496    0.332
        77 -10.1610    101.9865    212.0152   1.2965721511e+02   1.7014084815e+01      0.39867      0.20542  64.42  0.001693149    2.397    0.583
        78 -10.1402    107.9033    208.7630   1.2795547104e+02   1.6709546898e+01    0.3857867    0.3088667 -18.11  0.002041394    1.999    0.500
        79  -9.6611    112.8852    208.3465   1.2683643508e+02   1.5940947491e+01    0.2505798    0.2290766 -51.88  0.001144781    1.288    0.224
        80  -9.1548    134.7691    208.0361   1.2212088475e+02   1.2084503944e+01    0.2174308    0.1629439 -21.52 0.0007917013    2.006    0.502
        81 -12.1762     93.4703    202.6495   1.3017111516e+02   2.0436934919e+01    0.5762646    0.4591663 -72.56  0.003354731    1.219    0.179
        82  -9.6636    102.9765    202.7670   1.2814297268e+02   1.8839500683e+01    0.3944173    0.2370224  57.85  0.001693792    1.645    0.392
        83  -9.8190     98.9435    197.1019   1.2818980970e+02   2.0766100281e+01    0.4641869    0.2683863  72.85  0.001430995    2.269    0.559
        84  -9.7408    102.5608    195.5520   1.2716155271e+02   2.0503140151e+01    0.2182467    0.1665116 -72.27 0.0001715182    1.287    0.223
        85 -12.9405     54.9796    208.3322   1.3885172522e+02   2.4848217270e+01     1.145631    0.7595976  70.36  0.006779401    1.348    0.258
        86 -14.2797     30.7606    246.0209   1.4644670427e+02   2.0189117038e+01     1.923201     1.099053  37.79   0.01208413    2.046    0.511
        87 -11.2647    247.0103    205.5325   9.9248875401e+01  -7.9228070235e+00    0.4020345    0.2327587  14.30  0.001919129    2.226    0.551
        88  -9.0774    125.7905    205.7943   1.2368571166e+02   1.4190701495e+01    0.1936834    0.1521715  73.64 0.0004574222    1.309    0.236
        89 -11.1097     96.8861    239.8642   1.3412789211e+02   1.2219363272e+01    0.3763191    0.2780992 -66.04  0.001550179    1.470    0.320
        90  -9.1984    175.0265    205.4531   1.1317288386e+02   4.9823154768e+00    0.2047781    0.1300751  42.18 1.285421e-05    1.462    0.316
        91  -9.0434    149.2650    204.3387   1.1840714818e+02   1.0125434691e+01      0.29001    0.1690515 -20.95 0.0009708495    4.193    0.761
        92  -8.4768    178.2749    204.6634   1.1235557922e+02   4.5102311808e+00    0.1359411    0.1113332  85.03 0.0003370873    1.607    0.378
        93  -8.6874    167.0773    203.1628   1.1441805272e+02   6.9468343584e+00    0.1858377    0.1580403  66.75 -0.0006383859    1.280    0.219
        94  -8.6457     76.3445    202.6976   1.3381928363e+02   2.3088348949e+01    0.1417476   0.08740257  71.00 0.0005504239    1.683    0.406
        95  -9.8354     64.1817    202.0742   1.3628716329e+02   2.4976274700e+01    0.2537922    0.1820493  30.13 0.0004901824    1.812    0.448
        96 -11.3233     32.7769    201.8183   1.4259715119e+02   2.8991117795e+01    0.2030708    0.1603973  88.93 0.0002752858    1.064    0.060
        97 -10.2849    115.1647    200.1811   1.2510629903e+02   1.7295691521e+01    0.2422539    0.2201329 -59.41 0.0002524813    1.211    0.174
        98  -9.7671    120.0278    199.3441   1.2391029374e+02   1.6608762103e+01    0.2541297    0.2146178  79.25 0.0002206618    1.155    0.134
        99  -9.7007    197.0310    200.5132   1.0774616878e+02   1.7035780547e+00    0.2166975    0.1310119  40.61 0.0005857134    1.571    0.363
       100  -9.0726    183.0675    200.3256   1.1055647384e+02   4.4058836355e+00    0.1951161    0.1679021  41.96  0.000383005    1.106    0.096
       101  -9.0525    132.9942    202.7458   1.2163978041e+02   1.3511226984e+01    0.1961636    0.1781704  65.78 0.0004330522    1.012    0.012
       102  -9.9415     44.1341    199.3120   1.4009470743e+02   2.8205143398e+01    0.3180105    0.2224315  37.18  0.001422975    1.682    0.406
       103  -9.5878     86.0898    197.0568   1.3099031870e+02   2.2857041023e+01    0.4348613     0.175879 -63.56  0.001420777    2.447    0.591
       104  -9.2648     84.8715    192.4608   1.3061506569e+02   2.4085531978e+01    0.1909852    0.1591159  70.46 0.0002904553    1.086    0.079
       105  -9.4263    134.0849    197.8401   1.2058030562e+02   1.4344911708e+01    0.2185602    0.1828192  73.60 0.0004294625    1.214    0.176
       106 -11.6143     64.9874    194.9732   1.3526713420e+02   2.6453361508e+01    0.3969521    0.2764564 -49.67  0.001728064    1.728    0.421
       107 -10.8059     76.4439    187.0365   1.3172338934e+02   2.6613671090e+01    0.4164598    0.2322139 -76.22  0.001542502    1.862    0.463
       108 -11.7980     70.5017    187.4501   1.3310100308e+02   2.7388456700e+01      0.33363    0.2905602 -32.37 0.0008088915    1.596    0.373
       109  -9.3124    113.4499    195.6577   1.2476970182e+02   1.8590353574e+01    0.3053528    0.1754875  67.01  0.001284675    2.234    0.552
       110  -9.1377    113.1483    191.8465   1.2422287542e+02   1.9489826355e+01    0.2064395    0.1759988 -19.09 0.0002649727    1.628    0.386
       111  -8.7618    107.6419    196.2906   1.2615302163e+02   1.9467718723e+01    0.1494485   0.09926146  71.07  0.000702764    1.688    0.408
       112 -11.9966     38.2469    194.3663   1.4078586785e+02   3.0005089931e+01    0.3501175    0.1939736 -68.23 0.0009890324    1.567    0.362
       113  -9.8137     40.8914    187.8864   1.3955880619e+02   3.1151443477e+01    0.2558392    0.1611398 -72.63  0.001479367    1.349    0.259
       114 -10.8324    249.1288    194.4638   9.6713323640e+01  -6.5570394744e+00    0.2934965    0.2393528  41.38  0.001786315    1.394    0.283
       115  -8.9913     31.8163    195.2740   1.4217440668e+02   3.0535089982e+01    0.3138314   0.08208396  48.15  0.001254627    3.524    0.716
       116 -12.3802     29.6885    227.9137   1.4533829517e+02   2.3863018605e+01     1.176444    0.3322635  42.48  0.003745111    2.995    0.666
       117 -10.0361     20.0074    191.3171   1.4416140373e+02   3.2658765235e+01     0.217095    0.1306744  82.46  0.001192673    1.434    0.303
       118  -9.3726    159.8739    194.2290   1.1431308207e+02   1.0129801942e+01     0.214376    0.1897754  63.85 0.0004141744    1.149    0.129
       119  -9.1922    133.3935    194.2896   1.2012309452e+02   1.5235312991e+01    0.2447288    0.1682034  33.47 0.0008200051    1.589    0.371
       120 -10.0476    120.4117    192.3804   1.2268585296e+02   1.8062455295e+01     0.403618    0.2838448 -45.39  0.001574787    1.604    0.377
       121  -9.1704    118.0077    189.9920   1.2282488752e+02   1.9030005273e+01    0.1943286    0.1799423  83.81            0    1.034    0.033
       122  -9.6772     72.9453    193.0393   1.3330669798e+02   2.5756505728e+01    0.1978729    0.1658115  82.28 0.0003153742    1.019    0.019
       123  -9.9521    191.4833    191.4319   1.0710173473e+02   4.4505664672e+00    0.2439413    0.2325653   7.21 0.0006006538    1.025    0.024
       124  -9.2435    135.2586    190.0752   1.1896774339e+02   1.5793071837e+01    0.1958417    0.1811181 -88.09 0.0003490194    1.072    0.067
       125  -9.8097     32.0572    189.9370   1.4160610269e+02   3.1694758101e+01     0.332846     0.150469  41.91   0.00172192    2.223    0.550
       126 -11.0378    249.7901    187.6369   9.5235510489e+01  -5.5823769690e+00    0.3719267    0.2465302 -22.07  0.002001828    1.467    0.318
       127  -9.8222     29.9402    183.7134   1.4141774959e+02   3.3322635805e+01    0.3315538    0.2004913 -74.44  0.001943626    1.356    0.262
       128  -9.7227    143.2868    184.6806   1.1618068608e+02   1.5408921479e+01     0.335658    0.2060752 -55.87  0.001505052    1.718    0.418
       129  -9.9723    140.2379    183.0755   1.1656625937e+02   1.6357574703e+01    0.3153828    0.2464468  17.14 0.0003650252    1.664    0.399
       130 -10.1669     24.7585    184.2795   1.4255008378e+02   3.3738233232e+01    0.2303182    0.1734813  50.49 0.0005882841    1.418    0.295
       131  -9.2500     36.8724    184.4119   1.4003200333e+02   3.2402110482e+01    0.1736231    0.1146624  43.15 0.0002771658    1.627    0.385
       132 -10.6546    236.3699    145.9925   8.8775581857e+01   4.0469578394e+00    0.2746713    0.2213938  44.38 0.0008119704    1.347    0.258
       133 -12.3622    248.3541    171.7240   9.2227257313e+01  -2.7160108075e+00    0.7204024    0.4878201 -27.15  0.003829604    1.389    0.280
       134 -10.4618    169.6669    248.5095   1.2129654154e+02  -1.5316510421e+00    0.3209821    0.2155598  13.87 0.0007941083    2.052    0.513
       135 -12.5016    248.4554    134.1023   8.4139711490e+01   3.8133863521e+00     1.131042    0.6557918 -38.34   0.00539881    1.538    0.350
       136 -13.3135    248.5188    114.2556   7.9740570776e+01   7.3080583956e+00     1.498932    0.8965889 -27.73  0.006912924    1.864    0.464
       137  -9.8309    115.1968    177.3808   1.2128171479e+02   2.2400965845e+01    0.3957664    0.2196842 -66.46  0.001653387    2.041    0.510
       138  -9.1682     47.9793    179.7957   1.3710244857e+02   3.2153718326e+01    0.1543265   0.09991644  39.62 0.0005609177    1.700    0.412
       139 -10.1257     19.9032    179.2240   1.4306667655e+02   3.5357813554e+01     0.184164    0.1603325 -43.57 0.0009135532    1.574    0.365
       140 -11.4065     79.1833    175.4252   1.2939726306e+02   2.8907210806e+01    0.3632505    0.2744782  46.26  0.001160883    1.366    0.268
       141 -11.4412     67.0299    173.3758   1.3192615969e+02   3.1161278568e+01    0.4964598    0.3291785 -56.43  0.001554152    1.471    0.320
       142  -9.7597    121.9172    175.6044   1.1938629219e+02   2.1561412048e+01    0.2459968    0.2005854 -71.75 0.0005648509    1.237    0.192
       143  -9.6988    107.6780    173.0463   1.2227616763e+02   2.4762802173e+01    0.2052239    0.1741973 -74.82 0.0005183077    1.130    0.115
       144  -9.4855     90.9729    172.7136   1.2618584498e+02   2.7691312303e+01    0.2074721    0.1868821 -51.85 0.0006336886    1.236    0.191
       145 -10.4851     89.9201    160.4569   1.2432237798e+02   3.0775919273e+01    0.2880682    0.2145279 -74.67 0.0002928417    1.317    0.241
       146 -10.7149     93.3911    169.1822   1.2501044651e+02   2.8128510329e+01    0.2539237    0.2438921 -24.87 0.0004216249    1.278    0.218
       147  -9.9597     28.4393    172.5226   1.4055628065e+02   3.6026086709e+01    0.3330926     0.237833   4.82  0.001916966    2.404    0.584
       148  -9.6606     28.6450    169.6933   1.4019777521e+02   3.6654691096e+01    0.1853735    0.1647845 -10.91  0.001248506    1.662    0.398
       149 -12.3772     86.6657    166.7682   1.2622004069e+02   2.9794345956e+01    0.7945567    0.5008798 -50.67  0.003848179    1.610    0.379
       150  -8.8155     52.6021    171.1356   1.3495625942e+02   3.3599826551e+01    0.1753248     0.105357 -59.17 0.0003238736    1.530    0.346
       151 -10.7791     44.4985    168.6168   1.3649032306e+02   3.5171008405e+01    0.4378853     0.340591  18.12   0.00261539    1.817    0.450
       152  -9.5753    126.8694    167.1952   1.1660701999e+02   2.2546947651e+01    0.2951848    0.2597276  32.00  0.001551607    1.255    0.203
       153 -10.1283     68.7597    166.9047   1.3055323645e+02   3.2450933962e+01    0.2229673    0.2038355 -78.59 0.0004663486    1.109    0.098
       154  -9.2948     58.6703    167.4390   1.3302948044e+02   3.3695028954e+01    0.1518755    0.1339183  29.32 0.0007733723    1.427    0.299
       155  -8.7757     77.0000    165.9245   1.2841772249e+02   3.1487532454e+01    0.2251474    0.0731201 -60.70 0.0004531624    2.833    0.647
       156  -9.0015     53.7898    164.7911   1.3380639891e+02   3.4946959290e+01    0.1818741     0.132896  86.52 0.0003115162    1.311    0.237
       157 -10.9550    249.6321    150.7911   8.7577473579e+01   6.5122331305e-01    0.5466469     0.302114 -41.15  0.002372588    1.632    0.387
       158  -8.9583    177.5044    163.5298   1.0424659770e+02   1.2895594376e+01    0.1506653    0.1481032  79.55 0.0001458672    1.039    0.038
       159 -10.5416     39.7926    162.0789   1.3673677566e+02   3.7239033736e+01    0.3409222     0.197523  23.16  0.001323859    2.424    0.587
       160  -8.3687    154.5002    161.5264   1.0895152662e+02   1.8215449887e+01    0.1544407    0.1474945  82.02 0.0001823463    1.046    0.044
       161 -10.4752     95.6745    157.9910   1.2244069915e+02   3.0410222343e+01    0.4953094    0.1340551 -58.27  0.001466577    3.777    0.735
       162  -9.0426     78.8472    158.8430   1.2678345697e+02   3.2903052338e+01    0.1940757    0.1527569  86.35 0.0005830974    1.284    0.221
       163  -9.7950     73.5595    159.5101   1.2820537291e+02   3.3528505402e+01    0.2453314    0.2019306 -49.82 6.522076e-05    1.293    0.226
       164  -9.8069     71.9892    156.7188   1.2812829570e+02   3.4425088918e+01    0.3418052    0.2262123  28.75  0.001707926    1.868    0.465
       165  -8.9540     52.4765    158.4669   1.3321026274e+02   3.6610329012e+01    0.1337678    0.1132202 -75.11 0.0004063085    1.042    0.040
       166 -11.0500     35.2781    148.9465   1.3605390932e+02   4.0808555171e+01    0.3008008    0.1851907  23.91  0.001321804    2.148    0.534
       167 -12.5166     31.5285    155.7315   1.3786523116e+02   3.9600879600e+01     0.571609    0.4010127 -66.72  0.002200205    1.193    0.162
       168 -12.6475     23.1173    155.3071   1.3979093147e+02   4.0514950021e+01    0.5841142    0.4383219 -54.30  0.003760524    1.375    0.273
       169  -9.2111    228.3872    155.3174   9.2250652027e+01   3.9192767381e+00     0.197572    0.1279251 -46.40 0.0004927794    1.532    0.347
       170  -8.4672    175.7038    155.2401   1.0279933537e+02   1.5031278459e+01    0.1464874    0.1203531  81.90            0    1.475    0.322
       171 -10.7983     99.4395    151.2303   1.2018841974e+02   3.1380910810e+01     0.473453    0.4241354  37.63  0.002605461    1.231    0.187
       172 -10.1304    113.8502    150.5651   1.1640787022e+02   2.8929648672e+01    0.3085735    0.2550365 -62.24 0.0004459043    1.168    0.144
       173  -9.1184     52.9667    146.0481   1.3117221798e+02   3.9509556248e+01    0.2501495    0.1696108 -82.69 0.0007922665    1.475    0.322
       174 -10.0930     60.2452    150.9714   1.3012273468e+02   3.7414826452e+01    0.3973744    0.2177105  64.94  0.001500192    2.464    0.594
       175 -10.2558     56.0506    150.5151   1.3110756372e+02   3.8061376226e+01    0.3037905    0.2387807  77.82  0.001002807    1.297    0.229
       176 -12.7642     39.3991    228.7332   1.4368287654e+02   2.2542352617e+01    0.4226921    0.3050903 -74.58  0.001070237    1.356    0.263
       177  -9.5442    102.3321    146.1810   1.1842378091e+02   3.2078166662e+01    0.3497235    0.1952626 -39.95  0.001122862    2.103    0.524
       178 -12.7815     67.6089    144.2372   1.2707623184e+02   3.8040330015e+01    0.7720537    0.5536703  89.50  0.003268998    1.548    0.354
       179 -11.4427     72.9615    139.4025   1.2476849532e+02   3.8443064946e+01    0.5063955    0.4062267  65.51  0.002794052    1.354    0.261
       180 -10.9396    133.5211    142.3286   1.0968330202e+02   2.6962240976e+01    0.8958725    0.2643994 -50.98  0.002600058    3.491    0.714
       181 -11.4778     32.8883    141.6858   1.3562041213e+02   4.2755336451e+01     0.251691    0.1955259 -54.19 0.0008167729    1.249    0.200
       182 -11.2313     47.6060    138.4799   1.3132214001e+02   4.1943480237e+01    0.4782823    0.1805523  26.14  0.001863739    3.649    0.726
       183  -9.4485    138.5435    138.5227   1.0756201869e+02   2.6782034097e+01     0.155494     0.150894 -72.86  0.000116941    1.006    0.006
       184 -10.8426     60.3665    137.2948   1.2773402048e+02   4.0671132566e+01    0.2780726    0.2255458  68.31 0.0004320221    1.339    0.253
       185 -11.0271     40.0909    146.8305   1.3455576410e+02   4.0799917785e+01    0.3008977    0.1744195  36.20  0.001600825    1.968    0.492
       186 -11.2454     45.2064    131.4870   1.3077916257e+02   4.3867267313e+01    0.4384122    0.3053176 -86.43  0.002017671    1.532    0.347
       187 -10.1913    110.6757    136.1492   1.1408442550e+02   3.2929499512e+01    0.3805955    0.2922412  14.04    0.0013935    1.754    0.430
       188 -11.5516     33.2042    131.6118   1.3401636889e+02   4.5082961708e+01    0.2890081    0.2189349 -33.42  0.001279208    1.569    0.363
       189 -10.7447     30.2505    126.9777   1.3407107159e+02   4.6441663190e+01    0.1940003    0.1539246 -85.23 0.0004564256    1.219    0.180
       190 -12.8227     12.6301    127.2432   1.3878782390e+02   4.7849864493e+01    0.4943132    0.3802224 -54.46  0.002772628    1.218    0.179
       191 -13.1196     21.2979    121.6859   1.3566534089e+02   4.8441704926e+01    0.5702906     0.464184 -20.37  0.002974952    1.538    0.350
       192  -9.1850     53.7246    181.8551   1.3608767596e+02   3.0959432672e+01    0.2438091    0.1569638  17.30  0.001040356    2.586    0.613
       193  -9.6606    116.5375    128.9794   1.1088360696e+02   3.3476453042e+01    0.3114043    0.2003593   0.70  0.001043397    3.555    0.719
       194  -8.9411    109.7691    128.9567   1.1266477189e+02   3.4783330228e+01    0.2052826    0.1870254 -53.75            0    1.051    0.048
       195 -10.5359    209.7991    125.7913   8.8922998046e+01   1.3472839139e+01    0.3106848    0.2536784 -36.17  0.000485808    1.194    0.162
       196  -8.4714     85.2919    126.6926   1.1879387893e+02   3.9591219010e+01    0.1435358    0.1106259  85.91 0.0004333376    1.580    0.367
       197 -11.7302     38.2260    122.5959   1.3114341538e+02   4.6686716584e+01      0.40224    0.2754985 -52.76  0.001730593    1.265    0.210
       198 -10.0926     54.6318    120.7738   1.2617082990e+02   4.5292360141e+01    0.2554488    0.1967093  19.05  0.000999189    1.599    0.375
       199 -11.5387     67.3881    128.4107   1.2412056228e+02   4.1848203369e+01    0.4079519    0.3689523 -51.14  0.001554104    1.092    0.084
       200  -9.0775     48.7005    117.9529   1.2730838331e+02   4.6642978289e+01    0.2314886   0.06070202 -45.51 0.0007036856    4.217    0.763
       201  -8.8446     86.5491    116.7102   1.1614975909e+02   4.1714476086e+01    0.2133133    0.1338267 -63.73 0.0007398932    1.712    0.416
       202 -11.8655     15.1263    114.8896   1.3630592405e+02   5.0464215818e+01     0.349794    0.1832572 -67.98  0.001667704    1.532    0.347
       203 -10.8820    168.0903    113.2720   9.4304403087e+01   2.5651618636e+01    0.3694175    0.3026655 -83.50 0.0009118801    1.432    0.302
       204 -11.6430     40.7991    204.8836   1.4131321303e+02   2.7386583827e+01    0.8199278    0.2893439  51.85  0.003231368    2.691    0.628
       205  -9.0788    203.4807    111.5169   8.6644480399e+01   1.7675983579e+01    0.1513881    0.1460121 -48.25 0.0001163784    1.043    0.041
       206 -10.2998     31.5508    110.9846   1.3094524889e+02   4.9995316509e+01    0.2062723    0.1914228  22.23 0.0001821982    1.313    0.238
       207 -11.6281    248.1281    142.4823   8.6025928961e+01   2.3933624437e+00    0.6867315     0.515736 -11.55  0.003341839    1.557    0.358
       208  -9.1796     62.5259    107.4531   1.2099514015e+02   4.7364093196e+01     0.136345    0.1214153 -56.54 0.0008077271    1.050    0.048
       209  -9.5968    126.0970    180.3602   1.1929167936e+02   1.9690659603e+01    0.2957765     0.210474 -68.55  0.001422053    1.509    0.337
       210  -9.2646     24.3444     88.2838   1.2861168128e+02   5.5617697896e+01    0.1265433   0.07609009 -34.46 0.0002245343    1.642    0.391
       211 -12.4872    246.8938    241.8124   1.0590057860e+02  -1.2986463417e+01    0.5945227    0.4564884  -6.11   0.00403855    1.156    0.135
       212 -11.1528    200.7070    246.1448   1.1504835826e+02  -6.3956573084e+00    0.3151934    0.1838971  52.14  0.000874805    2.001    0.500
       213 -11.3326     22.9485    202.0474   1.4451505282e+02   3.0017883918e+01    0.3221987     0.218692  74.82  0.001065898    1.216    0.178
       214 -10.7368    193.7451    245.1707   1.1620570819e+02  -5.0963132537e+00    0.2174967    0.1960394  40.75 0.0002779979    1.174    0.148
       215 -10.9388    222.5980    245.1014   1.1081916913e+02  -9.7645480884e+00    0.2477135    0.1554887  28.22 0.0008319972    1.392    0.282
       216 -11.2399    143.0303    248.7603   1.2642011973e+02   2.9768324176e+00    0.5219424     0.284507 -65.14   0.00048581    2.537    0.606
       217  -9.3741     93.9712    217.0163   1.3197295387e+02   1.7266852258e+01    0.2731242    0.1622688 -86.65  0.001006313    2.007    0.502
