#   1 NUMBER                 Running object number                                     
#   2 MAG_AUTO               Kron-like elliptical aperture magnitude                    [mag]
#   3 X_IMAGE                Object position along x                                    [pixel]
#   4 Y_IMAGE                Object position along y                                    [pixel]
#   5 X_WORLD                Barycenter position along world x axis                     [deg]
#   6 Y_WORLD                Barycenter position along world y axis                     [deg]
#   7 A_WORLD                Profile RMS along major axis (world units)                 [deg]
#   8 B_WORLD                Profile RMS along minor axis (world units)                 [deg]
#   9 THETA_WORLD            Position angle (CCW/world-x)                               [deg]
#  10 FWHM_WORLD             FWHM assuming a gaussian core                              [deg]
#  11 ELONGATION             A_IMAGE/B_IMAGE                                           
#  12 ELLIPTICITY            1 - B_IMAGE/A_IMAGE                                       
         1 -13.8005    249.0182     45.7006   1.8817663145e+01   1.7046242419e+01    0.8217033    0.3762208 -30.99  0.003521792    2.324    0.570
         2 -10.8942      3.7531     31.5645   7.9164671439e+01   6.8268934858e+01    0.1226592    0.0988626  24.64 0.0005796989    1.558    0.358
         3 -13.3952    231.9975      2.4658   1.0556871441e+01   2.6598946594e+01    0.7060818    0.3364844  75.45  0.003387703    1.882    0.469
         4 -13.9795    249.2046     11.5355   1.1154748061e+01   2.1497531441e+01     1.262364    0.4510828 -25.33  0.004634051    4.020    0.751
         5 -14.7080    241.9189      9.2636   1.1258504444e+01   2.3461047444e+01     1.428038    0.6462662 -32.58  0.006677784    2.257    0.557
         6 -14.0055    176.6703      5.4375   1.7157712123e+01   4.0269646583e+01    0.8865752    0.5205283 -83.91  0.004114767    1.886    0.470
         7 -12.1502    161.7672     11.5467   2.1130593172e+01   4.3489538060e+01    0.2421302    0.1998942 -30.43 0.0009683603    1.363    0.266
         8 -10.6631     27.3706     11.2194   6.0820452075e+01   6.9912573533e+01    0.1518645   0.09321746 -46.72 0.0009507053    1.711    0.415
         9 -11.8485     56.0984      9.1948   4.7377482967e+01   6.6569816286e+01    0.3078035    0.2197589  11.41  0.001276982    1.339    0.253
        10 -10.7629     98.7275      8.7417   3.3175004320e+01   5.8853988493e+01    0.1641392    0.1515022 -73.30  0.001044955    1.362    0.266
        11 -10.9477      3.0120      8.5098   7.1942460796e+01   7.2296909217e+01     0.163362     0.112708 -39.48  0.000857877    1.130    0.115
        12 -12.2684    123.6548      6.8560   2.6493346131e+01   5.3455914024e+01    0.3315181    0.2568558  86.75  0.001058013    1.492    0.330
        13 -11.5704     85.5149      7.4719   3.6414063277e+01   6.1670507920e+01    0.2179566    0.2111007 -32.85  0.000611415    1.267    0.211
        14 -10.5207     78.0773      8.2791   3.9091573194e+01   6.2990835198e+01     0.165718    0.1453147  25.37  0.000292873    1.075    0.070
        15 -10.4055     45.0578     12.0207   5.3184471961e+01   6.7748902660e+01    0.1423408    0.1155191  -9.47 0.0009939095    1.018    0.018
        16 -11.3440    203.7325      4.4523   1.3701527767e+01   3.3397063653e+01    0.1955432    0.1092126  62.72 0.0009474788    1.636    0.389
        17 -11.7916    134.6168      4.1971   2.3366004992e+01   5.1076213408e+01    0.1864848    0.1727133  30.63 0.0003853102    1.135    0.119
        18 -12.0869    131.3059      3.9688   2.3913125016e+01   5.1903661473e+01    0.2722905    0.1812294  64.12 0.0008490955    1.344    0.256
        19 -10.5648     60.5070      4.1102   4.3339240968e+01   6.6497179829e+01    0.1628227    0.1063177 -23.47  0.000327426    1.469    0.319
        20 -11.8319    113.9432      2.0362   2.6792229982e+01   5.6172210837e+01    0.3785001    0.2024662  61.74  0.001362763    1.715    0.417
        21 -11.3186    144.1865      1.9758   2.0913414408e+01   4.8917208433e+01    0.2860137    0.1574589 -84.81  0.001195564    2.565    0.610
        22 -10.9930     38.3089      2.2676   5.1610723033e+01   6.9907756667e+01    0.2072079    0.1471533  38.92    0.0014015    1.651    0.394
        23 -11.7383     15.4674    173.5211   9.5988018381e+01   3.7176142761e+01    0.2517841    0.1887351 -55.21  0.001235604    1.712    0.416
        24 -12.1551     65.5020    249.5041   9.2209936070e+01   1.6350594469e+01    0.2908645    0.1885929  59.72  0.001733518    1.099    0.090
        25 -16.2967     28.6962    189.2267   9.4498121656e+01   3.2517341889e+01     3.369977     1.156911  67.52   0.01361054    3.613    0.723
        26 -15.3387     20.4475    215.3096   9.7753138339e+01   2.8177469322e+01     1.667641    0.5517734  53.19  0.007972251    2.281    0.562
        27 -14.7071      4.6946    202.2124   9.9814236823e+01   3.2317740782e+01     1.107428     0.585382 -82.63  0.007337752    1.525    0.344
        28 -16.2721     32.3990    237.8691   9.7002336264e+01   2.2623908238e+01     1.956728     1.131877  59.12   0.01364654    1.249    0.199
        29 -12.5597     11.9633    180.9294   9.7207954169e+01   3.5945279040e+01    0.3411504     0.223527 -76.32  0.001524851    1.352    0.260
        30 -13.0138     36.8497    175.9079   9.1724359646e+01   3.4447161189e+01    0.4780872    0.1832087  50.51   0.00232036    2.331    0.571
        31 -12.0734     58.0158    174.9899   8.7055547230e+01   3.2053835437e+01    0.2168588    0.1240706  70.54 0.0007392755    1.717    0.417
        32 -11.8683     29.5332    172.0501   9.2934798776e+01   3.6085362030e+01    0.2267756     0.127634  59.16 0.0006436317    1.583    0.368
        33 -12.9243    249.0546    168.4710   4.5935481620e+01  -2.2003051935e+00    0.3384382    0.1894959 -37.68  0.001714182    1.770    0.435
        34 -11.6438     55.8880    169.8106   8.6948904609e+01   3.3480059024e+01    0.1806411    0.1234252  72.54 0.0004302373    1.303    0.233
        35 -15.4162     25.5207    200.5661   9.5917691429e+01   3.0535430720e+01     1.917947    0.5765351  58.45  0.008544229    3.062    0.673
        36 -13.5501     26.8745    161.9015   9.2606334938e+01   3.8580469487e+01    0.4338542     0.259661  40.52  0.001915869    1.760    0.432
        37 -11.9273     23.3201    158.0460   9.3044261998e+01   3.9781850312e+01     0.194033    0.1341512  62.81 0.0004237198    1.312    0.238
        38 -10.9119     63.0814    155.4760   8.3515677501e+01   3.5767236402e+01    0.1830927    0.1235906  42.78 0.0004445148    1.529    0.346
        39 -10.9929     53.4877    155.4600   8.5803451845e+01   3.7023128254e+01    0.1300876    0.1065953  85.72 0.0001123194    1.004    0.004
        40 -13.1311    249.4232    149.7320   4.2062285208e+01   5.8122136502e-01    0.5096735    0.1674609 -38.83  0.001922834    2.880    0.653
        41 -13.0408    245.7066    138.8020   4.0360196236e+01   3.0254700886e+00    0.3268477    0.1573162 -39.43  0.001439396    1.974    0.493
        42 -12.0801      5.8395    138.7406   9.5329510572e+01   4.5537758154e+01    0.2029722    0.1469873  22.68  0.001393741    1.870    0.465
        43 -10.9956     46.5158    135.3329   8.4893309827e+01   4.2493235881e+01    0.2031082    0.1173643  35.22 0.0009060315    1.929    0.482
        44 -11.0016    108.2455    132.1145   6.8193825574e+01   3.3924912519e+01    0.3688233    0.1965868 -53.26  0.001568664    1.858    0.462
        45 -10.6508     81.4310    132.2261   7.5237281303e+01   3.8503866729e+01    0.1910219    0.1257038 -75.09 0.0005346535    1.540    0.351
        46 -12.8994    249.6629    127.7733   3.7343151231e+01   4.0201914569e+00    0.3944125    0.2224692 -39.52  0.001883965    1.654    0.395
        47 -12.0705      5.5952    121.3066   9.3757849772e+01   4.9400318463e+01     0.227615   0.09079082 -79.33 0.0008395974    2.091    0.522
        48 -11.5303     13.7874    117.8046   9.1238895758e+01   4.9593263119e+01    0.1622163    0.1170108  80.00 0.0007563781    1.297    0.229
        49 -12.5360    249.4065    115.7068   3.4727880044e+01   6.0268604193e+00    0.3439287    0.1582494 -41.35  0.001464234    2.008    0.502
        50 -10.5881     53.5084    117.4999   8.0263061998e+01   4.5813855633e+01    0.1317217    0.1137056 -76.12 0.0002234301    1.010    0.010
        51 -11.7528     20.8735    116.4645   8.9169447782e+01   4.9338701148e+01    0.2660912    0.1118567 -57.00  0.001332215    2.025    0.506
        52 -10.8837     91.7212    116.0610   6.9242754876e+01   4.0594775141e+01    0.2011359    0.1716159 -63.02 0.0003742476    1.112    0.101
        53 -11.0674     79.2948    111.6669   7.1807099164e+01   4.3630522807e+01     0.308721    0.1829101 -61.81  0.001019869    1.604    0.377
        54 -11.7602      2.7456    111.6142   9.3495810302e+01   5.1723583408e+01    0.2165643    0.1238511 -74.34 0.0006254833    1.341    0.254
        55 -11.5075      1.8488    105.1425   9.3029470151e+01   5.3198142463e+01    0.1602038    0.1078204 -57.98 0.0007440278    1.328    0.247
        56 -12.8798      3.3182     96.2004   9.1544816602e+01   5.5066542421e+01    0.3351202    0.2219896  15.38  0.002125522    2.000    0.500
        57 -10.3941    103.4117     97.2042   6.1495394399e+01   4.2766008392e+01    0.2134731    0.1364557 -62.25 0.0009484462    1.706    0.414
        58 -10.7248     63.4132     95.2644   7.2978955925e+01   4.9669789845e+01    0.2665078     0.114277 -55.08  0.001140694    2.052    0.513
        59 -11.5285    132.1844     92.7195   5.2468082597e+01   3.7754685243e+01    0.2626138    0.2435545 -44.07 0.0004160942    1.114    0.102
        60 -11.0079    107.7768     89.2195   5.8138349152e+01   4.3655770994e+01    0.2567871    0.2434577  77.60  0.001007548    1.066    0.062
        61 -10.1691     62.3125     90.3201   7.2202075359e+01   5.0924247943e+01    0.1351822   0.09681597 -30.42  0.000621816    1.650    0.394
        62 -12.6152    249.2089     86.4503   2.8145249681e+01   1.0804605322e+01     0.502953    0.1815806 -31.63  0.001777827    3.012    0.668
        63 -11.1531      1.5512     88.0141   9.1006911950e+01   5.6939715355e+01    0.1822434   0.08850205 -72.85  0.001034773    1.621    0.383
        64 -10.3802     35.3029     82.6540   7.9280704905e+01   5.5659906379e+01    0.1228149   0.08919481  80.78 0.0007039903    1.688    0.408
        65 -11.6949     41.6585     79.5065   7.6480268576e+01   5.5723843447e+01    0.2321691    0.1023908 -59.71  0.001086992    1.950    0.487
        66 -12.4820      2.6997     77.0031   8.9055210148e+01   5.9234945750e+01    0.3275365    0.1939758 -71.95  0.002081033    1.364    0.267
        67 -12.2354     52.9585     77.7908   7.2268220532e+01   5.4844334475e+01    0.5290007    0.2551711  45.51  0.002445695    2.508    0.601
        68 -10.7707     91.3508     75.1063   5.9034945503e+01   4.9702746003e+01    0.1981412    0.1721054 -51.48 0.0005022478    1.124    0.111
        69 -10.2705     76.5142     71.4716   6.2706926224e+01   5.2934142908e+01    0.1356408    0.1248595 -32.99 0.0001375566    1.042    0.041
        70 -11.6892      7.8189     68.3167   8.5858123803e+01   6.0787567052e+01    0.2011555    0.1285913 -73.86 0.0008481143    1.403    0.287
        71 -10.2895    152.4755     76.0309   4.2767527543e+01   3.6274162205e+01     0.211877    0.1422645  -9.09 0.0008094065    2.484    0.597
        72 -12.5559     77.0790    242.8370   8.9715465801e+01   1.5876902592e+01    0.2414338    0.1647419  82.73   0.00163771    1.336    0.252
        73 -10.5163    204.5629     65.7639   2.9727091733e+01   2.4809335920e+01    0.2069669    0.1331964 -49.56 0.0005664591    1.540    0.351
        74 -10.0153    192.0298     65.7832   3.1850580414e+01   2.8014455775e+01     0.194471     0.120354  62.21 0.0003753033    1.571    0.363
        75 -10.1908    141.7703     65.0379   4.2012228232e+01   4.0902929709e+01    0.1896417    0.1266731 -39.90 0.0003346301    1.541    0.351
        76 -10.2686     67.0260     64.9942   6.3999036067e+01   5.5674299727e+01     0.158126    0.1400526 -40.33 0.0009697762    1.033    0.031
        77 -11.6720      4.0591     64.6729   8.6521531039e+01   6.1749644733e+01    0.1880166    0.1594741 -21.50 0.0007410231    1.344    0.256
        78 -12.8141      4.3997     59.9822   8.5517871885e+01   6.2696572982e+01    0.3256116    0.2717599 -76.20  0.001826018    1.211    0.174
        79 -10.0095    126.2827     64.6881   4.5796173283e+01   4.4604737159e+01      0.14748    0.1169752 -78.44  0.000377987    1.571    0.364
        80 -10.8943     43.5525     62.8160   7.1712323246e+01   5.9049131238e+01    0.2410488    0.1818382  74.18  0.001396521    1.912    0.477
        81 -10.7835     98.8630     61.1488   5.2436554872e+01   5.1049013787e+01     0.278648     0.176644 -67.90  0.001158078    2.551    0.608
        82 -11.0813    117.7595     61.3918   4.7043151990e+01   4.7105273095e+01    0.2587458    0.1791101  40.29 0.0007703596    1.470    0.320
        83 -10.9984     35.1107     61.0588   7.4352837333e+01   6.0255676477e+01    0.2643616    0.1568504  -4.13  0.001272993    2.448    0.591
        84 -10.1580     56.9948     60.2452   6.6115739618e+01   5.7987662647e+01    0.1504005    0.1084621  30.24  0.000364767    1.518    0.341
        85 -10.9173    229.3289     59.6764   2.4513572762e+01   1.9619634759e+01    0.1549979     0.100232 -67.89 0.0003711053    1.696    0.411
        86 -11.0879     96.2246     55.7184   5.1467084998e+01   5.2555579541e+01    0.2200701    0.1813761 -47.70 0.0004863835    1.254    0.202
        87 -10.3057     77.9026     55.8610   5.7439115175e+01   5.5783688575e+01     0.169812    0.1583896  84.01 0.0004239017    1.299    0.230
        88 -10.5929     64.3737     56.1778   6.2232466831e+01   5.7787089723e+01    0.1843381    0.1158487 -56.68 0.0008485197    1.723    0.420
        89 -11.4650    235.7498     51.9084   2.1806958242e+01   1.9249762470e+01    0.3692453     0.191774  82.69  0.001154932    2.403    0.584
        90 -11.2463     22.7995     51.3245   7.6522707545e+01   6.3264392447e+01    0.3159412    0.1127667 -36.36  0.001327806    3.283    0.695
        91 -11.3501     94.0332     48.8540   4.9816772877e+01   5.4185619546e+01    0.2116045    0.1837661 -30.30            0    1.131    0.116
        92 -11.5664      6.3534     46.3399   8.1848150805e+01   6.5323786282e+01    0.2814188    0.1289763 -22.52  0.001224238    2.802    0.643
        93 -10.3387     20.5621     44.5565   7.5594942726e+01   6.4753205457e+01    0.1147299   0.09147444 -42.22 7.116949e-05    1.007    0.007
        94 -10.8176    118.9878     42.4647   4.0401610875e+01   5.0018119681e+01    0.2146313     0.195522 -28.92  0.001011697    1.139    0.122
        95 -10.8021     38.7537     43.6072   6.7909999322e+01   6.3308177277e+01    0.2044012    0.1525096  35.73  0.001312648    1.574    0.365
        96 -13.7430    249.3194     56.9821   2.1364467310e+01   1.5337222694e+01    0.9127913     0.318928 -39.62  0.003570818    2.464    0.594
        97 -10.7739     40.3361     36.0962   6.4754893650e+01   6.4501269883e+01    0.1954047    0.1516257  -0.17 0.0007252416    1.317    0.241
        98 -10.2970    138.7145     33.6979   3.2645597759e+01   4.6634004206e+01     0.144287    0.1066711  28.21 0.0002136357    1.557    0.358
        99 -10.1629     51.3869     33.2611   5.9250449005e+01   6.3670992581e+01     0.124788   0.08483075  -5.14 0.0006975319    1.689    0.408
       100 -11.1462    154.0102     32.0027   2.8933947323e+01   4.3021051946e+01    0.2229614    0.2002717  67.34 0.0004116647    1.023    0.022
       101 -10.2734     48.4737     32.4625   6.0119784499e+01   6.4174745749e+01    0.1218803      0.10183 -18.60 0.0002393641    1.032    0.031
       102 -10.7844     17.7094     31.7184   7.2986767134e+01   6.7356234850e+01    0.1325252    0.1206231 -56.71 0.0004555262    1.304    0.233
       103  -9.9290     92.4291     31.4421   4.3981897672e+01   5.7269036598e+01    0.1304869    0.1217753  11.32 0.0001142475    1.033    0.032
       104 -13.9518     50.7737    233.5909   9.3616644208e+01   2.1131044610e+01    0.4955124    0.2606997  72.22  0.002045392    1.621    0.383
       105 -11.1980    160.3599     27.1003   2.6206993583e+01   4.2028409997e+01    0.2376408    0.1842803  54.34 0.0004537348    1.212    0.175
       106 -10.3921    131.3513     26.3217   3.1764624005e+01   4.9408001447e+01    0.1517527     0.100074  30.60 0.0007048043    1.749    0.428
       107 -14.4481     16.7709    224.2911   9.8873126979e+01   2.6869627524e+01    0.9996884    0.3915553  57.46  0.005869223    1.903    0.474
       108 -12.5249     66.8266    239.4847   9.1246391354e+01   1.7915700756e+01    0.3057148    0.1365322 -79.54  0.001645293    2.437    0.590
       109 -12.6366     82.5904    238.4831   8.8375892736e+01   1.5838183419e+01    0.3097242    0.1756367  44.56  0.001186578    1.527    0.345
       110 -10.2356    110.4491     24.5513   3.6209008478e+01   5.4467058870e+01    0.1338263    0.1252738  37.95  0.000805861    1.041    0.040
       111 -10.9840     87.2584     22.9463   4.2281868248e+01   5.9456765937e+01    0.2316433    0.1773867 -43.33  0.001342024    1.497    0.332
       112 -12.1265     96.4364     22.2080   3.9200715877e+01   5.7742770099e+01    0.2640056    0.2139016  55.31 0.0002225588    1.298    0.230
       113 -10.5087     37.9872     22.9680   6.0863231731e+01   6.6970082191e+01     0.140451    0.1160276 -15.58 0.0004584071    1.028    0.027
       114  -9.9884    180.6786     30.2656   2.3761690238e+01   3.6315883278e+01    0.1483927    0.1041205 -76.03 0.0001990632    1.559    0.359
       115  -9.9490     72.5801     22.4974   4.6997000390e+01   6.2163046356e+01     0.124647    0.1100426   0.13 0.0001421632    1.023    0.022
       116 -10.8958    138.6503     21.7077   2.8609681568e+01   4.8198479751e+01    0.1494663   0.09786069  35.58 0.0003074237    1.672    0.402
       117 -10.9388     35.2276     19.7885   6.0801829521e+01   6.7778228876e+01    0.1579594    0.1355945 -21.91 0.0005613927    1.125    0.111
       118 -10.4713    147.2830     18.3510   2.5792676646e+01   4.6436170530e+01     0.144641    0.1008685  31.61 0.0007017135    1.655    0.396
       119 -11.7040     19.8561     17.4979   6.6987397506e+01   6.9627744725e+01    0.2286847    0.1708224 -21.30  0.001317879    1.117    0.105
       120 -10.5460     66.0278     16.6685   4.6907454572e+01   6.4045829865e+01    0.1688356    0.1399535  19.79 0.0003768653    1.108    0.098
       121 -12.1495     63.4692    234.9547   9.1490673855e+01   1.9192702084e+01    0.1954435     0.138986  83.18 0.0007807017    1.221    0.181
       122 -10.6266     49.3128     14.1481   5.2337532915e+01   6.6885343487e+01    0.1912005    0.1266939 -15.15 0.0009716568    1.467    0.319
       123 -11.3035    116.0007     13.0893   3.0517190079e+01   5.4587000975e+01    0.2033951    0.1835354  43.43 0.0004658748    1.012    0.012
       124 -10.3285     34.8145     13.4156   5.8314323633e+01   6.8793766705e+01    0.1484249   0.09657851  12.92 0.0005404089    1.574    0.365
       125 -10.3541    212.4550     14.4541   1.5313033900e+01   3.0053627981e+01    0.1385961    0.1185918 -86.32  0.000137263    1.020    0.020
       126 -14.4667     64.4062    227.8881   9.0769104524e+01   2.0364811586e+01    0.6383846    0.3338966  70.32  0.002073549    1.741    0.426
       127 -11.0814    200.4684     11.4836   1.5891210843e+01   3.3456814612e+01     0.140865    0.1193077 -86.58 0.0001458265    1.020    0.019
       128 -10.4355    104.6786     11.3337   3.2640849912e+01   5.7302485857e+01     0.127528    0.1019406 -69.71 0.0007049866    1.703    0.413
       129 -14.0451     93.8119    228.5519   8.5401096382e+01   1.5921377926e+01    0.6328548    0.3519585  31.73  0.003174994    2.447    0.591
       130 -12.9654     76.3799    227.3053   8.8528037464e+01   1.8775848893e+01    0.2773671    0.2492676   6.40  0.001885634    1.974    0.494
       131 -14.2178     18.4138    248.4357   9.9776445900e+01   2.2361571590e+01    0.5371737     0.393676  71.62  0.004429699    1.184    0.156
       132 -13.3205     66.3599    214.5139   8.9271686330e+01   2.2652681966e+01    0.3522498    0.2592272 -43.84  0.001557292    2.293    0.564
       133 -12.6904    248.7484    210.5809   5.3836783990e+01  -7.9280019194e+00    0.3469524    0.1949035   8.19  0.001709836    2.457    0.593
       134 -16.5168      6.3258    235.5504   1.0109982874e+02   2.5904750391e+01     2.451179    0.7160946 -81.97   0.01280126    2.989    0.665
       135 -11.2949     94.4931    208.4845   8.3144836448e+01   1.9621532040e+01    0.1305539    0.1038407  66.22 0.0001019453    1.008    0.008
       136 -11.8745    248.9374    194.5085   5.0931673719e+01  -5.8668605927e+00    0.1921539      0.11109  39.83  0.001045107    1.626    0.385
       137 -12.7597     45.7129    190.9567   9.1236177148e+01   3.0180791150e+01    0.2954743    0.1765998  80.21   0.00163637    1.467    0.319
       138 -14.3197     86.2342    185.0903   8.2078009974e+01   2.5756363997e+01    0.6493835    0.3750155  39.33  0.003305221    1.772    0.436
       139 -12.6869     44.9952    182.9031   9.0653446823e+01   3.1981206647e+01    0.4057662    0.1972208 -86.14  0.002063249    1.995    0.499
       140 -11.3429     53.6075    184.8160   8.9032596439e+01   3.0491195127e+01    0.1773053   0.09924368 -87.78 0.0006287572    1.688    0.408
       141 -12.9259      8.7056    177.9776   9.7656399193e+01   3.6861153913e+01    0.3221195    0.2637204 -63.98  0.002428949    1.531    0.347
       142 -11.4955    243.5183    180.0250   4.9131525525e+01  -2.9169351933e+00    0.1897907    0.1206588 -31.71  0.001025596    1.570    0.363
