#   1 NUMBER                 Running object number                                     
#   2 MAG_AUTO               Kron-like elliptical aperture magnitude                    [mag]
#   3 X_IMAGE                Object position along x                                    [pixel]
#   4 Y_IMAGE                Object position along y                                    [pixel]
#   5 X_WORLD                Barycenter position along world x axis                     [deg]
#   6 Y_WORLD                Barycenter position along world y axis                     [deg]
#   7 A_WORLD                Profile RMS along major axis (world units)                 [deg]
#   8 B_WORLD                Profile RMS along minor axis (world units)                 [deg]
#   9 THETA_WORLD            Position angle (CCW/world-x)                               [deg]
#  10 FWHM_WORLD             FWHM assuming a gaussian core                              [deg]
#  11 ELONGATION             A_IMAGE/B_IMAGE                                           
#  12 ELLIPTICITY            1 - B_IMAGE/A_IMAGE                                       
         1 -15.9299    171.3567      7.0507   3.7887311809e+01   4.1294112571e+01     2.796696    0.9851369  76.80   0.01084246    2.859    0.650
         2 -13.4157    124.5494      7.3944   4.4612473794e+01   5.2609758510e+01    0.3421857    0.2107984  82.95  0.001729552    1.825    0.452
         3 -11.2573     98.4111      8.2626   5.0248122575e+01   5.8549337713e+01    0.1642708    0.1164233 -32.97 0.0007796652    1.594    0.373
         4 -11.4024     85.7645      7.7766   5.3207065186e+01   6.1318387704e+01    0.1540147    0.1476182 -80.74 0.0003393737    1.318    0.241
         5 -11.7007      2.9947      8.5264   8.9292536561e+01   7.3822382383e+01    0.1535857   0.09459811  14.76  0.001034526    1.602    0.376
         6 -14.4983    142.0337      3.4230   4.0521097483e+01   4.8740740200e+01    0.6141565    0.4467348  76.95  0.003097829    1.249    0.199
         7 -12.3901    113.5377      2.0053   4.4663873070e+01   5.5623864368e+01    0.2660199     0.176413  53.59 0.0005190567    1.277    0.217
         8 -12.1784    146.5509    228.0722   9.6589653757e+01   6.4371122486e+00    0.2467973    0.1899429  37.88 0.0005643589    1.138    0.121
         9 -11.1260    124.8792    247.4292   1.0355727897e+02   6.4592913734e+00    0.3110396    0.1739184 -42.73 0.0007451897    2.338    0.572
        10 -14.7798    111.2415    219.7853   1.0289631429e+02   1.3733350031e+01     2.373162     1.368597  66.88   0.01084343    2.318    0.569
        11 -18.5149     75.6290    183.4408   1.0612576071e+02   2.7209204166e+01     7.462759     5.462791  65.58   0.04030299    1.344    0.256
        12 -12.9838    148.7250    214.2920   9.4030855119e+01   8.6096786285e+00     0.282783     0.195908 -54.63  0.001392501    1.640    0.390
        13 -15.7724     91.1223    226.3577   1.0797928401e+02   1.5499000899e+01     1.059665    0.8052927 -78.15  0.006463806    1.382    0.277
        14 -14.6843    146.4498    187.7947   9.0010311070e+01   1.4294860855e+01    0.7268335    0.5424179 -31.23  0.001991028    1.532    0.347
        15 -12.7355    148.6180    199.2200   9.1555997386e+01   1.1563176147e+01    0.2674388    0.2430733   0.60 0.0006714651    1.176    0.150
        16 -12.9568    149.0653    195.0858   9.0734419429e+01   1.2316962750e+01    0.3205855    0.2803147  52.57 0.0007815858    1.156    0.135
        17 -14.4027    144.1699    205.3934   9.3575224946e+01   1.1115189135e+01    0.7494584    0.4362176  64.95  0.003030983    2.814    0.645
        18 -12.7087    146.4632    202.5309   9.2595212215e+01   1.1282691064e+01    0.3067676    0.2553089  79.36  0.001687198    1.468    0.319
        19 -13.2880    170.6473    203.7542   8.7606006460e+01   6.7972723904e+00    0.3125225    0.1885298  33.65  0.001516706    1.582    0.368
        20 -13.2014    161.1980    201.5502   8.9223663534e+01   8.8743522642e+00    0.3311878     0.235514 -47.80  0.001146685    1.514    0.340
        21 -10.9174    138.8121    232.8187   9.8860859810e+01   6.8407618631e+00    0.1680666    0.1372516  60.32 0.0002703118    1.291    0.225
        22  99.0000     10.4496    187.5942   1.2165741760e+02   3.3837592575e+01    0.3376442    0.1493697  39.28  0.001789918    2.171    0.539
        23 -12.1081    164.1904    182.2330   8.4991733952e+01   1.2142733354e+01    0.1972032    0.1764558  85.28 0.0007671795    1.351    0.260
        24 -11.5760    201.3672    181.1411   7.7012600453e+01   5.4888442633e+00    0.2230074    0.1791648  19.71 0.0003506393    1.237    0.192
        25 -11.2775     13.5433    181.4797   1.2052307066e+02   3.4960394346e+01    0.1669081    0.1216933  27.58 0.0004908065    1.708    0.415
        26 -10.8233     10.4941    180.5105   1.2112932993e+02   3.5454519535e+01    0.1851593    0.1403151  73.44   0.00122252    1.120    0.107
        27 -11.3792      6.1701    177.6320   1.2188054089e+02   3.6486331832e+01    0.1541551     0.127214  81.50 0.0006336945    1.095    0.087
        28 -12.6519    155.6644    176.2887   8.5726720930e+01   1.4985492380e+01    0.3050149    0.2422576  81.23 0.0008054439    1.676    0.403
        29 -11.7172    135.3763    229.9074   9.9166745741e+01   7.9183809979e+00    0.2443948    0.1979398  80.00  0.001118651    1.497    0.332
        30 -11.7008      2.4793    174.0172   1.2244707783e+02   3.7618971826e+01    0.1754507    0.1614407 -38.05 0.0005983288    1.497    0.332
        31 -12.3242    160.9566    231.3064   9.4122089694e+01   3.5355788678e+00    0.2304167     0.156044  43.30 0.0003457306    1.358    0.263
        32 -10.7250    137.6886    243.7013   1.0054533108e+02   5.1236400808e+00    0.1997398    0.1345926  35.52 0.0006596755    1.282    0.220
        33 -12.3481    157.4646    231.4916   9.4857558264e+01   4.0674888387e+00    0.2129839    0.1810669  34.33 0.0007994761    1.031    0.030
        34 -12.3766    140.9157    228.5229   9.7822324221e+01   7.2734571413e+00    0.2633181    0.1917743 -49.50  0.000899789    1.563    0.360
        35 -12.3104    141.2310    223.2514   9.6991212044e+01   8.1875943562e+00    0.1937914    0.1810519 -44.55 0.0004515362    1.205    0.170
        36 -17.3817     65.1339    220.2849   1.1278377435e+02   2.0419370516e+01     10.21112     4.938553  87.17   0.04475454    2.799    0.643
        37 -11.5092    157.4091    154.9127   8.0850067216e+01   1.9221487251e+01    0.2765718    0.2185238  32.98 0.0003344808    1.314    0.239
        38 -11.3171    144.5127    153.1727   8.3511750795e+01   2.2222642898e+01    0.2266469    0.1504483 -48.80  0.001001619    1.500    0.334
        39 -14.3661    127.0024    149.9996   8.7160082697e+01   2.6433918960e+01    0.7042111    0.3835926  48.20  0.002837404    1.912    0.477
        40 -11.2311    140.4160    241.7394   9.9742774377e+01   5.0316182525e+00    0.2209739    0.1539402 -50.27  0.001018591    1.688    0.408
        41 -13.8209    101.5231    119.5770   8.7036404907e+01   3.8558956447e+01    0.5862618    0.3309416  54.79  0.002314419    2.185    0.542
        42 -10.3213    120.4684    244.0881   1.0403525045e+02   7.7135931271e+00    0.1463337    0.1238524 -61.56 0.0001686607    1.383    0.277
        43 -10.7507    123.9914    242.8202   1.0317649220e+02   7.3967868001e+00    0.1674014    0.1368428  41.37 0.0004085089    1.054    0.052
        44 -12.7365     97.4274    108.7929   8.5490057196e+01   4.1862116242e+01    0.2825662    0.2172753  38.28 0.0009292773    1.369    0.270
        45 -13.4071    175.0719    224.3121   9.0179126529e+01   2.4248343282e+00    0.4136353    0.1633952  32.94  0.001691835    2.500    0.600
        46 -10.7748    144.9635    239.4591   9.8522801878e+01   4.7049328179e+00    0.1887326    0.1076084  39.47 6.930002e-05    1.488    0.328
        47 -11.7367      1.8698    105.2432   1.1585265569e+02   5.4057481967e+01    0.2563563    0.1393391 -63.61  0.001422796    1.402    0.287
        48 -10.7296    110.9357    242.9161   1.0580534004e+02   9.3698362289e+00    0.1398783    0.1176934  49.48 0.0003607369    1.018    0.017
        49 -10.9954    117.4530    237.3748   1.0383233200e+02   9.3836341537e+00    0.1799187    0.1763257  58.04 0.0007493806    1.171    0.146
        50 -12.6393    166.0499    218.9308   9.1143325674e+01   4.8385803711e+00    0.2248365    0.2225306  52.14 0.0003786089    1.176    0.150
        51 -11.4581     90.7007     94.9409   8.3756864627e+01   4.6259997659e+01    0.2089325    0.1871685 -48.94 0.0004188413    1.081    0.075
        52 -10.6861    132.8167     92.8363   7.1059334084e+01   3.8052243431e+01    0.2064715    0.1794543 -72.21   0.00025079    1.282    0.220
        53 -10.8432     67.2983     92.3406   9.0742265435e+01   5.0700080300e+01    0.1500217    0.1037003 -25.71 0.0006043225    1.665    0.399
        54 -11.7744     89.8538     85.7614   8.1320180183e+01   4.8424137619e+01    0.3052899    0.1956093 -34.33   0.00134459    1.611    0.379
        55 -13.1814     49.0490     82.7637   9.4635288168e+01   5.5327791692e+01    0.7105687    0.1017961  33.50  0.001937567    6.209    0.839
        56 -12.5507     34.9510     77.4906   9.8570772246e+01   5.8064458787e+01    0.2059754    0.1553822 -51.86 0.0004769911    1.143    0.125
        57 -13.0388     39.2937     71.6106   9.5246036850e+01   5.8904354798e+01    0.4167808    0.2377363  12.17  0.002030015    2.197    0.545
        58 -11.6209    129.9977    233.7103   1.0079428987e+02   8.0867383122e+00    0.3669421    0.2420931 -78.07  0.001917896    2.163    0.538
        59 -12.4658    148.1286    232.3273   9.6882011882e+01   5.4294303441e+00    0.2548755    0.2270007 -70.46  0.000320273    1.355    0.262
        60 -12.1181     99.6924     62.4495   7.0610415397e+01   5.1092947597e+01    0.3174261    0.2370754 -58.55  0.001559973    1.664    0.399
        61 -11.3965     43.0026     62.8756   9.1090806076e+01   6.0321809393e+01    0.1972911     0.165975 -27.35   0.00034198    1.035    0.034
        62 -14.5319    166.3204    212.6219   9.0043618418e+01   5.9203389007e+00     0.633495    0.3982076 -60.26   0.00228606    2.165    0.538
        63 -10.5786    138.3047     39.3571   5.2888849856e+01   4.5841872499e+01    0.1480071    0.1046471  26.09 0.0007040031    1.720    0.418
        64 -11.3926    119.1451     35.0735   5.5584574096e+01   5.0967968981e+01    0.2035575    0.1882022  38.07 0.0003719003    1.019    0.018
        65 -11.5710    116.4712    248.4535   1.0533805803e+02   7.5545009013e+00    0.2608323    0.1673763 -38.52  0.001255903    2.190    0.543
        66 -11.5290     33.7669     14.0185   7.5328398527e+01   6.9771404519e+01    0.1667674    0.1295832  -8.72 0.0004779738    1.059    0.056
        67 -11.8745    132.9360    247.4271   1.0196250743e+02   5.2275232588e+00    0.2122538    0.1697178  58.49 0.0008590773    1.266    0.210
        68 -10.9155    143.7322    246.7482   9.9741178357e+01   3.6773813040e+00    0.1626369    0.1259829  53.92 0.0003687104    1.304    0.233
        69 -10.5964    200.4150    246.4742   8.8772183765e+01  -4.8641599538e+00    0.1199145   0.09778823  15.44 8.313498e-05    1.019    0.019
        70 -11.6027    103.4371    245.5799   1.0759430432e+02   1.0006876277e+01      0.19776    0.1928438 -12.46   0.00119345    1.321    0.243
        71 -11.1841     99.0163    246.4440   1.0855876906e+02   1.0498963124e+01    0.1634804    0.1181773  43.25 0.0003786697    1.180    0.153
        72 -11.6508     50.0125     14.3004   6.8251542200e+01   6.7345937689e+01    0.1765953    0.1365454  22.15  0.001150675    1.133    0.117
