#   1 NUMBER                 Running object number                                     
#   2 MAG_AUTO               Kron-like elliptical aperture magnitude                    [mag]
#   3 X_IMAGE                Object position along x                                    [pixel]
#   4 Y_IMAGE                Object position along y                                    [pixel]
#   5 X_WORLD                Barycenter position along world x axis                     [deg]
#   6 Y_WORLD                Barycenter position along world y axis                     [deg]
#   7 A_WORLD                Profile RMS along major axis (world units)                 [deg]
#   8 B_WORLD                Profile RMS along minor axis (world units)                 [deg]
#   9 THETA_WORLD            Position angle (CCW/world-x)                               [deg]
#  10 FWHM_WORLD             FWHM assuming a gaussian core                              [deg]
#  11 ELONGATION             A_IMAGE/B_IMAGE                                           
#  12 ELLIPTICITY            1 - B_IMAGE/A_IMAGE                                       
         1 -14.2321    222.1776    118.8552   6.2439336882e+01   1.3685546953e+01     8.927937     1.972391 -43.72   0.02239344    7.116    0.859
         2 -13.5871    217.9006     10.4264   3.6191506566e+01   2.8678845706e+01     3.417519     1.616538 -27.66   0.01651286    1.942    0.485
         3 -13.7893    246.8673    121.5618   5.9499437459e+01   9.0262717527e+00     5.950925    0.7894262 -35.29   0.01748485    5.432    0.816
         4 -13.6023    228.9207     11.6232   3.5764050610e+01   2.6112217158e+01     4.819494    0.5299848 -25.69   0.01268031    6.810    0.853
         5 -13.6252    248.4627     28.1698   3.8381738352e+01   2.0314370073e+01     2.917664    0.4629421 -26.40  0.008343124    5.892    0.830
         6 -14.2349    245.3734     10.8519   3.4603309591e+01   2.2733780193e+01      3.30002     1.343703 -15.16   0.01352308    3.481    0.713
         7 -14.3668    240.2910     89.6294   5.3357547504e+01   1.4394805144e+01     5.327886     1.261813 -27.69   0.01603417    4.767    0.790
         8 -13.3230    248.4681     96.3503   5.3874379141e+01   1.2039002537e+01     5.894292          nan -34.33   0.01223918   10.208    0.902
         9 -13.8561    244.3420    136.1370   6.2856171320e+01   7.5384648204e+00     2.772012      1.09393 -41.60   0.01232244    2.742    0.635
        10 -10.3867    199.7422     24.2378   4.1365141652e+01   3.1467577703e+01    0.7574187    0.1913326 -39.08  0.002676735    3.033    0.670
        11 -11.0277    140.3128     23.0699   4.8602734613e+01   4.6904106049e+01    0.6631458    0.1839202 -42.41  0.002044227    3.636    0.725
        12 -11.8369    147.6483     14.5239   4.4364384026e+01   4.5899251441e+01     0.565782    0.3177694 -17.51    0.0024914    2.030    0.507
        13 -11.8129    147.5995      4.9941   4.0957680843e+01   4.6846514606e+01    0.6058986    0.4585062   4.47  0.003172003    1.612    0.380
        14  -9.8628    182.9065     15.1606   4.0396633339e+01   3.6612649297e+01    0.3549852     0.150076 -38.28   0.00149603    2.090    0.522
        15 -11.7275    175.6416      3.8616   3.7646576564e+01   3.9575358557e+01    0.6939991    0.4579071 -79.24  0.003576949    1.478    0.323
        16 -10.1657    191.6611     13.4154   3.9057161977e+01   3.4603117540e+01    0.5054681    0.2424067 -39.90  0.001920587    1.838    0.456
        17 -10.7613    187.7438      4.8046   3.6899331305e+01   3.6422161177e+01    0.6745198    0.2170428 -39.34  0.002578722    2.557    0.609
        18 -11.6536    138.8077     13.4637   4.5273134572e+01   4.8377199304e+01    0.4736844    0.2818455 -69.17  0.002059494    1.998    0.500
        19 -12.3815    126.0941      9.3638   4.5711756983e+01   5.2198374807e+01    0.9255987    0.3220612 -30.14   0.00342817    2.733    0.634
        20 -11.1732    155.9060     11.7645   4.2307052380e+01   4.3981957465e+01    0.4113543    0.1363105 -37.96  0.001484571    2.713    0.631
        21 -10.5212    180.0125      9.4276   3.8948539494e+01   3.7928354437e+01    0.3792826    0.2215678  -4.64  0.001705894    2.321    0.569
        22 -11.6115    158.8002      5.0054   3.9673429462e+01   4.3864973419e+01     0.721364    0.3436288 -51.67  0.002806592    2.150    0.535
        23 -11.7715    110.6489      6.1098   4.7120144339e+01   5.6609580900e+01    0.7962918     0.322987 -54.58  0.002596403    3.846    0.740
        24 -10.4017    199.9705      6.5151   3.6433337275e+01   3.3259129020e+01    0.2643343    0.1789697 -60.80  0.001323341    1.345    0.256
        25  -9.9256    195.0690      4.3065   3.6185506135e+01   3.4659064026e+01    0.5190789    0.1707366 -47.60  0.002017379    2.697    0.629
        26 -12.1017    136.5225      3.4944   4.1827060512e+01   4.9951005332e+01    0.9076235    0.3218586  80.87  0.003023963    3.263    0.693
        27  -9.2638    211.0683    176.9018   7.6024891245e+01   7.3243608993e+00    0.1735939    0.1625772  19.51 0.0007529015    1.323    0.244
        28 -10.7859    241.5248    222.4480   7.8584276568e+01  -2.1652533088e+00    0.2329526    0.2053223 -89.66  0.001513059    3.524    0.716
        29 -10.2117    242.3137    217.1340   7.7652797290e+01  -1.7185934654e+00    0.3521507     0.292389  87.03  0.001851226    5.275    0.810
        30 -10.7606    238.1698    249.4088   8.2950179728e+01  -4.3625897213e+00    0.2103246    0.1595171  37.02  0.001669217    1.912    0.477
        31 -11.5624    248.0095    229.5451   7.8659082272e+01  -3.6104296510e+00     0.674492    0.2147036 -36.12   0.00345442    3.706    0.730
        32 -12.6309    247.0587    247.5887   8.1364324666e+01  -5.1620579570e+00    0.6717166    0.6180248  22.80  0.005875808    2.063    0.515
        33  -9.8635    101.1527    176.1140   9.9064639124e+01   2.5526897873e+01    0.1858659    0.1444434  63.26            0    1.319    0.242
        34  -9.6696    227.2708    175.4194   7.3044169465e+01   5.0777475962e+00    0.1946783    0.1431422  37.35  0.001256183    1.463    0.317
        35  -8.8985    221.3268    175.6967   7.4068039890e+01   5.9247178325e+00     0.102276   0.09937327 -80.95 0.0003192209    1.644    0.392
        36  -9.3983    237.6337    173.5140   7.1059607643e+01   3.8147740970e+00    0.1904643    0.1699778  83.67  0.001263392    2.161    0.537
        37  -8.7411    217.3091    173.6791   7.4371671263e+01   6.7996776318e+00    0.1050502   0.09993067 -67.48  0.000300341    1.644    0.392
        38  -9.8660    130.4913    172.9904   9.1620032066e+01   2.1364773915e+01    0.1825494    0.1215843 -84.66 0.0008106279    2.630    0.620
        39  -8.7054    176.6576    172.3341   8.1580716850e+01   1.3583347428e+01    0.1245524    0.1050892  73.99  0.000705072    1.758    0.431
        40  -9.7744    224.3386    169.5679   7.2446008641e+01   6.2720233222e+00    0.2754057    0.2381428 -70.25  0.001742542    2.061    0.515
        41  -9.0616    190.4853    169.9859   7.8472968459e+01   1.1622885824e+01    0.1694042    0.1132627 -60.47 0.0008104963    2.639    0.621
        42  -9.9342    237.8842    165.9990   6.9636999495e+01   4.7090859914e+00    0.3934871    0.1531125 -32.11  0.001897677    2.349    0.574
        43  -9.1495    197.6852    165.5109   7.6293564028e+01   1.1093340966e+01    0.2510594    0.1503586 -47.68  0.001258174    2.123    0.529
        44  -9.5729    137.3316    166.6524   8.8972135787e+01   2.1389675421e+01     0.139915    0.1054324  70.47 0.0007049151    1.766    0.434
        45  -8.9477    231.9417    165.5213   7.0470571205e+01   5.6498661913e+00    0.1740651    0.1098239  36.90  0.001033472    1.598    0.374
        46  -8.9453    180.6880    165.3467   7.9487737237e+01   1.4010667381e+01    0.1233558    0.1075885  85.40 0.0007046158    1.712    0.416
        47  -8.4509    226.3622    164.6920   7.1203288973e+01   6.6041650610e+00    0.1072751   0.09954336 -72.47 0.0007039644    1.741    0.426
        48  -9.3703    221.6466    164.1225   7.1863951466e+01   7.4105515739e+00    0.1972235     0.166164  34.56  0.001081703    1.328    0.247
        49  -9.2471    215.7767    162.3246   7.2499587722e+01   8.5863093489e+00    0.2321755    0.1894771 -55.89  0.001139018    1.826    0.452
        50  -9.9392    230.3022    161.5115   6.9970156375e+01   6.4176027162e+00    0.2151692    0.2007146   7.93  0.001529139    1.298    0.230
        51  -9.2610    188.9939    162.0180   7.7245455078e+01   1.3101334238e+01    0.1928674    0.1682577 -86.71 0.0008555445    1.766    0.434
        52  -9.6946    142.4625    161.4794   8.6872045183e+01   2.1459585961e+01    0.2357729     0.135971 -60.17  0.001035536    2.360    0.576
        53  -9.5849    210.3953    160.2386   7.3016534602e+01   9.7544615483e+00    0.3046063    0.1122448 -37.64  0.001292924    2.680    0.627
        54  -9.5583    223.1772    157.8660   7.0410376679e+01   8.0156569178e+00    0.2200795    0.1852723  -5.36  0.001101741    1.036    0.034
        55 -10.1428    182.4654    155.3970   7.7206732894e+01   1.5306175566e+01    0.4761531    0.2628735 -53.91  0.002069391    2.680    0.627
        56 -10.0146    224.2865    151.6738   6.9013697134e+01   8.6829501062e+00     0.324062    0.1584283 -22.37  0.001530144    2.185    0.542
        57 -11.4072    212.5013    121.8952   6.4641124083e+01   1.5033496299e+01    0.3941911    0.2512748 -44.01  0.001735292    1.646    0.393
        58 -10.5412    231.3466    156.5551   6.8852599850e+01   6.9066911792e+00    0.2686476    0.2509066  48.70  0.001688312    1.494    0.330
        59 -12.2224    219.3242    143.8347   6.8233710755e+01   1.0601628769e+01    0.6916106    0.5630584 -68.94  0.004012527    1.984    0.496
        60 -11.7549    213.6087    134.5272   6.7222682723e+01   1.2948136671e+01    0.7029874    0.2734469 -35.14  0.002964004    2.392    0.582
        61  -9.8790    212.6663    127.1529   6.5779736924e+01   1.4215455411e+01    0.2665143     0.214756 -59.95  0.001071636    1.651    0.394
        62 -11.4673    230.1788    146.7773   6.7104850281e+01   8.3958161321e+00    0.7993149    0.2417507 -37.91  0.003061544    3.142    0.682
        63 -11.2907    224.1388    137.7140   6.6194598212e+01   1.0648023378e+01    0.6194054    0.4580604  81.23  0.003177971    2.685    0.628
        64  -9.4384    217.3488    156.5819   7.1120472854e+01   9.1318957479e+00    0.2731711    0.2015066 -30.59  0.000989586    1.323    0.244
        65  -9.2930    191.1910    156.6415   7.5777748182e+01   1.3559447715e+01    0.2658947    0.2160251 -65.19    0.0014934    1.830    0.454
        66  -9.1448    212.8380    154.7740   7.1524889829e+01   1.0131406628e+01    0.2239766    0.1572037 -53.34  0.001100265    2.070    0.517
        67 -10.7571    204.8185    152.7646   7.2515612758e+01   1.1782774291e+01    0.4820551    0.3426749  77.23  0.002221591    3.141    0.682
        68 -10.1897    174.4400    151.2929   7.7982808024e+01   1.7449898765e+01    0.4068688    0.1318251 -39.04  0.001451693    3.233    0.691
        69 -10.2256    216.6607    150.8039   7.0088457114e+01   1.0059638468e+01    0.4411245      0.21836  53.78  0.001969785    2.865    0.651
        70  -9.4384    186.6941    149.1849   7.5129641155e+01   1.5552462400e+01    0.3042204    0.2286565 -70.41  0.001524613    2.220    0.549
        71 -11.9625    205.9510    142.8429   7.0283750451e+01   1.3072736695e+01    0.6669714    0.3878685 -47.17  0.003251117    2.072    0.517
        72  -9.8211    194.4819    144.9022   7.2773967942e+01   1.4819771213e+01    0.3425273    0.2101676 -37.61  0.001745534    1.625    0.385
        73 -10.3983    172.2877    144.5701   7.7035532717e+01   1.9010131314e+01    0.3400384    0.1630615 -42.11  0.001455838    2.158    0.537
        74 -11.0057    122.4050    144.4948   8.8467748915e+01   2.8500218246e+01    0.4037818    0.1871594 -52.49  0.001620359    2.332    0.571
        75 -10.1235    180.2340    143.8043   7.5270682938e+01   1.7639001082e+01    0.3374355    0.1904269 -44.07  0.001576464    1.890    0.471
        76 -10.6303    186.4334    141.2716   7.3524681163e+01   1.6894952866e+01    0.4158323    0.3184676 -72.33  0.002101915    2.091    0.522
        77  -9.3900    155.0000    142.9884   8.0403397822e+01   2.2609666087e+01     0.230548   0.08117325 -43.74 0.0008063468    2.970    0.663
        78 -10.1551    149.6805    141.0787   8.1200533021e+01   2.4001618735e+01    0.3890901    0.1712981 -37.15  0.001477734    2.620    0.618
        79 -10.1754    138.4625    140.5106   8.3705243812e+01   2.6285602078e+01    0.2926633    0.1436844 -46.53  0.001202198    2.146    0.534
        80 -10.7300    110.7995    140.7288   9.0740997154e+01   3.1425408371e+01    0.2971998    0.2072924 -67.08  0.001427403    1.653    0.395
        81 -11.6501    193.5211    137.0178   7.1276124939e+01   1.6254886433e+01    0.6035613     0.417669  74.91   0.00273885    2.683    0.627
        82 -11.6006    156.0345    135.7781   7.8627855723e+01   2.3762657195e+01    0.5340226    0.3586591 -73.97  0.002227191    2.639    0.621
        83 -11.8371    171.2090    132.7595   7.4702046120e+01   2.1298358293e+01    0.7724035    0.3033792 -49.23  0.002697483    3.241    0.692
        84  -9.8745    165.8120    135.3358   7.6403991585e+01   2.1906443954e+01    0.3428186    0.1922855 -55.94  0.001409519    2.457    0.593
        85 -10.0670    146.5628    135.2368   8.0666215372e+01   2.5745858033e+01    0.3423395    0.1417184 -42.19  0.001280083    2.539    0.606
        86 -10.8253    204.8824    123.5555   6.6282023346e+01   1.6224459432e+01    0.3657666    0.1878535 -30.99  0.001669247    1.874    0.466
        87  -9.6712    198.1761    131.2834   6.9176808846e+01   1.6291189143e+01      0.25831    0.1727468 -57.50  0.001233902    2.135    0.532
        88 -10.2578    142.0034    129.8342   8.0546550466e+01   2.7727371452e+01     0.377427    0.1510416 -35.70  0.001244982    3.290    0.696
        89  -9.8902    159.6465    129.6805   7.6470748659e+01   2.4183017324e+01    0.3047639    0.1779997 -47.45  0.001352727    1.832    0.454
        90 -11.0971    191.1584    127.3594   6.9579402878e+01   1.8276599674e+01    0.4792947    0.3238677 -36.64  0.001987977    1.441    0.306
        91 -11.1103    204.1204    130.9578   6.8057712038e+01   1.5223108312e+01    0.4647178    0.3201018 -51.06  0.001930666    1.780    0.438
        92 -11.8603    175.7157    123.1319   7.1586575533e+01   2.2089756441e+01    0.7544948    0.4133421 -56.26  0.002976984    2.685    0.628
        93 -10.3107    136.4303    125.7245   8.0966878051e+01   2.9688310008e+01    0.4535339    0.1462222 -47.51  0.001457705    3.262    0.693
        94 -10.2620    199.1431    121.9809   6.6917761788e+01   1.7581494916e+01     0.414077      0.18005 -39.60  0.001619577    2.215    0.549
        95 -10.8359    183.8469    134.7468   7.2611876954e+01   1.8474084792e+01    0.3094282    0.1877466 -41.17  0.001360047    1.674    0.403
        96  -9.8874    193.5936    121.2610   6.7741782505e+01   1.8791868207e+01    0.2610652    0.1257401 -38.84  0.001118047    2.000    0.500
        97 -10.7604    159.6205    121.0080   7.4462482050e+01   2.5813393261e+01    0.3531725     0.256459 -59.15  0.001687765    1.670    0.401
        98 -10.7532    185.9691    118.8066   6.8577831215e+01   2.0734814319e+01    0.5374159    0.2933204 -57.34  0.002065263    2.954    0.661
        99 -10.2311    128.2633    118.7823   8.1407173449e+01   3.2802945412e+01    0.4405989    0.1317391 -49.41   0.00132107    3.615    0.723
       100 -10.7250    210.7642    109.9127   6.2183976360e+01   1.7173292099e+01    0.3045807    0.2115901 -58.43  0.001531923    1.896    0.473
       101 -10.8968    204.2213    115.3050   6.4508551562e+01   1.7633854354e+01    0.4393336    0.3202828  -9.27  0.002303496    1.508    0.337
       102 -11.1938    190.4174    114.4877   6.6731655550e+01   2.0543218783e+01    0.4916716    0.3441051 -34.45  0.002521488    1.368    0.269
       103 -10.6369    136.0000    114.9741   7.8523590264e+01   3.1986169765e+01    0.5810784   0.08613936 -44.72  0.001248433    6.890    0.855
       104 -10.5854    158.8992    112.8858   7.2647554999e+01   2.7492433464e+01    0.4241426    0.1970367 -45.99  0.001633695    2.251    0.556
       105 -10.3713    197.6539    109.8719   6.4347200827e+01   1.9809203440e+01    0.6305156    0.2659947 -31.41  0.002486564    2.372    0.578
       106 -10.7229    148.9189    111.2425   7.4486969301e+01   2.9966769724e+01    0.4074171    0.1886096 -40.46  0.001557732    2.198    0.545
       107 -10.0190    141.1313    111.2930   7.6346922745e+01   3.1640399280e+01    0.4856305    0.1013561 -41.40  0.001201083    5.163    0.806
       108 -10.9011    168.8007    110.3155   6.9903565787e+01   2.5826254829e+01    0.4448524    0.2008611 -39.45  0.001736627    2.181    0.542
       109 -11.0023    177.2541    105.7588   6.7071323799e+01   2.4799846808e+01    0.5832165    0.2603561 -50.64  0.002081947    2.889    0.654
       110 -10.5747    204.6031    104.9420   6.2001161431e+01   1.9165619648e+01    0.5288059    0.2371204 -29.52  0.001862138    2.227    0.551
       111  -9.3627    187.7740    107.1994   6.5451065329e+01   2.2300458046e+01    0.2022035    0.1653181   6.34  0.001070314    1.362    0.266
       112  -8.9073    203.0188    177.2600   7.7505484086e+01   8.5290559755e+00    0.1901571    0.1386645 -73.70 0.0008839162    3.527    0.716
       113 -10.0655    189.8617    100.7418   6.3473649556e+01   2.2919636330e+01    0.4836163    0.2107251 -46.60  0.001835033    2.538    0.606
       114  -9.4801    198.7028    100.3051   6.1846947375e+01   2.1110287023e+01    0.2888979    0.1806757 -26.16   0.00119509    1.603    0.376
       115  -9.0035    169.6815     99.5004   6.6963455666e+01   2.7565898672e+01    0.2616136    0.1329049 -37.38  0.001060694    1.928    0.481
       116 -10.7332    220.5831     94.6974   5.7123153654e+01   1.7477756879e+01    0.6922092    0.2979882 -20.25  0.002521857    3.232    0.691
       117  -9.5007    166.4574    103.9431   6.8773824277e+01   2.7488690219e+01    0.3990708    0.1434992 -37.96  0.001364891    2.757    0.637
       118  -9.7701    233.3198    175.6706   7.2123825228e+01   4.1665336232e+00    0.3050272    0.2244467  77.33  0.001401874    4.570    0.781
       119  -9.5414    194.0737     94.3568   6.1136419086e+01   2.3040844164e+01    0.3359759    0.2147818 -52.67  0.001566829    1.780    0.438
       120  -9.9866    204.2897     92.3528   5.8975441403e+01   2.1165056447e+01    0.3753591    0.1211903 -31.16  0.001171949    3.057    0.673
       121  -9.9312    186.3471     91.5752   6.1751705993e+01   2.5186989791e+01    0.5423414     0.223969 -28.19  0.001931327    2.771    0.639
       122 -10.4229    250.1867    221.9267   7.7195749569e+01  -3.1233577589e+00     0.465262    0.1285571 -35.83   0.00218826    4.087    0.755
       123  -9.8106    246.3775    216.1870   7.6888136563e+01  -2.1072565918e+00    0.1629863      0.15921 -22.58  0.001156816    2.019    0.505
       124  -9.0055    228.2563     90.0066   5.4967670233e+01   1.6630877114e+01    0.1952982     0.151806 -31.39 0.0006893864    1.125    0.111
       125  -9.5525    216.1290     86.8958   5.5873319084e+01   1.9501641711e+01    0.3424885    0.1552149 -41.92  0.001381612    2.062    0.515
       126  -9.3797    194.3961     87.2785   5.9269377714e+01   2.4088386158e+01    0.2976801    0.2136929 -43.54  0.001516429    1.347    0.257
       127 -10.1852    224.9556     85.0348   5.4223551373e+01   1.7973333163e+01     0.458101    0.1862429 -28.06  0.001880029    2.350    0.575
       128 -11.0464    242.9251    211.6868   7.6710558107e+01  -1.2275005251e+00    0.4465121    0.2392352  49.47  0.002294462    3.724    0.731
       129  -8.9220    181.8203     86.6495   6.1253115939e+01   2.7013573929e+01     0.290545    0.1578129 -43.34   0.00124018    1.805    0.446
       130  -9.7005    173.7523     83.8745   6.1973614694e+01   2.9335341457e+01     0.432895    0.2619988  -7.00  0.001617448    2.840    0.648
       131  -9.8678    218.2728     81.7045   5.4306505432e+01   1.9800964375e+01    0.3833747    0.2058288 -15.02  0.001610296    2.474    0.596
       132  -9.5944    212.9037     79.2038   5.4420211410e+01   2.1283446561e+01    0.3905014    0.1853414 -18.79  0.001492373    2.822    0.646
       133  -9.3636    186.0305     80.2576   5.8803516534e+01   2.7080935671e+01     0.301563    0.1863733  -2.13  0.001174101    2.720    0.632
       134  -9.2195    166.5061     78.4842   6.1839588670e+01   3.1955427252e+01    0.2684999    0.1475735 -22.52  0.001032759    2.298    0.565
       135 -10.2401    227.2673     74.5686   5.1413451912e+01   1.8942954459e+01    0.5587344    0.2082797 -44.19  0.002231638    2.581    0.613
       136  -9.5643    225.4883     68.4858   5.0146767718e+01   2.0124851287e+01    0.2382643    0.1571791 -20.84  0.000780741    1.528    0.346
       137 -10.5981    249.0607    203.5297   7.4477389605e+01  -1.1207221668e+00    0.4372154    0.3011603 -53.18  0.002415333    3.833    0.739
       138  -9.0675    181.4981     76.9948   5.8684380532e+01   2.8650950799e+01    0.2310805    0.1391895 -33.47  0.001034849    1.596    0.373
       139  -9.7263    209.0512     74.2840   5.3707437532e+01   2.2818067374e+01    0.4439077    0.2248975 -11.09  0.001557733    3.563    0.719
       140  -8.4824    158.3133     75.6623   6.2647579653e+01   3.4409734791e+01    0.1586666    0.1162435 -69.49 0.0007046468    1.693    0.409
       141  -9.2324    138.6656     73.1381   6.6192249997e+01   3.9635964621e+01    0.3291624    0.2021119  -9.41  0.001158886    2.963    0.662
       142  -9.5364    193.2856     71.4562   5.5256803631e+01   2.6767903875e+01    0.3831961    0.1521156 -33.28  0.001458282    2.324    0.570
       143  -9.0114    216.4973     71.0729   5.1899456445e+01   2.1664434608e+01    0.2725444    0.1277724 -26.08 0.0009874265    2.130    0.530
       144  -9.5346    216.8520     66.0547   5.0589176593e+01   2.2277485023e+01    0.3740056    0.1846769 -22.84  0.001607519    2.175    0.540
       145  -9.0618    168.2792     67.8736   5.8421811386e+01   3.3278904639e+01    0.3558157    0.1345215 -30.80  0.001206109    2.773    0.639
       146  -9.1526    218.7264    189.7757   7.6987414046e+01   4.5011703163e+00     0.203297    0.1359439 -49.94  0.001152733    2.433    0.589
       147  -8.6338    229.2922    225.6554   8.0975511398e+01  -1.0240273809e+00   0.08896127   0.08161529  19.01 0.0004606745    1.660    0.398
       148  -9.4173    210.3129     64.0271   5.0895808471e+01   2.3983815710e+01    0.4079281    0.1341724 -46.67  0.001387122    3.294    0.696
       149  -9.2815    227.4682    188.0265   7.5244645917e+01   3.4772684011e+00     0.166492    0.1023278 -29.28  0.001021127    1.584    0.369
       150 -10.1443    225.4461     61.2271   4.8364985367e+01   2.1092056639e+01    0.5119394    0.2978352 -48.19  0.002585235    1.638    0.390
       151  -8.1455    223.6323    187.7021   7.5815226073e+01   4.0592797224e+00    0.1254345   0.07599775   8.19            0    1.729    0.422
       152  -9.3923    215.3571     59.4763   4.9096193656e+01   2.3489119058e+01    0.3872537    0.1560664 -25.03  0.001401674    2.619    0.618
       153  -9.4546    210.1894     56.9997   4.9079961659e+01   2.4966591791e+01    0.4406548    0.1000188 -39.73  0.001416391    3.499    0.714
       154  -8.8667     55.9961    216.9754   1.1368048860e+02   2.3656504286e+01     0.137828    0.1088426  55.94 0.0009609401    1.051    0.049
       155  -9.4224    187.7211     54.9763   5.1508181305e+01   3.0485064723e+01    0.3882938    0.2202366  -2.67  0.001410022    3.248    0.692
       156 -10.3424    220.9837     52.2687   4.6617987087e+01   2.3201515981e+01    0.6561793    0.2424923 -52.80  0.002323661    3.461    0.711
       157  -9.2263    213.7108     53.1473   4.7656979140e+01   2.4688177425e+01    0.2615927    0.1558869 -25.82  0.001276183    1.633    0.388
       158  -9.4893    211.1315     48.3949   4.6709661664e+01   2.5882688231e+01    0.3822728    0.1812516 -10.75  0.001312193    3.844    0.740
       159  -9.7212    204.6687     47.6570   4.7260855913e+01   2.7459633800e+01    0.4649012    0.1366104 -24.84  0.001437715    3.994    0.750
       160  -8.9068    228.7111    192.5879   7.5824169244e+01   2.7538843238e+00    0.1476673   0.09965963  39.06 0.0009422796    1.624    0.384
       161  -9.3158    233.4902    215.5076   7.8774059280e+01  -4.6827698874e-01    0.1681971   0.09404667 -39.07  0.001029265    2.334    0.571
       162  -9.3146    190.2625     41.9958   4.7449391031e+01   3.1625624876e+01    0.3887857    0.1249311 -35.46  0.001404339    2.636    0.621
       163  -9.2174    204.1303     39.2725   4.5049924857e+01   2.8648344497e+01    0.2828629    0.1343601 -49.79  0.001211483    2.069    0.517
       164 -10.1253    209.5597     36.6950   4.3779173372e+01   2.7699155662e+01    0.6215897    0.2705289 -59.83  0.002377483    2.953    0.661
       165  -9.6997    139.5713     36.3061   5.3556741735e+01   4.5396496499e+01    0.2974855    0.1346909 -34.97  0.001146094    2.147    0.534
       166  -9.9854    123.4315     34.7565   5.6353467853e+01   4.9831556620e+01    0.2988568    0.1349375 -36.14  0.001144677    2.183    0.542
       167  -9.7048    197.2802     32.4725   4.3919349605e+01   3.1107097600e+01    0.3843489    0.1346152 -35.43  0.001494028    2.398    0.583
       168  -8.6520    159.3058     43.6628   5.2500738955e+01   3.9213636347e+01    0.1589683    0.1072371 -62.90 0.0004571862    1.674    0.403
       169 -10.4533    152.0000     31.0074   4.9486295029e+01   4.2824244385e+01    0.3479159    0.2024085 -35.58  0.001549828    1.679    0.404
       170 -10.3920    249.4970    211.1949   7.5638829271e+01  -1.9700255954e+00     0.323459    0.3082013 -83.16  0.002470192    2.432    0.589
       171  -9.0279    193.0000     26.0466   4.2553841055e+01   3.2901720345e+01     0.224638   0.07468024 -26.30 0.0007988949    2.918    0.657
       172 -10.8470    241.9540    205.6467   7.5897403906e+01  -4.6574448148e-01    0.2779958     0.199414  38.32  0.001757683    1.715    0.417
       173  -9.9093    175.5708     23.8925   4.3862060201e+01   3.7528323795e+01    0.3800465    0.1976072 -29.80  0.001387422    1.859    0.462
       174  -9.3604    184.2162     23.3682   4.2712661253e+01   3.5390127066e+01    0.3405712    0.1348315 -34.28  0.001371631    2.227    0.551
       175 -10.4240    169.0298     17.9090   4.2754383399e+01   3.9885687096e+01    0.3501915    0.2039292  -3.47  0.001485885    2.427    0.588
       176 -10.7375    238.0905    192.3704   7.4300497928e+01   1.5110249846e+00    0.2300483    0.2013504  34.07   0.00123238    1.579    0.367
       177 -10.3542    247.9662    197.9850   7.3732226832e+01  -3.9216725351e-01    0.2923275    0.2203937  51.56   0.00194511    2.370    0.578
       178  -8.5673    228.4887    213.0132   7.9183419393e+01   4.3431617723e-01    0.1231887   0.09533815 -49.55 0.0008075507    2.381    0.580
       179 -11.6737    238.0784    200.5302   7.5664478106e+01   5.8811377137e-01    0.6191952    0.4453894 -64.00  0.002769055    5.868    0.830
       180 -10.8870    242.1215    195.5399   7.4211668335e+01   6.2246088133e-01    0.3514447    0.2393262 -46.11  0.002181783    2.447    0.591
       181  -8.5998    219.3096    200.6287   7.8707912207e+01   3.0819128960e+00   0.09652349   0.09485824  85.40 0.0007033997    1.770    0.435
       182  -9.7739    132.9806    199.0043   9.5002528274e+01   1.6282091549e+01    0.1558384    0.1289664  34.21            0    1.013    0.013
       183 -11.9414    247.9149    238.3095   7.9941195942e+01  -4.4196170016e+00    0.4615455     0.376627 -38.20  0.003653893    2.286    0.563
       184  -8.6828    230.9896    185.5318   7.4244884590e+01   3.2874167771e+00    0.1349963    0.1020568  58.02 0.0006821483    2.380    0.580
       185  -9.4215    225.0000    181.9674   7.4587322507e+01   4.5800276926e+00    0.3080777   0.06116693 -34.98  0.001050664    4.928    0.797
       186  -9.7466    147.5822    181.3793   8.9185777217e+01   1.6972954193e+01    0.2375661    0.1256637 -63.66 0.0009556789    3.456    0.711
       187 -10.1309    241.5190    179.5658   7.1549869651e+01   2.5419815196e+00    0.2312011    0.1982379 -49.05  0.001604663    1.898    0.473
       188  -9.3596    232.2176    181.3154   7.3308384215e+01   3.6283790561e+00    0.2318276    0.1405834  43.14  0.001377354    1.891    0.471
       189  -8.2879    221.3734    179.6714   7.4776523879e+01   5.4025877257e+00    0.1051808   0.09861825  88.33 0.0007027978    1.831    0.454
