#   1 NUMBER                 Running object number                                     
#   2 MAG_AUTO               Kron-like elliptical aperture magnitude                    [mag]
#   3 X_IMAGE                Object position along x                                    [pixel]
#   4 Y_IMAGE                Object position along y                                    [pixel]
#   5 X_WORLD                Barycenter position along world x axis                     [deg]
#   6 Y_WORLD                Barycenter position along world y axis                     [deg]
#   7 A_WORLD                Profile RMS along major axis (world units)                 [deg]
#   8 B_WORLD                Profile RMS along minor axis (world units)                 [deg]
#   9 THETA_WORLD            Position angle (CCW/world-x)                               [deg]
#  10 FWHM_WORLD             FWHM assuming a gaussian core                              [deg]
#  11 ELONGATION             A_IMAGE/B_IMAGE                                           
#  12 ELLIPTICITY            1 - B_IMAGE/A_IMAGE                                       
         1 -14.0552    164.2546     46.0901   7.5471272839e+01   3.8224695742e+01     1.193671     1.060236  -9.50  0.003790404    1.331    0.249
         2 -14.3004    179.6216     13.6602   6.4269110018e+01   3.8304548003e+01     1.712858     1.113011  80.28  0.006645189    1.400    0.286
         3 -10.5944     43.0000      7.0055   9.4757322420e+01   6.7358511558e+01    0.1726154   0.05668977 -30.20 0.0008043557    2.956    0.662
         4  -8.7766    134.8640    236.6288   1.2541498770e+02   6.2526688876e+00    0.2193024    0.1628504  76.61 0.0009063229    1.565    0.361
         5 -14.6475    103.1232    243.7104   1.3266292787e+02   1.0299051948e+01     1.198273    0.4498218 -62.39  0.005187971    3.069    0.674
         6 -19.9147     65.8808    168.9070   1.3107046695e+02   3.2364748758e+01     19.33545     5.819433 -64.00   0.06770622    3.139    0.681
         7 -11.3475    159.4852    194.8296   1.1333193871e+02   9.8483109537e+00    0.2903455    0.2753038 -72.86 0.0007827124    1.138    0.121
         8 -11.0118     13.4392    239.7152   1.4863822764e+02   2.3232089126e+01    0.1925068    0.1135067 -78.78 0.0009296944    1.479    0.324
         9 -11.2255    153.2829    191.9563   1.1418795784e+02   1.1679734476e+01    0.2873768    0.2385507  64.39  0.001491456    1.265    0.209
        10  -9.7005    149.4802    188.5129   1.1440719358e+02   1.3168925906e+01    0.4190328    0.1953444  53.00 0.0008768648    2.400    0.583
        11 -11.0964    155.0756    187.2799   1.1289706779e+02   1.2309355553e+01    0.3499386    0.2866594 -49.70 0.0006660079    1.295    0.228
        12 -11.1482    151.0322    182.8130   1.1296135847e+02   1.4084587926e+01    0.3224742    0.2544881  87.83 0.0004332862    1.575    0.365
        13 -10.1275    220.5020    195.5054   1.0062072248e+02  -2.1092847670e+00    0.1390501    0.1250741   5.08 0.0008106712    1.002    0.002
        14  -9.5347    103.1821    194.5910   1.2612523769e+02   2.0512698865e+01    0.3829664    0.1996259  32.43   0.00160292    2.256    0.557
        15 -10.9186    169.9038    178.4828   1.0779772618e+02   1.1128534335e+01    0.3922779    0.2532541  55.71  0.001461607    1.698    0.411
        16 -12.1045    175.0830    186.0332   1.0817249786e+02   8.5071270802e+00    0.7973027    0.3835401 -57.69  0.002846637    2.960    0.662
        17 -10.9987    164.6633    187.1616   1.1070941464e+02   1.0394080444e+01    0.2626615    0.1995863  53.74  0.000740841    1.328    0.247
        18  -9.4245    151.3805    238.4997   1.2231588537e+02   2.9944530279e+00    0.2335888      0.11422  31.96  0.001002215    2.232    0.552
        19 -10.8865    125.2487    237.3268   1.2746644860e+02   7.7974696238e+00     0.193371    0.1565717 -70.76 0.0005276068    1.388    0.279
        20 -11.5204     28.0580    235.1606   1.4586041928e+02   2.2500120614e+01    0.1974821    0.1254391 -78.93 0.0009693981    1.403    0.287
        21 -10.8749     21.8067    233.5061   1.4683386848e+02   2.3536251484e+01    0.1370615    0.1012482  74.06 0.0002585581    1.049    0.046
        22  -9.9755     31.1714    182.6174   1.4079540592e+02   3.3395892801e+01    0.2996645    0.2065632   0.52  0.001607571    2.729    0.634
        23 -10.3387     27.0500    180.2612   1.4144790055e+02   3.4363002033e+01    0.3396998    0.2079353 -48.94  0.001554308    1.962    0.490
        24 -10.4201    185.1400    170.2144   1.0269496778e+02   9.6499490601e+00    0.5014218    0.3096922 -64.61  0.001635307    2.415    0.586
        25 -11.3640    189.5717    178.7903   1.0354866391e+02   6.9999523701e+00    0.4686627    0.3338096  70.52  0.001400378    2.014    0.504
        26 -10.6538    188.6801    175.3353   1.0301697315e+02   7.8731597830e+00    0.2995482    0.2421259  50.37 0.0009090365    1.263    0.208
        27 -12.5569    144.3604    174.5914   1.1290217005e+02   1.7249583647e+01    0.7358825    0.6121112 -68.53  0.003425931    1.296    0.229
        28 -12.9995    137.6977    171.0313   1.1378064287e+02   1.9404181971e+01    0.8657809    0.5078205  53.26  0.002736766    1.781    0.439
        29 -11.4048    204.2677    174.8643   9.9643500927e+01   4.7754147817e+00    0.4698383    0.3457992 -55.91  0.001738919    1.597    0.374
        30 -10.2165      5.0286    232.5783   1.4961711674e+02   2.5487189446e+01    0.1154334   0.09076367  61.70 0.0002831223    1.300    0.231
        31 -11.1343    196.2835    174.9289   1.0131548190e+02   6.3870780689e+00    0.3955581    0.3380822  65.73  0.001444933    1.366    0.268
        32 -11.7728    126.3259    172.7684   1.1686994356e+02   2.1263605672e+01    0.6460378    0.3705523  63.37  0.002308897    2.333    0.571
        33 -11.1492     26.2393    173.6256   1.4094374863e+02   3.5959129825e+01    0.2292483    0.1969079 -71.13 0.0002440658    1.207    0.171
        34 -11.1910    230.1909    166.5449   9.2789141359e+01   1.2178298524e+00    0.3531046    0.1886469 -54.81  0.001403676    2.595    0.615
        35 -11.7450    191.8841    163.5354   9.9794687401e+01   9.5829690909e+00    0.6506602    0.4136933 -64.73  0.001756376    2.299    0.565
        36 -11.6263    189.3436    155.3806   9.8526972139e+01   1.1797877532e+01    0.5133711    0.4822045   0.38  0.001551165    1.101    0.092
        37  -9.4990    105.9480    229.7865   1.3042706733e+02   1.2538323713e+01     0.169001     0.144098  66.82 0.0004070757    1.033    0.032
        38 -10.7801    141.2181    164.1330   1.1152148968e+02   2.0253493273e+01    0.2705355    0.2218248  61.37 0.0003506058    1.254    0.202
        39  -9.5073    135.2744    179.8799   1.1608135109e+02   1.7889530559e+01    0.2700437    0.1898298  52.95 0.0005697391    1.398    0.284
        40  -9.3680    127.7259    223.2891   1.2500611018e+02   1.0072417011e+01    0.1518881    0.1210436 -55.95 0.0003499885    1.414    0.293
        41 -11.2069    218.2968    220.5391   1.0582551051e+02  -5.8571059190e+00    0.3651814    0.1955025 -48.33  0.001702468    2.398    0.583
        42 -10.4282     22.9811    156.1213   1.3975807651e+02   4.0309135741e+01    0.2246458    0.1914015  47.43 0.0004228856    1.352    0.260
        43  -9.0490     18.5301    158.4997   1.4107581799e+02   4.0159183990e+01    0.2286099    0.1545119 -53.63 0.0009958171    1.499    0.333
        44 -10.2501     17.7500    155.2696   1.4090153590e+02   4.0970416975e+01    0.3301893    0.1552182 -57.54   0.00141671    1.850    0.459
        45 -10.3569    166.7324    155.0456   1.0349199546e+02   1.6826126793e+01     0.420916    0.2707209  74.85  0.001555274    2.579    0.612
        46 -12.1361     23.5955    217.7550   1.4540060126e+02   2.6541535413e+01     0.233988    0.1554004 -72.66  0.001539437    1.408    0.290
        47 -10.6434     18.3097    220.4238   1.4655667427e+02   2.6558332036e+01    0.1300801   0.08195784 -88.36 0.0008410444    1.263    0.208
        48  -9.6721    174.8609    149.1047   1.0028577738e+02   1.6311608004e+01    0.2417297    0.2138298 -88.96 0.0004879956    1.281    0.219
        49 -11.3757    106.4837    206.4577   1.2715576420e+02   1.7314378610e+01    0.2680532     0.250354   3.33 0.0005971246    1.403    0.287
        50 -10.5068      8.7357    138.0235   1.4111666004e+02   4.5635396123e+01    0.3230499    0.1676956 -55.55  0.001163346    1.651    0.394
        51 -12.1922    104.8135    202.8624   1.2700087522e+02   1.8387955866e+01    0.3733907    0.3102038  53.01  0.001322553    1.117    0.105
        52 -10.5274    152.2108    138.9256   1.0320858585e+02   2.3603917408e+01    0.2551311    0.2216452 -84.01  0.001236298    1.287    0.223
        53 -10.8336    160.5558    127.9127   9.8529153702e+01   2.4140735930e+01    0.4124765    0.3001898 -60.59  0.001668119    1.541    0.351
        54  -9.7915    168.0204    113.0234   9.3027632479e+01   2.5545308912e+01    0.2682979    0.1987866 -83.33  0.001139391    1.822    0.451
        55 -12.1987     11.5648    205.9680   1.4676481146e+02   3.0261670597e+01    0.3578595    0.2409007  35.26  0.001216328    1.811    0.448
        56 -10.0689    204.9369    110.4758   8.4743991802e+01   1.7279186564e+01    0.3554726    0.2395249  30.87  0.001423561    1.952    0.488
        57  -9.6828    121.2217    197.7555   1.2250375303e+02   1.6593022741e+01    0.1671237    0.1597982 -33.82 0.0003016407    1.243    0.195
        58  -9.9303    112.9015    196.2323   1.2415658783e+02   1.8438013814e+01    0.3587237    0.2483486  -6.15  0.001443811    3.091    0.676
        59 -11.6058    169.4231    194.8349   1.1113317179e+02   7.8697608631e+00    0.3392241     0.257706 -57.52  0.001229161    1.499    0.333
        60  -9.8535    145.0300     81.7144   8.9874091205e+01   3.7186412478e+01    0.2187455    0.1957362  51.34 0.0004697206    1.080    0.074
        61 -13.4536    152.6614     60.5580   8.1966821043e+01   3.8954728614e+01     1.215058    0.9760551  15.77 0.0009840279    1.516    0.340
        62  -9.6447     32.3697    249.4599   1.4609746128e+02   1.9221954001e+01    0.1142157   0.07861371  74.07 0.0002559815    1.067    0.063
        63 -12.4969    168.6348     37.7961   7.2369132717e+01   3.8239702897e+01    0.4561156    0.3934094  55.16 0.0009567463    1.114    0.102
        64 -10.1347     13.5159     59.9803   1.2588404948e+02   6.2125346534e+01    0.1689504    0.1578752  20.59  0.000424298    1.391    0.281
        65  -9.7839    135.4668    240.7355   1.2585691109e+02   5.3963281001e+00    0.2645714    0.1688712  28.63  0.001237299    1.800    0.445
