#   1 NUMBER                 Running object number                                     
#   2 MAG_AUTO               Kron-like elliptical aperture magnitude                    [mag]
#   3 X_IMAGE                Object position along x                                    [pixel]
#   4 Y_IMAGE                Object position along y                                    [pixel]
#   5 X_WORLD                Barycenter position along world x axis                     [deg]
#   6 Y_WORLD                Barycenter position along world y axis                     [deg]
#   7 A_WORLD                Profile RMS along major axis (world units)                 [deg]
#   8 B_WORLD                Profile RMS along minor axis (world units)                 [deg]
#   9 THETA_WORLD            Position angle (CCW/world-x)                               [deg]
#  10 FWHM_WORLD             FWHM assuming a gaussian core                              [deg]
#  11 ELONGATION             A_IMAGE/B_IMAGE                                           
#  12 ELLIPTICITY            1 - B_IMAGE/A_IMAGE                                       
         1 -14.5084    145.6958     60.5950   9.3055745959e+01   4.0454156690e+01     1.412446     1.073241   3.46  0.003577494    1.619    0.382
         2 -14.6622    156.0377     45.1905   8.5701053389e+01   4.0274668274e+01     1.221137     1.042853 -20.87  0.003520832    1.185    0.156
         3 -14.6594    166.4223     13.6929   7.3025376504e+01   4.1458885674e+01      1.02525    0.9867896 -32.96  0.003697617    1.056    0.053
         4 -12.5759    189.3931     14.4575   7.0384049904e+01   3.5321079052e+01    0.3414643    0.2435671 -63.63  0.001196895    1.495    0.331
         5 -13.9584    206.9351    177.7672   1.0872326597e+02   9.0081100347e+00      0.55726    0.4024132  24.49  0.002504775    1.165    0.141
         6 -12.5126    189.3085    250.1378   1.2219954745e+02   3.4051143646e+00    0.4648388    0.1019717  34.35  0.001465391    4.056    0.753
         7 -12.4881    181.4898    250.1871   1.2347750702e+02   4.4331502761e+00    0.2407119    0.1207576  34.78  0.001586284    1.416    0.294
         8 -20.0599     97.9246    229.4785   1.3596348193e+02   1.8217715149e+01     7.442534     5.131135  53.57   0.04824946    1.202    0.168
         9 -12.9421    203.6371    172.4181   1.0835563583e+02   1.0244601432e+01    0.5736731    0.3819911 -20.42  0.002734208    1.586    0.370
        10 -11.3354     28.4202    237.5027   1.4879216361e+02   2.4864078458e+01    0.1094567   0.07647458  75.44 0.0002395923    1.288    0.224
        11 -12.5960    196.5249    234.7522   1.1913616158e+02   3.9942616005e+00    0.1866297    0.1774082  11.12 0.0008756007    1.486    0.327
        12 -12.4125    185.8022    168.3906   1.1091257121e+02   1.3852264835e+01    0.2741424    0.2258924  -6.61  0.001327476    1.236    0.191
        13  -9.9270      8.4577    169.5360   1.4984638718e+02   3.8541146079e+01    0.1057351   0.08449642  73.29  8.36867e-05    1.082    0.075
        14 -12.2298    230.1081    166.7484   1.0278509267e+02   6.5736295116e+00    0.2648502    0.1639521 -41.03   0.00148369    2.092    0.522
        15 -12.1458     21.7225    235.4315   1.4985076227e+02   2.5817686585e+01    0.1645503    0.1154144  74.85  0.001403651    1.260    0.207
        16 -11.3966    222.2555    161.4921   1.0309206893e+02   8.5068166177e+00    0.2547562    0.2013323 -51.25  0.001224263    1.930    0.482
        17 -10.2283     13.3181    236.2299   1.5128468385e+02   2.6463471078e+01   0.07595485   0.06576709  38.38 0.0003188253    1.500    0.334
        18 -14.2028    136.0069    128.4884   1.1367670486e+02   2.9845190662e+01     1.813772    0.3597153 -50.86  0.004118974    7.748    0.871
        19 -14.8455    143.6981    144.0676   1.1505236773e+02   2.5463229079e+01     1.024743     0.594618 -59.63   0.00456427    2.331    0.571
        20 -15.5335    153.7037    146.4920   1.1331475471e+02   2.3164928730e+01     2.055021     1.276463  82.35  0.006660949    5.263    0.810
        21 -11.4815    191.8900    153.9491   1.0704086780e+02   1.4863043419e+01    0.3380841    0.2209998  -5.03  0.001712823    1.912    0.477
        22 -10.2272      4.8696    233.4790   1.5261340075e+02   2.7625127000e+01    0.1162679   0.06861325  44.19 0.0003094083    1.302    0.232
        23 -13.7291    173.7006    148.4926   1.0951767709e+02   1.9072551395e+01    0.4713615    0.4255728  42.98  0.001809862    1.155    0.134
        24 -10.6422    182.4489    149.2444   1.0792521740e+02   1.7313995777e+01    0.1725932    0.1281689 -47.43 0.0007715198    1.627    0.385
        25 -11.9528    146.9690    243.9707   1.2860096242e+02   9.7556462266e+00     0.270249    0.1634287  32.65  0.001335627    1.288    0.224
        26 -13.1455     28.2285    145.1917   1.4378200134e+02   4.1864080996e+01    0.4418742    0.3365718 -34.04  0.002849454    1.878    0.467
        27 -10.0804     28.0434    222.6914   1.4827282551e+02   2.7230282399e+01    0.1332027   0.08658671  53.56 0.0005309677    1.097    0.088
        28 -11.8627     12.7510    241.1987   1.5151826808e+02   2.5760533997e+01    0.1641206    0.1298826  89.21  0.001518946    1.454    0.312
        29 -12.3458    151.1469    238.6650   1.2732005495e+02   9.8265995085e+00    0.2684625    0.1687414  25.04 0.0008851703    1.506    0.336
        30 -19.0584     80.9979     91.4196   1.2039770641e+02   4.7649611748e+01      17.6146    0.7713341 -54.74   0.02287088   21.430    0.953
        31 -12.2969    176.3206    142.8786   1.0785322573e+02   1.9478002176e+01    0.2367434    0.1818788  49.63 0.0007175184    1.345    0.257
        32 -13.6638    160.5878    128.3570   1.0805152578e+02   2.5020893963e+01    0.4609703    0.4490615 -72.43   0.00201751    1.172    0.146
        33  -9.6596     17.6150    129.7496   1.4531866512e+02   4.6144226721e+01     0.107681   0.08382698 -40.91 0.0005031443    1.663    0.399
        34 -12.0588    142.1960    121.4733   1.1067770134e+02   2.9978681894e+01    0.4133157    0.2407356  64.58   0.00154125    2.636    0.621
        35 -10.2039     24.0868    216.3030   1.4872384975e+02   2.8659201223e+01    0.1272157   0.08955324  51.90 0.0002535231    1.104    0.094
        36 -12.1978     36.5350    116.8985   1.3874759878e+02   4.7388883578e+01    0.2528909    0.1797404 -52.00 0.0009746674    1.515    0.340
        37 -12.7321    107.7481    114.8391   1.1790771284e+02   3.7910164945e+01    0.3350597     0.263034 -52.48 0.0008720192    1.299    0.230
        38 -13.0497     11.3897    205.9484   1.5066880600e+02   3.1569428736e+01    0.3794886    0.2290868  26.56  0.002030364    1.911    0.477
        39 -12.6255    134.6893    112.3205   1.1037102972e+02   3.3264132449e+01    0.5435966    0.1939497 -45.04  0.001898465    2.899    0.655
        40 -12.1129    134.5606    105.7682   1.0881286980e+02   3.4582232247e+01    0.5214714    0.1460099 -45.41  0.001585199    3.693    0.729
        41  -9.9655     11.3240    130.2761   1.4702926347e+02   4.6506835990e+01    0.1063263   0.08055542 -50.65 0.0003889319    1.583    0.368
        42 -10.8082     24.7973    202.8942   1.4801399695e+02   3.0887936500e+01     0.137848    0.1123734  70.77 0.0002745648    1.157    0.136
        43 -10.8963    205.3669    110.2316   9.5002810202e+01   1.8706119524e+01    0.2888834    0.1858229  41.83 0.0009795801    1.529    0.346
        44 -11.1367     31.4964    104.5056   1.3873361602e+02   5.0738378131e+01    0.1996091    0.1643544   7.03  0.001061922    1.556    0.357
        45 -11.0818     35.4072    103.1259   1.3731278336e+02   5.0698758894e+01     0.210714    0.1839664  14.26 0.0006510793    1.404    0.288
        46 -10.5493     41.6734     91.9412   1.3352393166e+02   5.2712473151e+01    0.1822858    0.1497214 -73.74 0.0004565214    1.079    0.073
        47 -10.1215    107.7765     82.8261   1.0993654180e+02   4.4721798345e+01     0.191202    0.1699192  84.75 0.0003490722    1.266    0.210
        48 -12.4054     26.6692    194.7474   1.4725886915e+02   3.2166542835e+01     0.211557    0.1630204  52.45 0.0007307691    1.138    0.122
        49 -11.0906    141.8273     80.8681   1.0026767063e+02   3.7784145250e+01    0.2345409    0.2062738  10.18 0.0006138908    1.230    0.187
        50 -10.3330     20.9542    195.0172   1.4840413919e+02   3.2651609190e+01    0.1440532    0.1146646  66.88 0.0004516678    1.099    0.090
        51 -14.8272    195.4927    170.5174   1.0948762753e+02   1.1880644388e+01     1.178141    0.8164554 -68.54   0.00251116    3.386    0.705
        52 -10.5305     15.6008    246.9011   1.5121540925e+02   2.4658361035e+01    0.1474687   0.06339248  76.92  0.001016479    2.142    0.533
        53 -13.3027    159.5772     36.2856   8.1981123372e+01   4.0601273521e+01    0.4866004    0.4542232  17.01 0.0008531735    1.095    0.087
        54 -11.2775     13.4932     59.8065   1.3858858164e+02   6.2645564371e+01    0.1850793    0.1748711  21.84 0.0003994006    1.273    0.214
        55 -11.1994     26.4890     58.7502   1.3283720916e+02   6.1958035776e+01    0.3610911    0.1941023   3.33  0.001714538    2.723    0.633
        56 -12.1997    201.1293    164.8769   1.0742383250e+02   1.1678642532e+01     0.414196      0.28385 -43.06  0.001474101    1.806    0.446
