#   1 NUMBER                 Running object number                                     
#   2 MAG_AUTO               Kron-like elliptical aperture magnitude                    [mag]
#   3 X_IMAGE                Object position along x                                    [pixel]
#   4 Y_IMAGE                Object position along y                                    [pixel]
#   5 X_WORLD                Barycenter position along world x axis                     [deg]
#   6 Y_WORLD                Barycenter position along world y axis                     [deg]
#   7 A_WORLD                Profile RMS along major axis (world units)                 [deg]
#   8 B_WORLD                Profile RMS along minor axis (world units)                 [deg]
#   9 THETA_WORLD            Position angle (CCW/world-x)                               [deg]
#  10 FWHM_WORLD             FWHM assuming a gaussian core                              [deg]
#  11 ELONGATION             A_IMAGE/B_IMAGE                                           
#  12 ELLIPTICITY            1 - B_IMAGE/A_IMAGE                                       
         1 -18.1465    103.0432    141.7893   8.6976170771e+01   3.2698682076e+01     4.288117     3.856616 -69.08   0.02228054    1.152    0.132
         2 -16.3662    171.3358    162.5166   7.4000218167e+01   1.4909955698e+01     1.366717    0.6732796 -47.22  0.005443604    2.034    0.508
         3 -18.0677     50.4272    122.8572   9.9363168215e+01   4.5296490766e+01     5.382823     2.972013   9.43   0.02252724    2.526    0.604
         4 -18.4621     73.4700    194.1437   1.0409549631e+02   2.4397487326e+01     4.875645     4.294825  57.87   0.02871551    1.071    0.066
         5 -12.4045    210.8698      7.0960   3.0738675606e+01   3.2258305246e+01    0.1889403    0.1576934 -41.15 0.0007336462    1.350    0.259
         6 -12.3392    144.4645      5.3559   3.7386367832e+01   4.7578978943e+01    0.2987125    0.1581786 -74.93  0.001349009    2.600    0.615
         7 -12.8983    180.1039    244.2880   8.7078446484e+01  -1.9568329880e+00     0.207603    0.1810658 -31.50 0.0005966494    1.322    0.243
         8 -12.0686    172.4389    249.5675   8.9435172733e+01  -1.7005173763e+00    0.2189094    0.1474408  -0.32 0.0005860761    1.659    0.397
         9 -12.9116    174.0393    244.0172   8.8277314285e+01  -1.0410355676e+00    0.2048052     0.190082  83.21 0.0005827958    1.588    0.370
        10 -14.8118    173.8283    235.9614   8.7075680582e+01   3.2035007199e-01    0.8157201    0.4681286   9.64  0.003790718    2.267    0.559
        11 -14.6958    172.7684    217.1963   8.4219522845e+01   3.7777156096e+00     0.531552    0.3229171 -58.77  0.001668086    2.368    0.578
        12 -16.8493    184.3902    212.7500   8.0974431448e+01   2.7469883394e+00     1.344368     1.045409   5.84  0.007670974    1.232    0.189
        13 -13.1496    201.2913    235.5723   8.1438632057e+01  -3.5825148965e+00    0.2399594    0.1556618 -51.48  0.001294577    2.166    0.538
        14 -11.8508    158.7571    232.5626   8.9735328629e+01   3.1848106276e+00    0.2241469    0.2102489  25.52 0.0008144054    1.153    0.133
        15 -11.9442    154.9685    230.6872   9.0263545654e+01   4.1047586920e+00    0.2707326    0.1717875  31.77  0.000712933    1.399    0.285
        16 -11.4998    103.8339    233.1108   1.0189501833e+02   1.1431709501e+01    0.1696596    0.1518405 -13.30  0.001048751    1.338    0.252
        17 -12.0871    206.2834    230.0417   7.9534276380e+01  -3.4166245264e+00    0.1802771    0.1477708 -10.69 0.0006201828    1.098    0.089
        18 -14.0665    192.6786    225.4036   8.1459006404e+01  -7.0825568765e-01    0.2956932    0.2450854 -27.88  0.001837997    1.240    0.194
        19 -11.3194    238.1522    248.8200   7.6702438758e+01  -1.0199981715e+01    0.1589421    0.1047244  -7.51 0.0004670094    1.269    0.212
        20 -11.5316    124.1047    206.5300   9.3490557947e+01   1.3830367120e+01    0.2160481    0.1316973  34.90 0.0005999202    1.533    0.348
        21 -11.8371     18.3762    205.5842   1.1828452407e+02   2.8104925533e+01    0.3116882    0.0768957  35.32  0.001267595    3.245    0.692
        22 -12.5284     13.7723    201.6768   1.1902025250e+02   2.9419859583e+01    0.3675919    0.2220105 -74.22  0.002143962    1.473    0.321
        23 -14.2523    177.7004    202.0235   8.0462092957e+01   5.8096213846e+00    0.4241514    0.2859163  -7.72  0.001071872    1.820    0.451
        24 -11.2666    105.5087    221.4778   1.0002723815e+02   1.3570205816e+01    0.2299781    0.1349724 -60.01   0.00080692    1.869    0.465
        25 -12.5401     26.4210    200.4925   1.1609379514e+02   2.8488785423e+01    0.3111944    0.1883857  83.92  0.001700936    1.560    0.359
        26 -13.2636    212.7763    200.5887   7.3002766427e+01   4.7967507796e-01    0.2903178    0.2456552  52.82   0.00124415    1.658    0.397
        27 -16.1252    189.8348    194.2005   7.6409274759e+01   5.2755641035e+00    0.8927236    0.6803907  25.60  0.002567179    1.272    0.214
        28 -15.3418    184.7398    187.8811   7.6262633064e+01   7.3400004829e+00    0.8468875    0.4989375   8.86  0.003405343    2.613    0.617
        29 -11.9102    169.4319    243.4774   8.9146521653e+01  -2.8303966350e-01     0.175649    0.1136219 -31.34 0.0007294421    1.692    0.409
        30 -11.0253      6.2750    194.6158   1.2019904710e+02   3.1687381950e+01    0.1778643    0.1042267  39.56 0.0008020059    1.687    0.407
        31 -12.8548      9.5936    191.2202   1.1921914948e+02   3.2196565376e+01    0.5715004    0.2481232  84.38  0.002609588    2.376    0.579
        32 -11.7572      6.0431    187.7018   1.1978113559e+02   3.3310201949e+01    0.2699718    0.2040544  87.51  0.001750188    1.082    0.076
        33 -15.1161    151.3271    189.5960   8.4094228624e+01   1.2831100774e+01     0.687982     0.507102 -34.48  0.003206928    1.410    0.291
        34 -12.2672     27.1075    190.3247   1.1506526957e+02   3.0808573366e+01    0.5397979     0.271672  76.28  0.002495895    2.212    0.548
        35 -11.6868     26.2634    184.7636   1.1476508350e+02   3.2222244837e+01    0.2127003    0.1734618  36.82  0.001323569    1.336    0.251
        36 -12.6804    228.1292    192.1672   6.8520444500e+01  -3.9502947857e-01    0.1971061    0.1522931  -9.68 0.0002992929    1.162    0.140
        37 -15.9174    175.6848    186.5973   7.7973072679e+01   9.1615433867e+00    0.9026202    0.6226393 -14.92  0.004285536    1.722    0.419
        38 -12.6359    124.8691    188.3745   9.0268875931e+01   1.7713772735e+01    0.3679909    0.2540515 -59.47 0.0008544471    1.572    0.364
        39 -13.1164    128.4025    184.3128   8.8662231928e+01   1.8024148566e+01    0.3366569    0.2957121 -31.50  0.000712374    1.189    0.159
        40 -16.4960     59.0747    158.0294   1.0279946685e+02   3.5267312033e+01     2.330294    0.9582012  39.92  0.009211422    2.436    0.590
        41 -11.8610    152.8029    221.1624   8.9239805159e+01   6.2145825570e+00    0.1802592    0.1476613  -8.52 0.0002650159    1.290    0.225
        42 -11.6697    156.8902    243.0282   9.1701450360e+01   1.6400055701e+00    0.1949593    0.1631875  24.52  0.000507586    1.031    0.030
        43 -13.5749    135.2778    187.4261   8.7536266830e+01   1.6123339824e+01    0.4438293     0.377522  80.27  0.001656604    1.447    0.309
        44 -10.8947    248.6857    185.7102   6.3712649907e+01  -2.2805721019e+00    0.1278076   0.08438914  -8.33 0.0003679379    1.590    0.371
        45 -14.7893    165.3755    181.2754   7.9232556189e+01   1.2078389046e+01    0.6921065    0.3348102 -35.29   0.00268506    2.326    0.570
        46 -12.0495    139.1659    217.7431   9.1758277404e+01   9.0647154511e+00    0.2030131    0.1869786 -73.81 0.0006187827    1.282    0.220
        47 -14.2047    192.4316    176.6055   7.2387781464e+01   8.1924427805e+00    0.3452876    0.2727077   8.64 0.0007792765    1.320    0.242
        48 -12.5319     20.7783    180.6035   1.1572794546e+02   3.3739452948e+01    0.3426843    0.2755739 -89.84  0.002157243    1.056    0.053
        49 -14.7138    180.1232    180.1183   7.5716154886e+01   9.6740533533e+00     0.562088    0.3272014 -32.37  0.002197324    1.796    0.443
        50 -11.8370    119.3155    181.6359   9.0463023975e+01   2.0214393789e+01    0.3046663     0.217607 -37.98  0.001446084    1.526    0.345
        51 -11.2191      8.6476    182.2362   1.1877972949e+02   3.4387698631e+01    0.1650176   0.09591588 -70.68 0.0003179297    1.486    0.327
        52 -14.1785    144.8996    181.2366   8.4035451597e+01   1.5783322407e+01    0.5394655    0.2195226  32.88  0.001897865    2.627    0.619
        53 -13.5024    136.5294    177.8049   8.5420910083e+01   1.8057536479e+01    0.3503875    0.2464937 -30.62   0.00145062    1.609    0.378
        54 -16.1349    148.9823    166.0329   7.9988818509e+01   1.8402916620e+01     1.327004    0.6420565  32.25  0.004313738    2.273    0.560
        55 -12.4606    126.0630    178.4707   8.8169574757e+01   1.9772765951e+01    0.5074624    0.2205742 -50.51   0.00137244    2.314    0.568
        56 -11.8503    120.2252    164.4117   8.6959554487e+01   2.4117591400e+01     0.224742    0.1969047  44.23 0.0005828129    1.148    0.129
        57 -13.7676    123.0698    160.7446   8.5466320408e+01   2.4474141124e+01    0.6094927    0.3547182 -66.57  0.001297651    2.272    0.560
        58 -14.1533    120.9440    172.2178   8.8297018158e+01   2.2137241007e+01    0.6670328    0.5278647 -81.12  0.003233835    1.543    0.352
        59 -14.2145    116.8997    162.9032   8.7540153248e+01   2.5075552486e+01    0.8216954     0.410078 -40.65  0.002730877    2.248    0.555
        60 -14.4491    141.1924    162.0982   8.1085503948e+01   2.0768253922e+01    0.4858975    0.3898942  59.67  0.002129181    1.442    0.307
        61 -13.5115    139.0434    165.9072   8.2418695391e+01   2.0303042949e+01    0.3303974    0.3059226  -9.81 0.0004641144    1.098    0.089
        62 -14.0506    132.8425    168.4860   8.4509674404e+01   2.0860858598e+01    0.5221006    0.3615767  29.27  0.001095163    1.502    0.334
        63 -14.3371    127.0616    166.3617   8.5564412918e+01   2.2415726853e+01    0.7512308    0.3614825 -44.21  0.001734946    2.140    0.533
        64 -16.1971    187.2822    223.7324   8.2279357669e+01   3.7903323761e-01     1.384413    0.6977865 -21.27  0.005674959    2.926    0.658
        65 -11.5850    113.0795    176.7174   9.1176836074e+01   2.2439373144e+01    0.2040269    0.1921214  24.14 0.0006703837    1.073    0.068
        66 -14.2560    151.5164    172.0329   8.0614966761e+01   1.6598172213e+01     0.510399    0.3175371  40.10  0.002272006    1.599    0.375
        67 -14.6118    143.1641    171.6673   8.2570357407e+01   1.8229558710e+01    0.5701678     0.458855 -28.19  0.001153087    1.313    0.238
        68 -13.7690    160.6000    169.8097   7.8006194794e+01   1.5385802257e+01    0.4033021    0.2766053 -62.72  0.001770791    1.863    0.463
        69 -11.5753     33.0531    173.5076   1.1193271726e+02   3.4303585035e+01    0.1838264    0.1309949  29.61 0.0007200381    1.551    0.355
        70 -13.7549    158.4183    172.2423   7.9019330632e+01   1.5268608857e+01    0.3868208    0.2619831 -58.27  0.001749243    1.732    0.423
        71 -11.4776      9.4916    171.9937   1.1776634394e+02   3.6775857316e+01    0.1874329    0.1053097 -76.29  0.000478092    1.493    0.330
        72 -13.0884     32.5662    167.7648   1.1142553091e+02   3.5780115779e+01    0.3903176    0.2185755 -70.45  0.001639491    1.576    0.365
        73 -12.4599     27.8182    170.6381   1.1298605041e+02   3.5525450429e+01    0.2828789    0.1833961  51.63  0.001530045    1.555    0.357
        74 -12.5251     28.0743    166.6552   1.1249410606e+02   3.6490590236e+01    0.3169889    0.2568597 -65.14  0.001421627    1.161    0.139
        75 -11.5034     17.5357    183.4640   1.1676188243e+02   3.3342368437e+01    0.2216359    0.1280854  21.34  0.001085434    2.103    0.524
        76 -15.1188    174.6066    174.9064   7.5869092069e+01   1.1722647899e+01    0.5762861    0.4815042 -28.59  0.001595658    1.155    0.134
        77 -14.2389    159.6158    191.9486   8.2612762175e+01   1.0885661421e+01    0.4609992    0.3095157 -52.69  0.001387019    1.646    0.392
        78 -14.0178    146.8152    202.9232   8.7551866425e+01   1.0815639441e+01    0.6878983    0.4120954  40.94  0.001511038    1.608    0.378
        79 -12.1225    114.0086    199.8578   9.4865587641e+01   1.6936376517e+01    0.2883674    0.2186305 -23.77  0.001444478    1.643    0.391
        80 -13.3445    133.4698    161.5183   8.2920687437e+01   2.2360739531e+01     0.273712    0.2036826 -48.76 0.0006111402    1.344    0.256
        81 -12.7249     28.6970    160.1605   1.1160003994e+02   3.8057378912e+01    0.2945349    0.1813598  22.11  0.001517596    1.905    0.475
        82 -12.5999      2.1167    159.0756   1.1855525012e+02   4.0450172646e+01    0.3008397     0.177903  77.29  0.001636882    1.633    0.388
        83 -14.4532    158.4334    150.1863   7.4268943130e+01   2.0078912665e+01    0.5704457    0.3881383  -5.42   0.00161378    2.220    0.550
        84 -15.0028    154.8911    157.4803   7.6732117514e+01   1.9169430898e+01    0.6353577    0.4739738  16.54  0.002953758    1.562    0.360
        85 -14.8972    144.8118    154.8038   7.8611416641e+01   2.1733708922e+01    0.5548394    0.4934031  84.15  0.001926183    1.341    0.254
        86 -12.7660    149.5160    144.4513   7.5116980874e+01   2.3138265495e+01    0.2895909     0.151259 -50.09 0.0006308238    1.955    0.488
        87 -12.8739    148.6274    152.8454   7.7234100641e+01   2.1429519551e+01    0.2805598    0.2413058 -43.82 0.0006211463    1.149    0.130
        88 -15.2898    144.1117    149.7579   7.7666904901e+01   2.3018366793e+01    0.9802244    0.4010591  39.06  0.003191478    2.497    0.600
        89 -12.9931     94.0843    157.7370   9.2783731085e+01   3.0256899549e+01    0.3124474    0.2397344 -44.04  0.001059429    1.327    0.247
        90 -13.8914    184.9867    236.2806   8.4824918548e+01  -1.3723394018e+00    0.3759861    0.2178966  22.90  0.001333982    1.618    0.382
        91 -14.3366     97.5856    152.5693   9.0788308040e+01   3.0966396556e+01    0.5444123    0.3981928  73.39  0.001627879    1.772    0.436
        92 -14.3056    165.3891    198.3575   8.2496156272e+01   8.5907715085e+00    0.5857857     0.348982   6.12  0.002322742    2.674    0.626
        93 -11.7294    138.4669    198.9856   8.8826078711e+01   1.3055648198e+01    0.2263859    0.1986557  65.90 0.0006078035    1.315    0.240
        94 -12.5920    212.0183    154.0054   6.3780748989e+01   9.0361331356e+00    0.2109117    0.1753474 -74.96 0.0005193963    1.656    0.396
        95 -14.3491    180.1255    150.4018   6.9403052959e+01   1.5739607649e+01    0.4828324    0.3601488 -85.66   0.00112236    2.180    0.541
        96 -14.6956    164.8817    148.7225   7.2429562076e+01   1.9111207894e+01    0.5386342    0.3568978  60.78   0.00216416    2.015    0.504
        97 -12.9035     66.6875    148.1206   9.8944307013e+01   3.6803126299e+01    0.3904599    0.2314955 -43.46  0.001215961    1.774    0.436
        98 -11.2276    231.4427    148.5510   5.9192197157e+01   6.6483984940e+00    0.1363155    0.1164373 -29.54 7.450498e-05    1.002    0.002
        99 -13.5972    141.3599    196.6647   8.7734198495e+01   1.3057546613e+01    0.4786774    0.2818007  41.37  0.001742439    1.644    0.392
       100 -12.4170    125.2471    221.1103   9.5444650539e+01   1.0600708933e+01    0.3538632    0.2114478 -55.69  0.001734427    1.864    0.464
       101 -13.8995     75.9935    145.5906   9.5711753727e+01   3.6134064031e+01      0.47208    0.2890232  47.54   0.00141298    1.774    0.436
       102 -12.7650    224.0946    197.3250   7.0242413803e+01  -6.6175527370e-01    0.2415445    0.1568621 -26.11  0.001317364    1.393    0.282
       103 -15.0821    132.2131    148.4928   8.0433150990e+01   2.5642135502e+01    0.9538176    0.6037363 -13.05  0.003451768    2.764    0.638
       104 -14.0837    141.9087    144.2343   7.6968139643e+01   2.4715392271e+01    0.5437816    0.3192303  25.23  0.002096479    2.192    0.544
       105 -12.6526      4.5910    153.8934   1.1745962244e+02   4.1551616562e+01    0.3109931    0.2197429   6.52  0.001844424    1.857    0.462
       106 -14.3663    128.2294    141.8364   7.9980341666e+01   2.7979648243e+01    0.6597969    0.3677711 -31.29  0.002285205    2.342    0.573
       107 -13.1384    133.7072    138.5347   7.7761580546e+01   2.7666944222e+01    0.3718767    0.2135502 -43.98  0.001507695    1.722    0.419
       108 -14.3114    141.2218    134.1425   7.4770561388e+01   2.7149567141e+01    0.5571768    0.4185668 -17.96  0.001959984    1.624    0.384
       109 -12.5586    137.7109    130.9191   7.4893877810e+01   2.8601246837e+01    0.3760199    0.2326395  33.85 0.0005593145    1.744    0.427
       110 -12.8378    130.1997    135.5881   7.7994674724e+01   2.9051542783e+01    0.2684547    0.2241715  26.68 0.0003609675    1.256    0.204
       111 -14.1451    131.5023    131.9657   7.6779331565e+01   2.9628398642e+01    0.4753278    0.3693403 -24.40  0.001686657    1.447    0.309
       112 -14.0717     68.7954    141.8700   9.7175512545e+01   3.8111116344e+01    0.5087025    0.3199361  43.77  0.002341237    1.689    0.408
       113 -11.0549    113.9224    228.6225   9.9064490851e+01   1.0829688321e+01     0.413636     0.173586  35.91  0.001763939    2.094    0.522
       114 -13.0816    167.4624    227.7798   8.7115429282e+01   2.6988273519e+00     0.260425    0.1696759  31.30  0.001167067    1.375    0.273
       115 -16.4324     23.9410    149.9135   1.1172146433e+02   4.1064680763e+01     2.119811     1.644826  38.96   0.01255673    1.413    0.292
       116 -15.3185     82.7842    134.0024   9.1320384078e+01   3.8032741470e+01       1.0058    0.5569365  61.49  0.003592173    2.961    0.662
       117 -14.8010     87.9825    132.5039   8.9404834021e+01   3.7571726858e+01    0.5289614    0.3761017  25.39  0.002462457    1.540    0.351
       118 -14.3665    167.2122    191.9034   8.0880470017e+01   9.5725533416e+00     0.592986    0.2680462  30.32  0.001423448    2.403    0.584
       119 -13.1230    159.9567    137.1472   7.0897207984e+01   2.2615649841e+01    0.3459423    0.2143943 -39.91  0.000794902    1.588    0.370
       120 -11.8053    109.4928    206.5342   9.6984445384e+01   1.6174451796e+01     0.301094     0.286063  68.53  0.001583756    1.068    0.064
       121 -11.1208    159.3346    222.2997   8.7985548262e+01   4.9640537297e+00    0.1398187   0.09922519  -0.69 0.0007033456    1.654    0.395
       122 -14.2505    115.9307    130.8474   8.0784098828e+01   3.2969366174e+01    0.4140021    0.3117269  36.56  0.001132807    1.355    0.262
       123 -12.8103    126.3733    196.3097   9.1270862436e+01   1.5682597262e+01    0.5129182    0.2488685  43.67  0.002096205    2.026    0.506
       124 -12.9051    193.0624    132.6205   6.2678114325e+01   1.6760116840e+01    0.2798216    0.1940656 -53.79 0.0005016849    1.535    0.349
       125 -15.5560    154.9915    127.9588   6.9860041392e+01   2.5645120906e+01    0.9914112    0.7232615  50.55  0.002211386    1.450    0.310
       126 -13.4976    155.4238    117.4445   6.7131195928e+01   2.7799406260e+01    0.3667814     0.297792 -44.69 0.0005650492    1.206    0.171
       127 -12.5266    219.9644    206.6301   7.2752599397e+01  -1.6000403574e+00     0.258812    0.1819092  33.25  0.001490466    1.490    0.329
       128 -13.6906      3.8534    129.3510   1.1520652948e+02   4.7658736638e+01    0.3830842    0.2107338 -61.26  0.001619877    1.469    0.319
       129 -12.1636    212.7433    194.6125   7.1875730304e+01   1.5177986291e+00    0.2266709    0.1622191 -53.69  0.001190123    1.830    0.454
       130 -14.1709    143.8934    122.0501   7.1111287399e+01   2.9288145168e+01     0.580881    0.3048268 -49.78  0.002242412    1.959    0.490
       131 -11.2287    199.0000    119.9450   5.8597371464e+01   1.8007077315e+01    0.2501379   0.07783615 -40.57 0.0008059248    2.967    0.663
       132 -14.4932    119.8997    121.5766   7.7383140952e+01   3.4364058759e+01    0.5768518    0.3253426 -46.46  0.001662208    1.740    0.425
       133 -13.7831      4.4485    119.9825   1.1392370143e+02   4.9935490897e+01    0.4147135    0.2538813  40.56  0.002294873    1.898    0.473
       134 -10.9438    221.4667    115.5193   5.3713640756e+01   1.4347278485e+01    0.1390395    0.1234051 -33.18 5.334767e-05    1.077    0.072
       135 -11.7012    189.8056    114.3799   5.9015427632e+01   2.0986207745e+01    0.2054693     0.137397  38.07 0.0005673853    1.695    0.410
       136 -14.7933     34.0293    188.0191   1.1318013650e+02   3.0659501633e+01     1.545719    0.6678818  89.41  0.006099227    2.930    0.659
       137 -13.8249    141.4916    108.4675   6.8193171434e+01   3.2733407463e+01    0.5598143    0.2909969  46.11  0.001473438    1.949    0.487
       138 -13.5059    143.3500    105.3183   6.6886404832e+01   3.2985080858e+01    0.4738535    0.2955032  61.53   0.00157105    2.000    0.500
       139 -14.8466     14.6427    105.5497   1.0846726474e+02   5.2858629548e+01    0.5588291     0.385652 -53.68  0.003221159    1.202    0.168
       140 -12.4610    137.1037    102.9550   6.7823053332e+01   3.4850362356e+01    0.5067347    0.2613494 -35.71  0.001927725    2.101    0.524
       141 -12.9634    155.8234    213.6475   8.7332619426e+01   7.1724248971e+00    0.3157707     0.217824  37.21  0.001256153    1.361    0.265
       142 -13.1846      1.5429    102.2579   1.1253994220e+02   5.4400010244e+01    0.4076901    0.1093211 -72.33  0.001476283    3.268    0.694
       143 -14.8372     54.0278     85.5214   8.9404493181e+01   5.3836201802e+01     1.006043    0.5927056  55.09  0.004233791    2.732    0.634
       144 -13.7408     60.0858     96.1901   9.0001304208e+01   5.0595217858e+01    0.4947633    0.3122095 -41.18 0.0004921783    1.484    0.326
       145 -13.7638    187.8798    244.6678   8.5566499602e+01  -3.1179508821e+00    0.3483755     0.192522  24.80  0.001608684    1.628    0.386
       146 -11.6829     23.6160    209.3931   1.1741501173e+02   2.6735205889e+01    0.3498653    0.1587718 -53.23  0.001661108    2.576    0.612
       147 -13.2855    202.2576    211.4352   7.7074598383e+01   2.1735320235e-01    0.2217619    0.1800081 -68.16 0.0008102832    2.022    0.505
       148 -12.4850    212.6224    104.0253   5.2540509788e+01   1.8138452300e+01    0.2352841    0.2088121  62.01 0.0004223252    1.236    0.191
       149 -12.9204     38.4417     96.0401   9.7950024815e+01   5.3189338367e+01    0.2677575    0.1845436  -9.68  0.001358454    1.678    0.404
       150 -13.8429    153.9732    210.3988   8.7199017704e+01   8.1118528707e+00    0.7119097    0.4118798 -11.13   0.00265485    3.295    0.696
       151 -12.3877    214.6664     91.8572   4.9425125394e+01   1.9822837387e+01    0.2648745    0.2388305 -45.74  0.001587552    1.060    0.056
       152 -11.3664    196.2415     92.3684   5.2508044814e+01   2.3653693299e+01    0.1916476    0.1355071  69.39 0.0004338185    1.604    0.377
       153 -15.6134    169.0475    206.7857   8.3210577490e+01   6.3292575803e+00    0.9092677    0.5763953  24.27  0.002884775    1.584    0.369
       154 -15.6003    173.4301    225.5881   8.5487839274e+01   2.1679332371e+00     1.134828    0.7610216  75.37  0.004402312    4.263    0.765
       155 -13.6512      4.5255     90.8575   1.0969970105e+02   5.6964796846e+01    0.4183208     0.200915  -5.26  0.002000756    2.656    0.623
       156 -12.4870    206.3643    236.6265   8.0619659167e+01  -4.4455396954e+00    0.2313155    0.1839545  71.49  0.001248777    2.746    0.636
       157 -13.0677     31.3085     87.6212   9.8740882057e+01   5.5851142515e+01    0.3442755    0.1661796   9.82   0.00148904    2.632    0.620
       158 -12.2526    137.1474     86.4229   6.3174820263e+01   3.8148334504e+01    0.2666934    0.2125459 -47.32 0.0003536702    1.285    0.222
       159 -13.9627     71.9417     87.1699   8.3250303119e+01   5.0902173465e+01    0.3543008    0.2185239  35.94  0.001231437    1.677    0.404
       160 -13.5953     68.3658     83.5661   8.3489531588e+01   5.2242530348e+01    0.3248686    0.2375025 -22.53  0.001636489    1.432    0.302
       161 -11.6884    121.4929     86.4877   6.7295504518e+01   4.1609111471e+01    0.1516864    0.1458882   9.25 0.0002700276    1.024    0.023
       162 -12.1769    115.9605     86.5058   6.8851161548e+01   4.2792992091e+01    0.2371796    0.1476833  43.52  0.001032927    1.592    0.372
       163 -13.7058     63.2828     80.7396   8.4534632393e+01   5.3613322659e+01    0.4637825    0.2167295 -38.67  0.001713651    2.145    0.534
       164 -12.8289    105.9386     79.8870   6.9778354030e+01   4.6195767111e+01    0.3876567    0.2694035  89.84   0.00125178    2.832    0.647
       165 -11.0614    172.3207     80.2712   5.3760290432e+01   3.1155122175e+01    0.1420412    0.1141618  22.55 0.0003082585    1.568    0.362
       166 -13.4061     87.2148     79.3438   7.5576489614e+01   4.9951802930e+01    0.2966866    0.2499029 -76.69  0.001256116    1.598    0.374
       167 -11.0032    214.6492     79.2972   4.6540016988e+01   2.1900012907e+01    0.1422081    0.0965063 -70.75 0.0007034881    1.686    0.407
       168 -13.9165     75.4439     76.0395   7.8626577530e+01   5.2688654881e+01    0.3567328    0.3085587 -51.68 0.0006438321    1.280    0.219
       169 -13.1523     58.9708     76.9478   8.5037481284e+01   5.5041753637e+01    0.2595065    0.2323819 -48.07 0.0008519554    1.198    0.165
       170 -12.9175     50.4153     74.6948   8.7713965325e+01   5.6665831805e+01     0.298049     0.194322 -14.93 0.0009492775    1.764    0.433
       171 -12.3172    159.3573     76.9848   5.5446249019e+01   3.4739045003e+01    0.2705011    0.2056034 -88.69  0.000741286    1.626    0.385
       172 -12.7229     67.7109     75.3978   8.1250795471e+01   5.4070560577e+01    0.2523512     0.158043 -27.81 0.0008838678    1.715    0.417
       173 -13.2936    115.3034     75.4718   6.5678384492e+01   4.5059638220e+01    0.4432343     0.353941   5.04  0.002204729    1.469    0.319
       174 -12.2221    125.2984     72.6195   6.2087627205e+01   4.3372394311e+01    0.4520395    0.2235446 -37.25  0.001815445    2.092    0.522
       175 -13.0629     58.0297    100.0584   9.1721128952e+01   4.9960074979e+01    0.3456427    0.3219656  85.64  0.001103359    1.261    0.207
       176 -13.0297     87.2551     69.2012   7.2304604469e+01   5.1927953707e+01    0.3967175    0.2278371 -48.50  0.001370913    1.922    0.480
       177 -12.3940    119.1712     68.8378   6.2533995693e+01   4.5407126854e+01    0.2158057    0.2006596 -77.81 0.0004888303    1.227    0.185
       178 -12.1521    195.6790     67.9930   4.6631561094e+01   2.7830084566e+01    0.1955045    0.1725095 -58.14 0.0006103292    1.057    0.054
       179 -13.3119     99.3683     67.2677   6.7754234852e+01   4.9909951980e+01    0.2878645    0.2470003  58.05   0.00154954    1.318    0.241
       180 -11.9173      1.9563     68.5079   1.0651847240e+02   6.2184075171e+01    0.1627887     0.116012   1.00  0.000764092    1.547    0.354
       181 -12.2847     74.2727     66.4120   7.5916360582e+01   5.4783318213e+01    0.2299133    0.1816117 -64.89 0.0008891909    1.740    0.425
       182 -12.0446    153.0729     80.2530   5.7694563127e+01   3.5629532047e+01    0.2369821    0.2130017 -40.03 0.0004440007    1.124    0.111
       183 -12.6695     48.0046     66.7334   8.6248847586e+01   5.8630489925e+01    0.1921787    0.1659193  -1.70 0.0006560773    1.099    0.090
       184 -11.8566    143.2377    210.9279   8.9731298889e+01   9.7732244583e+00    0.2528405    0.1884063 -26.63 0.0005645142    1.515    0.340
       185 -13.1540    109.5558     60.0366   6.2340963642e+01   4.9012373990e+01     0.272164    0.2425622  45.55 0.0007703149    1.101    0.092
       186 -13.1879     44.9393     60.4461   8.5499110075e+01   6.0273221663e+01    0.2867045    0.2401766  21.97 0.0008189009    1.260    0.206
       187 -12.3715      2.1124     60.0560   1.0456370044e+02   6.4006353562e+01     0.272003    0.1525206 -44.23 0.0008120087    1.375    0.273
       188 -11.1837     63.0000     59.9823   7.7966359584e+01   5.7832995121e+01     0.228417   0.07420643 -44.58 0.0002544615    3.011    0.668
       189 -12.7271     99.4819     57.9232   6.4579421498e+01   5.1501045829e+01    0.3237873    0.1307755 -43.71  0.001208161    2.741    0.635
       190 -12.1219    206.4059     63.8114   4.4080422905e+01   2.6088870892e+01    0.1846939    0.1269187 -27.21 0.0006486357    1.681    0.405
       191 -12.6967     30.9917     56.9831   9.0488985355e+01   6.2522306213e+01    0.2043247    0.1703382 -21.29 0.0009517836    1.023    0.022
       192 -11.7826    138.9368     56.3408   5.3807705090e+01   4.2908329083e+01    0.2034348     0.176589  54.55 0.0004719365    1.090    0.083
       193 -12.0982    127.5065     56.5247   5.6500889055e+01   4.5545889346e+01    0.1425871    0.1354942  52.67 0.0001549048    1.031    0.030
       194 -11.1416    163.3563     55.3110   4.8648196784e+01   3.7266773209e+01    0.1450891    0.1061416  30.05 0.0007043493    1.734    0.423
       195 -11.7371    224.4943     55.5066   3.9935111693e+01   2.3435325776e+01    0.2515236    0.1146726 -37.37 0.0008875061    2.039    0.510
       196 -12.8678    109.9912     53.4106   6.0001396025e+01   4.9976372545e+01    0.3978675    0.2161793  58.63  0.001698002    2.052    0.513
       197 -11.4227     65.7226     52.4295   7.4215513873e+01   5.8754377408e+01    0.1754118    0.1210253  22.92 0.0003281955    1.424    0.298
       198 -11.7709    128.6586     53.3023   5.5203669021e+01   4.5769374824e+01    0.1437706    0.1114889 -81.37 0.0003478077    1.675    0.403
       199 -12.2453     17.4865     50.6627   9.4781483954e+01   6.4979998589e+01    0.2577803    0.1041709 -53.39  0.001206181    2.153    0.536
       200 -12.8536     37.9247     50.1596   8.5053013393e+01   6.3085150048e+01    0.1865841    0.1732635  13.67  0.001228385    1.286    0.223
       201 -12.3910    144.3000     45.0062   4.9253894863e+01   4.3266673869e+01    0.2950846    0.1748433 -89.84  0.001182584    2.716    0.632
       202 -11.3647    153.2533     44.0391   4.7274239643e+01   4.1260481602e+01    0.1680023    0.1200686 -32.09 0.0004028401    1.515    0.340
       203 -11.7194    118.4406     42.4999   5.4130045060e+01   4.9663379332e+01    0.1388311    0.1268753  40.33 0.0001033849    1.016    0.016
       204 -11.7129    117.9472    213.6641   9.6037471777e+01   1.3296536050e+01    0.2423063    0.1672016  49.85 0.0006173321    1.452    0.311
       205 -11.1965    195.6286     44.2861   4.0841593223e+01   3.1278040499e+01    0.1411262   0.09038227 -72.89 0.0007019114    1.710    0.415
       206 -11.6141      3.8347     39.8542   9.8220166551e+01   6.8008110796e+01    0.1421731    0.1316447 -33.23 0.0003654604    1.298    0.230
       207 -12.9443     11.3228     36.9184   9.3332032997e+01   6.8066855811e+01    0.3050441    0.2220012 -30.71   0.00202382    1.080    0.074
       208 -11.4955    231.9591     37.4923   3.5315507641e+01   2.4324843882e+01    0.1785754    0.0878973 -79.29  0.000809693    2.607    0.616
       209 -13.2207     27.3586     35.7214   8.4677124845e+01   6.6836682831e+01    0.3375665    0.1563834 -21.54  0.001474227    2.756    0.637
       210 -11.7888    113.3934    212.6031   9.6951428879e+01   1.4240400899e+01    0.2823716    0.1269473  35.47  0.001171016    2.041    0.510
       211 -12.5343     43.9869     34.0776   7.6117310116e+01   6.5065085585e+01    0.1982877    0.1615249   0.36 0.0005016591    1.018    0.018
       212 -12.1943    106.7361     32.4309   5.3574232400e+01   5.3600373294e+01    0.2403096    0.1828737 -27.13  0.001079091    1.432    0.302
       213 -11.6165     22.5178     33.4873   8.6241573348e+01   6.7713089640e+01    0.1254946   0.09529208 -16.23 -3.197906e-05    1.053    0.050
       214 -11.2543    117.5428     36.4890   5.2320049183e+01   5.0656004594e+01    0.1374802    0.1236145  43.21 4.995798e-05    1.016    0.015
       215 -12.6381     39.3863     28.8424   7.6017397138e+01   6.6494578286e+01    0.2305503     0.182364   1.06 0.0003999008    1.037    0.035
       216 -11.2252    179.2719     27.6958   3.8816634757e+01   3.7123183616e+01    0.1311392   0.08827383 -67.91 0.0001492739    1.537    0.349
       217 -11.5121    207.6294     24.8303   3.4923610074e+01   3.1027233444e+01    0.1773933   0.09644366 -46.97 0.0008151208    1.686    0.407
       218 -12.2298    101.5440     25.5189   5.2405662499e+01   5.5557708613e+01    0.2363653    0.1250335  67.24  0.001031969    2.328    0.570
       219 -12.3063     83.9145     23.3597   5.6527228965e+01   5.9542114032e+01     0.201168    0.1769992 -28.67 0.0005997764    1.309    0.236
       220 -11.3485     20.5758     23.2740   8.3030788201e+01   6.9578383199e+01    0.1599259   0.09120704 -29.21 0.0004682734    1.519    0.342
       221 -12.0621    172.4844     21.9050   3.8192320815e+01   3.9362593785e+01    0.1828733    0.1251496 -34.77  0.001028346    1.579    0.367
       222 -11.1339    191.3140     21.3506   3.5818590946e+01   3.5068353165e+01    0.1226311   0.09240777  39.40 0.0007046451    1.727    0.421
       223 -11.4871     20.4189    213.8287   1.1842399878e+02   2.6060116072e+01    0.2215523   0.08579145 -63.14  0.001038341    2.453    0.592
       224 -10.7561     10.4881     15.5378   8.5221098338e+01   7.1734549438e+01    0.1158307   0.08754977 -12.49  0.000144816    1.030    0.029
       225 -13.0490    216.8799     14.0837   3.1733359172e+01   3.0240373228e+01    0.3016368    0.1468072  88.77  0.001536806    2.092    0.522
       226 -13.8648    185.4166    241.2854   8.5533254154e+01  -2.2385350257e+00    0.3266488     0.227874 -24.04  0.001527039    1.466    0.318
