#   1 NUMBER                 Running object number                                     
#   2 MAG_AUTO               Kron-like elliptical aperture magnitude                    [mag]
#   3 X_IMAGE                Object position along x                                    [pixel]
#   4 Y_IMAGE                Object position along y                                    [pixel]
#   5 X_WORLD                Barycenter position along world x axis                     [deg]
#   6 Y_WORLD                Barycenter position along world y axis                     [deg]
#   7 A_WORLD                Profile RMS along major axis (world units)                 [deg]
#   8 B_WORLD                Profile RMS along minor axis (world units)                 [deg]
#   9 THETA_WORLD            Position angle (CCW/world-x)                               [deg]
#  10 FWHM_WORLD             FWHM assuming a gaussian core                              [deg]
#  11 ELONGATION             A_IMAGE/B_IMAGE                                           
#  12 ELLIPTICITY            1 - B_IMAGE/A_IMAGE                                       
         1 -10.8976    114.1000     25.3768   8.1874808929e+01   5.2853763209e+01    0.2911631    0.2236314  -4.14 0.0009354213    1.409    0.290
         2 -12.1261     76.5469     24.4302   9.2038317599e+01   6.0256371387e+01     0.441276    0.2993049 -37.12  0.001095644    1.666    0.400
         3  -9.6438     88.4831      7.0465   8.1703240958e+01   5.9921166188e+01      0.23227      0.11525 -20.80 0.0006852957    2.151    0.535
         4 -11.3949     90.1712     16.1501   8.4749146353e+01   5.8716482783e+01    0.3246819    0.2088338 -12.68 0.0004365828    1.640    0.390
         5 -10.6667     87.2634     11.9192   8.3935036350e+01   5.9695447352e+01    0.2728572    0.2183565  19.66 0.0009921191    1.084    0.077
         6 -10.5049     19.8544     16.8152   1.1064289475e+02   6.8707824252e+01    0.2342032    0.1529052  15.52  0.001382862    1.493    0.330
         7 -10.7722     13.1651     20.8016   1.1517888541e+02   6.8695569164e+01    0.3265629    0.2576508 -12.03  0.001524742    1.143    0.125
         8 -11.2011     41.3554     18.6558   1.0233769526e+02   6.6164693415e+01    0.3969282    0.2687087   3.03  0.002627814    1.334    0.250
         9 -10.6243     38.8911      2.3403   9.6219257258e+01   6.8390650733e+01    0.4070795    0.1701065 -21.19  0.002140519    2.439    0.590
        10 -10.3516     46.2452      4.7347   9.4421150446e+01   6.7156539555e+01    0.3943651    0.1277405  33.14  0.001304944    3.105    0.678
        11 -11.6917     30.1152      7.2532   1.0208533335e+02   6.8902910145e+01    0.3102807    0.2368058   1.72   0.00134069    1.085    0.078
        12 -11.6985     34.8074     13.1433   1.0268082971e+02   6.7648577523e+01    0.3776937    0.2385403 -35.32  0.001580068    1.612    0.380
        13 -11.5844     39.6976     10.0214   9.9330023430e+01   6.7435617818e+01     0.368966    0.2101582 -16.73 0.0009586962    1.617    0.382
        14 -10.4844    144.1208     14.5915   7.2048947418e+01   4.7167998056e+01    0.1933364    0.1781459 -58.14 0.0003691185    1.228    0.185
        15 -10.5011    156.4303     13.8917   6.9753276800e+01   4.4294114381e+01    0.2420777    0.1880025  41.81 0.0008875229    1.306    0.234
        16 -10.4562     69.1260     12.0102   8.9468645477e+01   6.2911371533e+01    0.2620312    0.1760611 -30.82 0.0006535535    1.624    0.384
        17 -10.0636    212.2863     12.0220   6.1996189979e+01   3.0936898371e+01    0.1813966    0.1529548 -72.83  0.000502643    1.098    0.089
        18  -9.8265    118.9986     11.9724   7.6125212471e+01   5.3170494155e+01    0.1958125    0.1685581  46.91 0.0004055976    1.033    0.032
        19 -12.0179     55.7575      6.5257   9.1702640021e+01   6.5596463271e+01    0.5049412    0.4109789  -9.48  0.001859897    1.215    0.177
        20 -10.0918     61.1299      3.1499   8.8377090909e+01   6.5092213845e+01    0.1595428    0.1447031   5.80 0.0003252962    1.307    0.235
        21 -10.7888     93.1001      9.1514   8.1280311534e+01   5.8834733760e+01    0.2274782    0.1615655  30.74 0.0004245767    1.227    0.185
        22  -9.5530     92.6168      4.3663   7.9576615441e+01   5.9353419563e+01    0.2203414    0.1062364 -27.46  0.001137789    2.239    0.553
        23 -11.0498     22.1680      9.3439   1.0648001348e+02   6.9486912787e+01    0.2884823    0.1698173  -2.04  0.001141088    1.622    0.383
        24 -10.0631     10.0699      1.4700   1.0858665708e+02   7.1590949394e+01    0.1993987    0.1054826   5.11 0.0006703879    1.892    0.471
        25 -11.5919      4.0659      8.7760   1.1464041424e+02   7.1101754494e+01    0.3681008    0.2885221  20.73  0.001355003    1.634    0.388
        26 -10.3578      1.9451      3.0339   1.1324850617e+02   7.2029344555e+01    0.1730139     0.106491  -8.03  0.001284649    1.350    0.259
        27 -10.9526     11.8613      7.7308   1.1049935742e+02   7.0638646632e+01    0.3248149    0.2858104   5.76  0.002372362    1.524    0.344
        28 -10.6687      8.0354      5.3416   1.1128278169e+02   7.1265447767e+01    0.1953832    0.1431285   7.61 0.0005501041    1.319    0.242
        29 -11.9476    150.9204      7.7307   6.8828899170e+01   4.6201433553e+01    0.3828034    0.3185052  36.32  0.002383584    1.259    0.206
        30 -11.2540     70.5797      6.7554   8.6827138710e+01   6.3191777492e+01    0.4521191    0.3118993  45.33  0.002318768    1.428    0.300
        31 -11.1659     65.9893      6.5110   8.8200431126e+01   6.3984021877e+01    0.3740868    0.2113418  25.83  0.002163412    1.644    0.392
        32 -10.9363    144.9333      5.8388   6.9236584135e+01   4.7788810888e+01      0.25369     0.200256   8.28 0.0002708024    1.517    0.341
        33 -11.1552    195.2836      3.7058   6.1856604868e+01   3.5872462057e+01    0.4107004    0.1930972  71.13  0.001981036    1.800    0.445
        34 -11.3008    130.1227      3.5697   7.1109704447e+01   5.1414296122e+01    0.2795497    0.1995313  66.25  0.001344234    1.280    0.219
        35 -10.4169    120.6020      4.1670   7.3136216181e+01   5.3502844369e+01    0.2807627    0.1466114  51.94    0.0010956    1.561    0.360
        36 -10.3870     20.0845      2.0849   1.0417449701e+02   7.0583632944e+01    0.2103159    0.1345013  -0.35  0.001284192    1.302    0.232
        37  -9.8324     16.3349      3.2560   1.0643454927e+02   7.0808713365e+01    0.1823285    0.1320237 -51.70  0.001207307    2.605    0.616
        38  -9.8596    244.3801      1.8057   5.6927068534e+01   2.4722607757e+01    0.1493692    0.1152507 -26.85 0.0009533858    1.728    0.421
        39  -9.8290    176.5512      1.9798   6.3608663254e+01   4.0553621026e+01    0.1715652    0.1289103 -27.91  0.001023753    1.580    0.367
        40 -10.5365    210.1753      7.6898   6.1219278222e+01   3.1907683231e+01    0.2179341    0.1546668 -52.98    0.0010826    1.384    0.277
        41  -9.3186    204.4239      1.4636   6.0366757157e+01   3.3910819818e+01    0.1277522    0.1038832 -88.40 5.610707e-05    1.025    0.024
        42 -11.6379     80.2429      1.8217   8.1910680798e+01   6.1921884447e+01      0.35269    0.1522196  47.00  0.001540727    1.918    0.479
        43 -10.8449     21.9918    117.7244   1.3597139298e+02   4.9115046414e+01    0.2362169    0.1954933 -86.50 0.0009421594    1.194    0.163
        44 -11.9371     17.6654    248.9476   1.4932712644e+02   2.1338452048e+01    0.3350996    0.2001439  29.18  0.002076658    2.781    0.640
        45 -12.4324      5.2341    240.7586   1.5081167512e+02   2.4176162816e+01    0.4204069    0.1962861  54.21  0.002754207    1.701    0.412
        46 -13.0119      8.4958    245.9360   1.5058120077e+02   2.2878296751e+01    0.5440743    0.4080224  38.78  0.004206965    1.841    0.457
        47 -10.4169      3.3795    118.8551   1.4111654096e+02   5.0185780188e+01    0.1755617    0.1475041  67.97 0.0006435503    1.353    0.261
        48  -9.1975    132.0161    114.2793   1.0449996236e+02   3.3613488343e+01    0.1857009    0.1376375  45.33 0.0004208261    1.369    0.270
        49 -10.1192      3.7568    113.8668   1.4036057263e+02   5.1263364712e+01    0.2716991    0.1272335  -7.30  0.001243463    4.184    0.761
        50 -10.1763    249.1677    111.8095   8.0121520862e+01   7.4488285991e+00    0.1875429    0.1662482  -8.09  0.001028081    1.315    0.240
        51 -11.4670      5.1592    108.7809   1.3927154489e+02   5.2295300299e+01    0.2809197    0.2168278   2.78  0.001974099    1.725    0.420
        52 -10.6325     58.5157    107.3402   1.2350260859e+02   4.7781864038e+01    0.2585744    0.1870755 -21.35 0.0009555277    1.705    0.414
        53  -9.4388     34.4758    107.5111   1.3067165319e+02   5.0340023654e+01    0.1270336    0.1050051 -60.67 5.854222e-05    1.020    0.019
        54  -9.8371    113.4769    102.5061   1.0632838506e+02   3.9994964244e+01     0.149166    0.1439664 -32.93 0.0001690886    1.021    0.021
        55  -9.9098     66.6428    101.8404   1.1980093211e+02   4.7964120575e+01    0.1981726    0.1196824 -62.54 0.0009455492    1.698    0.411
        56 -10.7304     57.8686    101.3739   1.2235935707e+02   4.9199260184e+01    0.2401248    0.1732711 -64.54  0.001323443    1.361    0.265
        57 -11.8858     17.8240     94.8674   1.3331055747e+02   5.4495007902e+01    0.5051701    0.2880841 -42.22  0.002478798    1.603    0.376
        58  -9.0715    129.6639     97.6791   1.0066977868e+02   3.7662608763e+01    0.1573713    0.1222775   3.37 0.0007050048    1.708    0.414
        59 -10.1518     38.7035     96.9994   1.2729180812e+02   5.2273426303e+01    0.3716627    0.1948841 -76.11  0.001234825    2.651    0.623
        60  -9.4086     38.4670     92.4533   1.2638120659e+02   5.3286566336e+01    0.1274424    0.1047425 -47.95 2.048843e-05    1.023    0.022
        61 -10.6139     78.9042     94.9689   1.1435218413e+02   4.7703013792e+01    0.2088233    0.1862959 -35.95 0.0003076369    1.042    0.040
        62  -9.9845      3.2115     95.2105   1.3777280777e+02   5.5349317654e+01      0.14939    0.1168787 -85.57  0.000564092    1.324    0.245
        63 -10.1971     84.4866     93.7145   1.1232740286e+02   4.7094587533e+01    0.2676657    0.2000618 -26.57  0.001383668    1.440    0.306
        64 -11.1616     27.2946     90.9148   1.2958895902e+02   5.4619146936e+01    0.4803456    0.2799185  55.37  0.002485547    2.601    0.616
        65 -10.1015     25.6325     85.2435   1.2892443375e+02   5.5962301280e+01    0.2403478    0.1724375 -66.44  0.001032281    1.327    0.246
        66 -10.2536     57.9210     91.7590   1.2005139183e+02   5.1296138348e+01     0.270226    0.1835649 -19.54  0.001405958    1.804    0.446
        67 -11.5556     11.2821     88.1594   1.3409496713e+02   5.6371377624e+01    0.5363626    0.1880192 -62.34  0.002156456    2.164    0.538
        68  -9.6679    118.6614     90.3343   1.0153176514e+02   4.1490850016e+01    0.1533334    0.1202736 -86.56 0.0007051667    1.748    0.428
        69 -10.4232     76.4080     89.1480   1.1356880276e+02   4.9320169543e+01     0.236284    0.2176518   0.61 0.0004549833    1.128    0.113
        70 -10.4481      1.7775     89.7068   1.3730483671e+02   5.6597137755e+01    0.2037995    0.1177161 -62.75 0.0002291789    1.298    0.230
        71 -10.5510     98.9934     89.2390   1.0677422430e+02   4.5541264314e+01    0.1903049    0.1217863  40.55 0.0008857803    1.627    0.385
        72  -9.7454     44.2357     89.5536   1.2388161863e+02   5.3329931124e+01    0.2174927    0.1190415  35.05  0.001122906    2.108    0.526
        73 -10.2075     17.4287     88.4012   1.3220498518e+02   5.5909696903e+01    0.3566362    0.1794775 -28.15  0.001821811    2.470    0.595
        74  -9.7988    104.3062     88.3044   1.0496740537e+02   4.4745577462e+01    0.1465698    0.1130816  -5.45 0.0003290788    1.603    0.376
        75  -9.5150    124.1407     86.8426   9.9052492266e+01   4.1037943260e+01    0.2062944    0.1778717   8.35  0.000495881    1.298    0.230
        76 -10.7403     54.5823     84.6817   1.1933350998e+02   5.3203265110e+01    0.3315769    0.1943493 -47.85  0.001316919    1.464    0.317
        77  -8.9541     78.6267     83.2850   1.1125228564e+02   5.0195287015e+01    0.1332869    0.1093841  78.65 0.0007017035    1.712    0.416
        78 -10.4422      3.9567     82.9658   1.3545216607e+02   5.7892822148e+01    0.1820444    0.1352288 -55.12 0.0006438386    1.018    0.018
        79  -9.6645    100.3176     82.6541   1.0448428304e+02   4.6627391922e+01    0.1433837    0.1158114 -84.41 0.0002817163    1.724    0.420
        80 -10.1084     89.2780     80.5237   1.0715878281e+02   4.9016358083e+01    0.3204048    0.1780946 -48.56  0.001282134    1.781    0.439
        81  -9.8058     60.9826     75.9873   1.1487344542e+02   5.4182517153e+01    0.1814346    0.1578654  82.29 0.0003202524    1.587    0.370
        82 -11.7235     63.8266     80.9697   1.1533191645e+02   5.2801628295e+01    0.4870272    0.3838629 -54.37  0.002851858    1.268    0.211
        83  -9.9394     65.8542     75.1350   1.1301831262e+02   5.3698827852e+01    0.1972037    0.1724151 -26.34  0.001217055    1.022    0.021
        84  -9.7790    250.4027     80.7690   7.3045003571e+01   1.2458527654e+01    0.1861719    0.1254641 -31.41  0.000658438    1.589    0.371
        85  -9.3739    124.3881     79.1957   9.6737632593e+01   4.2457286671e+01    0.2028597    0.1366877 -51.40 0.0004541501    1.624    0.384
        86 -10.0355    176.6658     77.1208   8.4082230490e+01   3.0525515840e+01     0.309213    0.2195885  50.62  0.001451088    1.393    0.282
        87 -11.1104     55.6504     75.5613   1.1653310971e+02   5.4941569966e+01    0.2793215    0.2390862  -4.10 0.0007797643    1.199    0.166
        88 -10.5162     15.2207     75.9660   1.3036407300e+02   5.8655296605e+01    0.1818448    0.1594541 -21.28 0.0008140685    1.234    0.189
        89  -9.5414     74.9446     75.5430   1.1017916605e+02   5.2305540182e+01    0.1795977    0.1317636  31.76 1.449681e-05    1.446    0.309
        90  -9.4459     70.2821     75.3505   1.1163106395e+02   5.3032026572e+01    0.1394387   0.09486458 -20.59 0.0002896729    1.651    0.394
        91 -11.6734     32.1928     73.0466   1.2387149701e+02   5.7925899351e+01    0.2880933    0.2038985  37.31  0.001793601    1.751    0.429
        92 -11.0331     36.0000     72.0013   1.2228430235e+02   5.7785398003e+01    0.4328788    0.2379248 -56.28   0.00179952    1.653    0.395
        93  -9.4809    224.0212     74.2559   7.5216260273e+01   1.9469782166e+01    0.1927975    0.1713881 -87.03 0.0002760083    1.071    0.066
        94  -9.4344     25.8636     74.5982   1.2643189369e+02   5.8149518589e+01    0.1409231    0.1091678  38.22 0.0003721064    1.633    0.388
        95 -11.1638      3.6590     73.7744   1.3379522123e+02   5.9796119207e+01    0.2794769    0.1903685  13.11 0.0009198193    1.822    0.451
        96  -9.3550     95.9664     73.2336   1.0293741736e+02   4.9243636757e+01    0.2050515    0.1616451  75.19 0.0007138862    1.846    0.458
        97  -9.8526    136.6645     74.0901   9.2075052430e+01   4.0668477053e+01    0.2064131    0.1869052 -27.07 0.0004414798    1.136    0.120
        98 -10.3080    105.8776     71.5430   9.9505250098e+01   4.7685307740e+01    0.2343723    0.1943733 -32.88 0.0004760517    1.182    0.154
        99  -9.5996     81.3734     72.8884   1.0733057249e+02   5.1814778997e+01    0.2088114    0.1674427 -60.10 0.0007590813    1.486    0.327
       100  -9.0783     90.6730     69.3172   1.0332517416e+02   5.0917459756e+01    0.1327093    0.1124987 -86.51 0.0004222701    1.676    0.403
       101 -10.3288     45.9728     69.1497   1.1804134302e+02   5.7331393616e+01    0.2774754    0.2029926  36.40  0.001205922    1.621    0.383
       102  -9.6633     10.1172     69.3678   1.3066200458e+02   6.0314270718e+01    0.1812932    0.1201253 -28.92  0.001193139    1.458    0.314
       103  -9.5339    114.2519     66.4384   9.5553456455e+01   4.6909041809e+01    0.1854129    0.1376313  57.62 0.0003218396    1.504    0.335
       104 -11.7619     34.2693     65.0865   1.2103931391e+02   5.9307545952e+01     0.255436    0.1891778 -35.37 0.0004206772    1.119    0.106
       105 -11.6052     39.7133     61.8812   1.1817416957e+02   5.9388704756e+01     0.616274    0.2415963 -35.36  0.002536117    2.672    0.626
       106 -11.1296     11.3816     48.8115   1.2507324846e+02   6.4164194913e+01    0.6764616    0.2337542  22.09   0.00341338    3.279    0.695
       107 -10.5455     17.0434     64.1762   1.2699226132e+02   6.0887294223e+01    0.2927904     0.241848  -3.88  0.001220057    1.332    0.249
       108 -11.1339     16.9547     45.0549   1.2179101182e+02   6.4452292808e+01     0.334278    0.2954095 -24.32  0.002317969    1.209    0.173
       109 -10.7056     20.3303     51.3992   1.2234512125e+02   6.3060810223e+01     0.315882    0.1509754 -35.99 0.0009084984    1.783    0.439
       110  -9.2013     23.9831     61.9967   1.2391778355e+02   6.0791491810e+01    0.2494142    0.1565049 -35.69 0.0004221494    1.345    0.256
       111 -12.5583     20.6528     57.1246   1.2383174158e+02   6.1975975166e+01    0.3418218    0.3040884 -46.49  0.001035762    1.228    0.185
       112 -10.9129    130.6498     64.1811   9.0550928204e+01   4.3747324497e+01    0.5128989    0.3377975  71.17   0.00224969    2.059    0.514
       113 -11.4245      8.9428     60.8094   1.2910154501e+02   6.2065337242e+01    0.4233816    0.1806711 -44.33  0.001131379    1.768    0.434
       114 -10.8438     62.5579     62.3132   1.1025203566e+02   5.6590872807e+01    0.2606774    0.1819292 -25.95  0.001045005    1.364    0.267
       115 -10.1829     52.8894     61.6460   1.1340358448e+02   5.7960045834e+01    0.2885006    0.1961832  63.33  0.001411477    2.907    0.656
       116 -11.4111     54.2386     57.6888   1.1168677503e+02   5.8515335320e+01    0.3999058    0.3422478 -33.95  0.001282478    1.129    0.114
       117 -10.6881      2.6377     60.1231   1.3123084717e+02   6.2550289265e+01    0.2426961    0.1842109  72.27  0.001652773    2.025    0.506
       118 -11.7016     83.5503     56.9088   1.0153486791e+02   5.4335313452e+01    0.3117085    0.2419381 -25.76  0.001791911    1.217    0.178
       119 -11.6594     87.5071     54.0000   9.9310109348e+01   5.4136443945e+01    0.4061093    0.2825195  39.13   0.00122795    1.440    0.306
       120  -9.8649    118.8018     59.1085   9.1993455849e+01   4.7184196000e+01    0.2078706    0.1929317 -64.06 0.0004970412    1.245    0.197
       121  -9.5361     71.4411     57.7107   1.0575576435e+02   5.6137180243e+01    0.1713488    0.1129221 -28.95  0.000295618    1.444    0.308
       122 -10.4472     60.5437     57.6282   1.0945132591e+02   5.7708063713e+01    0.2328242    0.2157672 -45.92 0.0008409446    1.293    0.226
       123  -9.9636     99.6556     56.2016   9.6375602820e+01   5.1544925930e+01    0.1878138    0.1228332 -25.54 0.0003790001    1.599    0.375
       124 -10.8741    115.0314     53.9077   9.1307970954e+01   4.8812979725e+01    0.3412696    0.2651572  40.01  0.001845719    1.227    0.185
       125  -9.3703    199.8584     54.6430   7.4018836177e+01   2.8420262752e+01    0.1978258    0.1275764  78.62 0.0004197963    1.647    0.393
       126  -9.5354    163.9962     54.4584   8.0216527199e+01   3.7365878458e+01     0.407939    0.1357741  57.74   0.00137811    2.808    0.644
       127 -10.0497    106.2378     53.0294   9.3427741332e+01   5.0760446754e+01    0.2570027    0.2093915 -77.27  0.001358685    1.788    0.441
       128  -9.7700     34.6380     53.1463   1.1742619694e+02   6.1504886415e+01    0.2403812    0.1355434 -28.68 0.0008390552    1.686    0.407
       129 -10.5694      3.0539     53.5848   1.2952222883e+02   6.3772291843e+01    0.3368419     0.133386 -29.52   0.00170595    2.688    0.628
       130 -12.0225     66.3050     52.4274   1.0573237323e+02   5.7802506920e+01    0.6076117     0.219988  35.21  0.002516806    2.921    0.658
       131  -9.2752    176.1941     52.3448   7.7339215512e+01   3.4653636673e+01    0.1981386    0.1301311  71.57 0.0003857805    1.557    0.358
       132  -9.4182    169.7652     52.6265   7.8591207183e+01   3.6211702300e+01    0.1932444    0.1327885  70.51 0.0002612046    1.476    0.323
       133  -9.6199    100.8398     61.8135   9.7873932705e+01   5.0381156265e+01    0.1817952    0.1684514 -73.45 0.0005438853    1.340    0.254
       134  -9.7849    147.5443     49.9606   8.2248672975e+01   4.2038366223e+01    0.2062459    0.1424489 -33.94 -6.617934e-05    1.537    0.349
       135 -10.8734     77.6477     46.5455   9.9884622558e+01   5.7001629969e+01    0.4294557     0.274798  -5.37  0.002164665    1.936    0.483
       136  -9.9150     38.1456     48.9792   1.1478656129e+02   6.1892434413e+01     0.188069    0.1278133 -22.32  0.000899596    1.335    0.251
       137  -9.0666    212.0027     48.8025   7.0781751893e+01   2.6306288186e+01    0.1783435    0.1036598  66.53 0.0008278043    1.641    0.391
       138 -10.0097     53.9516     48.0547   1.0860721091e+02   6.0222480823e+01    0.1891659    0.1491773 -17.61 0.0003100134    1.091    0.084
       139  -9.9864    104.9579     47.0173   9.1757781946e+01   5.1933090279e+01    0.1659403     0.146339  29.21 0.0003958873    1.061    0.058
       140  -9.9178     68.5342     46.8833   1.0305447341e+02   5.8382766812e+01    0.1977357    0.1504882  14.95 5.413387e-05    1.280    0.218
       141  -9.4276     64.6972     46.2758   1.0416579153e+02   5.9047018019e+01     0.185422    0.1205543  35.82 0.0004324098    1.602    0.376
       142  -9.5371     30.6819     46.8148   1.1694961996e+02   6.3002055493e+01    0.3134893    0.1737311 -26.63  0.001488184    1.729    0.422
       143  -9.5610     91.0768     44.6670   9.4987967501e+01   5.4950298543e+01    0.1843828     0.156072  23.22 0.0004454962    1.095    0.087
       144 -11.0586     25.3221     42.8120   1.1776489094e+02   6.4173743327e+01    0.2984091    0.2246654 -58.84  0.001178289    1.667    0.400
       145 -10.6003     22.8098     38.6173   1.1739796151e+02   6.5097658815e+01      0.18898    0.1739346  28.69 0.0008861517    1.521    0.342
       146 -11.3238     26.4094     35.5196   1.1487817003e+02   6.5291807955e+01    0.3595723    0.1890647 -30.51  0.001538143    1.639    0.390
       147 -10.4970     70.3106     41.6750   1.0059175030e+02   5.8920773115e+01    0.3376338    0.1933892 -34.80  0.001796219    1.661    0.398
       148 -10.2406     69.8336     35.4810   9.8476034572e+01   5.9902913380e+01    0.3875099    0.1782647 -20.64  0.001623252    2.942    0.660
       149 -11.1212    139.5351     40.3365   8.0994396153e+01   4.5280565740e+01    0.3390833    0.2254861 -43.80  0.001355116    1.667    0.400
       150 -10.2119      2.1731     42.3144   1.2691191731e+02   6.5878276037e+01    0.1657421    0.1164932  -5.30 0.0007637099    1.488    0.328
       151  -9.8243    182.1190     40.6637   7.3135366052e+01   3.4827445518e+01    0.2324753    0.1678587  82.20  0.001182362    1.405    0.288
       152  -9.9178     36.1220     40.6357   1.1277390692e+02   6.3513657839e+01    0.3605992    0.1535036 -33.79   0.00178756    2.163    0.538
       153  -9.4664    134.4942     39.5932   8.1866584075e+01   4.6554072897e+01    0.2287086    0.1617861  50.00 0.0004815872    1.289    0.224
       154 -10.1470    131.0058     37.2798   8.1906243013e+01   4.7658747379e+01    0.2567056    0.2211242  12.73 0.0005917298    1.226    0.184
       155 -11.2085    134.2402     33.9743   8.0120607238e+01   4.7333503032e+01    0.2281685    0.1743648  45.90 0.0003039969    1.192    0.161
       156  -9.1308     42.9553     40.7527   1.1016991049e+02   6.2751337470e+01    0.1383841   0.09425846  20.74 0.0004924916    1.499    0.333
       157 -10.0647     13.1019     38.2214   1.2124021474e+02   6.5913847056e+01    0.3759738   0.05384576 -47.66  0.001427271    3.951    0.747
       158 -11.9757    121.4682     36.8412   8.3996073115e+01   4.9858261804e+01      0.49836    0.4301415 -88.45  0.002879325    1.454    0.312
       159  -9.3640    101.6617     39.6580   9.0135835139e+01   5.3641754520e+01    0.1439078   0.09551714  15.94 0.0004920518    1.768    0.435
       160  -8.8557     51.3126     39.7009   1.0663934854e+02   6.1910059459e+01    0.1031816   0.09872144 -74.01 0.0003567663    1.605    0.377
       161 -11.7575    145.0757     33.0558   7.7569924027e+01   4.4900353808e+01    0.2493831    0.2344976 -44.23  0.001513927    1.169    0.145
       162 -10.9632      2.0897     35.6797   1.2503111257e+02   6.7040017992e+01    0.2050325    0.1557199 -20.46  0.001591185    1.181    0.153
       163 -10.8916     50.2974     33.9001   1.0488181616e+02   6.2923455028e+01      0.23524    0.1959774  11.04  0.001195299    1.171    0.146
       164  -9.3724     54.7037     34.6152   1.0350990485e+02   6.2237706297e+01    0.1677811    0.1077325  14.33 0.0006893397    1.604    0.377
       165 -10.0081    166.6880     31.5545   7.3148528237e+01   3.9829681826e+01    0.3342996    0.1413528 -43.76  0.001346698    2.581    0.613
       166 -10.3301    127.2005     31.5631   8.0898554462e+01   4.9239505955e+01    0.3967849    0.2700801  17.72  0.002005657    1.783    0.439
       167 -11.1085     19.2776     31.8045   1.1653502679e+02   6.6505860449e+01    0.4448192    0.2182821  -3.43  0.002300349    2.768    0.639
       168 -11.5272     44.0318     29.1440   1.0547110005e+02   6.4401048464e+01     0.454947    0.2625273 -25.97  0.001906724    1.554    0.357
       169  -9.8088    104.0763     29.5644   8.5900867054e+01   5.4462416654e+01    0.3311166    0.1492755  36.49  0.001416255    2.323    0.570
       170  -9.3810    187.8023     29.3825   6.9272745476e+01   3.4868911600e+01    0.2081465    0.1091041  56.42 0.0009527881    1.751    0.429
       171 -10.4044    150.3255     29.4740   7.5455106871e+01   4.4074032985e+01    0.3610745     0.131138  63.86  0.001322318    2.720    0.632
       172 -10.3682    140.7166     27.2743   7.6638936672e+01   4.6621263302e+01    0.4515675    0.2449159  54.36  0.002154953    1.608    0.378
       173 -10.6716     69.3791     28.0390   9.5798082111e+01   6.0987700633e+01    0.2747683    0.2318724 -50.67  0.001387798    1.693    0.409
       174 -10.0041      7.5717     28.0192   1.2023981372e+02   6.7979175317e+01    0.1727143    0.1362594  23.39 0.0007081362    1.621    0.383
       175 -10.6370     34.1222    247.1352   1.4659014868e+02   1.9779337453e+01    0.1568095    0.1236064  76.17 0.0004117883    1.184    0.155
       176  -9.5083    217.1695    244.8263   1.1264954937e+02  -8.7536486345e+00    0.2725208   0.07796842  44.93  0.001006932    3.489    0.713
       177  -9.9048    171.3303     26.3034   7.0913438226e+01   3.9312533806e+01     0.140969   0.09633552  39.02 0.0002691269    1.653    0.395
       178 -10.0629    154.3917     25.9154   7.3641660590e+01   4.3504992381e+01    0.4323444    0.1793041  73.05  0.001532044    3.184    0.686
       179  -9.8308    218.5409     25.5106   6.4424622119e+01   2.7865763648e+01     0.137071    0.1100536 -78.30 6.047545e-05    1.092    0.084
       180 -10.0923     59.0527     24.3704   9.7956906712e+01   6.3043481039e+01    0.2292631     0.144039 -13.34  0.001177239    1.566    0.362
       181 -10.3508     50.9600     23.0770   1.0041840325e+02   6.4350182427e+01    0.2547176    0.2383755 -43.35  0.001702006    1.617    0.381
       182  -9.6535    192.8966     23.8886   6.7155515072e+01   3.4274355201e+01    0.1843415    0.1422172 -76.41            0    1.268    0.211
       183 -10.1662     89.2929     22.2181   8.7306920905e+01   5.8223746528e+01     0.399863    0.1374316 -31.02  0.001676767    2.962    0.662
       184  -9.2362     74.2075    243.8321   1.3945561570e+02   1.5100064908e+01    0.1420277      0.12375  64.81 0.0002645664    1.260    0.206
       185 -10.7968     38.1110    242.2433   1.4559338930e+02   2.0218567080e+01    0.3626417    0.1236097  67.94  0.001455449    3.878    0.742
       186 -10.6017      1.5169    249.9778   1.5184029365e+02   2.2857521906e+01    0.1899233    0.1009969 -84.32  0.001271076    1.503    0.335
       187  -9.5779    202.5672    240.2686   1.1463173263e+02  -5.7054168658e+00    0.1559332    0.1167702 -18.26 0.0007265514    1.520    0.342
       188  -9.2255     60.5093    241.0000   1.4164029199e+02   1.7562268233e+01    0.2426213   0.05755341  40.02 0.0009261941    3.866    0.741
       189 -10.6723     12.3364     15.9131   1.1365765210e+02   6.9474902457e+01    0.3000323    0.1583737  19.71  0.001460927    1.945    0.486
       190 -10.2653    124.8665     21.0368   7.7920300507e+01   5.0961567445e+01    0.2373901    0.1856772 -35.68 0.0008315258    1.443    0.307
       191  -9.7877      1.7161     21.5977   1.2062155855e+02   6.9366447539e+01    0.1658331    0.1166917 -58.62  0.001175049    1.856    0.461
       192  -9.8308     85.0202     21.1892   8.8168619223e+01   5.9134418801e+01    0.1993595    0.1394412  24.76 0.0005905966    1.313    0.239
       193 -12.3564     26.3506    235.7632   1.4711353362e+02   2.2851680805e+01    0.3576613    0.2227851 -77.74  0.001717215    1.437    0.304
       194 -10.2081     31.0648     20.2218   1.0718989897e+02   6.7132501739e+01    0.1930451    0.1268854 -27.08 0.0006977242    1.262    0.208
       195  -9.7964    175.3008     20.5695   6.8733686068e+01   3.8986599418e+01     0.192354    0.1097929  57.15 0.0009389478    1.555    0.357
       196  -9.2660    131.6849     20.6577   7.6353561194e+01   4.9452610656e+01    0.1417285   0.09030587  31.01 0.0007047922    1.709    0.415
       197 -10.4428    100.2997     19.0097   8.3077783530e+01   5.6426963379e+01    0.2954595    0.2431159 -81.54  0.001485964    1.819    0.450
       198  -9.7785    148.9501     18.9758   7.2527315640e+01   4.5574225865e+01    0.1990375    0.1508962 -77.36 0.0003431016    1.564    0.361
       199 -10.2607    199.8311     17.1547   6.4605371779e+01   3.3356311658e+01    0.2019908    0.1571226 -76.97 0.0004805285    1.202    0.168
       200  -9.3255    108.3660     16.7169   8.0215291496e+01   5.5000888280e+01    0.1546177    0.1162973  -2.80 0.0003259199    1.424    0.298
       201 -10.3695     26.4455     16.4954   1.0763210291e+02   6.8120131920e+01    0.2045292    0.1647614  -8.95 0.0008376992    1.147    0.128
       202 -12.2947      2.2540    220.1196   1.5014607883e+02   2.8443273437e+01     0.805277    0.1985875 -80.37  0.003410233    3.653    0.726
       203 -11.8122      4.1090    232.6020   1.5054992434e+02   2.5832641633e+01    0.3176937    0.1654043  70.39 0.0003993691    1.475    0.322
       204  -9.7134    249.1959    234.1243   1.0505168627e+02  -1.2284457077e+01    0.1804665    0.1348881   8.82 0.0005057284    1.152    0.132
       205  -9.7045    140.2497    227.2239   1.2482033331e+02   7.4827728059e+00    0.1888411    0.1410456  66.54 0.0007045712    1.371    0.271
       206 -10.0237     32.6719    225.2231   1.4528022972e+02   2.4200890506e+01    0.2564311    0.1289134  49.37  0.001518356    1.742    0.426
       207 -10.0847     25.3367    225.1522   1.4655597010e+02   2.5053015286e+01    0.1698785    0.1190212 -73.58 0.0009612514    1.415    0.293
       208  -9.6976     76.0715     14.6796   8.8340147015e+01   6.1447851819e+01    0.1725034    0.1261012  28.88 0.0004925207    1.173    0.147
       209 -10.1341    190.8049     14.1430   6.4956947985e+01   3.5884450856e+01    0.1773389     0.145186  51.96 0.0006726091    1.303    0.233
       210 -11.8525      7.9032    217.7060   1.4905089449e+02   2.8376808906e+01    0.2867041    0.2179782  89.74  0.001625322    1.171    0.146
       211  -9.4432    246.4624    216.5165   1.0236603068e+02  -9.4626081009e+00    0.1275775    0.1047757   4.53 0.0001259996    1.038    0.037
       212 -13.2624      9.6357    229.5844   1.4948600920e+02   2.5857596274e+01    0.6253218    0.3356555 -86.21  0.002853403    1.463    0.316
       213  -9.4639    209.4295    211.7924   1.0839521881e+02  -2.4668761466e+00    0.1813338    0.1242186 -24.20 0.0009460538    1.621    0.383
       214 -11.0989     15.8275    211.7415   1.4727483965e+02   2.8792598586e+01    0.2830122    0.1332157  54.95  0.001660126    1.853    0.460
       215  -9.8858     20.6187    209.8062   1.4627335865e+02   2.8694986224e+01    0.1622952     0.083562  89.79 0.0003500992    1.650    0.394
       216  -9.5446    246.8712    207.1414   1.0053593078e+02  -8.1614053278e+00    0.1821069    0.1639355 -20.52 0.0007267451    1.208    0.172
       217  -9.5338    196.8983    203.8615   1.0939884146e+02   1.1953141370e+00    0.1868427    0.1646921  64.31 0.0007751459    1.327    0.246
       218 -11.3826      9.2080    203.4244   1.4787503286e+02   3.1168715255e+01    0.2294837    0.1747011  68.87  0.000871527    1.192    0.161
       219  -8.9869    181.5149    199.4925   1.1172022464e+02   4.9425320441e+00    0.1416951    0.1314827  43.06 -2.558908e-05    1.043    0.041
       220  -9.5563     23.0217    197.4898   1.4485015900e+02   3.1044858802e+01    0.1586745    0.1068372  44.90 0.0004936807    1.587    0.370
       221  -9.9950      6.7334    191.7129   1.4748695237e+02   3.3862675959e+01     0.159376   0.09790847  76.26 0.0007793784    1.341    0.254
       222  -9.7691     15.4328    185.3669   1.4530722257e+02   3.4423171064e+01    0.2099593   0.08864877 -86.70  0.001018841    2.225    0.551
       223  -9.0429    250.3325    183.3202   9.5255424626e+01  -5.0501123504e+00    0.1384245   0.09548164   1.42 0.0007049092    1.697    0.411
       224  -9.3681      1.3150    183.2315   1.4788550242e+02   3.6142880365e+01    0.1577759    0.0784972 -85.63 0.0004909721    1.583    0.368
       225 -10.7995      4.7647    167.3670   1.4592183601e+02   3.9303780198e+01    0.2924754    0.1648034  67.58  0.001447736    1.728    0.421
       226  -8.9731    111.7389    162.6772   1.2046861695e+02   2.6482024701e+01    0.1404826      0.11588 -27.68 0.0002339728    1.554    0.357
       227  -9.2060     41.7490    158.0615   1.3669825228e+02   3.7904116993e+01    0.1730902   0.09373709 -70.64 0.0008818954    1.568    0.362
       228  -9.1705    247.4680    155.5254   8.9974800795e+01   1.1073924268e-01    0.1383583    0.1246142 -22.85 0.0001015282    1.005    0.005
       229  -9.8165      2.7356    153.7482   1.4511946883e+02   4.2469720751e+01     0.165526   0.07342457  44.17 0.0009028024    2.424    0.587
       230  -9.8228     14.7269    150.9497   1.4214217990e+02   4.2156125785e+01    0.1762997    0.1244071 -78.27  0.000744025    1.100    0.091
       231 -10.1716     21.9281    143.3472   1.3955447851e+02   4.3274168481e+01    0.2230871    0.1402021 -80.57  0.001143056    1.359    0.264
       232  -9.8257      2.6981    138.5678   1.4359863668e+02   4.5848823916e+01    0.1440709   0.09955987  50.33 0.0009577963    1.646    0.392
       233  -9.6416      8.6434    135.2068   1.4179640392e+02   4.6182811523e+01    0.1775316   0.07987242 -63.49 0.0007980284    1.676    0.403
       234 -10.8798     12.7568    130.5739   1.4021062485e+02   4.6924177450e+01    0.3995802     0.191772  66.39  0.001439102    2.981    0.665
       235  -9.6678     21.4151    126.2344   1.3739571383e+02   4.7230727607e+01    0.1781144    0.1272019 -72.36 0.0004086269    1.137    0.120
       236 -11.3494     24.1372    122.3677   1.3610130225e+02   4.7885491419e+01    0.2496379    0.1930173 -82.02 0.0002936764    1.195    0.163
