#   1 NUMBER                 Running object number                                     
#   2 MAG_AUTO               Kron-like elliptical aperture magnitude                    [mag]
#   3 X_IMAGE                Object position along x                                    [pixel]
#   4 Y_IMAGE                Object position along y                                    [pixel]
#   5 X_WORLD                Barycenter position along world x axis                     [deg]
#   6 Y_WORLD                Barycenter position along world y axis                     [deg]
#   7 A_WORLD                Profile RMS along major axis (world units)                 [deg]
#   8 B_WORLD                Profile RMS along minor axis (world units)                 [deg]
#   9 THETA_WORLD            Position angle (CCW/world-x)                               [deg]
#  10 FWHM_WORLD             FWHM assuming a gaussian core                              [deg]
#  11 ELONGATION             A_IMAGE/B_IMAGE                                           
#  12 ELLIPTICITY            1 - B_IMAGE/A_IMAGE                                       
         1 -12.4588    211.3822      7.1861   6.2451550918e+01   3.0530515477e+01     1.434164     1.049245 -59.25  0.007299764    1.481    0.325
         2 -13.0401    173.9756     36.7389   7.7339477167e+01   3.7204637843e+01     1.200885    0.8934883  11.64  0.002196896    1.460    0.315
         3 -13.6904    183.5276     28.1032   7.2803082019e+01   3.5745992463e+01     2.254938     1.411425  -4.90   0.00786998    1.772    0.436
         4 -13.7549    191.5395     15.2629   6.7337854577e+01   3.4993257514e+01     1.691616     1.267416   4.15  0.002234938    1.408    0.290
         5 -10.1154     94.6216    241.8204   1.3429194503e+02   1.8071630040e+01    0.2099222    0.1284323  70.05 0.0007798296    1.640    0.390
         6 -10.2040    135.0038    249.8820   1.2872794518e+02   1.1866502634e+01    0.3448775    0.1233276  48.36  0.001985108    2.138    0.532
         7 -12.7844    171.3693    248.7979   1.2305293770e+02   6.9986363142e+00     2.117717    0.3179095  39.14  0.006579703    6.902    0.855
         8 -11.0663    171.1231    243.9222   1.2256613332e+02   7.5362358161e+00    0.3227877    0.2184038  59.05  0.002362885    1.731    0.422
         9 -11.7002    147.8112    248.7105   1.2665545218e+02   1.0267577864e+01    0.8687071    0.2225791  38.99  0.004001721    3.244    0.692
        10 -12.0797    157.5214    245.7095   1.2486099296e+02   9.2571775431e+00    0.8185491    0.2518807  43.14  0.004330748    2.319    0.569
        11 -13.5635     83.4227    165.4722   1.2920937046e+02   3.1577555845e+01     3.247063    0.3898681  44.29  0.004868366    5.788    0.827
        12 -13.8474     66.7034    143.2586   1.3010324256e+02   3.8033007804e+01     3.530871     1.684499  55.79   0.01794176    2.196    0.545
        13 -15.2316     62.8049    213.3277   1.3737495733e+02   2.5953629800e+01      7.34718     2.267616  53.83   0.01162599    2.751    0.637
        14 -16.1045     27.8930    243.9065   1.4436177542e+02   2.5099493059e+01     2.347816     1.393188  45.20   0.01359219    1.420    0.296
        15 -10.4482    192.7231    195.2608   1.1264649715e+02   9.7235328775e+00    0.7094095    0.3971276 -61.60  0.002755243    5.848    0.829
        16  -8.9545    204.3350    200.3129   1.1146799155e+02   7.2334947360e+00    0.1217436    0.0747641  19.71 0.0007045573    1.685    0.407
        17  -8.1054    141.3103    198.6221   1.2218870175e+02   1.7579893049e+01    0.1159458     0.080484  69.92 0.0007027856    1.790    0.441
        18  -9.4420     19.6110    196.4715   1.4363650358e+02   3.3101431964e+01    0.2366024    0.1320234  46.32  0.001217288    1.516    0.340
        19 -10.0066    183.2077    195.5256   1.1432993026e+02   1.1262167743e+01    0.1966556    0.1652753  31.07 0.0003048618    1.055    0.052
        20 -14.3234     14.7590    242.3001   1.4616319018e+02   2.6536200479e+01    0.6645272    0.5009542  44.51  0.004500054    1.517    0.341
        21  -8.5762     85.9461    190.3092   1.3139059659e+02   2.6855766391e+01    0.1574749    0.1180588  55.66  0.001132922    1.096    0.088
        22 -11.3437     82.6319    185.4497   1.3152935130e+02   2.8111153909e+01    0.3172808    0.2439072 -47.06   0.00222785    1.764    0.433
        23 -11.2750     86.0632    179.7049   1.3027975793e+02   2.8658950625e+01    0.3230817    0.2280667 -63.24 0.0008577034    1.537    0.349
        24 -13.2428     47.4017    218.0179   1.4019301345e+02   2.6917556147e+01      1.16144    0.1955662  48.35  0.005495992    3.547    0.718
        25  -9.6900      8.1006    184.2375   1.4504313677e+02   3.6174333057e+01    0.2960289    0.1161001  51.53  0.001944726    1.936    0.483
        26  -8.9848     57.3173    178.1006   1.3566213648e+02   3.2479595931e+01    0.2029493    0.1226089  51.93 0.0002865504    1.402    0.287
        27  -9.0153     15.6473    176.8495   1.4335430860e+02   3.6840964407e+01    0.1913025    0.1075559  41.04  0.000993485    1.704    0.413
        28 -10.1061    137.0333    171.9555   1.1928665868e+02   2.2368597784e+01    0.3722606    0.2222968  48.08  0.001311084    1.485    0.327
        29  -8.3723    167.3510    212.1884   1.1939683503e+02   1.1714860527e+01    0.1266291    0.1059077 -63.83 0.0002558283    1.662    0.398
        30  -9.6208    229.6179    166.7739   1.0143592044e+02   6.7711300346e+00    0.1625062     0.110737 -33.18 0.0008177445    1.700    0.412
        31  -9.1562    112.5539    211.0234   1.2869073650e+02   1.9998700561e+01    0.1949416    0.1325881  33.74 0.0007540094    1.526    0.345
        32 -11.1534     97.7583    161.5989   1.2575910882e+02   3.0301658272e+01    0.4843149    0.3191721 -39.49  0.001442109    2.106    0.525
        33 -10.0246      3.8466    161.6891   1.4477590887e+02   4.0557554528e+01    0.2138976    0.1523253  38.24 0.0008167422    1.597    0.374
        34 -10.8858     66.2026    158.5543   1.3199633920e+02   3.5078315561e+01    0.3660193    0.2080723  68.09  0.001602677    1.837    0.456
        35  -9.2802     26.3281    159.2930   1.4025306689e+02   3.9144254339e+01    0.1650837   0.08801101 -76.10 0.0005508984    1.625    0.385
        36  -9.8983     23.4597    156.5195   1.4063472784e+02   3.9931487135e+01    0.2332848    0.1369111  35.43  0.001078321    1.851    0.460
        37  -9.6012    133.2170    143.2584   1.1529505912e+02   2.7990121666e+01    0.7779285    0.1981514 -55.38  0.001923914    7.875    0.873
        38 -10.1549    108.5425    144.4445   1.2090058357e+02   3.1906306544e+01    0.4816941    0.2761397 -36.60  0.002289167    2.508    0.601
        39 -11.6127     97.2165    145.3951   1.2356412753e+02   3.3461553767e+01    0.2339768     0.218858  59.70 0.0004870075    1.108    0.098
        40  -9.6348     31.0492    157.0000   1.3913251296e+02   3.9149004281e+01    0.1957219    0.1216076  47.79  0.001064374    1.494    0.331
        41  -9.0783    128.4420    142.0016   1.1610091093e+02   2.9057982653e+01    0.1873318    0.1620529  46.65 0.0001789074    1.090    0.082
        42 -12.8604     20.0509    214.6830   1.4437267734e+02   3.0125015729e+01    0.7784011    0.2652417  44.58  0.003180474    2.110    0.526
        43  -9.7033    115.4646    133.5630   1.1745250177e+02   3.2884675966e+01    0.2514871    0.2216476 -15.30 0.0007261054    1.405    0.288
        44  -8.4225    193.2511    131.9665   1.0069158609e+02   1.8282929651e+01    0.1850021    0.1636728   5.77 0.0002438579    1.065    0.061
        45 -10.1750    103.4716    130.3222   1.1964220977e+02   3.5488216237e+01    0.2387634    0.2154238 -37.99 0.0007974778    1.265    0.210
        46 -13.5081     10.9999    207.0967   1.4549539703e+02   3.2125495864e+01    0.7874796    0.7313024  22.01  0.006936502    1.794    0.443
        47  -8.8308    160.3905    128.2035   1.0643754017e+02   2.5552027430e+01    0.1970589    0.1304323 -51.11 0.0007984659    1.740    0.425
        48  -8.5224    125.7181    127.0048   1.1383366323e+02   3.2377493507e+01    0.1800487    0.1686762 -54.30 0.0001822055    1.096    0.088
        49  -9.6843    120.0207    126.5006   1.1504896184e+02   3.3484515717e+01    0.2456654    0.1869213 -31.49 0.0007995834    1.566    0.361
        50 -10.4819    239.1329    123.7171   9.0790812078e+01   1.0140123933e+01    0.2553011    0.2100667  25.84 0.0003803091    1.129    0.114
        51  -9.6098    134.8705    122.4965   1.1079571920e+02   3.1557796602e+01    0.3320653    0.1518942 -49.43  0.001375385    2.307    0.567
        52  -9.4002    110.8440    121.9147   1.1630301624e+02   3.5973901656e+01    0.2149555    0.1828052  50.09 0.0004215362    1.164    0.141
        53  -8.7911     70.0132    117.1982   1.2557035996e+02   4.3051945371e+01     0.158482   0.09717467  37.84 0.0004196397    1.754    0.430
        54  -8.7933     86.1930    207.7231   1.3295660168e+02   2.4009339954e+01    0.1776505    0.1037282  47.70 0.0005515907    1.363    0.266
        55  -9.2905    168.3603    114.0652   1.0149487626e+02   2.6344809432e+01    0.3296402    0.2610645 -69.05  0.001150852    1.716    0.417
        56  -9.6616     24.2945    112.9669   1.3667312226e+02   4.8747718200e+01    0.1775084     0.151821  60.54 0.0007075467    1.252    0.201
        57 -13.1804     71.8422    202.6777   1.3503834746e+02   2.6583678181e+01    0.8036332    0.6554319  72.58   0.00437881    1.104    0.094
        58  -9.9235     31.8340    107.1983   1.3404616171e+02   4.9356071846e+01    0.2159439    0.1676163   9.88  0.001292272    1.829    0.453
        59 -10.3359     67.3276    105.3089   1.2422223208e+02   4.5968277966e+01     0.271142    0.2413833  65.65  0.001776803    1.160    0.138
        60  -9.9403      7.4257    104.3244   1.4013044808e+02   5.1831431802e+01    0.3133602    0.1408251  23.06  0.001781358    2.856    0.650
        61  -8.7910     53.3057    103.6321   1.2774341682e+02   4.8005033728e+01    0.1304403   0.08520577  78.69   0.00070354    1.750    0.429
        62  -8.7795    113.4920     95.0516   1.0960519785e+02   4.0983398521e+01    0.2109986    0.1342015 -45.71 0.0004273749    1.519    0.342
        63  -8.5244    151.5269     77.5239   9.5321634041e+01   3.6460028423e+01    0.1521948    0.1430706   0.25 0.0004806241    1.027    0.027
        64  -8.3537    192.9904     61.7244   8.2094169700e+01   2.8954105710e+01    0.1994374    0.1860561  28.90 0.0002563469    1.068    0.063
        65  -7.9123     24.3233     61.3257   1.2897640161e+02   6.0142196730e+01    0.1260307    0.0728793 -43.46 0.0003708985    1.688    0.408
        66 -10.1637     11.4990     57.9718   1.3289927650e+02   6.1751004429e+01    0.1884929   0.08940674 -68.04 0.0007251332    1.592    0.372
        67 -10.1156     18.0249     54.0287   1.2974933103e+02   6.2208057310e+01     0.186415    0.1293683  78.05  0.001146108    1.732    0.423
        68  -8.5080    133.2623     50.9610   9.0985713139e+01   4.5236853941e+01    0.2069906    0.1816793 -24.27 0.0002041575    1.084    0.078
        69  -9.6044    121.5022    248.6111   1.3068549043e+02   1.3799180506e+01    0.1729329    0.1266966  65.25 0.0009028338    1.345    0.257
        70  -9.9253    105.6772    241.3850   1.3254270832e+02   1.6740572729e+01    0.1814507    0.1239634  59.08 0.0003299527    1.203    0.169
        71 -11.0043     90.9807    247.1543   1.3522767815e+02   1.7823708867e+01    0.2224653     0.156401  65.38 0.0004108473    1.224    0.183
        72  -9.6027    248.0880     47.9588   7.0208152390e+01   1.7357258175e+01    0.2269395    0.1930892  36.14  0.000398638    1.230    0.187
        73 -10.2174    211.9917     38.0222   7.1864691470e+01   2.7200968815e+01    0.2325026    0.2163125 -13.14 0.0005933415    1.020    0.020
        74 -10.3419    142.9157     27.1591   7.9834337304e+01   4.6437282546e+01    0.2625256    0.2160995 -16.79 0.0002999343    1.171    0.146
