#   1 NUMBER                 Running object number                                     
#   2 MAG_AUTO               Kron-like elliptical aperture magnitude                    [mag]
#   3 X_IMAGE                Object position along x                                    [pixel]
#   4 Y_IMAGE                Object position along y                                    [pixel]
#   5 X_WORLD                Barycenter position along world x axis                     [deg]
#   6 Y_WORLD                Barycenter position along world y axis                     [deg]
#   7 A_WORLD                Profile RMS along major axis (world units)                 [deg]
#   8 B_WORLD                Profile RMS along minor axis (world units)                 [deg]
#   9 THETA_WORLD            Position angle (CCW/world-x)                               [deg]
#  10 FWHM_WORLD             FWHM assuming a gaussian core                              [deg]
#  11 ELONGATION             A_IMAGE/B_IMAGE                                           
#  12 ELLIPTICITY            1 - B_IMAGE/A_IMAGE                                       
         1 -13.4935    248.2558    115.3198   8.0016641772e+01   7.1743601887e+00     1.913587    0.9411879 -29.12  0.007739243    2.381    0.580
         2 -14.1303    205.1430     16.1045   6.2724944674e+01   3.2124551153e+01     1.949599     1.191663  34.61  0.009442275    2.552    0.608
         3 -12.9868      3.6889      9.1128   1.1266491184e+02   7.1192901521e+01     1.228724    0.3223056 -39.71  0.006086349    2.898    0.655
         4 -11.0888    190.0721     15.5786   6.4341792789e+01   3.5793299879e+01    0.2458637    0.2116659 -64.23 0.0007382127    1.167    0.143
         5 -10.1290    184.1639    250.3864   1.1882396783e+02  -4.2720101236e+00    0.2202945    0.1319983  36.29 0.0006856656    1.421    0.296
         6 -11.4342    150.0301    248.7204   1.2507822638e+02   1.7907248788e+00    0.3957067    0.3229079  71.83  0.002502116    1.342    0.255
         7 -10.5574    143.1421    249.0955   1.2644339048e+02   2.9011743190e+00    0.2360081    0.1995104  73.56  0.000483495    1.246    0.197
         8 -10.5905    121.6133    244.6340   1.2998113785e+02   7.3117471040e+00    0.3723759    0.2104242  67.32  0.001729506    2.166    0.538
         9 -12.5007    125.6582    241.0417   1.2874841723e+02   7.2842213887e+00    0.9245024    0.5265527  34.04  0.004652577    1.903    0.475
        10 -11.4392    133.2972    249.2856   1.2834088734e+02   4.5332346628e+00    0.5839227    0.3193122  45.60  0.003100413    1.518    0.341
        11 -11.5665    125.2291    249.3185   1.2987265299e+02   5.8763465487e+00    0.7881278    0.2468774  41.80  0.003172605    2.720    0.632
        12 -11.1436     99.2538    247.6412   1.3454306198e+02   1.0386885698e+01    0.5349274    0.3081378  63.44  0.002543082    1.663    0.399
        13 -10.0990    102.7703    247.4185   1.3386541655e+02   9.8726155236e+00    0.2847574    0.1847462  64.92  0.001330355    1.419    0.295
        14 -10.5986    114.8336    250.3621   1.3195002135e+02   7.4013602257e+00    0.4755117    0.1820713  41.87  0.002139468    2.251    0.556
        15 -11.7903    109.5567    247.0108   1.3255023954e+02   8.8601871810e+00    0.6222552    0.4001384 -62.21  0.003231126    1.742    0.426
        16  -9.4034     84.0663    242.1584   1.3677611793e+02   1.3755689980e+01    0.2481322    0.1656377 -60.74 0.0008602975    1.691    0.409
        17 -10.9897     81.2516    246.2473   1.3770308291e+02   1.3398782433e+01    0.6116427    0.3033801  82.29  0.002803642    2.829    0.647
        18  -9.7271     89.2218    250.6531   1.3669625814e+02   1.1381742681e+01    0.2576253    0.1046031  40.60  0.000356231    2.282    0.562
        19 -10.8015     88.6926    247.3051   1.3645265200e+02   1.2082306269e+01    0.4575131    0.2641152  46.90  0.001708033    1.483    0.326
        20 -12.2415     62.2096    245.6656   1.4105735801e+02   1.6232766795e+01     1.173832    0.5252359  35.95  0.005169814    2.628    0.620
        21 -11.2360     22.8662    202.0269   1.4452903308e+02   3.0031023337e+01    0.3162034    0.2020155  81.73   0.00103861    1.284    0.221
        22 -14.9753      3.3982    190.9211   1.4734613545e+02   3.4310380626e+01     7.056789    0.5761977 -69.16   0.02298965    5.334    0.813
        23 -10.3919    222.3599    245.1089   1.1086394575e+02  -9.7283956386e+00     0.222295     0.142349  26.22  0.000852157    1.381    0.276
        24 -10.6626    116.3654    239.1044   1.3030240532e+02   9.2019655166e+00    0.3765157    0.2732947 -30.48  0.001719073    2.258    0.557
        25 -12.7557    128.5047    234.5090   1.2732751521e+02   8.0033728609e+00     2.025632    0.7540188  58.12  0.006350977    4.658    0.785
        26 -11.4914    122.3922    233.0311   1.2833884305e+02   9.3301364605e+00    0.4233482    0.3942501 -38.91  0.002306347    1.376    0.273
        27 -11.8971    135.6849    241.0757   1.2680639624e+02   5.5686261742e+00    0.4792728    0.3638096  38.12  0.001928322    1.266    0.210
        28 -11.5163    135.5347    236.3534   1.2619177995e+02   6.4471659819e+00    0.5148538    0.3738778  -1.16  0.001445459    2.535    0.606
        29 -11.6210    134.0182    232.5294   1.2596018003e+02   7.4163952415e+00    0.4608415    0.3111416 -41.80  0.000332607    1.876    0.467
        30 -11.7103     89.6985    238.3865   1.3532482808e+02   1.3624539069e+01    0.6723359    0.3565636  78.75  0.002461204    2.510    0.602
        31 -10.2001     92.7499    225.9655   1.3332017131e+02   1.5613291178e+01     0.293817    0.1707296  48.50 0.0009126787    1.516    0.341
        32 -11.6797     96.8693    239.6908   1.3411159835e+02   1.2255182534e+01    0.4828111    0.3906737  79.25  0.002350309    1.119    0.107
        33 -11.8201    104.3457    238.0699   1.3249662895e+02   1.1371078208e+01    0.5675391    0.4823621 -15.33  0.003452979    1.924    0.480
        34 -11.4388     99.4211    223.5548   1.3169543713e+02   1.5035356427e+01    0.4440712    0.2996148  60.60  0.002481037    1.338    0.252
        35 -10.4600    112.8977    230.1291   1.2984181931e+02   1.1496525982e+01    0.2781206     0.197901  43.08 0.0004598138    1.325    0.245
        36 -11.9827    105.6976    229.1229   1.3114263617e+02   1.2890605300e+01    0.7573582    0.3296153  51.90  0.003389823    2.114    0.527
        37 -11.2955    249.1498    240.9313   1.0535249429e+02  -1.3198620241e+01    0.2402646    0.2182739  49.99  0.001688456    1.664    0.399
        38 -10.0896    165.0830    242.1335   1.2123748095e+02   2.8757068316e-01    0.1987854    0.1704843  40.94 0.0003985074    1.009    0.008
        39  -8.8968    162.2912    239.6583   1.2141166990e+02   1.1874914440e+00    0.1357464    0.1164477  36.09 0.0008406027    1.073    0.068
        40 -10.8899    172.5957    239.7506   1.1941769527e+02  -6.2877225196e-01     0.359229    0.2310077 -54.60  0.001942257    1.937    0.484
        41  -9.5085     82.7334    238.4045   1.3663584629e+02   1.4681235350e+01    0.2717826     0.103648  42.27   0.00123562    2.338    0.572
        42 -10.5349    165.5360    235.3988   1.2012868966e+02   1.3382295073e+00    0.2493874    0.1316884 -46.94  0.001211721    2.183    0.542
        43 -11.1616    156.6030    232.3993   1.2143836658e+02   3.4465098351e+00    0.4169553    0.2428047 -45.14  0.001680832    1.990    0.498
        44 -13.8899      5.7328    245.6259   1.5041839751e+02   2.3034610067e+01       1.1438    0.6150988  82.87   0.00780749    1.408    0.290
        45 -10.1124     77.9953    233.5140   1.3701694642e+02   1.6351205238e+01    0.3403915    0.2012435 -50.98  0.001832362    2.211    0.548
        46 -10.6913     84.6780    229.5951   1.3531740993e+02   1.6132148777e+01     0.349686    0.2309991  44.68 0.0009248717    1.440    0.306
        47 -10.7869     77.5499    220.8776   1.3573484280e+02   1.8995428632e+01    0.2966391    0.2038408  71.07 0.0005146517    1.316    0.240
        48 -10.5114     79.8648    227.7446   1.3604394584e+02   1.7234322385e+01    0.3313005    0.2602865  -8.99  0.001796068    2.612    0.617
        49 -10.1729     78.9726    224.5467   1.3586524650e+02   1.8022392526e+01    0.2481132    0.2398915  82.27 0.0007621944    1.356    0.263
        50  -9.9285     56.0549    236.0339   1.4131090222e+02   1.8942941033e+01    0.4021267    0.1909604  69.56  0.001819161    2.206    0.547
        51  -9.0082     62.7751    233.1583   1.3982350643e+02   1.8601609325e+01    0.1436642    0.1274925  84.84 0.0002748861    1.261    0.207
        52 -10.8397    141.9946    230.2072   1.2403201068e+02   6.4438559799e+00    0.3624731     0.255347 -37.44   0.00131785    1.822    0.451
        53 -11.4316    142.0869    221.8584   1.2276220220e+02   8.0011746058e+00     0.430839    0.3180544  32.62 0.0004516935    1.416    0.294
        54 -11.0884    138.0603    214.5880   1.2246826065e+02   1.0154994129e+01    0.4885076    0.3823129  46.48  0.001329537    1.163    0.140
        55  -9.0831     92.3845    232.2976   1.3413196932e+02   1.4400205640e+01    0.1652575    0.1107406 -82.57 0.0009333964    1.539    0.350
        56  -9.0854    179.9707    228.4736   1.1616921994e+02  -5.4912826203e-02    0.2495735    0.1660074  85.53  0.001037368    3.349    0.701
        57  -8.7827    190.7118    228.2793   1.1402293355e+02  -1.9308963929e+00    0.1216451    0.1009653  66.55 0.0002010906    1.521    0.342
        58  -9.8058    197.6695    226.6783   1.1239202013e+02  -2.8937055120e+00    0.2598497    0.2138999  72.18  0.001432299    1.690    0.408
        59 -10.4035    165.6453    226.5139   1.1870650208e+02   2.8648175972e+00    0.3107451     0.230992 -89.39  0.001614239    1.972    0.493
        60 -10.3997    132.1798    224.8139   1.2522925692e+02   9.2043089512e+00    0.2609616    0.2398955 -31.22  0.001357598    1.360    0.265
        61 -10.5167    129.1201    221.0670   1.2530864036e+02   1.0478406239e+01    0.2808503    0.2119836  72.02 0.0007261024    1.389    0.280
        62  -9.8527    147.0817    225.1691   1.2224938405e+02   6.4715560123e+00     0.193895    0.1726733  23.20 0.0003343241    1.250    0.200
        63 -10.8205    117.2410    224.3581   1.2820231175e+02   1.1897266371e+01    0.2675581    0.2180746  44.95 0.0003505207    1.195    0.163
        64 -10.7367    160.1957    223.8047   1.1937075509e+02   4.3429618404e+00     0.356064    0.2242751  25.70  0.001175926    1.918    0.479
        65 -10.1901    111.1954    221.2182   1.2900587676e+02   1.3557732258e+01    0.3305878     0.166003 -53.53   0.00113837    2.180    0.541
        66 -10.9391     73.0295    209.9916   1.3539212350e+02   2.1978862032e+01    0.4653386    0.3117292  26.36  0.002302291    2.136    0.532
        67 -10.8921     70.9857    219.5875   1.3688507308e+02   2.0227432824e+01    0.4322987    0.2685884 -75.94  0.002307023    1.530    0.346
        68 -10.2889     68.0413    214.7978   1.3694354142e+02   2.1663637410e+01    0.2323508    0.1637768  87.42 0.0005227719    1.277    0.217
        69 -10.6296    245.6748    220.8911   1.0238122852e+02  -9.9729132004e+00    0.2481465    0.1030599 -29.37  0.001095618    2.568    0.611
        70  -9.6416    104.9156    218.8718   1.2997546671e+02   1.5092369331e+01    0.2007488    0.1683936  69.75  0.000344172    1.033    0.032
        71  -8.8293     99.4829    217.8767   1.3095687992e+02   1.6194955011e+01    0.2005547    0.1798628  30.33 0.0007248507    1.407    0.289
        72  -8.9976     24.6690    212.6524   1.4506007825e+02   2.7574328233e+01    0.1491669    0.1427651 -72.29 0.0007665564    1.534    0.348
        73  -9.1627     23.4745    217.5334   1.4565653116e+02   2.6686351471e+01    0.2307562    0.1153467  85.27  0.001281175    1.808    0.447
        74  -9.7212     21.3124    214.7690   1.4583585178e+02   2.7495193569e+01    0.2404705    0.1655382  19.28  0.001465716    2.546    0.607
        75 -11.0544     98.3610    231.7217   1.3290342190e+02   1.3567478948e+01    0.3725963    0.2558272 -80.19  0.000761548    1.519    0.342
        76  -9.7102     88.1942    212.9121   1.3263788616e+02   1.9051928345e+01    0.2425274    0.1600539 -84.50 0.0006128851    1.560    0.359
        77 -10.2060    102.2665    212.0050   1.2959728212e+02   1.6969698313e+01    0.3373352    0.1848831  60.84  0.001558772    1.937    0.484
        78 -10.6305    107.8286    208.7565   1.2797038521e+02   1.6723669523e+01    0.4243605    0.3131056 -33.62  0.001896125    1.982    0.495
        79  -9.7968    112.9625    208.4081   1.2682905178e+02   1.5914446982e+01    0.2585505    0.2380911  50.42  0.001103904    1.167    0.143
        80 -14.2135     30.6968    246.0835   1.4646143677e+02   2.0184774680e+01     1.911805     1.099425  36.97    0.0119805    2.090    0.522
        81  -9.2221    134.8129    208.2195   1.2214109827e+02   1.2038760648e+01     0.247842     0.183241 -23.56  0.001044522    2.018    0.504
        82  -8.8655    119.6522    208.7116   1.2545009857e+02   1.4676985943e+01    0.1305244    0.1114376   3.36 0.0002832345    1.659    0.397
        83 -11.1993    246.6055    205.9400   9.9399096066e+01  -7.9197229668e+00    0.5573145    0.2622612  24.86  0.002357183    2.792    0.642
        84 -10.2192    102.7691    202.7419   1.2818404576e+02   1.8879921427e+01    0.4566737    0.2498686  60.05  0.001693098    1.974    0.493
        85 -12.1749     93.3622    202.5128   1.3017534394e+02   2.0484511536e+01    0.5261337    0.4401155 -70.93  0.003133617    1.196    0.164
        86 -10.7912     99.2947    196.8057   1.2806888678e+02   2.0773476854e+01    0.6528075    0.2848021  41.33  0.002737506    2.225    0.551
        87 -12.7144     13.9875    238.8195   1.4872350313e+02   2.3458464324e+01    0.5552095    0.2952719  59.47  0.003659853    1.495    0.331
        88  -9.2101    125.7817    205.8063   1.2368950254e+02   1.4189765084e+01    0.1943892    0.1530853  75.63 0.0005151975    1.318    0.241
        89  -9.2929    175.1830    205.4023   1.1313117749e+02   4.9619919706e+00    0.1896835    0.1256658  51.32 0.0002608199    1.522    0.343
        90  -9.6555    166.9966    203.2661   1.1445375129e+02   6.9422733115e+00    0.1978388    0.1683226  47.12 0.0003757648    1.105    0.095
        91  -9.8090     64.2164    202.0682   1.3627926468e+02   2.4972785785e+01    0.2484865    0.1819844  30.79 0.0005331016    1.757    0.431
        92 -11.2314     32.7707    201.8249   1.4259897683e+02   2.8990394402e+01    0.2018218    0.1606337  88.32 0.0002800857    1.070    0.066
        93 -10.1575    115.0723    200.1483   1.2512135326e+02   1.7319188306e+01    0.2281891    0.1913715 -78.98 0.0002743561    1.183    0.155
        94 -10.1039    119.9262    199.2307   1.2391438069e+02   1.6651604092e+01    0.4044526    0.2282096  57.87  0.001318177    1.892    0.472
        95  -9.4196    196.9918    200.4947   1.0775049716e+02   1.7143292740e+00    0.2161064    0.1310214  40.37 0.0004987703    1.567    0.362
        96  -9.0498    183.0647    200.4788   1.1058599421e+02   4.3775902020e+00    0.2047965    0.1325504  42.71 0.0004037358    1.457    0.314
        97  -9.2461    133.0070    202.7221   1.2163309559e+02   1.3513837090e+01    0.1964253    0.1769932  60.61  0.000416564    1.015    0.015
        98  -9.8560     43.8817    199.4756   1.4016251302e+02   2.8199749464e+01    0.2898962    0.2121896  46.16  0.001278865    1.452    0.311
        99 -10.6784    249.4405    194.5031   9.6666479208e+01  -6.6143154451e+00    0.2965052    0.2240314  41.86  0.001740009    1.470    0.320
       100  -9.4075     86.0964    197.0440   1.3098712579e+02   2.2858889557e+01    0.4210004    0.1735797 -63.49  0.001421483    2.393    0.582
       101 -11.0994     57.7540    194.0389   1.3669298473e+02   2.7648704153e+01    0.5858002    0.3000093 -65.59  0.002302389    1.759    0.431
       102  -9.9496     53.0348    197.8909   1.3812153816e+02   2.7402494334e+01    0.3393456    0.1795191  52.69  0.001562476    1.794    0.443
       103  -9.6679    134.0986    197.8431   1.2057781090e+02   1.4341725798e+01    0.2168678    0.1826429  75.28 0.0004054015    1.208    0.172
       104 -12.7383     39.2393    228.7399   1.4371196203e+02   2.2560529893e+01    0.4186251    0.2676814 -79.12  0.001079365    1.370    0.270
       105 -11.5836     64.8952    194.9588   1.3528503820e+02   2.6469450381e+01    0.3895126    0.2718197 -48.09   0.00169209    1.777    0.437
       106 -10.7290     76.4801    187.1414   1.3172994867e+02   2.6584120150e+01    0.4224607    0.2350885 -75.03  0.001993009    1.836    0.455
       107 -11.7720     70.4287    187.4141   1.3311233977e+02   2.7407222820e+01    0.3304814    0.2871397 -30.47 0.0007527908    1.621    0.383
       108  -9.4972    113.9291    196.0000   1.2471821768e+02   1.8429922477e+01    0.2587397    0.1713486  46.75  0.001202081    1.430    0.300
       109  -9.5753    112.7691    192.3414   1.2438816117e+02   1.9446836233e+01    0.3293597    0.1858959 -44.77 0.0008946633    2.098    0.523
       110 -12.2547     38.1795    194.4460   1.4080768027e+02   2.9995179885e+01    0.3198912    0.1899597 -70.35 0.0003788158    1.452    0.311
       111  -9.4900     40.7905    187.9031   1.3958184950e+02   3.1159487967e+01    0.2895396    0.1564747 -73.07  0.001548183    1.578    0.366
       112  -8.8877     31.5123    195.3745   1.4224480601e+02   3.0546660193e+01    0.2441171   0.05893331  47.94 0.0009362894    3.770    0.735
       113 -14.6484     47.2595    216.9521   1.4120782664e+02   2.4000120601e+01     1.886762     1.504348  21.14   0.01201076    1.974    0.493
       114  -9.5667    159.9530    194.1475   1.1428080910e+02   1.0130896257e+01    0.2164928    0.2054872  43.39 0.0004653468    1.026    0.025
       115  -9.3086    133.8696    194.2856   1.2001707178e+02   1.5146316445e+01    0.2037206    0.1723315  48.02 0.0003783905    1.129    0.114
       116 -10.2679    120.7175    191.6816   1.2250033887e+02   1.8161100149e+01     0.518671    0.2973663 -42.86     0.002143    2.099    0.524
       117  -9.5152    117.9975    190.0153   1.2283109789e+02   1.9026679025e+01    0.2130854    0.1924776  77.76            0    1.022    0.022
       118 -10.0854    191.4944    191.4654   1.0710609313e+02   4.4420504303e+00    0.2462905    0.2345951  15.63 0.0006364314    1.010    0.010
       119  -9.3033     84.6930    192.1138   1.3060540752e+02   2.4192292955e+01    0.1893702    0.1552304 -79.80 0.0004977034    1.120    0.107
       120 -10.2818     14.9844    190.4950   1.4507917034e+02   3.3334490734e+01    0.2611453    0.1335083 -57.18  0.001456806    2.041    0.510
       121  -9.8265     32.3288    190.1090   1.4156758305e+02   3.1626342587e+01    0.3173158    0.1771391  43.74  0.001805187    1.835    0.455
       122  -9.1938    135.2064    190.1965   1.1900104446e+02   1.5776678198e+01    0.1966793    0.1621225  78.67 0.0003591503    1.290    0.225
       123 -12.2756    249.4949    183.8172   9.4515439942e+01  -4.9158900756e+00     1.203943    0.2780452 -42.33  0.003739951    4.393    0.772
       124 -10.6125    236.3537    145.9974   8.8779481609e+01   4.0492544431e+00    0.2759728    0.2202964  42.77 0.0007753202    1.357    0.263
       125 -12.0075    248.3655    171.8807   9.2257924891e+01  -2.7444286359e+00    0.5545207    0.3995485  24.38  0.003020341    1.520    0.342
       126 -13.5258    244.8932    158.0218   8.9926921272e+01   2.6542989115e-01     1.993966    0.8678945 -49.00  0.007748142    2.645    0.622
       127 -12.3475    248.3005    134.4135   8.4232802656e+01   3.7883258062e+00    0.9628492    0.5620518 -33.26  0.004547291    1.622    0.384
       128 -10.6021    140.6154    182.8547   1.1643934441e+02   1.6331939101e+01     0.476698    0.3040115  19.63  0.001521301    2.501    0.600
       129  -9.7586     29.9781    183.4645   1.4138441671e+02   3.3374774443e+01    0.2905485    0.1809651 -82.65  0.001299295    1.329    0.248
       130 -10.0638     24.5267    184.2603   1.4259599067e+02   3.3766321121e+01    0.2226024    0.1517985  50.89 0.0005157688    1.499    0.333
       131  -9.1884     53.6373    181.8857   1.3611074878e+02   3.0963515526e+01    0.2478888    0.1578049  17.43  0.001150361    2.633    0.620
       132  -9.6672    126.1880    180.1581   1.1923372354e+02   1.9719009168e+01    0.2858222    0.2001922 -76.74   0.00132929    1.678    0.404
       133 -12.7783    248.2389    101.4352   7.6927321949e+01   9.5971367797e+00    0.8471426    0.5694626 -43.94  0.004387444    1.311    0.237
       134  -9.7304    115.3965    177.7463   1.2130053762e+02   2.2280411776e+01    0.3337516    0.2047475 -64.15  0.001506093    1.703    0.413
       135  -9.0229     47.8299    179.6877   1.3712229411e+02   3.2196921833e+01    0.1664692     0.104894  49.79 0.0005086726    1.597    0.374
       136  -9.7100     19.7177    179.2133   1.4310424917e+02   3.5378233333e+01    0.1866142    0.1732222   6.13 0.0008970033    1.610    0.379
       137  -8.7659    109.3423    178.3209   1.2281513067e+02   2.3241497185e+01    0.1419511    0.1173258 -16.14 0.0007050106    1.723    0.420
       138 -11.4358     79.1013    175.3773   1.2940905200e+02   2.8930897589e+01    0.3742229    0.2705226  46.19   0.00129956    1.416    0.294
       139  -9.5023     64.6816    175.6915   1.3279987274e+02   3.0942101496e+01    0.2061059    0.1507212 -59.88 0.0004418658    1.325    0.245
       140 -11.3637     67.3000    172.5406   1.3174169872e+02   3.1320533636e+01    0.4914872    0.2931044 -67.09  0.001403911    1.512    0.338
       141  -9.7079    121.9048    175.4921   1.1936836197e+02   2.1589461456e+01    0.2290797    0.1910327 -75.75  0.001196052    1.209    0.173
       142 -10.9783    249.5351    150.9968   8.7637765167e+01   6.3328975117e-01    0.5638942    0.3056888 -39.80  0.002639715    1.651    0.394
       143  -9.7345    107.3830    173.0594   1.2234848172e+02   2.4812225150e+01    0.2062058    0.1757747 -77.97 0.0005862852    1.125    0.111
       144  -9.8079     91.1160    172.7788   1.2616271265e+02   2.7652582987e+01    0.2826358    0.2087574 -32.53  0.001028878    1.867    0.464
       145 -10.5667     89.9342    160.4736   1.2432189569e+02   3.0769615790e+01    0.3243505    0.1976354 -66.93 0.0002787634    1.624    0.384
       146  -9.3950     93.3613    169.2951   1.2503703069e+02   2.8106715124e+01    0.2185606    0.1806715  10.94  0.000749892    1.680    0.405
       147 -12.4745     86.7264    166.7927   1.2620950624e+02   2.9778829985e+01    0.8005612    0.5350338 -52.32  0.004005964    1.492    0.330
       148  -9.5530     28.4435    172.5318   1.4055637007e+02   3.6023563574e+01    0.3178205     0.251316   1.50  0.001984748    2.032    0.508
       149  -8.7885    100.5286    170.5108   1.2352977768e+02   2.6609087683e+01    0.1463566    0.1320974  89.22 0.0001247606    1.016    0.016
       150 -10.6764     44.1714    168.8097   1.3659014078e+02   3.5164030601e+01    0.3837492    0.3420297   2.74  0.001592615    1.604    0.377
       151  -9.7064    126.8475    167.4996   1.1667231577e+02   2.2481064343e+01    0.2797855    0.2509889  82.76  0.001013852    1.106    0.096
       152 -10.1743     68.7357    166.7989   1.3054275415e+02   3.2479472355e+01    0.2392402    0.2018641 -74.90 0.0004228487    1.057    0.054
       153  -9.0616     58.5019    167.4912   1.3307665415e+02   3.3704688718e+01    0.1356513    0.1142099 -84.58 0.0008106101    1.010    0.009
       154  -8.9708     77.0000    165.9672   1.2842464310e+02   3.1477347158e+01    0.2262204   0.07311758 -60.69 0.0004195313    2.847    0.649
       155  -8.9179     53.6791    164.7961   1.3383332904e+02   3.4959642263e+01    0.1836138    0.1074432 -75.13 0.0003642463    1.573    0.364
       156  -9.7888     72.9239    193.0070   1.3330711317e+02   2.5766959444e+01    0.1960209    0.1679528  86.18 0.0003006124    1.029    0.028
       157  -8.9394    177.4940    163.5280   1.0424847468e+02   1.2898175566e+01    0.1506834    0.1481134  80.00 0.0008096736    1.040    0.038
       158 -10.2865     39.7797    162.0705   1.3673869346e+02   3.7242434576e+01    0.3354885    0.1944573  23.81  0.001247591    2.390    0.582
       159  -8.4481    154.5175    161.5255   1.0894737144e+02   1.8212013890e+01    0.1542999    0.1475581  82.33 3.867252e-05    1.043    0.042
       160 -10.6636     95.9608    158.1435   1.2239790072e+02   3.0325357511e+01     0.472378    0.1875509 -60.14  0.001711263    2.548    0.607
       161 -10.7266     73.6102    159.3279   1.2816253963e+02   3.3564798812e+01    0.3331079    0.2154232 -57.52  0.001438902    1.424    0.298
       162  -8.9412     78.9616    158.9578   1.2677479391e+02   3.2858220567e+01    0.1717108    0.1484624 -74.91 0.0006234857    1.036    0.035
       163 -11.5229     41.1787    205.1275   1.4126209869e+02   2.7287826231e+01    0.8051854    0.2712225  52.05  0.003507876    2.850    0.649
       164  -8.9468     52.4603    158.4528   1.3321212796e+02   3.6615675802e+01    0.1337608    0.1128128 -78.07 0.0002815387    1.015    0.015
       165 -11.4844     31.9704    146.0359   1.3646677107e+02   4.1826198931e+01    0.3245506    0.2078195 -66.49  0.001865566    1.269    0.212
       166 -11.7915     32.3070    140.6813   1.3562228656e+02   4.3048094083e+01    0.4042613    0.2402698 -88.73  0.002094751    1.817    0.450
       167 -10.5354     23.9436    149.3194   1.3886066529e+02   4.1826136290e+01    0.2398241     0.145572 -84.82   0.00061842    1.510    0.338
       168 -11.7003     31.5614    155.5299   1.3783163656e+02   3.9644638841e+01    0.5253138    0.3023652 -50.34   0.00194498    1.788    0.441
       169 -12.4380     22.9229    155.5013   1.3985939290e+02   4.0488059310e+01    0.5482548    0.4086979 -58.86  0.003535131    1.295    0.228
       170  -8.7267    112.3450    157.7606   1.1825477194e+02   2.7509913097e+01      0.15044    0.1106923  71.23 0.0002855863    1.562    0.360
       171  -9.2022     28.6523    169.6898   1.4019576433e+02   3.6654740241e+01    0.1697612    0.1330025  24.53  0.001080248    1.733    0.423
       172  -9.2312    228.3713    155.2919   9.2247926948e+01   3.9271185689e+00    0.1999771    0.1267958 -46.29 0.0004648583    1.563    0.360
       173 -10.2896    113.8732    150.7917   1.1644952117e+02   2.8871786004e+01    0.3796552    0.2534662 -56.99 0.0004991075    1.458    0.314
       174 -10.9375     99.4412    151.2404   1.2019001176e+02   3.1378206674e+01    0.4709895     0.384364  46.02  0.002481029    1.276    0.216
       175 -10.0975     60.2480    150.9713   1.3012200375e+02   3.7414483174e+01    0.2641432    0.1689708  58.00  0.001338039    1.740    0.425
       176 -10.6221     56.0327    150.1582   1.3105497312e+02   3.8148898614e+01    0.5792868    0.3409657  80.11   0.00262707    2.275    0.560
       177  -9.7669    102.6285    146.1538   1.1834188914e+02   3.2031964092e+01    0.3669272    0.2272513 -34.80  0.001062113    2.088    0.521
       178 -11.0525     60.5438    137.3679   1.2769996955e+02   4.0630752427e+01    0.2836036    0.2235043 -89.83 0.0001223645    1.317    0.241
       179 -12.8552     67.6564    144.2491   1.2706599613e+02   3.8030911565e+01    0.7842042    0.5471555  77.68  0.002993436    1.703    0.413
       180 -11.0343    133.5044    142.6163   1.0975331401e+02   2.6899475330e+01    0.8668413    0.2745191 -52.34  0.002564134    3.384    0.705
       181  -9.0839     87.4767    151.4992   1.2328731483e+02   3.3319061847e+01    0.1451583    0.1316545 -75.61 0.0008102208    1.008    0.008
       182  -9.6128    138.5453    138.5089   1.0755834399e+02   2.6784783860e+01    0.1559298    0.1505585 -75.05 6.251382e-05    1.007    0.007
       183 -11.5906     73.3820    139.9496   1.2476141174e+02   3.8251127773e+01     0.532518    0.3953676  45.84  0.002351879    1.455    0.313
       184 -10.2500    110.5083    136.1577   1.1413007283e+02   3.2958989202e+01    0.3498169    0.2540184 -19.67  0.001337055    1.966    0.491
       185 -10.9645     39.1685    146.5786   1.3474995757e+02   4.0958292791e+01    0.3692741    0.1867658  66.76  0.001583125    2.868    0.651
       186 -11.4988     45.2060    131.4054   1.3076519098e+02   4.3886544193e+01    0.4261845    0.3081338 -88.96  0.001877028    1.476    0.323
       187 -11.9483     31.6304    127.1071   1.3371885526e+02   4.6282598109e+01    0.4036185    0.2876503  64.05  0.001996437    1.646    0.392
       188  -8.9238     78.6709    131.2848   1.2160327216e+02   3.9536090367e+01    0.1427205    0.1074129  78.42 0.0002565252    1.611    0.379
       189 -10.4729    169.6784    248.5327   1.2129772531e+02  -1.5372618566e+00    0.3203544    0.2159482  13.30 0.0008069282    2.055    0.513
       190 -11.7964     66.8609    128.3712   1.2425866005e+02   4.1929835160e+01    0.4342393    0.3499856 -82.86  0.002023727    1.294    0.227
       191 -12.9205     20.7398    121.6957   1.3581897387e+02   4.8484972743e+01    0.6916862    0.4042611  -2.15  0.003583127    2.798    0.643
       192  -9.2257    109.7517    128.9832   1.1267565381e+02   3.4780433972e+01    0.2081503    0.1867175 -54.73  0.001095801    1.063    0.059
       193 -12.4912     11.9596    128.1154   1.3908041883e+02   4.7701161627e+01    0.3783976    0.3394608  23.25  0.001707751    1.453    0.312
       194 -10.5709    209.8017    125.7635   8.8915883239e+01   1.3477656402e+01    0.3005121    0.2554189 -39.02  0.000512892    1.130    0.115
       195  -8.5503     85.2692    126.6690   1.1879490980e+02   3.9600414745e+01    0.1440607    0.1099818 -89.33 0.0005930077    1.584    0.369
       196  -9.3479    234.2816    125.3317   8.4488651463e+01   8.2537816371e+00    0.1423032    0.1123502  -4.86 0.0003551377    1.609    0.379
       197 -11.3344     37.8730    122.3057   1.3119064074e+02   4.6789668380e+01     0.378782    0.1837224 -52.08   0.00171806    1.742    0.426
       198 -10.2738     54.8643    120.9081   1.2613145045e+02   4.5232856860e+01    0.2478562    0.2038121  10.04  0.001054805    1.513    0.339
       199  -9.7412    116.8336    128.7505   1.1075135192e+02   3.3471321821e+01    0.2614025    0.1745217  -8.69 0.0009623141    2.858    0.650
       200 -12.5088     15.1793    114.8278   1.3628147395e+02   5.0474219014e+01    0.3549978     0.304337 -55.46 0.0008667654    1.139    0.122
       201  -8.9628     86.5586    117.1205   1.1624452563e+02   4.1618427277e+01    0.3376199    0.1374503 -60.37  0.001152666    2.933    0.659
       202  -9.8136    231.9688    116.5194   8.2849921964e+01   1.0356343705e+01    0.2048347    0.1455115  55.39 0.0005394127    1.530    0.347
       203 -10.9003    168.0877    113.3023   9.4312817701e+01   2.5645964442e+01    0.3874086    0.3063922 -78.67  0.000917838    1.524    0.344
       204  -9.3539    203.5072    111.5406   8.6645354014e+01   1.7665279441e+01    0.1511791    0.1459037 -52.03 6.466365e-05    1.035    0.033
       205 -10.7196     31.5404    110.9702   1.3094563338e+02   4.9999529358e+01    0.2066448    0.1921555  18.83 0.0005946593    1.311    0.237
       206  -9.7796     62.5080    107.0334   1.2090342032e+02   4.7461338439e+01    0.2157846    0.1217447 -55.81  0.001026957    1.577    0.366
       207  -9.7694     48.7261    118.2233   1.2735425712e+02   4.6577404941e+01    0.2869753     0.111941 -45.20    0.0011515    2.543    0.607
       208 -11.7557    248.0260    142.1693   8.5974389796e+01   2.4681372137e+00      0.61235    0.5286455  -4.74  0.003015148    1.253    0.202
       209 -10.0537     24.3062     88.0499   1.2857343734e+02   5.5670637692e+01    0.1781569    0.1317768 -53.38 0.0004980142    1.084    0.078
       210 -13.9333      9.5704    209.6055   1.4756819290e+02   2.9776620832e+01     2.345515    0.7876961 -72.10   0.01179836    2.357    0.576
       211 -12.6399    190.2635     34.6967   6.9180141637e+01   3.3507558493e+01    0.6536409      0.50984 -63.24  0.003409949    1.283    0.221
       212 -10.6412    200.8395    246.4568   1.1507334617e+02  -6.4627335545e+00     0.333295    0.1896781  59.40 0.0009906474    2.986    0.665
       213 -10.4590    193.7593    245.1181   1.1619468617e+02  -5.0908262667e+00    0.2192881    0.1847739  47.99 0.0002838561    1.255    0.203
