#   1 NUMBER                 Running object number                                     
#   2 MAG_AUTO               Kron-like elliptical aperture magnitude                    [mag]
#   3 X_IMAGE                Object position along x                                    [pixel]
#   4 Y_IMAGE                Object position along y                                    [pixel]
#   5 X_WORLD                Barycenter position along world x axis                     [deg]
#   6 Y_WORLD                Barycenter position along world y axis                     [deg]
#   7 A_WORLD                Profile RMS along major axis (world units)                 [deg]
#   8 B_WORLD                Profile RMS along minor axis (world units)                 [deg]
#   9 THETA_WORLD            Position angle (CCW/world-x)                               [deg]
#  10 FWHM_WORLD             FWHM assuming a gaussian core                              [deg]
#  11 ELONGATION             A_IMAGE/B_IMAGE                                           
#  12 ELLIPTICITY            1 - B_IMAGE/A_IMAGE                                       
         1 -12.1790    246.6516     28.6156   3.5258463543e+01   2.1658814551e+01     1.071491     0.275045 -51.07  0.004067931    3.472    0.712
         2 -11.4764    242.5206      1.4801   3.0104934470e+01   2.5631498292e+01    0.6535746    0.1164057  68.15  0.002476249    4.435    0.775
         3 -12.1625    239.1769     12.6070   3.2557537566e+01   2.5104643021e+01    0.6111867    0.3217116  71.96  0.003173696    1.828    0.453
         4 -12.5041    248.1743     12.3547   3.1877970136e+01   2.3291428478e+01    0.8492723    0.4534164 -23.90  0.004451216    2.617    0.618
         5 -12.4684    243.8105      6.7521   3.1062121038e+01   2.4801596074e+01    0.5988615    0.4815466 -81.45  0.003828583    1.123    0.109
         6 -12.1941    228.4613     10.7480   3.2966331715e+01   2.7579140009e+01    0.7201593    0.2806153 -26.67  0.003149454    3.262    0.693
         7 -12.6798    220.9114      4.8222   3.2271961018e+01   2.9853169470e+01    0.6097715    0.5130509  68.16   0.00421043    1.346    0.257
         8 -10.7386    216.8005     17.4032   3.5384895287e+01   2.9391655188e+01    0.3064214    0.1500978 -44.83  0.001572839    1.820    0.451
         9 -12.3427    210.3147      8.3701   3.3906229850e+01   3.1838966052e+01    0.5056319    0.3302755 -28.33  0.002950488    1.775    0.436
        10 -12.1394    194.0205      6.9573   3.5039500497e+01   3.5731411739e+01     0.385992    0.2601136 -42.52   0.00221561    1.485    0.327
        11 -11.7080     14.3765      8.3962   8.3133282071e+01   7.2602462723e+01    0.2110655    0.1706095  -6.95 0.0008971955    1.171    0.146
        12 -12.2148    203.1953      4.8784   3.3713725870e+01   3.3816599223e+01    0.3939253    0.3116669 -46.04  0.002568509    1.293    0.227
        13 -10.6362    149.4857      6.9323   4.0182525315e+01   4.6436224477e+01    0.1810359    0.1307725 -24.86 0.0008041187    1.603    0.376
        14 -11.5037    161.0091      5.5173   3.8249058138e+01   4.3762431125e+01    0.4953558    0.2292002  -6.83  0.001953354    3.932    0.746
        15 -12.6040    182.2640      2.3210   3.5029976033e+01   3.8946914805e+01    0.7016428    0.2291077  70.86  0.002916358    2.574    0.612
        16 -10.5838     32.8886      3.1295   7.0438783059e+01   7.1036087603e+01    0.1659979     0.144256   2.67 0.0008804521    1.292    0.226
        17  -9.8860    115.3200      2.3351   4.4217030724e+01   5.4993349305e+01    0.1380877   0.08065572  37.89 0.0007049555    1.703    0.413
        18  -9.8151     48.4829      2.4975   6.3130423367e+01   6.8703050221e+01    0.1203699   0.09499757  16.60 0.0008104106    1.012    0.012
        19  -9.9265    153.4928      1.4788   3.8031761561e+01   4.5934246444e+01    0.1290908     0.109263  73.31 1.136749e-05    1.024    0.023
        20 -10.7140    242.1580    124.8308   5.6536575968e+01   7.8198789476e+00     0.190387    0.1549054 -13.09  0.001088557    1.341    0.255
        21 -13.8099    244.5773    244.2233   7.9267873786e+01  -1.1086021589e+01      1.58699    0.9734798  -2.16  0.009929752    1.511    0.338
        22  -9.3560    125.2401    249.9986   1.0315726543e+02   5.2405809611e+00     0.142176    0.1075229 -58.33 0.0008765264    1.589    0.371
        23 -10.5953    249.6112    108.8117   5.2002138904e+01   9.1590848131e+00    0.2069413    0.1027154 -46.13 0.0009573799    1.768    0.434
        24 -11.1354    241.4043     99.8291   5.1165217056e+01   1.2202080590e+01    0.3901886    0.1695896  53.95  0.001693342    2.626    0.619
        25  -9.4429    221.6898     94.3554   5.2752855525e+01   1.7128567478e+01      0.15032    0.1004069 -64.73 0.0007043448    1.729    0.422
        26  -9.2529    210.6673     92.2947   5.3973622784e+01   1.9863694354e+01    0.1482526    0.1063099 -70.83   0.00070262    1.639    0.390
        27 -10.7607    249.8864     90.6828   4.8062596438e+01   1.2064922336e+01    0.2401753    0.1625762 -33.54  0.001244235    1.390    0.281
        28 -12.3501    240.5591     86.2651   4.8276743919e+01   1.4593573520e+01    0.3586201     0.310598 -57.57  0.001961568    1.048    0.046
        29 -11.4755    248.2237     84.0900   4.6844705872e+01   1.3432787107e+01    0.3339034    0.2366277 -38.59   0.00170064    1.253    0.202
        30  -8.9843    212.4610     87.4340   5.2513740207e+01   2.0309200835e+01    0.1431206    0.1289096 -57.92 6.844296e-05    1.017    0.017
        31  -9.2089    211.0347     81.9879   5.1410514995e+01   2.1548778318e+01    0.1732166    0.1545628 -55.34 0.0005052795    1.017    0.017
        32 -12.3214    241.3500     79.4198   4.6663981662e+01   1.5527088338e+01    0.4937104    0.2497893 -38.40  0.002354847    1.729    0.422
        33 -11.6275    247.6824     78.1715   4.5630860045e+01   1.4465258917e+01    0.4236313    0.2848813  51.83   0.00236526    1.784    0.440
        34  -9.2602    228.6779     77.2988   4.7800350449e+01   1.8479183387e+01    0.1419736   0.09470545 -66.56 0.0004673682    1.624    0.384
        35 -13.1318    246.2478     66.5763   4.3292851289e+01   1.6517482586e+01    0.8064162    0.5227417 -73.93  0.004367681    1.704    0.413
        36  -9.1885      7.3186     53.6744   1.0397123959e+02   6.5098675013e+01    0.1082511   0.09151204  74.65 0.0007045697    1.677    0.404
        37 -10.9927    222.4678     50.0979   4.2286798645e+01   2.3941579850e+01    0.2404693    0.2174822 -88.43   0.00118858    1.125    0.111
        38 -10.6891    236.2973     43.3868   3.9306696374e+01   2.1882610546e+01    0.2462644    0.2095824  30.19  0.001525585    1.714    0.417
        39 -10.8775    244.4503     43.4242   3.8531315395e+01   2.0182162463e+01    0.2768319    0.1548401  84.11  0.001449923    1.960    0.490
        40 -10.6525    232.5967     41.1735   3.9188883694e+01   2.2967866831e+01    0.1704271    0.1187421 -26.15 0.0009449996    1.722    0.419
        41  -9.8064    127.2701     37.5482   5.4073660712e+01   4.8503695618e+01    0.2375652    0.1914515 -27.85 0.0006022335    1.337    0.252
        42 -11.8554    236.4985     31.6169   3.6747286948e+01   2.3385713393e+01    0.3941996    0.3042616 -86.18  0.002530766    1.183    0.155
        43 -12.4049    243.2387     34.0629   3.6671832967e+01   2.1666665123e+01    0.6852468    0.3355087 -63.79  0.003389676    2.069    0.517
        44 -10.7018      8.2511    248.3145   1.2548788604e+02   2.0699337626e+01    0.2548915    0.1234356  67.93  0.001567705    1.650    0.394
        45 -11.4738    241.7591     24.5998   3.4825879412e+01   2.3158930533e+01    0.4665512     0.228127 -68.34  0.002334492    2.104    0.525
        46 -10.7722    220.8808     33.3399   3.8609182348e+01   2.6553199989e+01    0.2678216    0.1664285 -72.24  0.001428163    1.597    0.374
        47  -8.9245    136.2890     27.6682   4.8900955892e+01   4.7545647346e+01     0.137811    0.1018293 -68.63 0.0002931893    1.625    0.385
        48 -10.5676      1.8539     24.2905   9.7419178178e+01   7.1068642415e+01    0.1980292    0.1251115 -63.88  0.001191712    2.065    0.516
        49  -9.7464    211.7663     20.9681   3.6665991586e+01   3.0115918231e+01    0.1605188    0.1004247 -35.89 0.0008781056    1.627    0.385
        50 -11.4575     24.4100    242.2166   1.2229343539e+02   2.0194414208e+01    0.3354034    0.1880027  88.88  0.002083787    1.606    0.377
        51 -10.6950      4.9581    240.6159   1.2571626950e+02   2.2499279173e+01    0.3411447    0.2327936  22.72  0.002300959    2.101    0.524
        52 -12.0120    224.5012    247.9826   8.3444331353e+01  -9.0103952443e+00    0.4923775    0.2372444 -27.13  0.002641263    2.164    0.538
        53 -12.0740    243.8483    218.6950   7.5025591972e+01  -7.6024609023e+00    0.4600231    0.2646042  36.88  0.002480877    1.858    0.462
        54 -10.6210    247.2381    208.8229   7.2655785726e+01  -6.6515324196e+00    0.1988695    0.1580236  29.27 0.0007245187    1.410    0.291
        55  -9.7144      1.7720    205.9807   1.2459260933e+02   2.9923029291e+01    0.1558402   0.07782377 -82.22 0.0006283237    1.659    0.397
        56  -9.0673    210.4739    185.5102   7.4931782919e+01   2.7089164861e+00    0.1357434    0.1244019 -10.18 0.0008084088    1.091    0.083
        57  -9.8137      2.4933    179.5242   1.2282963036e+02   3.5800265423e+01    0.1220059   0.09474351  86.44 0.0004225954    1.009    0.009
        58  -9.2172    141.5319    172.5418   8.7385321919e+01   1.8039977464e+01    0.1489816    0.1451644  43.97 0.0001622531    1.021    0.021
        59 -10.4343      2.7193    169.0205   1.2203466353e+02   3.8237857200e+01    0.1792506    0.1351518 -86.35 0.0006911011    1.052    0.050
        60  -9.7488    224.4743    167.9954   6.8730756272e+01   3.4031138376e+00    0.1897236    0.1137393 -57.28 0.0008093888    2.523    0.604
        61 -11.0847      2.8438    157.8737   1.2113939579e+02   4.0880595074e+01    0.3332197   0.08061658 -55.50  0.001226912    3.772    0.735
        62 -12.0304     13.9142    146.0595   1.1718116792e+02   4.2930288055e+01    0.4125495    0.3064948 -63.94  0.002530668    1.207    0.172
        63  -9.7073    236.3389    147.6848   6.2383572879e+01   4.9018925770e+00     0.132762    0.1051604 -66.77 0.0007047762    1.700    0.412
        64  -9.7212    249.6537    146.3285   5.9959009408e+01   2.8643567270e+00    0.1300896    0.0992118 -63.30  0.000705006    1.754    0.430
        65 -11.0178    222.0477     17.7567   3.5003341938e+01   2.8186507287e+01    0.2960033    0.1699265  58.37  0.001365392    1.895    0.472
        66 -10.1448     83.4988    134.9193   9.5260965658e+01   3.7596137196e+01    0.4614929    0.2476049 -74.65  0.001673096    2.666    0.625
        67 -10.1908    242.9700    133.4783   5.8278646226e+01   6.1894819296e+00    0.1828406    0.1366718  47.22  0.000515944    1.563    0.360
