#   1 NUMBER                 Running object number                                     
#   2 MAG_AUTO               Kron-like elliptical aperture magnitude                    [mag]
#   3 X_IMAGE                Object position along x                                    [pixel]
#   4 Y_IMAGE                Object position along y                                    [pixel]
#   5 X_WORLD                Barycenter position along world x axis                     [deg]
#   6 Y_WORLD                Barycenter position along world y axis                     [deg]
#   7 A_WORLD                Profile RMS along major axis (world units)                 [deg]
#   8 B_WORLD                Profile RMS along minor axis (world units)                 [deg]
#   9 THETA_WORLD            Position angle (CCW/world-x)                               [deg]
#  10 FWHM_WORLD             FWHM assuming a gaussian core                              [deg]
#  11 ELONGATION             A_IMAGE/B_IMAGE                                           
#  12 ELLIPTICITY            1 - B_IMAGE/A_IMAGE                                       
         1 -14.3482     68.5800    144.1768   1.0576780294e+02   3.8429584970e+01     4.457261      1.59804  61.55  0.004115188    4.566    0.781
         2 -13.2596    211.8482     21.3098   4.4262222186e+01   2.8293431062e+01     1.322017    0.8680109  24.43  0.006099763    1.864    0.463
         3 -13.0919    199.6727     35.2234   4.9935408946e+01   2.9945062102e+01     1.327873     0.902728  44.02  0.004853888    1.560    0.359
         4  -8.8261     60.2928      7.6544   7.0388337371e+01   6.8431322890e+01    0.1315709    0.1006979 -59.66 0.0007029251    1.664    0.399
         5 -10.2488     41.7083      2.9824   7.6388431547e+01   7.2314480634e+01    0.1889032    0.1530475 -31.33  0.001182497    1.068    0.064
         6 -12.1087     32.8214     14.9672   8.8018611935e+01   7.1349730942e+01     1.252307    0.1503098 -51.45  0.003159903    6.860    0.854
         7 -14.9871      7.0251    248.9255   1.2365108728e+02   2.7429207616e+01     0.788635    0.3292067  40.60  0.003919903    1.726    0.421
         8 -13.6898     22.6430    214.6624   1.2019256648e+02   3.0976757398e+01    0.9249721    0.3916104  82.87  0.006072645    2.216    0.549
         9 -15.7837      7.1965    204.7487   1.2257347630e+02   3.4010124969e+01     3.880873     1.531392 -78.45   0.01820023    2.503    0.600
        10 -15.6837      5.1973    113.5874   1.1920461282e+02   5.1570356111e+01     10.04281     1.627472 -80.57    0.0334792    5.181    0.807
        11 -16.2518     82.6852    242.8842   1.1152389080e+02   2.0186550578e+01     3.930807     1.267118  36.01    0.0094649    2.903    0.655
        12 -10.2554    193.2645    192.4116   8.7458545006e+01   1.0415488567e+01    0.4451622    0.3371531 -44.83  0.003078439    1.800    0.444
        13 -14.3660     49.3396    213.8380   1.1547221888e+02   2.8295476332e+01     1.028532    0.5788498  64.19  0.007482872    1.387    0.279
        14 -10.3840     99.4010    180.7564   1.0326000644e+02   2.7207123047e+01    0.2180828    0.1613583  46.84 0.0007004323    1.154    0.133
        15 -11.0690     68.3418    179.3185   1.0943225240e+02   3.1770189837e+01    0.3280572    0.2575524 -33.26  0.002163399    2.232    0.552
        16 -11.0453     73.0318    173.8197   1.0795507313e+02   3.2141709795e+01    0.2391893    0.2119927 -68.91  0.000742963    1.420    0.296
        17 -11.5371     87.9808    157.5318   1.0293714983e+02   3.3051693313e+01    0.4967269    0.4014889 -16.75  0.001475521    2.127    0.530
        18 -12.5276     82.2252    164.0614   1.0497574826e+02   3.2665408543e+01     1.218301    0.3522452  49.14  0.000627248    2.989    0.665
        19 -12.8024     69.7307    159.7987   1.0725843530e+02   3.5194919005e+01    0.5784255    0.4392933 -50.82  0.001635783    1.758    0.431
        20 -14.5344      2.5139    235.4310   1.2407185481e+02   2.9723618036e+01    0.4986501    0.2271832  80.65  0.002489994    1.869    0.465
        21  -9.1410    175.0287    148.9863   8.3421643121e+01   1.9269837084e+01    0.1598084    0.1385675  37.28 0.0004593034    1.002    0.002
        22  -9.9715    134.0362    144.5729   9.0861563793e+01   2.7737474156e+01    0.8152634     0.161808 -53.23  0.001966526    8.751    0.886
        23 -10.1300     39.4919    146.7667   1.1295907261e+02   4.1454105372e+01     0.218539     0.143233  44.70  0.001414581    1.406    0.289
        24 -10.0409     84.6320    144.0715   1.0194538987e+02   3.6159062168e+01    0.3253413    0.1780014  60.91   0.00138134    1.856    0.461
        25 -11.4943     89.6914    141.7225   1.0042077541e+02   3.5854551857e+01    0.2370792    0.2200739  82.99 0.0005596491    1.158    0.136
        26  -9.7486    102.2857    141.6189   9.7456552918e+01   3.3856940956e+01    0.4028694    0.2609598 -27.66  0.001839898    3.055    0.673
        27  -9.1897    193.8519    166.2012   8.3134530911e+01   1.3449060463e+01    0.1816579     0.151201  42.16 0.0009926306    1.146    0.127
        28  -9.1507    111.2862    131.4653   9.3650519810e+01   3.4292004613e+01    0.2278502    0.1807505  31.37 0.0007233722    1.447    0.309
        29  -9.6402    106.1184    130.6954   9.4741835419e+01   3.5349049823e+01    0.2630558    0.2201076  72.48  0.001579284    1.124    0.111
        30  -8.9558    114.7626    161.7457   9.7691756317e+01   2.8078362150e+01    0.1799619    0.1008435 -71.65 0.0008867265    2.419    0.587
        31  -9.8136    162.0294    128.5913   8.1914433229e+01   2.5008010054e+01     0.363272    0.1922928  63.77  0.001442543    2.734    0.634
        32 -10.3401     67.4058    127.1178   1.0384511676e+02   4.2136144963e+01    0.5018708    0.1166375 -65.09  0.001688745    4.325    0.769
        33 -10.1172     98.7110    127.6746   9.6011330698e+01   3.7220767445e+01    0.2496524    0.2141353  20.33 0.0007193265    1.517    0.341
        34  -8.9212    107.8987    119.9071   9.2313552494e+01   3.7193887011e+01    0.1842105    0.1745425  54.18  0.001129492    1.135    0.119
        35  -9.7080    167.8575    112.5651   7.7181011069e+01   2.6411193807e+01    0.2773597    0.1819916 -56.75 0.0008613028    1.944    0.486
        36  -8.9948    135.0000    112.0398   8.4152481033e+01   3.3491418535e+01    0.2273792   0.08122648 -45.33 0.0008056586    2.965    0.663
        37  -9.7768    205.2412    110.3901   6.9779786740e+01   1.8626970194e+01    0.3614575    0.1993617  36.98  0.001259706    1.855    0.461
        38 -10.8543     49.8985    107.7125   1.0586615829e+02   4.8649300876e+01    0.3936173    0.1421033  49.94  0.001649589    2.798    0.643
        39 -13.8886     32.7797    233.9004   1.1919854500e+02   2.7060927291e+01    0.6368073     0.255769  52.65  0.002555284    1.588    0.370
        40 -10.6569    246.1631     97.8269   6.0682822126e+01   1.1688995500e+01    0.1925368    0.1409094  14.27 0.0008370901    1.353    0.261
        41 -10.7427    164.7646     77.2035   6.8576964542e+01   3.2973390507e+01    0.7223557     0.314778  61.36  0.002556528    2.634    0.620
        42 -11.3961    181.9379     81.5800   6.6526425229e+01   2.8117455283e+01    0.8752698    0.5543123  -8.77  0.003718856    2.107    0.525
        43 -11.7123    176.0462     74.8040   6.5699823296e+01   3.0591730051e+01    0.8915111    0.6763319  34.02  0.004069541    1.406    0.289
        44  -9.2741     75.0204     84.9550   9.3973065448e+01   5.0309148715e+01    0.2078464     0.185595  89.12 0.0004530863    1.043    0.041
        45 -10.6468     33.0000     71.9670   1.0549435597e+02   5.8708725154e+01    0.6354695   0.06187055 -67.51   0.00141073    8.753    0.886
        46 -10.1127     33.0000     60.0119   1.0304891728e+02   6.1480660768e+01    0.2710696   0.08505898 -65.65  0.001064697    2.696    0.629
        47  -9.9497    192.4450     72.3720   6.2112391177e+01   2.6922618073e+01    0.4845545     0.312287   0.97  0.002065066    2.087    0.521
        48 -10.3884    147.5814     51.6722   6.4100602781e+01   4.1437190526e+01    0.5119504     0.323094 -74.07  0.001966649    2.456    0.593
        49 -10.0485     32.7199     50.5182   1.0087811909e+02   6.3690271322e+01    0.2177964    0.1508582 -64.29 0.0007544291    1.216    0.178
        50  -9.9549    149.2438     45.2358   6.1518803531e+01   4.2010242675e+01    0.2826141    0.2431175 -68.65 0.0005248124    1.261    0.207
        51  -8.7879     94.7493     45.9969   7.5766667841e+01   5.4940449693e+01    0.1987602    0.1197897 -41.67 0.0005126967    1.586    0.370
        52  -9.8926    250.3372    233.5089   8.4638393643e+01  -1.6207430155e+00    0.2204606   0.09128587 -18.74  0.001399708    2.875    0.652
        53 -11.7964    190.9258     41.0276   5.2941003366e+01   3.1541228077e+01     0.424197    0.3571377  74.27 0.0009682818    1.241    0.194
        54 -16.0047     34.6806    246.7079   1.1935949742e+02   2.5069861788e+01     1.424822    0.7155908  36.81   0.01068095    1.789    0.441
        55 -14.9174     97.9337    205.4362   1.0603675429e+02   2.3474359727e+01     2.247486     1.347059  54.86   0.01470933    1.320    0.243
        56 -15.8230     68.4640    222.7624   1.1264180648e+02   2.4708678306e+01     2.045153    0.9331126  71.05  0.007352011    2.460    0.594
        57 -10.3068    212.3640    226.1552   8.9123016292e+01   4.1227948148e+00    0.2183428    0.1332189  45.38  0.001381414    1.497    0.332
