#   1 NUMBER                 Running object number                                     
#   2 MAG_AUTO               Kron-like elliptical aperture magnitude                    [mag]
#   3 X_IMAGE                Object position along x                                    [pixel]
#   4 Y_IMAGE                Object position along y                                    [pixel]
#   5 X_WORLD                Barycenter position along world x axis                     [deg]
#   6 Y_WORLD                Barycenter position along world y axis                     [deg]
#   7 A_WORLD                Profile RMS along major axis (world units)                 [deg]
#   8 B_WORLD                Profile RMS along minor axis (world units)                 [deg]
#   9 THETA_WORLD            Position angle (CCW/world-x)                               [deg]
#  10 FWHM_WORLD             FWHM assuming a gaussian core                              [deg]
#  11 ELONGATION             A_IMAGE/B_IMAGE                                           
#  12 ELLIPTICITY            1 - B_IMAGE/A_IMAGE                                       
         1 -18.2393    102.4258    111.3988   1.1476310679e+02   4.0309488523e+01     6.234501     3.832508 -82.44   0.02282099    3.066    0.674
         2 -17.9445    167.1104    203.0387   1.1738996099e+02   9.0340656624e+00     4.193645     3.181479  84.92   0.02223654    2.015    0.504
         3 -13.8272    108.7522    216.8887   1.3129713254e+02   1.6780493633e+01     4.600533     3.840781  60.25   0.02833987    1.045    0.043
         4 -16.9066    139.0250     91.8494   9.9377459062e+01   3.6823203511e+01     1.228493    0.9018348  46.51  0.005686035    1.336    0.252
         5 -16.7568     10.1156      9.4101   1.1805757288e+02   7.2562023423e+01     1.803713    0.9651223 -26.01   0.01115851    1.608    0.378
         6 -16.8020     12.9471    186.1456   1.4779679636e+02   3.5083627821e+01      1.65729     1.039208 -82.68   0.01135424    1.327    0.247
         7 -15.3578    247.0456    245.5155   1.0944555770e+02  -9.8281404749e+00    0.7570652    0.4890342  -4.50  0.005123401    1.502    0.334
         8 -17.4342    138.3874    166.1469   1.1716597593e+02   2.1386140155e+01     3.682382     2.182149  76.43   0.01301092    3.494    0.714
         9 -13.5168     41.7077    244.9743   1.4610536339e+02   2.1056785568e+01    0.3108862    0.1771443  89.37  0.002151729    1.634    0.388
        10 -16.9703     19.0032    222.7620   1.4874384697e+02   2.7445500604e+01     1.463234     1.010269 -84.65   0.01065049    1.345    0.257
        11 -14.2955     54.8235    170.4405   1.3751528083e+02   3.3981532678e+01    0.5069708    0.4724592  -8.00   0.00343919    1.514    0.340
        12 -14.8124     61.6094    164.5746   1.3524066539e+02   3.4419620939e+01    0.7094717    0.6271937  24.19  0.004576053    1.437    0.304
        13 -15.6355     51.1139    159.4473   1.3712120298e+02   3.6861698231e+01     1.058011    0.5192361  54.20  0.005216746    2.053    0.513
        14 -14.0966     42.8152    167.2218   1.3991848028e+02   3.6091596270e+01     0.401379    0.2273496  81.00  0.002113533    1.793    0.442
        15 -15.8142     31.2051    216.4100   1.4622686247e+02   2.7339398759e+01    0.8248643     0.620222  70.24  0.006255988    1.043    0.041
        16 -16.0367     26.8030    159.4464   1.4282770187e+02   3.9444335123e+01    0.9089436    0.7789883 -57.87  0.006481758    1.383    0.277
        17 -15.5350     32.5708    147.0475   1.4021435620e+02   4.1648488196e+01     1.184984    0.5448687  89.28  0.005416904    2.497    0.599
        18 -13.8411     66.2685    151.4178   1.3234069577e+02   3.6771593425e+01    0.4513509    0.3218729 -24.02  0.002301778    2.261    0.558
        19 -15.8498    192.8824    130.1197   9.7088414218e+01   1.6721055830e+01    0.6228778     0.533309 -61.83  0.003177809    1.380    0.276
        20 -17.4076    146.7491    125.4309   1.0637989645e+02   2.8144426409e+01     1.968053      1.36382  60.96  0.008693985    1.635    0.388
        21 -17.4782    162.6083    116.4222   1.0030806684e+02   2.6368886200e+01     2.037179     1.079592  63.37  0.007032697    2.728    0.633
        22 -14.9469     65.6147    118.5040   1.2706431749e+02   4.4496550400e+01    0.6142126    0.3716182  77.86  0.002691351    2.462    0.594
        23 -16.6034    157.2371    105.5998   9.8715353341e+01   2.9788878808e+01    0.9588895    0.8951926  61.19  0.004957215    1.092    0.084
        24 -17.6546    196.6847    159.1610   1.0292810047e+02   1.0705567671e+01     3.511757     1.650091  57.32   0.01244526    3.061    0.673
        25 -16.3924     36.6450    204.5801   1.4442068539e+02   2.9011064050e+01     1.360133     1.052195  82.40  0.009350355    1.100    0.091
        26 -15.0095    243.5851    107.7320   8.2539921998e+01   9.2046018174e+00     0.565965    0.2859338 -50.48  0.002296658    2.455    0.593
        27 -17.7095    191.9542    178.9312   1.0795055423e+02   8.2994444617e+00      3.74773     2.030342  60.10   0.01456133    2.917    0.657
