#   1 NUMBER                 Running object number                                     
#   2 MAG_AUTO               Kron-like elliptical aperture magnitude                    [mag]
#   3 X_IMAGE                Object position along x                                    [pixel]
#   4 Y_IMAGE                Object position along y                                    [pixel]
#   5 X_WORLD                Barycenter position along world x axis                     [deg]
#   6 Y_WORLD                Barycenter position along world y axis                     [deg]
#   7 A_WORLD                Profile RMS along major axis (world units)                 [deg]
#   8 B_WORLD                Profile RMS along minor axis (world units)                 [deg]
#   9 THETA_WORLD            Position angle (CCW/world-x)                               [deg]
#  10 FWHM_WORLD             FWHM assuming a gaussian core                              [deg]
#  11 ELONGATION             A_IMAGE/B_IMAGE                                           
#  12 ELLIPTICITY            1 - B_IMAGE/A_IMAGE                                       
         1 -15.0996      6.1233    144.0711   1.4272512738e+02   4.4491223405e+01     5.860313     1.540165 -77.14   0.02084624    3.970    0.748
         2 -13.3127    196.1781     30.8577   6.7718210249e+01   3.2656531693e+01     1.203442     1.050176  74.41  0.006328067    1.084    0.078
         3 -13.6280    211.4317     11.4214   6.1276874325e+01   3.1274063119e+01      1.32229    0.9440544  41.81  0.007562466    1.844    0.458
         4 -11.2947      2.2513     10.8253   1.1499099833e+02   7.1068832083e+01    0.5307235   0.06642421 -42.23  0.002045883    4.738    0.789
         5 -11.1336      2.9250      3.3433   1.1148773313e+02   7.2026766084e+01     0.312959     0.196494 -31.41  0.002366343    1.300    0.231
         6 -10.2525    198.5098    247.0006   1.1564474429e+02  -6.1518709038e+00    0.1722812    0.1236337 -38.08  0.001039745    1.612    0.380
         7 -10.6852    125.0985    250.2840   1.3007424742e+02   5.7513781638e+00    0.4015604    0.1028528  38.73  0.001341346    4.029    0.752
         8  -9.2816     66.3153    249.9377   1.4078068882e+02   1.4888547232e+01    0.1651404    0.1240348  75.65  0.000543121    1.068    0.064
         9 -10.2167     46.4178    248.3652   1.4408110573e+02   1.7850877128e+01    0.3588265    0.1591691  88.53  0.001517279    2.485    0.598
        10 -10.7652     29.1852    248.8812   1.4697531512e+02   1.9871053540e+01    0.3405565    0.2219893 -64.35  0.001481279    1.828    0.453
        11 -10.5313     33.6238    248.1577   1.4620187913e+02   1.9479016814e+01      0.26574    0.1526756  64.40  0.001742842    1.342    0.255
        12 -11.7455     35.0832    243.4422   1.4563494352e+02   2.0199928955e+01    0.4664444    0.2532507  46.41  0.002928997    1.677    0.404
        13 -11.0340     12.4988    250.1738   1.4970200676e+02   2.1511623242e+01     0.593033    0.1053673  39.02  0.002474337    4.722    0.788
        14 -11.1024      2.0000    242.0390   1.5089797406e+02   2.4123891217e+01    0.4602816    0.1213827 -78.19  0.002202883    3.165    0.684
        15 -10.1102      2.4722    249.5171   1.5120446129e+02   2.2685088342e+01    0.2546844    0.1500301  57.31  0.001353823    1.365    0.267
        16 -10.4513      2.7098    246.0057   1.5099182824e+02   2.3310149315e+01    0.3011613    0.1554308  65.01  0.001759534    1.444    0.307
        17  -9.1357     88.6880    249.3160   1.3672623053e+02   1.1738792895e+01    0.1287016   0.07552472  68.47  0.000268377    1.640    0.390
        18 -11.9476     11.6943    239.3052   1.4921612102e+02   2.3644017632e+01    0.3813863    0.1727581  71.54  0.001465023    1.856    0.461
        19 -11.3368    120.0176    239.4603   1.2971274628e+02   8.5487144689e+00    0.4448548    0.1617534 -63.02  0.001743285    3.628    0.724
        20 -10.5862     18.9026    242.0160   1.4821316320e+02   2.2345585407e+01    0.2209875    0.1177027  57.86 0.0004520382    1.486    0.327
        21 -11.0790    234.0027    237.7950   1.0755670750e+02  -1.0535265005e+01    0.2583663    0.1661925 -51.84  0.001395548    2.417    0.586
        22 -11.1699     50.6637    235.0819   1.4228869088e+02   1.9876564587e+01    0.2946552    0.1902023 -89.05 0.0008250527    1.344    0.256
        23 -12.1465    246.7022    248.5723   1.0712701590e+02  -1.3812252964e+01    0.7686008    0.4023194  24.06  0.004261202    1.816    0.449
        24 -10.3145      6.9644    215.0291   1.4851867521e+02   2.8937032747e+01    0.1762738    0.1247535  80.89 0.0005104141    1.018    0.018
        25  -8.6951    152.5453    212.9515   1.1927620440e+02   7.8168290585e+00    0.1852531    0.1387457 -52.25 0.0003308505    1.468    0.319
        26 -12.5775      9.9047    206.7825   1.4744006159e+02   3.0357088851e+01    0.6534712    0.4303023  39.38  0.002954875    1.774    0.436
        27 -11.4679     60.3908    197.3725   1.3667349062e+02   2.6567022486e+01    0.3024067    0.2316106 -57.29   0.00054342    1.472    0.321
        28 -11.7444      2.1564    190.1757   1.4768192865e+02   3.4592837888e+01    0.6756884    0.1832045 -73.80  0.003030287    2.781    0.640
        29 -14.1645     49.6879    216.0813   1.4077925183e+02   2.3902073944e+01     2.557015     1.541105  73.22   0.01482147    1.499    0.333
        30  -9.5220    192.2921    193.3054   1.0743310678e+02   3.9485000225e+00     0.468447    0.2415757 -66.82  0.001188866    7.117    0.859
        31 -11.7549     66.7124    189.2331   1.3432850800e+02   2.7537769472e+01    0.2877356    0.2327925 -62.45 0.0004870119    1.299    0.230
        32 -14.7611     39.1151    223.3924   1.4340233509e+02   2.3697797401e+01     6.370189          nan  39.17  0.002464312    9.578    0.896
        33 -13.1578     63.6659    174.5173   1.3305565209e+02   3.1372233678e+01    0.5137267    0.2814839 -45.93   0.00195066    2.257    0.557
        34 -10.8168     76.8403    176.6645   1.3031290673e+02   2.8986034814e+01    0.2522283     0.209221 -71.61 0.0003704149    1.125    0.111
        35  -9.9455     96.7449    173.1174   1.2507073758e+02   2.6658783697e+01     0.268791    0.2301593  58.97 0.0008185356    1.141    0.124
        36 -11.6800     84.5548    167.4637   1.2704740924e+02   2.9979360273e+01    0.6287478     0.586881 -71.66  0.003759512    1.134    0.118
        37  -9.8239    228.3210    228.1369   1.0690857883e+02  -8.2813751956e+00    0.2685148    0.1517331 -55.31  0.001195552    3.248    0.692
        38  -8.8914    100.4726    147.5293   1.1942304361e+02   3.2102527066e+01    0.2066489     0.133071 -46.91 6.454762e-05    1.573    0.364
        39 -12.0167     85.9295    150.8360   1.2379592592e+02   3.3740444094e+01     0.302573    0.2508439 -45.05 0.0005178917    1.297    0.229
        40  -9.9022     97.5364    151.6511   1.2098983630e+02   3.1626286932e+01    0.2836744    0.2697184 -52.19 0.0007970058    1.140    0.123
        41 -12.2977     67.4851    143.6913   1.2726830288e+02   3.8196031697e+01    0.6988829    0.4676445  69.60  0.003455256    1.794    0.443
        42  -9.7258    126.5137    225.4667   1.2656588611e+02   1.0096040161e+01     0.134709    0.1165523  58.56  3.31594e-05    1.019    0.019
        43  -9.5327    109.3649    136.7720   1.1483497315e+02   3.3049995800e+01    0.3766118    0.2372032 -23.14  0.001426828    2.735    0.634
        44 -10.3488     96.4403    134.1580   1.1768512145e+02   3.5988404800e+01    0.2505978     0.238208 -28.67 0.0004810351    1.163    0.140
        45  -8.3674    192.2792    143.7244   9.6833238048e+01   1.3810965204e+01    0.1478223    0.1208151 -82.66 0.0002421088    1.499    0.333
        46  -9.1416    106.5071    123.5627   1.1255814621e+02   3.6669760208e+01    0.1489911     0.142744 -60.18 0.0001050568    1.014    0.014
        47 -10.2624    167.8035    112.7968   9.4526151771e+01   2.5855184953e+01    0.3565997    0.2841052 -79.73 0.0008441033    1.494    0.331
        48  -9.2208    203.4707    111.5121   8.6896919173e+01   1.7707607773e+01    0.1523699    0.1450774 -61.12 7.047251e-05    1.005    0.005
        49  -9.2738    158.3193     76.6991   8.6818217900e+01   3.5112653508e+01    0.1541787    0.1178863 -79.62  0.000285327    1.623    0.384
        50  -8.9627     31.9760     62.2563   1.1998552849e+02   6.0214480607e+01    0.1604018    0.1382132 -15.60 0.0005546271    1.142    0.124
        51 -12.6457     33.3829    230.9777   1.4502283992e+02   2.2846665018e+01     0.306372      0.23634 -72.07 0.0007384727    1.438    0.305
        52 -10.7957     13.6645     54.6462   1.2471508563e+02   6.3115307396e+01    0.1989904    0.1731736 -41.58 0.0007120001    1.190    0.159
        53 -11.4248    140.2762    249.4996   1.2709864763e+02   3.3377955770e+00    0.5404666    0.1086517  41.31  0.001703143    4.273    0.766
        54 -11.4777    100.5324    245.5003   1.3414016925e+02   1.0608660424e+01     0.320736    0.2006489  60.97  0.001844305    1.404    0.288
        55 -10.1157    162.5083    248.4809   1.2271217361e+02  -2.9010725274e-01    0.1284015    0.1069445  43.25 0.0002515634    1.003    0.003
