#   1 NUMBER                 Running object number                                     
#   2 MAG_AUTO               Kron-like elliptical aperture magnitude                    [mag]
#   3 X_IMAGE                Object position along x                                    [pixel]
#   4 Y_IMAGE                Object position along y                                    [pixel]
#   5 X_WORLD                Barycenter position along world x axis                     [deg]
#   6 Y_WORLD                Barycenter position along world y axis                     [deg]
#   7 A_WORLD                Profile RMS along major axis (world units)                 [deg]
#   8 B_WORLD                Profile RMS along minor axis (world units)                 [deg]
#   9 THETA_WORLD            Position angle (CCW/world-x)                               [deg]
#  10 FWHM_WORLD             FWHM assuming a gaussian core                              [deg]
#  11 ELONGATION             A_IMAGE/B_IMAGE                                           
#  12 ELLIPTICITY            1 - B_IMAGE/A_IMAGE                                       
         1 -15.0613    211.1173     69.8058   8.1120860219e+01   2.3002357658e+01     4.113497     2.237977 -70.54   0.01301123    4.175    0.760
         2 -16.0107    131.8863     13.3056   7.7539803005e+01   5.0089568043e+01     8.165083     4.157563 -28.64   0.03701582    2.011    0.503
         3 -18.1873    239.2689     42.6130   7.0137937514e+01   2.0088396476e+01     8.347533     4.386491 -19.56   0.03582854    2.188    0.543
         4 -14.8015    220.3795     29.4168   6.8938285678e+01   2.6172347123e+01     1.661198    0.6843616 -12.03  0.005182875    4.613    0.783
         5 -10.2805     79.1011     15.2901   9.2040171518e+01   6.1181690932e+01    0.4540952    0.1723918 -26.92  0.001480215    2.561    0.610
         6 -10.5068    192.0878    144.0298   1.0351572904e+02   1.4878562678e+01    0.2820582    0.2403752  46.45 0.0004755555    1.204    0.170
         7 -13.3467    246.8316    248.7105   1.1300670308e+02  -8.8015394075e+00     2.642799    0.7150649  42.58   0.01163786    3.343    0.701
         8 -11.0088    184.3642    194.0056   1.1504866620e+02   8.0383488404e+00    0.4204704    0.1680495  43.98  0.001781581    2.236    0.553
         9 -12.9671     15.9365    164.3786   1.4596497997e+02   3.8500629804e+01     1.264758     0.766013  40.51  0.008464807    1.757    0.431
        10 -13.3551     20.5712    181.4199   1.4636114254e+02   3.4636567729e+01     1.685186    0.6974978  67.63  0.008664144    2.576    0.612
        11 -13.6287     30.8462    171.8515   1.4356796566e+02   3.5587095462e+01     1.216454    0.8795344  20.18  0.008101291    1.998    0.499
        12 -11.0159    200.0903    178.7896   1.0921642833e+02   7.5194002456e+00    0.4251139    0.2991481  75.15  0.001934074    2.743    0.635
        13 -11.6365    191.0904    171.1981   1.0947302663e+02   1.0447935615e+01    0.9599639    0.4442246  60.32  0.002891778    5.079    0.803
        14 -10.7526    180.6014    165.4342   1.1041782955e+02   1.3465042538e+01    0.5112224    0.3006516  63.12  0.001952456    2.662    0.624
        15 -12.0086    210.9359    186.4357   1.0864200307e+02   4.3707351032e+00    0.9245855    0.5660656  49.25  0.003160088    1.751    0.429
        16 -11.6902    211.7307    179.6249   1.0718464137e+02   5.2303445764e+00     1.283204    0.5840908  57.38  0.004392303    4.266    0.766
        17 -11.6809    218.0745    171.5946   1.0441318902e+02   5.2542319126e+00     1.018252     0.791329 -72.07  0.005206395    2.307    0.567
        18  -9.0427    191.2990    184.3285   1.1196033402e+02   8.2882197338e+00    0.1371119   0.09787813   8.95 0.0002719153    1.639    0.390
        19 -10.5910    187.0079    178.8808   1.1177077194e+02   9.9652849791e+00    0.2713808    0.2086499  38.95  0.001214587    1.187    0.157
        20 -10.1339    180.7517    174.8791   1.1224689461e+02   1.1817411931e+01    0.2610764    0.1804679  66.56  0.001242256    2.089    0.521
        21 -10.7826    229.9199    172.8625   1.0253067927e+02   2.8927872868e+00     0.550622    0.2199832  48.10  0.001796755    2.697    0.629
        22  -9.7413    195.9254    167.8004   1.0784185448e+02   1.0071239046e+01    0.2381482    0.1861678  58.50  0.000618676    1.534    0.348
        23  -9.4472    230.2897    166.7962   1.0122294076e+02   3.6970232203e+00    0.1990052    0.1652422 -42.07 0.0006321866    1.465    0.317
        24 -10.4304    203.0219    166.5643   1.0621441878e+02   8.8955715177e+00    0.3540599    0.2413089  62.29  0.001430973    2.064    0.515
        25  -9.3740    203.6300    160.8975   1.0491907070e+02   9.6913532537e+00    0.1940321    0.1712344 -23.26 0.0008174795    1.159    0.137
        26 -11.7751     81.1344    141.9243   1.2846898687e+02   3.6027859886e+01    0.7657915     0.444781 -80.28  0.001941349    2.199    0.545
        27 -12.1401     55.8297    157.4491   1.3669314962e+02   3.5925167012e+01    0.3391962    0.3122995 -57.55 0.0009517581    1.277    0.217
        28 -14.1437     66.6839    149.3658   1.3310547136e+02   3.6347311396e+01     1.455362     1.061332 -44.42  0.004344064    1.590    0.371
        29  -9.7717    153.8832    158.3412   1.1461215406e+02   1.9999509137e+01    0.2164643     0.194243 -67.09 0.0003805963    1.245    0.197
        30  -9.9137    146.6952    158.2778   1.1617129176e+02   2.1397360025e+01    0.4191034    0.3354127  72.63  0.001749078    1.490    0.329
        31 -11.4190    191.7529    152.1175   1.0537268315e+02   1.3542106788e+01    0.8099773    0.3351236 -53.88  0.002318329    5.206    0.808
        32  -8.8816     63.9645    246.6919   1.4349458025e+02   1.8101629196e+01    0.1389165    0.1004737  59.91 0.0004325174    1.048    0.046
        33 -11.9176    237.2962    249.2727   1.1462795078e+02  -7.5114166146e+00    0.6002949    0.3365071  43.01   0.00370888    1.726    0.421
        34 -12.2725    199.4684    143.5068   1.0193241196e+02   1.3432623155e+01    0.6368024    0.4728662  58.42  0.001617871    1.591    0.371
        35 -10.4783    176.4791    146.4106   1.0725664120e+02   1.7696977095e+01    0.4182762    0.2816213  80.16  0.001651887    2.890    0.654
        36  -9.0750    157.2275    139.7327   1.0994344401e+02   2.2938804362e+01    0.2270143    0.1857391 -68.88 0.0006410801    1.481    0.325
        37  -9.7450    121.4387    113.2936   1.1230343716e+02   3.5554511613e+01    0.2320263    0.1431043 -46.77  0.001039634    1.581    0.368
        38 -11.1631    112.7895    105.2410   1.1255080526e+02   3.8908043837e+01    0.9858552    0.4895436 -49.37  0.004047718    1.967    0.492
        39 -11.4020    116.7780     94.8889   1.0875024402e+02   4.0322781527e+01    0.7303932     0.603996  50.07  0.002049107    1.292    0.226
        40 -10.6368    118.2003    109.4952   1.1219873560e+02   3.6981693420e+01    0.3737906    0.2604736 -50.18  0.001274144    1.411    0.292
        41 -11.4781    134.4562    123.6577   1.1155243997e+02   3.0819386219e+01      1.81027    0.5783885 -54.89  0.004650437    5.341    0.813
        42 -10.8225    127.7002    112.8231   1.1059717884e+02   3.4429143140e+01     1.219322    0.3836305 -53.79  0.003256643    4.792    0.791
        43 -11.5568    120.2178    104.3052   1.1035132385e+02   3.7689181870e+01    0.5849956    0.3174638 -47.75  0.002065664    1.807    0.447
        44 -10.8181    123.9850    102.2479   1.0883184687e+02   3.7375666824e+01    0.3950727    0.3932861 -41.46  0.001290694    1.043    0.041
        45 -11.3370    160.5327    128.8047   1.0668685924e+02   2.4384558404e+01    0.4579426    0.4081018 -11.62  0.001803597    1.178    0.151
        46  -8.5186     99.5101    130.5462   1.2177816593e+02   3.5720702346e+01    0.1369588    0.1310835 -62.49 0.0001625351    1.043    0.041
        47  -9.1232    126.5066    126.2205   1.1408915091e+02   3.1838154631e+01    0.2636408    0.1384975 -41.84 0.0006865935    1.961    0.490
        48 -10.2910    152.1822    121.6752   1.0686971908e+02   2.7566240238e+01    0.7540559    0.2964329 -52.98  0.002342799    3.553    0.719
        49 -10.9130    207.3251    197.9838   1.1143451329e+02   3.3544129588e+00    0.3853001    0.1619881  39.10   0.00172902    2.095    0.523
        50  -9.1709     91.0590    116.2897   1.2099165695e+02   4.0241915539e+01    0.2785838    0.1829065 -60.91   0.00112834    1.507    0.337
        51 -10.6639    156.8075    112.7443   1.0356233900e+02   2.8331970962e+01    0.4467005    0.3040018 -70.57 0.0008728252    2.292    0.564
        52  -9.8626    135.0000    113.0373   1.0883112943e+02   3.2911686615e+01     0.398717    0.2104493 -42.73  0.001634949    1.876    0.467
        53 -10.7237    135.0000    108.4957   1.0767254596e+02   3.3845936272e+01    0.8231212    0.2078143 -45.48  0.002318556    3.970    0.748
        54  -9.3659    146.1457    112.6841   1.0603958383e+02   3.0651954686e+01    0.2427639    0.1994302 -55.12 0.0008076275    1.303    0.233
        55 -10.3988    219.4773    154.6531   1.0060286887e+02   7.5739522662e+00    0.3000762    0.1971372  37.62 0.0007724205    1.460    0.315
        56  -9.1263     96.3162    109.3190   1.1799256894e+02   4.0930893537e+01    0.2902867    0.1658102 -70.78  0.001144003    2.621    0.619
        57  -9.4778    139.9305    106.1017   1.0583260390e+02   3.3300222675e+01    0.2350835    0.2226585  -4.24 0.0008721268    1.065    0.061
        58 -10.1210    144.3539    103.0196   1.0393752036e+02   3.2969056522e+01    0.3068263    0.2189813  33.19 0.0005603405    1.504    0.335
        59 -11.2850    153.6659     99.5856   1.0079780636e+02   3.1585324658e+01    0.6289097    0.4757214 -70.30  0.002859876    1.783    0.439
        60  -9.3210     35.9719    102.0117   1.3359121069e+02   5.0360019982e+01     0.188664    0.1548129 -70.63 0.0004504026    1.062    0.059
        61 -10.0212    132.0168     98.4542   1.0575187628e+02   3.6512284894e+01    0.3249896    0.2681709  85.41  0.001021484    1.570    0.363
        62 -10.5103    198.5915    152.9317   1.0419416340e+02   1.2014441142e+01    0.2945371    0.2195474  -0.76 0.0009587204    1.532    0.347
        63 -11.5791    149.6749     89.3465   9.8862911289e+01   3.4437907028e+01     0.354554    0.2827873 -45.22 0.0005661474    1.282    0.220
        64 -10.5811    133.6874    146.0115   1.1664928201e+02   2.6332900447e+01     1.127781    0.2544926 -53.59  0.002581952    7.173    0.861
        65  -9.7432     76.2282     85.4024   1.1783858039e+02   4.9286915232e+01    0.1767759    0.1292756  48.21 0.0002929062    1.595    0.373
        66  -9.2160     30.8728     83.2140   1.3160160193e+02   5.4984561717e+01    0.2202176    0.1382585 -70.36 0.0008794853    1.491    0.329
        67 -10.5631     79.9646     77.2871   1.1444994242e+02   5.0441528063e+01    0.5230454    0.1928376 -54.46  0.001844281    3.070    0.674
        68 -10.2796    180.9925    152.5285   1.0764936274e+02   1.5662983132e+01    0.3263442    0.2407621  62.94  0.001598077    1.684    0.406
        69  -8.6024     60.6565     78.3095   1.2086241618e+02   5.2925427621e+01    0.1279046    0.1023823  83.61  0.000704472    1.698    0.411
        70  -9.1913     58.9451     47.5188   1.1210285304e+02   5.9336375856e+01    0.2097466     0.146005 -40.44 0.0007177925    1.259    0.205
        71  -9.6025     41.8323    225.1505   1.4563810083e+02   2.4275606393e+01    0.1265508     0.110154  82.44 0.0003591375    1.294    0.227
        72 -10.5087    204.4719     40.6154   7.4049043189e+01   2.8716746301e+01     0.272418    0.1424904 -24.65 0.0008329717    2.003    0.501
        73 -10.4785    198.8819     39.1298   7.4432865520e+01   3.0306599428e+01    0.1984178    0.1810081 -40.54   0.00057626    1.095    0.087
        74 -11.2692    205.4489     30.1038   7.0972378169e+01   2.9770205351e+01    0.3928209    0.2173547  73.36  0.001443215    1.917    0.478
        75  -9.6196    171.1505     28.8253   7.5649425673e+01   3.8617717450e+01    0.1876118    0.1448693  -8.90 0.0005839838    1.424    0.298
        76 -10.1033     92.0876     25.6731   9.2421289927e+01   5.7391528389e+01    0.3111833    0.1769699 -27.68 0.0009270119    1.687    0.407
        77  -8.9546    130.1480    140.7986   1.1639753315e+02   2.8080538819e+01    0.1937062    0.1823167  43.58 0.0004748267    1.056    0.053
        78  99.0000    201.9287     23.7343   6.9642665355e+01   3.1386906042e+01    0.4279959    0.1957138  34.17  0.001497023    3.486    0.713
        79  -9.0866    177.4978     25.6319   7.3632876218e+01   3.7371594048e+01    0.1418449    0.1303878  58.05 0.0007953427    1.039    0.038
        80 -11.9926    201.0336     18.3155   6.8232019956e+01   3.2205835728e+01    0.2302063     0.206598   7.00 0.0006713887    1.251    0.201
        81  -9.5783    144.8960    147.7644   1.1444793468e+02   2.3821395181e+01    0.2827541    0.1955571 -77.19  0.001249019    2.186    0.543
        82 -11.8088    192.5233    194.1766   1.1351949312e+02   6.5417117290e+00    0.9339792    0.5005739 -61.74  0.003205803    5.313    0.812
        83  -9.6124    163.1327     13.9078   7.2154124925e+01   4.2286295906e+01     0.203007    0.1796973  34.84 0.0003947906    1.115    0.103
