#   1 NUMBER                 Running object number                                     
#   2 MAG_AUTO               Kron-like elliptical aperture magnitude                    [mag]
#   3 X_IMAGE                Object position along x                                    [pixel]
#   4 Y_IMAGE                Object position along y                                    [pixel]
#   5 X_WORLD                Barycenter position along world x axis                     [deg]
#   6 Y_WORLD                Barycenter position along world y axis                     [deg]
#   7 A_WORLD                Profile RMS along major axis (world units)                 [deg]
#   8 B_WORLD                Profile RMS along minor axis (world units)                 [deg]
#   9 THETA_WORLD            Position angle (CCW/world-x)                               [deg]
#  10 FWHM_WORLD             FWHM assuming a gaussian core                              [deg]
#  11 ELONGATION             A_IMAGE/B_IMAGE                                           
#  12 ELLIPTICITY            1 - B_IMAGE/A_IMAGE                                       
         1 -15.1873     68.4971    144.4393   1.0525170604e+02   3.7188090470e+01     5.676829     2.810912  69.27   0.01147377    3.964    0.748
         2 -14.4839    216.4834     22.8724   4.0278056369e+01   2.8539159008e+01     2.061897     1.397534  26.17   0.01034688    2.351    0.575
         3 -14.3108    203.3096     36.0162   4.5087815067e+01   3.0034248246e+01     2.167307     1.363144  29.48  0.009092318    2.483    0.597
         4 -11.3674     55.0380      5.3679   6.6109483525e+01   6.7129584463e+01    0.2744556     0.185923  58.44  0.001570292    2.112    0.526
         5 -11.8467    241.1367      1.9833   3.3455270155e+01   2.5343792494e+01    0.6305889    0.1942938  75.18   0.00255861    3.094    0.677
         6 -11.2729      2.7105      3.4269   9.0650526559e+01   7.3895501606e+01    0.3224871    0.1776371 -39.69  0.002103868    1.506    0.336
         7 -10.2130    113.2197    207.4992   1.0424227459e+02   1.5913767073e+01    0.2224212    0.1780744 -68.33 0.0005345712    1.329    0.248
         8 -11.1075    139.8045    249.5993   1.0438584910e+02   4.1386626923e+00    0.2690154    0.2241375  49.94  0.001859591    1.102    0.092
         9 -10.4826    134.5815    248.9352   1.0528925002e+02   5.0426304943e+00     0.331369    0.1918625 -77.85  0.001616511    3.151    0.683
        10 -15.4232     85.6180    229.2680   1.1252534298e+02   1.5825194561e+01      3.56116     1.698964  47.57   0.01487682    1.767    0.434
        11 -15.7901      5.1789    163.4391   1.2333268505e+02   3.9330890499e+01     5.827267     1.196959 -71.92   0.02227509    3.428    0.708
        12 -14.5751     31.6425    247.5732   1.2383712478e+02   1.9256343240e+01     1.263456    0.8533918  33.21  0.006732618    1.816    0.449
        13 -16.6053      9.2683    240.0440   1.2717411262e+02   2.2993423073e+01     8.120778      3.40888  28.96   0.03953654    3.313    0.698
        14 -15.2468     48.4317    194.9799   1.1667760210e+02   2.7870901740e+01     2.202642     1.403489  66.28   0.01276329    1.440    0.306
        15 -14.0575      7.4842    188.9823   1.2467333511e+02   3.3441407523e+01     2.228657    0.6929662 -51.82  0.008251062    5.333    0.812
        16 -10.8771    209.7969    199.5105   8.2985956442e+01   7.3730732015e-01     0.236845    0.2062791 -39.04 0.0007229117    1.333    0.250
        17 -11.7155    193.3157    195.1416   8.5367291224e+01   4.3001051929e+00    0.8963962    0.4847395 -63.43  0.002885774    5.275    0.810
        18 -10.8535    111.8476    197.4684   1.0310615766e+02   1.8205858107e+01    0.2579364    0.2319116 -67.64 0.0007609831    1.167    0.143
        19 -10.0089    115.4330    203.2193   1.0316015483e+02   1.6422563887e+01    0.1829503     0.126991 -76.54 0.0009482189    1.686    0.407
        20 -11.4268    146.1627    182.2080   9.2909864485e+01   1.5374044816e+01     0.426036    0.3121972 -78.61  0.002050616    1.854    0.461
        21 -10.5646     99.1948    181.0580   1.0350583064e+02   2.3852932178e+01    0.3222118    0.2080592  23.38  0.001502873    2.054    0.513
        22 -12.2582     65.5506    177.7896   1.1092427258e+02   2.9591370335e+01    0.4295312    0.2907487 -43.48  0.002254892    1.868    0.465
        23 -12.1747     70.2594    172.5767   1.0911805873e+02   3.0166460471e+01    0.3591378    0.3170576 -35.43 0.0006172638    1.435    0.303
        24 -11.5011    139.9226    172.3920   9.2483956203e+01   1.8608512762e+01    0.5506847     0.329389  61.67  0.002271799    2.242    0.554
        25 -13.0253     86.3571    156.3310   1.0260980533e+02   3.1671478581e+01     1.409633    0.7373142 -59.73  0.002193881    1.806    0.446
        26 -13.6959     66.9257    158.9099   1.0797395776e+02   3.3879107157e+01    0.6020449    0.5132969 -56.86  0.001553907    1.215    0.177
        27 -12.2603     79.3672    163.0967   1.0549243716e+02   3.1109451237e+01    0.4952122    0.3706442  74.67 0.0004832011    1.396    0.284
        28  -9.1866    173.5069    245.4935   9.7499502092e+01  -4.4414579847e-01    0.1219541    0.1001315  31.96  0.000139567    1.033    0.032
        29 -11.0265    101.1167    140.8666   9.5813532209e+01   3.2970311166e+01    0.6169947    0.3647325 -29.36  0.002370895    2.646    0.622
        30 -12.2232     88.1293    141.0583   9.9336801498e+01   3.5092136562e+01    0.2897877    0.2530636 -47.19 0.0004200866    1.175    0.149
        31 -10.1989     81.3998    141.3488   1.0121355314e+02   3.6072985286e+01     0.286513    0.2129711  69.16  0.000511298    1.517    0.341
        32  -8.8875    159.7700    136.0069   7.9999927590e+01   2.2492054076e+01    0.2046116    0.1267967 -43.84 0.0004325772    1.581    0.367
        33 -10.2143    110.5517    131.1104   9.1159314540e+01   3.3603796854e+01    0.3295519    0.2542247  -0.52  0.001065046    1.810    0.447
        34 -10.2956    105.9320    130.6797   9.2309753531e+01   3.4556023655e+01    0.3563077    0.3034889 -80.11  0.001278167    1.254    0.203
        35 -11.0559     34.3674    171.5436   1.1744189627e+02   3.4783473152e+01    0.2975872    0.1688486  60.59   0.00158897    1.746    0.427
        36 -11.2704    133.6394    144.1816   8.8156500299e+01   2.6097053738e+01     1.186415    0.2748756 -53.69  0.002643837    6.251    0.840
        37 -12.2036     53.9366    148.8622   1.0981743636e+02   3.7992472356e+01    0.6505326      0.42394  -4.09  0.002961261    2.820    0.645
        38 -10.7689     97.9401    127.0925   9.3697632646e+01   3.6838097283e+01     0.317195    0.2588349 -21.95  0.001585318    1.473    0.321
        39 -11.1215     39.6409    134.0163   1.1145500233e+02   4.3242651174e+01    0.2523504    0.1881727  11.56 0.0008940635    1.803    0.445
        40 -10.7345    116.9400    125.3199   8.8082751450e+01   3.3750485578e+01    0.4057982    0.2659566 -44.19  0.001801169    1.495    0.331
        41  -9.2061     90.2885    123.3959   9.5021452749e+01   3.9032426790e+01     0.200549     0.136946  51.13 0.0006531269    1.617    0.382
        42  -9.9369    107.2159    119.7602   8.9385537714e+01   3.6908751838e+01    0.2097383    0.1992693 -77.00 0.0004004706    1.067    0.062
        43  -8.7920     86.6605    120.3265   9.5369818584e+01   4.0370639192e+01    0.1532049    0.1140253  80.60 0.0007051512    1.730    0.422
        44  -9.5696    168.3121    113.2784   7.2352023656e+01   2.5374072465e+01    0.3162508    0.2259328 -78.72  0.001303503    2.084    0.520
        45 -12.4113     54.2780    143.9978   1.0899231034e+02   3.9141050910e+01    0.5382932    0.3330128  34.77  0.002666677    1.793    0.442
        46 -15.3934      9.3950    208.0754   1.2548428689e+02   2.9227766290e+01     2.503964      1.27996 -52.04   0.01383134    2.777    0.640
        47  -9.9859    205.3898    110.2456   6.4140336282e+01   1.7583708667e+01    0.2959805    0.2110955  45.27 0.0008972494    1.508    0.337
        48 -10.5463    135.6437    123.7955   8.2830198825e+01   3.0310737765e+01    0.2986566     0.147215 -56.42 0.0008647037    2.409    0.585
        49 -10.0672    174.7965    148.9296   7.9656840246e+01   1.6617202602e+01      0.27871    0.2141882 -61.39 0.0007225203    1.534    0.348
        50 -10.1938    134.6794    105.5229   7.8271587735e+01   3.4556101412e+01    0.3002101    0.1416146 -43.70  0.001098243    2.054    0.513
        51 -10.1000     42.2434    103.7028   1.0538486482e+02   5.0361759721e+01    0.2089979    0.1624198  34.18 0.0007579929    1.496    0.332
        52 -10.7959     36.3900    101.3578   1.0680636219e+02   5.1513057372e+01    0.2541074    0.2069897 -74.77 0.0008724634    1.177    0.150
        53 -10.2393    128.5244     95.3928   7.7013845495e+01   3.8062232217e+01    0.3737056    0.2272608  76.08   0.00122455    3.466    0.712
        54 -10.3507     41.6801     91.9927   1.0305075809e+02   5.3198928663e+01    0.2010707    0.1885786 -18.11 0.0004051153    1.182    0.154
        55 -10.5160     53.0569     90.6402   9.8849054826e+01   5.2231340311e+01    0.2805575    0.1784772 -49.07 0.0008907702    1.350    0.259
        56  -9.5789    249.6861     87.7115   5.1874120607e+01   1.2029880198e+01    0.1274172    0.1039743   4.16            0    1.586    0.370
        57  -8.9453     75.2902     85.3008   8.9915717050e+01   5.0360310664e+01    0.1445369    0.1053954 -21.36 0.0002062912    1.564    0.361
        58  -9.5317    114.0153     83.0544   7.7289323662e+01   4.3724464568e+01    0.2430059    0.1920155 -85.29   0.00112594    1.761    0.432
        59 -11.2071      2.4047     75.6500   1.1354631325e+02   5.9971248472e+01    0.4406916   0.07101227 -64.84  0.001526582    3.802    0.737
        60  -9.2004    159.2841     81.6434   6.5540888743e+01   3.3697075757e+01    0.1607089    0.1189501 -67.76 0.0007019413    1.670    0.401
        61  -9.0282    105.6469     76.3605   7.7601856856e+01   4.6794992767e+01    0.1547231    0.1204988 -82.09 3.189682e-05    1.869    0.465
        62  -8.7428     99.2867     71.6111   7.7968270691e+01   4.8998957103e+01    0.1487583    0.1168238 -72.87 0.0007007504    1.755    0.430
        63 -10.2208     51.9343     64.3215   9.1824304746e+01   5.8162575329e+01    0.3195782     0.208787  54.66  0.001562403    2.347    0.574
        64 -10.4107     13.4843     59.9414   1.0582987977e+02   6.2775779439e+01    0.2171391    0.1811348 -58.29 0.0004337126    1.168    0.144
        65  -9.9326    171.3495    234.7200   9.6351778979e+01   1.5100294562e+00     0.187466    0.1444418  67.59  0.001100133    1.812    0.448
        66 -12.6857    194.5856     42.4002   4.7944512093e+01   3.1303739597e+01    0.6641433    0.5738017  73.39  0.001216209    1.135    0.119
        67  -9.9039    198.6678    222.7308   8.9224211322e+01  -1.0386279866e+00    0.2040665    0.1567338  32.49 0.0004376764    1.175    0.149
        68  -9.6286    143.8812     40.8874   5.6058255725e+01   4.4088103829e+01    0.2206827    0.1686151 -71.01 0.0005551035    1.601    0.375
        69 -15.1717     63.3364    247.2650   1.1830922519e+02   1.5502296828e+01     4.247951     1.174714  34.10  0.006119214    4.291    0.767
        70 -11.1451    140.2486     45.8074   5.8455860817e+01   4.4279450005e+01    0.3522642    0.2742922 -77.32   0.00109087    1.610    0.379
        71  -9.8065    189.5236     15.0127   4.1135036180e+01   3.5870182216e+01    0.1901866    0.1283471 -31.67 0.0005874538    1.551    0.355
        72  -8.7989    134.7269     12.2959   4.8101737138e+01   4.9643378842e+01    0.1286012   0.09945694 -65.84 0.0002335566    1.524    0.344
        73 -11.6970    187.8754    210.9730   8.9306092685e+01   2.5803317284e+00    0.3330191    0.1784681 -40.92  0.001630151    2.010    0.503
        74 -13.7607     39.3399    205.4877   1.1950490784e+02   2.6661579329e+01    0.7823516    0.4893048  67.01  0.001608301    1.391    0.281
