#   1 NUMBER                 Running object number                                     
#   2 MAG_AUTO               Kron-like elliptical aperture magnitude                    [mag]
#   3 X_IMAGE                Object position along x                                    [pixel]
#   4 Y_IMAGE                Object position along y                                    [pixel]
#   5 X_WORLD                Barycenter position along world x axis                     [deg]
#   6 Y_WORLD                Barycenter position along world y axis                     [deg]
#   7 A_WORLD                Profile RMS along major axis (world units)                 [deg]
#   8 B_WORLD                Profile RMS along minor axis (world units)                 [deg]
#   9 THETA_WORLD            Position angle (CCW/world-x)                               [deg]
#  10 FWHM_WORLD             FWHM assuming a gaussian core                              [deg]
#  11 ELONGATION             A_IMAGE/B_IMAGE                                           
#  12 ELLIPTICITY            1 - B_IMAGE/A_IMAGE                                       
         1 -11.8501     37.8185     52.0904   1.1418125494e+02   6.1533930292e+01    0.6821616    0.3791448 -34.83  0.003832203    1.549    0.354
         2 -12.1568     81.9342     36.6778   9.2777345484e+01   5.7690230534e+01    0.4987584    0.3378782 -13.49  0.002444718    1.533    0.348
         3 -11.2119      8.9952     26.2725   1.1756409978e+02   6.8303954895e+01    0.4719875    0.1770484 -31.55  0.002451773    2.362    0.577
         4  -9.9375    162.4158     30.7010   7.1453578266e+01   4.0656032630e+01    0.2102917    0.1771435  -6.90 0.0008665444    1.463    0.316
         5 -12.4259     25.9176     13.6370   1.0491805770e+02   6.8636758489e+01    0.3198921    0.2219472 -13.19 0.0003459284    1.119    0.107
         6 -11.9193     20.0075     16.5387   1.0880132013e+02   6.8836384042e+01    0.8744675    0.2402292 -33.42  0.003765148    3.488    0.713
         7 -11.0409     23.3707     21.7122   1.0936993985e+02   6.7799084236e+01    0.3675467    0.1725989 -32.70  0.002133877    1.790    0.441
         8 -12.2053     26.4765      3.8562   1.0034712617e+02   6.9755082892e+01     0.385031    0.2105695  16.00  0.001472342    1.672    0.402
         9 -11.4973     31.5678      2.4940   9.7476110027e+01   6.9309535455e+01     0.241136    0.1656312  26.30 0.0008516473    1.372    0.271
        10 -11.9789    132.6921     15.9024   7.2485271429e+01   4.9401775961e+01    0.5140115    0.3833418 -84.08  0.002859731    1.692    0.409
        11 -10.8580    216.9518     16.5964   6.0606314825e+01   2.9007763227e+01    0.5858766    0.1428899  54.99   0.00198905    4.206    0.762
        12  -9.3927     35.5673     19.5189   1.0319342606e+02   6.6807759219e+01    0.1152012   0.08767792  -5.79 0.0001122842    1.011    0.011
        13 -11.4618     75.1536      4.7331   8.2516554323e+01   6.2454723827e+01    0.3754759    0.2179411 -16.82  0.001349928    1.810    0.448
        14 -11.6261     79.1607     10.4938   8.3619331647e+01   6.1201235279e+01    0.3470618    0.2255563  26.06 0.0008170666    1.365    0.267
        15 -11.7073     81.2423      6.0292   8.1239216899e+01   6.1219614832e+01    0.2147491    0.1693986  26.16 0.0003140544    1.032    0.031
        16 -10.6412     75.6349     16.9826   8.7281650534e+01   6.1186670487e+01    0.4377096    0.2292359   2.27  0.002013463    2.734    0.634
        17 -10.4372     70.8193     14.6843   8.7918918282e+01   6.2268194224e+01    0.2007658      0.15843 -14.63 0.0003765708    1.286    0.222
        18 -10.4269     99.2592     13.1879   7.9065199548e+01   5.7026970743e+01    0.2492947    0.1920758 -32.50  0.001223989    1.535    0.349
        19 -10.4925     56.1334     12.9581   9.2302551199e+01   6.4829072597e+01    0.2374092    0.1502395  -7.67 0.0008814441    1.520    0.342
        20 -11.5946     61.8956     11.4150   8.9593734566e+01   6.4091043137e+01    0.3197006     0.232244  57.81  0.001953749    2.034    0.508
        21 -10.6690    114.8012     12.6660   7.5163831254e+01   5.3762320850e+01    0.3223894    0.1825767  74.71  0.001451132    2.359    0.576
        22 -10.1495      3.8257     10.8517   1.1415173884e+02   7.0943622237e+01    0.1603895    0.1236896 -42.59 0.0006459056    1.620    0.383
        23 -10.2809    175.6612     11.9595   6.4359098720e+01   3.9443996854e+01    0.2202958    0.1542765  58.45 0.0005433068    1.280    0.219
        24  -9.7414     50.5586     13.3215   9.4543741872e+01   6.5612343324e+01     0.351354    0.1518529 -17.11  0.001625377    2.900    0.655
        25  -9.6851    122.2658      8.9170   7.2316613557e+01   5.2431942545e+01    0.1672089    0.1523632  30.55 0.0005481749    1.133    0.117
        26  -9.2778    226.2591      8.6667   5.8011490857e+01   2.7752208688e+01    0.1285144   0.07609629 -66.52 0.0003673367    1.571    0.364
        27  -9.5643     37.1711      8.4945   9.7802475960e+01   6.7958657664e+01    0.1495954   0.09276354  26.55 0.0004241125    1.435    0.303
        28  -9.9716      9.0929      7.7817   1.1028330119e+02   7.0959304394e+01    0.3077663    0.1538764   0.49  0.001665491    2.122    0.529
        29  -9.4873    182.7298      7.6525   6.2359608064e+01   3.8150041846e+01    0.1253576   0.08986443  42.19 0.0002109222    1.621    0.383
        30 -10.5555     14.9803      5.9889   1.0664995279e+02   7.0678211067e+01    0.2186031    0.1748494  31.19  0.001228108    1.851    0.460
        31 -10.7850    114.8096      3.8945   7.2177837374e+01   5.4511018243e+01    0.2597495    0.2282232  55.91 0.0007136617    1.119    0.106
        32 -10.2433    139.4848      1.6916   6.6881511252e+01   4.9063004315e+01    0.2335173   0.09848725  65.14   0.00106069    1.962    0.490
        33  -8.7994    124.3051      1.2799   6.9428724563e+01   5.2594584565e+01    0.1304541   0.07733604  40.32 0.0001921925    1.553    0.356
        34 -10.9340     18.9256      4.0171   1.0389115898e+02   7.0538438866e+01    0.1889549    0.1266161  11.64 0.0003289734    1.262    0.207
        35 -10.4902      5.4505    226.3321   1.4918504735e+02   2.6677840829e+01    0.3021616   0.08831562  61.10   0.00132707    3.393    0.705
        36 -11.1287    246.5916    250.1083   1.0573343576e+02  -1.4409293406e+01    0.4235494    0.1565641  30.65  0.001945984    2.545    0.607
        37 -11.2217    250.4154    244.9403   1.0416631052e+02  -1.4298789689e+01    0.5692472      0.21561 -35.56  0.002740721    2.724    0.633
        38 -12.5510    231.0369    246.8489   1.0802262251e+02  -1.1718530960e+01    0.5820597    0.4865398  15.14  0.004002378    1.097    0.088
        39 -10.0235     72.6369    250.1227   1.3908647307e+02   1.3763719227e+01    0.1766127    0.1640592  32.00  0.001251823    1.565    0.361
        40  -9.3295     46.3089    250.3433   1.4378601254e+02   1.7321776513e+01   0.09752823   0.08774543 -58.33 0.0006222656    1.696    0.410
        41 -11.4650     14.2723    244.4070   1.4877569003e+02   2.2243889231e+01    0.4951209    0.1629233 -74.73  0.002573984    2.621    0.618
        42 -12.4876     21.2749    248.9769   1.4790332503e+02   2.0605258446e+01    0.7391781     0.282359  48.16  0.004201551    2.070    0.517
        43 -11.6767     27.8234    246.3403   1.4665455505e+02   2.0352670743e+01    0.4820532    0.2210651 -87.16  0.002736663    2.011    0.503
        44 -12.1818      7.2082    243.5676   1.4986997266e+02   2.3150098743e+01    0.6931478    0.3421168 -88.39    0.0044293    1.642    0.391
        45 -10.4299      1.4143    244.9819   1.5086221699e+02   2.3473651251e+01    0.1500681   0.07825273 -85.10 0.0003926258    1.532    0.347
        46 -11.3508     12.8295    238.5423   1.4866981644e+02   2.3523603275e+01    0.5637642   0.09979094  51.62  0.002316318    3.961    0.748
        47 -11.7164     19.3768    237.8229   1.4752981144e+02   2.2955715374e+01    0.5058408    0.2428791  56.94  0.002689942    1.678    0.404
        48 -10.0810     81.2376    224.5703   1.3484105371e+02   1.7551907535e+01    0.2523703    0.1505024 -89.11  0.001232785    1.863    0.463
        49 -10.9175    141.2122    221.5045   1.2187600035e+02   7.9835533772e+00      0.31903    0.2382352  20.32  0.001257549    1.663    0.399
        50 -10.9605    123.2760    221.5407   1.2569720211e+02   1.1212793941e+01    0.2963918    0.2348279  54.46  0.001000786    1.104    0.094
        51  -9.4734     51.4907    222.5559   1.4052988769e+02   2.2189209097e+01    0.1235173   0.09788435  76.06 0.0001354766    1.023    0.023
        52 -10.6348     13.1954    221.9452   1.4757101630e+02   2.6781152346e+01    0.1768183    0.1458137  63.71  0.000480693    1.288    0.224
        53  -9.8667    174.1326    219.9108   1.1465391090e+02   2.1755282782e+00    0.2100822    0.1798887  54.99 0.0006394919    1.216    0.178
        54  -9.8477     22.1518    220.3503   1.4585664207e+02   2.6160893699e+01    0.1540808   0.08327548  52.62 0.0004295954    1.613    0.380
        55  -9.7592    250.3322    219.0753   9.9552197652e+01  -1.0796500405e+01     0.175113    0.1389094 -13.61 0.0005309792    1.125    0.111
        56 -10.4712    191.5152    217.0090   1.1054074325e+02  -5.2479415588e-01    0.2404983    0.2069706 -21.50  0.001212015    1.236    0.191
        57 -10.9025      9.9935    217.0430   1.4781517056e+02   2.8107053644e+01    0.2760699    0.1567714  65.52  0.000834542    1.457    0.314
        58  -9.4791     37.9936    217.4876   1.4267490444e+02   2.4947871444e+01    0.1643992    0.1054299  46.33 0.0005113215    1.513    0.339
        59 -11.1539    234.9789    215.3021   1.0166787659e+02  -7.8258214252e+00    0.3754404    0.1810791 -30.32  0.001524037    2.164    0.538
        60 -10.0690     31.1059    215.8456   1.4384836198e+02   2.6101643930e+01    0.1945725    0.1283097  73.37  0.001235089    1.246    0.197
        61  -9.8218    201.5401    215.5488   1.0823447672e+02  -2.1000883144e+00    0.1389697    0.1196034  16.66 0.0006063087    1.062    0.058
        62  -9.5531    137.1735    215.6306   1.2182768392e+02   9.8878482303e+00    0.2039476    0.1234224  33.41 0.0009417708    1.725    0.420
        63 -10.0796    170.4890    213.4544   1.1430352438e+02   4.0468145798e+00    0.1421573    0.1271243  37.97 0.0002067774    1.008    0.008
        64  -9.4891    142.8071    213.3978   1.2025055680e+02   9.2895574718e+00    0.1971088    0.1259942  33.30 0.0005693117    1.606    0.377
        65 -11.0524     20.7623    211.7086   1.4547020355e+02   2.8113669519e+01    0.3096047    0.1627229  72.01  0.000945196    1.716    0.417
        66  -9.5413    218.4804    206.9946   1.0325653562e+02  -3.6949098766e+00    0.1933745    0.1109653 -14.84 0.0008094262    2.519    0.603
        67 -12.1271      4.1925    207.8111   1.4824922714e+02   3.0575316355e+01    0.4618412    0.2774522 -89.99  0.003054527    1.275    0.216
        68  -9.5836    212.8760    211.8885   1.0528792017e+02  -3.5158997301e+00    0.1695829    0.1624386  58.12 0.0005000447    1.312    0.238
        69  -9.7977    175.1934    202.3979   1.1130134581e+02   5.2448180005e+00    0.2071875    0.1273694  50.39 0.0005435794    1.643    0.391
        70  -9.2242    238.3617    201.3112   9.8360454611e+01  -6.1967121433e+00    0.1412534   0.09407477   4.29 0.0003751069    1.749    0.428
        71 -10.0121    222.9802    201.0128   1.0122247694e+02  -3.4922186258e+00    0.2926112     0.210763 -88.35  0.001227597    3.356    0.702
        72 -10.1726    210.9711    201.5033   1.0368511300e+02  -1.4052724461e+00    0.1899856     0.120299  62.05  0.000809466    2.530    0.605
        73 -10.2875    208.9647    212.0839   1.0610218390e+02  -2.8512485409e+00    0.2080898    0.1831537  15.29 0.0004568341    1.007    0.007
        74  -9.7243     19.6447    200.6866   1.4481815011e+02   3.0585881893e+01    0.1096099   0.08245531 -51.50 0.0003068608    1.737    0.424
        75 -10.0340    227.0049    196.9745   9.9652383703e+01  -3.5272439572e+00    0.2121789     0.184644   3.35 0.0006751122    1.041    0.039
        76 -11.2994    192.7027    195.1577   1.0619128417e+02   3.2074077411e+00    0.3363542     0.244181 -47.83  0.001697321    1.512    0.339
        77  -9.2756     56.6467    197.7148   1.3693158786e+02   2.6914475943e+01    0.1172881    0.1000677 -36.68 0.0007020727    1.665    0.399
        78  -9.6716    202.8740    196.0986   1.0426735381e+02   1.0722801830e+00    0.1993884    0.1618289   5.05  0.000743916    1.303    0.232
        79 -10.1818    184.3329    208.9669   1.1057227877e+02   2.2515987623e+00    0.2545588    0.1862472  16.55 0.0008199562    1.550    0.355
        80 -10.4748    215.3835    194.7365   1.0147575353e+02  -1.0358849289e+00    0.2396605    0.1670672 -26.65 0.0006111412    1.482    0.325
        81 -10.6395    232.2997    191.3397   9.7522876456e+01  -3.5149569391e+00    0.2772681    0.1910177  -0.26  0.001390498    1.727    0.421
        82  -9.5048    250.3960    190.1767   9.3978045281e+01  -6.4137610813e+00    0.1804648    0.1150277 -43.57 0.0004894967    1.664    0.399
        83  -9.4197    246.3432    190.3021   9.4727281015e+01  -5.7611544783e+00      0.13851   0.09483922   2.27 0.0006213279    1.679    0.405
        84  -9.3330    205.5053    190.4499   1.0260521275e+02   1.6005425511e+00    0.1432875    0.1317846  12.73 0.0001796423    1.007    0.007
        85 -10.6270    225.6034    188.9958   9.8326427087e+01  -1.9119166958e+00    0.3240216    0.1777971   9.39  0.001086815    3.991    0.749
        86 -10.3855    167.8836    184.1018   1.0938477022e+02   1.0373214237e+01    0.4609034    0.2457439  63.29  0.001558907    3.217    0.689
        87  -9.4880     61.7737    184.9915   1.3425952806e+02   2.9138453775e+01    0.1813511   0.09927943 -67.85 0.0008815756    1.674    0.403
        88 -11.5440     16.0864    182.7752   1.4401321752e+02   3.4873239355e+01    0.4133295    0.2081215  87.85  0.002188902    1.870    0.465
        89  -9.5424    236.4729    182.4927   9.4950714267e+01  -2.7531581688e+00    0.1371688    0.1234765  -8.77 0.0008099612    1.017    0.017
        90 -10.1829      2.1474    180.1441   1.4665151942e+02   3.6678863048e+01    0.1917108    0.1381501  70.73 0.0005347725    1.241    0.194
        91 -11.1530    244.6115    177.9237   9.2533069078e+01  -3.4151191147e+00    0.3079034    0.1545395 -27.55  0.001327615    2.166    0.538
        92  -9.4722     36.1129    178.5108   1.3927275769e+02   3.3799207156e+01    0.1601715    0.1194663  44.12 0.0005175147    1.453    0.312
        93 -10.3692    200.1807    176.7930   1.0089387283e+02   5.2296102161e+00    0.2054738    0.1702175   3.05 0.0005691005    1.326    0.246
        94  -9.5532     70.2010    177.6128   1.3129818256e+02   2.9689295321e+01    0.1653405    0.1328873  27.55 0.0004868014    1.533    0.348
        95 -11.1342    224.2695    178.3560   9.6400154634e+01   2.1401310566e-01    0.2804565    0.2487087 -32.71 0.0004621088    1.129    0.114
        96  -9.7050     59.6081    171.7320   1.3299231936e+02   3.2541784847e+01    0.1929957    0.1159085 -78.63 0.0009460917    1.636    0.389
        97  -9.7205     74.6858    171.4250   1.2930147654e+02   3.0503695249e+01    0.1682641    0.1373884  28.04 0.0008146869    1.476    0.322
        98 -11.3143     12.6050    170.2687   1.4360782635e+02   3.7994177155e+01    0.2913056    0.1453074  86.36  0.001164141    1.983    0.496
        99  -9.8853      4.5251    168.0055   1.4514693919e+02   3.9172518788e+01     0.189808   0.09079865 -75.48  0.001043044    1.624    0.384
       100  -9.6704    209.8689    166.3825   9.6690977085e+01   5.2691813788e+00    0.2052122    0.1343593  32.41 0.0005047449    1.641    0.391
       101 -10.6541     41.4956    165.9433   1.3654545433e+02   3.6125971399e+01    0.1988381    0.1106113 -70.57 0.0006532852    1.548    0.354
       102  -9.6769     36.0282    166.0136   1.3784646919e+02   3.6709664206e+01     0.237853    0.1483977 -66.87 0.0003729725    1.364    0.267
       103 -10.3702     36.2900    162.6738   1.3737424998e+02   3.7463951370e+01    0.2541249    0.1584865  83.81 0.0007896431    1.652    0.395
       104 -10.4216     37.0878    158.1499   1.3660669061e+02   3.8442661709e+01    0.2875474     0.156513 -67.58            0    1.543    0.352
       105 -10.5266     51.5457    164.5899   1.3394760272e+02   3.5264651842e+01    0.4445531    0.2328454 -34.20  0.001727971    3.652    0.726
       106 -10.2439     45.2848    164.5722   1.3546138176e+02   3.6016149233e+01    0.2860887    0.1427681 -81.99  0.001274953    2.187    0.543
       107 -10.0564    196.5229    169.0051   1.0000133061e+02   7.5082585778e+00    0.2093924    0.1314882 -65.51 0.0008094628    2.506    0.601
       108  -8.8877    229.3045    164.6882   9.2558217336e+01   1.7251126775e+00    0.1366174    0.1139358 -74.89 0.0005137047    1.614    0.381
       109 -10.1262    246.5096    162.4788   8.8987573755e+01  -1.1045569237e+00    0.1372933    0.1239034 -24.60  8.11537e-05    1.033    0.032
       110  -9.5037    200.0990    162.7735   9.7899344930e+01   7.9979790119e+00    0.1943813    0.1231912  46.89  0.000578435    1.596    0.373
       111 -10.6887    247.9392    158.6769   8.7939468064e+01  -7.0317221488e-01    0.1900588    0.1795777  11.43 0.0009917027    1.116    0.104
       112  -9.8857    238.7013    158.4234   8.9501274327e+01   1.0585461205e+00    0.2520107    0.1652388 -18.66   0.00118281    1.792    0.442
       113  -9.9804     48.9745    159.0000   1.3379729887e+02   3.6904711617e+01    0.1976392   0.07559154  31.99 0.0008037816    2.952    0.661
       114 -11.1426     22.6441    155.6000   1.3977768892e+02   4.0460681869e+01    0.3821774     0.305029 -73.42  0.002534989    1.067    0.063
       115  -9.1970    235.6739    154.6854   8.9238295438e+01   2.3118550511e+00    0.1450801    0.1081612   0.70  0.000492427    1.668    0.401
       116  -9.3228    217.0135    155.0000   9.2788082862e+01   5.9871530314e+00    0.2423927   0.08400486  46.66  0.000808011    2.981    0.665
       117  -9.8361    197.0078    153.7563   9.6537292018e+01   1.0465211903e+01     0.207477    0.1286767  46.02 0.0008906693    1.622    0.384
       118  -9.3667    151.6741    153.3328   1.0665865258e+02   2.0487992278e+01    0.1637996    0.1250715  85.50 0.0005949208    1.712    0.416
       119  -8.9712     31.2874    153.2615   1.3739620053e+02   4.0186226496e+01    0.1177782   0.08657817 -46.85 0.0001998434    1.490    0.329
       120 -10.5151     10.4348    152.6867   1.4234039592e+02   4.2164777219e+01    0.3046444    0.1539906  39.95  0.001704539    2.181    0.542
       121  -9.8134    205.3273    152.3327   9.4506262577e+01   8.9603365337e+00    0.1566438    0.1187461   2.68 0.0005108835    1.715    0.417
       122 -10.3291    178.2018    151.4512   1.0007456667e+02   1.5069155457e+01    0.3371779    0.2763604  76.22  0.001604514    1.457    0.314
       123 -10.3217    207.0001    146.0345   9.2743276710e+01   9.8464698822e+00    0.2292193    0.2231007  -5.01 0.0006407304    1.026    0.026
       124 -10.2394      2.9595    144.0422   1.4319593193e+02   4.4677007741e+01    0.1892317    0.1097825 -51.27  0.001127054    1.685    0.407
       125 -10.7780      8.8034    144.9859   1.4189425441e+02   4.4044613381e+01    0.1864311    0.1743108  66.32  0.001394635    1.275    0.216
       126  -9.9691     49.4456    141.9215   1.3108904419e+02   4.0926018956e+01     0.204523    0.1677246 -44.84 0.0003803895    1.289    0.224
       127  -9.3291     38.3743    142.2587   1.3407329084e+02   4.2062714191e+01     0.125955   0.09113675 -35.75  0.000697424    1.656    0.396
       128 -10.6178    236.5359    138.9442   8.5643644494e+01   5.0128007324e+00    0.2472389    0.2130555  49.89 0.0003888332    1.262    0.207
       129 -10.4655     56.9966    138.1033   1.2840217729e+02   4.0928688677e+01    0.5027031    0.2777789  70.02  0.002032995    2.925    0.658
       130  -9.0497     16.6373    139.6784   1.3932948169e+02   4.4656580893e+01    0.1270211   0.07674482 -44.47 0.0007041332    1.780    0.438
       131 -11.2006      2.7770    137.5913   1.4254525378e+02   4.6144881956e+01    0.3907912    0.1236016 -66.48 0.0006293433    2.247    0.555
       132 -12.0544      9.2679    136.6722   1.4082312919e+02   4.5904867691e+01    0.2488879    0.2120793 -36.10 0.0001554328    1.411    0.291
       133 -10.4887      5.7068    133.7042   1.4137004267e+02   4.6827140249e+01    0.2091702    0.1298911 -62.20 0.0005480192    1.285    0.222
       134 -10.3413     40.4573    135.4795   1.3247344151e+02   4.3448720336e+01    0.2077988    0.1967605  86.90 0.0008367092    1.142    0.124
       135 -10.6661     22.0714    135.5136   1.3738480296e+02   4.5172979032e+01    0.3566816    0.2328124 -72.51  0.002111074    1.267    0.211
       136  -9.9131    138.0200    135.4603   1.0591153349e+02   2.7497429832e+01     0.245137    0.1550321  41.73   0.00102375    1.594    0.373
       137  -9.5242     79.7029    133.3143   1.2117940664e+02   3.8921235273e+01    0.1446782    0.1094191  81.19 0.0003731916    1.604    0.377
       138 -11.8530     36.7592    130.6200   1.3270552280e+02   4.4969760879e+01    0.3473157    0.3336522 -69.81  0.001795766    1.150    0.131
       139  -9.5470    123.6830    131.2912   1.0863827721e+02   3.1471636057e+01    0.1572357    0.1229895  82.03 0.0003074043    1.598    0.374
       140 -10.1220     74.0118    129.3628   1.2197309273e+02   4.0715743075e+01    0.2475274    0.1822994 -48.01 0.0008092587    1.289    0.224
       141  -9.7538    249.2144    129.6000   8.1493056905e+01   4.1821145851e+00    0.1816894    0.1313729  37.86 0.0009176816    1.604    0.377
       142  -9.4536    243.1743    128.3865   8.2199384374e+01   5.5942235010e+00    0.1776243    0.1362007  68.26  0.000423517    1.564    0.361
       143  -9.8384     60.0272    127.0129   1.2550089681e+02   4.3187705848e+01    0.2034833    0.1843892 -60.36  0.000361911    1.024    0.023
       144 -10.7407      1.8207    125.8071   1.4142338410e+02   4.8856135034e+01    0.3589297    0.1155875 -63.62  0.001556373    2.165    0.538
       145 -10.2452    219.8030    124.6544   8.5370620378e+01   1.1201937634e+01    0.2466091    0.1971697 -31.47 0.0006434562    1.266    0.210
       146  -9.5836     20.2680    121.5818   1.3586836359e+02   4.8529283783e+01    0.1489298    0.1163885 -12.66 0.0009442016    1.631    0.387
       147 -11.2029     10.3712    122.7798   1.3876277656e+02   4.8983643763e+01    0.2597495    0.1933206 -75.98  0.001315571    1.135    0.119
       148 -12.0789     18.7254    115.1725   1.3531380746e+02   5.0106491791e+01    0.6866467    0.2012984 -47.28  0.002762038    3.084    0.676
       149 -12.3901     16.3770    108.5619   1.3493366147e+02   5.1765678533e+01    0.4080151    0.3113601   2.23  0.002680258    1.650    0.394
       150 -10.5654     86.1146    116.6206   1.1564146097e+02   4.1837875573e+01    0.2375919    0.1890969 -61.78 0.0004564453    1.257    0.204
       151  -9.7635    179.3014    116.5754   9.1436133686e+01   2.2133939966e+01    0.2100563    0.1496342  41.03 0.0004901866    1.473    0.321
       152 -11.5859     36.0352    111.0389   1.2949191756e+02   4.9575369066e+01    0.5176011    0.2661585 -58.52  0.001772308    1.598    0.374
       153  -9.7077     66.5170    112.8985   1.2063101169e+02   4.5631566151e+01    0.2011802    0.1269489 -57.08 0.0003568878    1.459    0.314
       154  -9.7805    248.5191    112.5004   7.7874650266e+01   7.3356325538e+00    0.1393697    0.1254177 -46.08 6.442474e-05    1.031    0.030
       155  -8.8531    212.5342    112.4774   8.3823235534e+01   1.5141726999e+01    0.1495786    0.1428221 -58.55 0.0005843245    1.010    0.010
       156 -10.1326    241.9879    108.1716   7.7910154522e+01   9.4454730329e+00    0.2288897    0.1584185 -84.71 0.0006824195    1.961    0.490
       157 -11.3829     23.8587    106.8981   1.3241106414e+02   5.1574269128e+01    0.3199131    0.2525131  78.60  0.002027874    1.507    0.336
       158 -10.8867      3.7814    100.7579   1.3743012738e+02   5.4286769470e+01    0.2863418    0.2214365 -89.85  0.001148045    1.391    0.281
       159  -9.9654      6.4815    106.4743   1.3751181249e+02   5.2878231947e+01    0.2411616    0.1416472 -64.60  0.001451771    1.313    0.238
       160 -10.5944      2.9522    105.2757   1.3836096001e+02   5.3346767798e+01    0.3101872    0.1908439 -83.12  0.001627655    1.624    0.384
       161 -10.6692     62.0230    107.1006   1.2069102477e+02   4.7553921938e+01    0.2042845    0.1797829 -44.64 0.0003486228    1.027    0.026
       162 -10.5640    243.4944    104.4826   7.6862986427e+01   9.7767562139e+00    0.1401799    0.1274921 -51.12 0.0008101548    1.035    0.034
       163  -9.9498    223.2288    103.9001   7.9931907650e+01   1.4299893068e+01    0.2246245    0.1859859 -64.20 0.0005508163    1.206    0.171
       164  -9.8394     91.6805    101.2895   1.1013302532e+02   4.4349357023e+01    0.2582047    0.1867691 -80.02 0.0003245136    2.040    0.510
       165 -10.5174     10.4993    102.6651   1.3571966323e+02   5.3468638210e+01    0.2764504    0.1745607  59.07  0.001596153    2.145    0.534
       166 -11.0403     69.8238    102.4292   1.1715164431e+02   4.7542767673e+01    0.3163246    0.2497817  20.92 0.0007496085    1.402    0.287
       167 -10.5131    247.9819    102.4886   7.5763526180e+01   9.1868076401e+00    0.1984249    0.1375787  59.10 0.0006839364    1.578    0.366
       168 -10.5711     35.6493    101.2816   1.2768735624e+02   5.1809452962e+01    0.2207372    0.1950183  26.21  0.001121494    1.328    0.247
       169 -10.3597     27.8296    101.0224   1.3009552316e+02   5.2560433877e+01    0.2155595    0.1480276 -41.53 0.0002327478    1.327    0.246
       170  -9.7555    119.8511    101.3966   1.0200868275e+02   3.8922793158e+01    0.2229608     0.142705  32.11 0.0009451772    1.746    0.427
       171 -10.8773     63.2134     98.8895   1.1836765985e+02   4.9232484672e+01    0.4485166      0.32426  12.01  0.002391286    1.644    0.392
       172  -9.1021     84.6663    100.3075   1.1200772253e+02   4.5745129894e+01    0.1416087    0.1144666  81.30 0.0003709543    1.670    0.401
       173 -10.5870     21.6665    100.3196   1.3188803187e+02   5.3207701865e+01    0.1783465    0.1506562  73.32  0.001184941    1.437    0.304
       174 -11.2824     20.5163     97.0286   1.3163196522e+02   5.4016769741e+01    0.3241115    0.1700102 -72.44  0.001483881    1.974    0.493
       175  -9.5201     50.3975     99.2094   1.2254061617e+02   5.0740012014e+01    0.1767689     0.117228 -64.68 0.0003100386    1.533    0.348
       176 -10.3713      8.3184     94.6826   1.3504420577e+02   5.5341251568e+01    0.3129867    0.1443651 -34.89  0.001607081    2.322    0.569
       177 -10.8390     11.4704     91.1722   1.3341808761e+02   5.5903199779e+01    0.2995729    0.1845651   5.23  0.001808702    2.048    0.512
       178 -10.4926      1.7424     93.8472   1.3694807127e+02   5.5888728821e+01    0.3341887   0.08350114 -58.10  0.001482939    2.494    0.599
       179  -9.3826    227.4568     93.4779   7.6820562657e+01   1.5204537098e+01    0.1447931    0.1320022 -64.43 9.429368e-05    1.003    0.003
       180  -9.6223     47.9666     93.0508   1.2188834436e+02   5.2361884877e+01    0.1647811    0.1294604 -48.90 0.0007218688    1.105    0.095
       181  -9.7302    171.0141     91.2813   8.6634445188e+01   2.9119904967e+01    0.2272868    0.2050825  54.74  0.001167175    1.087    0.080
       182 -10.8564     96.6925     89.9270   1.0548754141e+02   4.5865042201e+01    0.3916501     0.245604 -13.00  0.001562972    2.551    0.608
       183 -10.4435     26.7645     90.8939   1.2838772568e+02   5.4862399721e+01    0.2615193    0.1596223   3.95 0.0008725277    2.091    0.522
       184 -10.1614     73.0546     88.7751   1.1257440037e+02   5.0025909205e+01    0.1868342    0.1821276 -80.56 0.0003721826    1.199    0.166
       185 -10.0052    103.5085     88.6163   1.0307318958e+02   4.4853557339e+01    0.2297603    0.1398336  41.39 0.0006117956    1.660    0.398
       186 -10.2366     40.4392     80.7845   1.2141326910e+02   5.5755665164e+01    0.3018752    0.1883857  53.39  0.001527661    2.486    0.598
       187 -11.3808     48.3501     85.2367   1.1983452453e+02   5.3986161535e+01    0.4463822    0.3472122  87.04 0.0009593333    1.904    0.475
       188 -10.0346     45.4354     87.4349   1.2136922581e+02   5.3842235947e+01    0.1829721    0.1723284  12.60 0.0004759718    1.205    0.170
       189 -10.7471      5.9410     87.4845   1.3452483730e+02   5.7015974542e+01      0.33904    0.1979889  55.21 0.0006628088    2.596    0.615
       190 -10.8301    117.8777     83.5070   9.7450707186e+01   4.2958371839e+01    0.2914468    0.2438836  18.48 0.0005580722    1.276    0.217
       191 -11.8136     19.3602     80.9915   1.2874884714e+02   5.7526701926e+01    0.5119888    0.3097948  12.26  0.003040786    1.975    0.494
       192 -10.9428     85.2621     80.7883   1.0637294743e+02   4.9715894774e+01    0.2952174    0.2246196 -30.83  0.001012696    1.272    0.214
       193 -10.7039     75.4390     79.7450   1.0923849371e+02   5.1508845935e+01    0.3292634     0.188801 -36.59  0.001067061    1.694    0.410
       194 -11.8562     71.8531     78.7183   1.1012185709e+02   5.2256391501e+01    0.5086403    0.3193474 -11.53  0.001250372    2.220    0.550
       195 -10.0068      2.5001     71.9727   1.3269031168e+02   6.0403325390e+01     0.273972    0.1089344 -43.05  0.001183822    1.969    0.492
       196 -11.9085      3.5476     77.9737   1.3352958642e+02   5.9128431938e+01    0.3591346    0.3189228 -39.63  0.001085633    1.176    0.150
       197 -10.9398      7.7322     73.5756   1.3118769716e+02   5.9797836147e+01    0.3114952    0.1984623  -1.05  0.001992792    1.846    0.458
       198 -10.9301    150.3264     77.7585   8.7483204987e+01   3.6639381872e+01    0.2992084    0.2591053 -61.56 0.0006203475    1.254    0.202
       199  -9.3778     81.2955     79.0050   1.0711395312e+02   5.0725448284e+01    0.1887726    0.1635745 -28.72 0.0002916891    1.074    0.069
       200 -11.5771     58.2352     75.3404   1.1375953677e+02   5.4817479279e+01    0.4011054    0.3103192  80.06  0.001890142    2.210    0.548
       201 -12.1152     62.4703     72.0330   1.1132564352e+02   5.4902717044e+01    0.3896844    0.3094491 -45.94 0.0006065934    1.252    0.201
       202  -9.5675    121.5383     76.4787   9.4340589990e+01   4.3492421133e+01     0.147542    0.1412342  20.23 0.0002718946    1.002    0.002
       203  -9.1174    132.9852     74.9954   9.0885598410e+01   4.1206836697e+01    0.1711265    0.1666002 -10.91 0.0003173059    1.054    0.051
       204 -11.1519     40.3286     72.8653   1.1937573466e+02   5.7373781588e+01    0.3060472    0.2394578 -57.59 0.0008157959    1.351    0.260
       205 -10.9458     46.0833     74.5477   1.1778852310e+02   5.6427623096e+01    0.3243499    0.2025784   6.29  0.001004966    1.948    0.487
       206 -12.0517     49.4253     69.3735   1.1513334985e+02   5.7065166695e+01    0.4852493    0.3183845 -13.76  0.002594071    1.713    0.416
       207 -10.5769     51.6569     62.5027   1.1226211525e+02   5.8096523602e+01    0.2937678    0.1871098 -26.68  0.000935781    1.508    0.337
       208  -9.7299    219.7353     73.9512   7.3431303703e+01   2.0307829366e+01    0.1946932     0.170394 -60.29 0.0003064532    1.072    0.067
       209 -10.3797    145.1279     71.9877   8.7020934931e+01   3.8895312288e+01    0.3285144     0.187095 -52.25  0.001097096    2.115    0.527
       210 -10.3442    102.7659     73.1539   9.8653825400e+01   4.7979045707e+01    0.2028244    0.1633056   7.85 0.0006040716    1.345    0.256
       211 -10.6202     27.5622     71.4724   1.2360648281e+02   5.8834692225e+01    0.4400219     0.174275 -62.81  0.001855657    2.988    0.665
       212 -10.7305     16.9175     72.4853   1.2768634454e+02   5.9441149996e+01    0.2278474    0.1628442 -67.39 0.0008349699    1.477    0.323
       213 -10.1864     16.3594     67.3075   1.2665452032e+02   6.0512101448e+01    0.2495458    0.2029345  76.13  0.001436996    1.838    0.456
       214 -10.5555     21.4066     66.0001   1.2446266309e+02   6.0405437420e+01    0.2435638    0.1887445   8.76    0.0012063    1.427    0.299
       215  -9.6734    244.7029     72.6926   6.9699784716e+01   1.4850185356e+01     0.122974    0.1090684  14.86 0.0003103876    1.590    0.371
       216 -10.4486    175.0879     71.6908   8.0500568791e+01   3.1602248778e+01    0.2624978    0.2174339 -33.07  0.000543164    1.307    0.235
       217 -11.1264     78.1516     71.9793   1.0601043599e+02   5.2586225517e+01    0.3737013    0.1906358  44.48  0.001121255    2.199    0.545
       218  -9.5711    140.6752     71.6671   8.7987390046e+01   4.0005444264e+01    0.1562766    0.1159396  17.44 0.0007050933    1.709    0.415
       219 -11.4519     95.3741     67.3772   9.9067520233e+01   5.0432541806e+01    0.5515568    0.3139407 -30.54  0.002505592    1.866    0.464
       220 -11.2842     68.6729     67.5705   1.0782619295e+02   5.4868539008e+01    0.3707925    0.1913117 -40.65 0.0009767762    1.802    0.445
       221 -11.0733    157.9119     67.0132   8.2706807676e+01   3.6633684482e+01     0.409722    0.2294377 -26.57   0.00167168    2.194    0.544
       222 -10.9419     31.1288     66.2571   1.2092532501e+02   5.9553077727e+01    0.2804153    0.1755068 -52.99 0.0008357242    1.454    0.312
       223  -9.9520    131.4824     68.5169   8.9311558177e+01   4.2678324958e+01    0.1474224    0.1403394  39.09 0.0008101449    1.015    0.014
       224 -11.8419      4.4128     65.2971   1.3057011862e+02   6.1632777730e+01    0.4529063    0.3180433  72.09  0.002123922    2.371    0.578
       225  -9.6276     81.2994     67.6150   1.0360969381e+02   5.2879320603e+01     0.131966    0.1108726 -79.85 0.0007018365    1.779    0.438
       226  -9.6291    146.7019     65.9650   8.4881136129e+01   3.9531243035e+01    0.1985117    0.1860846 -39.73 0.0002455845    1.129    0.114
       227 -10.5194     77.1045     65.5231   1.0432734668e+02   5.3944299216e+01    0.2417674    0.1967924  50.49   0.00137413    1.509    0.337
       228  -9.6533    119.4677     65.5177   9.1521836397e+01   4.5866608981e+01    0.1467952    0.1344133  20.55 5.065072e-05    1.051    0.049
       229 -10.5104    121.9144     61.8157   8.9704290849e+01   4.5943004698e+01    0.2794343    0.2105049  17.40 0.0006858234    1.524    0.344
       230 -10.2422    106.4137     64.1586   9.4739367667e+01   4.8839065410e+01    0.3339905    0.1239624 -46.14  0.001155146    3.216    0.689
       231 -11.5405     83.6563     62.3412   1.0114069165e+02   5.3417668869e+01    0.3756712    0.3469892  54.79  0.001405663    1.342    0.255
       232  -9.9026    174.0621     63.8157   7.8553300925e+01   3.3144357263e+01    0.2239705    0.1890207  87.74 0.0004799586    1.217    0.179
       233  -9.8503    130.0025     64.2036   8.8363210920e+01   4.3737299375e+01     0.194594    0.1872504  23.50            0    1.032    0.031
       234  -9.8251     41.6447     64.1117   1.1642329789e+02   5.8937012031e+01    0.1714605    0.1351803 -31.41  0.000466865    1.055    0.052
       235 -11.2295     56.5572     61.9005   1.1029984306e+02   5.7589361924e+01    0.3371467    0.2148072 -16.86 0.0004260737    1.734    0.423
       236 -10.9812     10.8798     62.4609   1.2750455981e+02   6.1815733233e+01    0.2247768    0.1915086 -27.04  0.000412923    1.153    0.132
       237  -9.0747    202.3129     62.3465   7.3285835364e+01   2.6359485760e+01     0.142616    0.1130479  26.41 0.0007046656    1.714    0.416
       238 -10.6741    180.9960    248.5340   1.1789371224e+02  -3.8428394774e+00    0.2830313    0.1287298 -31.75  0.001189643    3.315    0.698
       239 -11.3164     27.1972     61.3622   1.2104655636e+02   6.0835127635e+01    0.3675486    0.1849505  15.32  0.001958068    2.304    0.566
       240 -11.6867     33.5872     59.7676   1.1816412780e+02   6.0561566678e+01    0.2587775    0.1942395 -14.12 0.0003311412    1.250    0.200
       241 -10.9471     36.2134     68.1464   1.1957284422e+02   5.8712083924e+01    0.3728435    0.2201406 -22.24  0.002009231    1.834    0.455
       242  -9.7804     93.0136     61.2292   9.7805036580e+01   5.1936343390e+01    0.1900084     0.170167  11.38 0.0003619773    1.028    0.027
       243 -10.9585     64.4526     59.8436   1.0682692567e+02   5.6880148566e+01     0.338637    0.1813146  34.56  0.001036636    1.921    0.480
       244 -10.9250     70.1290     58.6220   1.0444596263e+02   5.6254832423e+01    0.4221534    0.2605066 -38.42  0.002225128    1.539    0.350
       245  -9.7372     18.0232     59.0867   1.2392435838e+02   6.1985481751e+01    0.1601786     0.138373 -88.08 0.0006455746    1.679    0.404
       246 -10.2588    137.0159     57.9306   8.4716419176e+01   4.3114194927e+01    0.2155969    0.1978685  37.79            0    1.040    0.039
       247 -11.1989    123.1542     56.7207   8.7765753749e+01   4.6477065431e+01     0.301411    0.2518852 -71.10  0.000906955    1.537    0.349
       248 -10.2080    113.0284     57.6488   9.0765667697e+01   4.8534992329e+01     0.359365    0.1527043  43.01  0.001410587    2.248    0.555
       249 -10.4707     44.2498     57.3648   1.1339879086e+02   5.9900288110e+01    0.2276581    0.2059331  24.54  0.000593157    1.339    0.253
       250 -10.4831     86.4422     58.4997   9.8973069385e+01   5.3586362952e+01    0.2884206    0.2364683 -39.33 0.0006542513    1.298    0.229
       251 -10.8264    101.2921     55.7519   9.3487065858e+01   5.1244393306e+01    0.5615726    0.2038921  46.73  0.002111049    2.661    0.624
       252 -11.9550    128.0361     51.5010   8.4875950795e+01   4.6162999128e+01    0.4112291    0.3119473 -21.18 0.0004891029    1.454    0.312
       253 -11.1584      5.4061     52.8016   1.2717605924e+02   6.3969386073e+01    0.3345338    0.1652366 -28.05  0.001944299    1.900    0.474
       254 -10.0736     87.1485     52.5073   9.6722572859e+01   5.4434474534e+01    0.1930946    0.1841924  36.31 0.0009454372    1.235    0.190
       255 -10.9467     13.1599     50.4324   1.2344795920e+02   6.3929904406e+01    0.5437388    0.1888426 -54.35  0.002362751    2.416    0.586
       256 -11.6403     10.3559     44.5389   1.2288820961e+02   6.5170367964e+01    0.6002995    0.2662621 -20.23  0.003045871    2.653    0.623
       257 -11.5327      7.0136     40.9896   1.2323115582e+02   6.6001642316e+01     0.334626    0.1217945 -48.60 0.0004683628    2.029    0.507
       258  -9.5763    157.5210     52.0846   7.8488012502e+01   3.9041900292e+01    0.1999118    0.1459176 -33.20 0.0003541836    1.495    0.331
       259 -11.0876     51.6926     48.6589   1.0772880355e+02   6.0519446239e+01    0.2626985    0.2053403  69.96 0.0008354514    2.581    0.613
       260  -9.0717    250.3357     51.7400   6.4581043683e+01   1.6824581921e+01    0.1344414   0.08515175 -72.89  0.000329155    1.577    0.366
       261 -10.7315    114.5467     49.3210   8.7625941525e+01   4.9477267479e+01    0.3408073    0.2578399 -16.23  0.001818835    1.438    0.305
       262 -10.5012     72.4762     51.2326   1.0113571209e+02   5.7124898641e+01     0.376283    0.1685397  32.05  0.001653609    2.344    0.573
       263 -10.4574     76.5207     50.5063   9.9509683560e+01   5.6586055714e+01    0.1885188    0.1158219  26.08 0.0007242478    1.662    0.398
       264  -9.6454    107.9363     48.7150   8.9226881853e+01   5.0966154476e+01    0.1910724    0.1571453  37.16 0.0001799239    1.117    0.105
       265 -11.0096    101.8617     48.0216   9.0716169694e+01   5.2310767229e+01    0.4630378    0.2917897  21.99  0.001412045    1.852    0.460
       266  -9.4970    196.8400     48.1698   7.0584080553e+01   2.9821279716e+01    0.1780407    0.1586905  47.75 0.0002439633    1.264    0.209
       267 -10.8010    154.4968     48.5239   7.8061047035e+01   4.0295441105e+01    0.2548444    0.1664849 -73.68  0.001102395    2.223    0.550
       268 -10.9864    142.6508     46.0913   7.9812184969e+01   4.3508551584e+01    0.2863938    0.2483933 -54.07 0.0007157789    1.291    0.225
       269 -10.2905     69.4698     46.1166   1.0038206531e+02   5.8407040171e+01    0.2083364    0.1910881  12.85 0.0007264725    1.193    0.162
       270  -9.8337     62.7782     47.2081   1.0314014105e+02   5.9244576111e+01    0.1769848    0.1289196  -3.26 0.0004570473    1.343    0.255
       271  -9.5390     22.8311     46.4107   1.1833606364e+02   6.3924757649e+01    0.1477425     0.105266   8.78 0.0005182488    1.438    0.305
       272  -9.8458     32.1633     34.1046   1.1029914627e+02   6.5092176305e+01    0.2502425     0.143148  26.52  0.001510375    1.799    0.444
       273 -11.2117     23.9644     42.0615   1.1647368906e+02   6.4576000941e+01    0.2532619    0.1868001 -26.01 0.0006203271    1.055    0.052
       274  -9.5886     28.7157     40.7301   1.1406676696e+02   6.4370968318e+01    0.1614698    0.1252593  -4.99 0.0004290835    1.157    0.136
       275  -9.9797     19.7552     38.0028   1.1688835235e+02   6.5606280738e+01    0.1842033    0.1356845 -18.06 0.0006713406    1.106    0.096
       276 -11.5668     25.2182     35.5713   1.1374082802e+02   6.5532848825e+01    0.3587795    0.2225846  23.59  0.001531808    1.702    0.413
       277  -9.2225    233.2910     45.3080   6.5115368656e+01   2.1530415989e+01    0.1198309    0.1040683  36.53 0.0003792542    1.579    0.367
       278 -10.9960    123.0725     44.1296   8.3729967297e+01   4.8332344709e+01    0.4101545    0.3417253 -27.22  0.001726202    1.293    0.227
       279  -9.7989    119.9793     39.1725   8.2869133584e+01   4.9684692675e+01    0.1965163    0.1854032 -80.66 0.0004581225    1.266    0.210
       280 -10.6848     86.4318     44.9096   9.4306801804e+01   5.5721161962e+01    0.2646074    0.1385347  35.63 0.0007133484    1.845    0.458
       281  -9.5829     99.1395     43.8591   9.0075316222e+01   5.3453804820e+01    0.1834562    0.1442001  14.30 0.0003034546    1.260    0.207
       282 -10.8067    163.0780     42.3878   7.4640887376e+01   3.9018883953e+01    0.2295894    0.2044468 -50.49 0.0003467553    1.212    0.175
       283 -10.2388     64.2520     41.5458   1.0058225154e+02   5.9902798057e+01    0.2530743    0.1793472 -31.22  0.001258911    1.355    0.262
       284 -10.1581    137.0333    247.7022   1.2647697931e+02   3.8869735120e+00    0.1855763     0.146083  45.73 0.0004624981    1.063    0.060
       285 -10.3376    226.3620     40.2273   6.4799307407e+01   2.3831844558e+01    0.2381014    0.1872633 -88.18 0.0004272373    1.123    0.109
       286 -11.4312     95.4879     39.7215   8.9697580063e+01   5.4745605092e+01    0.3356613    0.3241698  33.26   0.00169388    1.215    0.177
       287  -9.3248    235.5829     40.5660   6.3830525060e+01   2.1670061170e+01    0.1302286    0.1111098 -78.90 0.0002195348    1.041    0.039
       288 -10.6885    135.7644     38.0728   7.8834127311e+01   4.6206264911e+01    0.3352713    0.1901054 -27.32  0.001559705    1.992    0.498
       289 -10.5257     89.6672     39.8772   9.1506941094e+01   5.5838985220e+01    0.2545172    0.1554588 -55.85  0.001127323    2.897    0.655
       290  -9.8804     44.1063     39.4253   1.0739615481e+02   6.2941156105e+01    0.2290295    0.1396236 -48.65   0.00101695    1.957    0.489
       291 -10.0419      1.4846     37.9367   1.2467455578e+02   6.6847223279e+01    0.1715439   0.08999038 -40.21 0.0003724011    1.391    0.281
       292  -9.5172    102.0024     36.9749   8.6856520069e+01   5.3809016876e+01    0.1685508    0.1367681  37.60 0.0007349392    1.108    0.097
       293 -10.3790    146.0465     35.9354   7.6020275205e+01   4.4022040737e+01    0.2229284     0.151637  33.64 0.0005943408    1.623    0.384
       294 -10.1190     56.8386     35.8501   1.0118596434e+02   6.1821749584e+01    0.1919422    0.1403169  -7.04  0.000912157    1.235    0.190
       295 -11.3195     70.3445     36.4400   9.6553315199e+01   5.9692714785e+01    0.4283963    0.2417958  -8.90  0.001310825    2.334    0.572
       296  -9.6834    111.1440     34.9629   8.3693899969e+01   5.2151353696e+01    0.1825611    0.1756476  73.13 0.0004085777    1.233    0.189
       297 -10.0577    106.0935     34.2235   8.4773353883e+01   5.3313443099e+01     0.237664    0.1748403 -60.79  0.001119635    2.037    0.509
       298  -8.9780    142.2847     36.2961   7.6895696264e+01   4.4881504813e+01    0.1394504   0.09897384  31.53 0.0002677144    1.545    0.353
       299 -11.2094      2.2006     32.0801   1.2256812540e+02   6.7798289960e+01    0.2488886    0.2191673  38.06  0.001977027    1.749    0.428
       300  -9.6380    129.5215     33.0309   7.8616337478e+01   4.8285301918e+01    0.1857664    0.1372671 -22.22 0.0004808387    1.519    0.342
       301 -10.5730     97.4831     32.2337   8.6451878397e+01   5.5321204598e+01    0.3368734    0.1608669  25.18  0.001303235    3.092    0.677
       302 -10.1305      9.4041     33.2055   1.1975552864e+02   6.7165125484e+01    0.1692894   0.08753955 -45.86 0.0006325665    1.578    0.366
       303 -11.2845    224.7639    247.0997   1.0923395329e+02  -1.0794114465e+01     0.475937    0.1912685 -29.42  0.002098542    3.066    0.674
       304 -10.0002      8.1546     21.1686   1.1609480985e+02   6.9144771069e+01    0.1799729    0.1374338 -39.58 0.0003832613    1.387    0.279
       305 -10.5955      3.3227     20.6927   1.1818076266e+02   6.9543142501e+01    0.1945688    0.1351598 -47.39 0.0009927138    1.540    0.350
       306  -9.9080      5.0000     18.0039   1.1638968040e+02   6.9835847956e+01    0.2509426    0.1066405 -44.34  0.001395049    1.950    0.487
       307 -10.0816    178.8640     31.7913   6.9089509394e+01   3.6450292919e+01    0.2304306    0.1836245 -64.06 0.0003735799    1.307    0.235
       308  -9.4481    157.0418     32.3702   7.2874946805e+01   4.1778950375e+01    0.2373522    0.1128858  84.87 0.0007031878    4.644    0.785
       309  -9.6683     90.0091     31.7126   8.8446492162e+01   5.6845260507e+01    0.1775476    0.1468804  30.90 0.0002447638    1.079    0.074
       310  -9.1391    119.6758    247.6755   1.2989333219e+02   6.8387873434e+00    0.1188062     0.099648  11.38 0.0002750448    1.687    0.407
       311 -10.1239     56.4998     41.5495   1.0341645111e+02   6.1018723038e+01    0.2558073    0.1118814 -40.31  0.001216313    2.212    0.548
       312 -10.1671    124.8785     27.8857   7.7990288691e+01   4.9949770668e+01    0.2011327    0.1560267  35.90 0.0002638084    1.207    0.172
       313 -10.7560     44.7721     51.9590   1.1146224815e+02   6.0796883203e+01    0.2357618     0.184687 -27.20 0.0003312866    1.081    0.075
       314 -10.2484     50.2848     27.3542   1.0040634051e+02   6.3915040213e+01    0.2742382    0.1306532 -22.27   0.00134768    2.293    0.564
       315 -10.7505     54.1702     23.4235   9.7352055807e+01   6.3887885925e+01    0.2374145    0.1866296  18.50 0.0004937603    1.145    0.127
       316  -9.8555    128.0077    249.5278   1.2848977138e+02   5.1058992368e+00    0.1834945    0.1662473 -87.07  0.001221514    1.238    0.192
       317 -10.3625    156.6111    246.1791   1.2237531090e+02   7.5347101162e-01    0.1586178    0.1240808 -32.25 0.0004603118    1.610    0.379
       318  -9.5935    115.5145    244.5074   1.3032564342e+02   8.1128964785e+00    0.1309724    0.1068318  57.00 8.639268e-05    1.000    0.000
       319 -10.4820     27.2750     19.5590   1.0678073262e+02   6.7711813826e+01    0.1893106    0.1462139  10.93 0.0009842687    1.248    0.199
       320 -10.1076    110.0401    243.1549   1.3124177398e+02   9.2729974094e+00    0.2465666    0.1502817  77.94  0.001236372    2.076    0.518
       321 -11.6295     74.0920    238.0708   1.3767185158e+02   1.5880687312e+01     0.569998    0.3198551  55.12  0.003175451    1.496    0.332
       322  -9.4546    131.2814     26.6868   7.6199534356e+01   4.8610762627e+01    0.2094707    0.1546419  54.79 0.0005284291    1.183    0.154
       323 -10.1043    129.3103     23.6647   7.5649973098e+01   4.9396959705e+01    0.1981062     0.182229  82.13 0.0006403771    1.208    0.172
       324 -10.0437     90.2467     26.5744   8.6483314020e+01   5.7419331217e+01    0.2601726    0.1742729  65.33  0.001100646    2.105    0.525
       325 -11.0583     70.4694     25.8997   9.2489513620e+01   6.1054142232e+01    0.4863794      0.19991  36.55  0.002251652    2.270    0.559
       326 -11.2753     60.8747     23.6300   9.4956813790e+01   6.2867286060e+01    0.3792037    0.2434918 -48.52  0.002061683    2.465    0.594
       327 -10.9716     65.2161     21.6152   9.2607675705e+01   6.2428768586e+01    0.2971689    0.1774513  26.18 0.0006377798    1.539    0.350
       328 -11.4224     24.6306     27.1245   1.1091018584e+02   6.6892443812e+01    0.2011499    0.1540303 -17.27 0.0003563719    1.045    0.043
       329  -9.3607    220.5668     24.5117   6.1968774472e+01   2.7221887652e+01    0.1309862    0.1088257 -84.55 0.0001441566    1.012    0.012
       330  -9.1378    140.4566     29.5090   7.5184738242e+01   4.6131814494e+01    0.1386012    0.1202203  49.72 0.0001356571    1.036    0.035
       331  -8.8559    119.0000     23.9682   7.8034130770e+01   5.1706622925e+01    0.1957181   0.07619324 -26.62 0.0007949839    2.891    0.654
       332 -10.5864     99.9768     21.5323   8.1909021317e+01   5.6044898080e+01    0.4105038     0.206879  28.42  0.001860895    2.300    0.565
       333  -9.9484    104.0555     18.9825   7.9931818961e+01   5.5464160243e+01    0.2083852     0.150545  24.24  0.001179669    1.343    0.255
       334 -10.6066     84.4139     22.1805   8.6574072782e+01   5.9025310419e+01    0.2379694    0.1616735  21.36 0.0009122639    1.396    0.283
       335  -9.5640    124.1222     21.8637   7.6182863582e+01   5.0776065062e+01    0.1860843    0.1325438  37.88   0.00041398    1.305    0.233
       336  -9.6089     89.5556     21.5014   8.4794375336e+01   5.8123799105e+01    0.1269954     0.107682  24.95 6.232297e-05    1.028    0.027
       337  -9.8698    136.9714     20.2710   7.3017071710e+01   4.7964233623e+01    0.1930029    0.1497449  55.58 0.0003739214    1.101    0.092
       338 -11.7117     35.0726    241.6419   1.4509712500e+02   2.0396769573e+01    0.4236161     0.241733  45.37  0.002663655    1.624    0.384
       339  -9.1435     45.5151     20.5246   9.9529362847e+01   6.5444754341e+01     0.119651   0.09087717   0.46 0.0008096138    1.042    0.041
       340  -9.3192    224.2137     18.9470   6.0379246049e+01   2.7045080239e+01    0.1474756   0.09644061 -42.54 0.0002917856    1.560    0.359
       341 -11.0699     31.5441    237.6397   1.4542630068e+02   2.1602777458e+01    0.3378561    0.2150695 -67.77  0.001754476    1.647    0.393
       342  -9.3785    129.2862     19.3427   7.4265834075e+01   4.9851776342e+01     0.137618   0.08915586  31.46 0.0003203399    1.643    0.391
       343 -10.2797     29.0682    233.0104   1.4553103605e+02   2.2811132550e+01    0.2792099    0.1401904  56.70  0.001490706    1.646    0.392
       344 -10.9076    156.3431    240.9201   1.2166543410e+02   1.6937574520e+00    0.1930716    0.1656184 -89.91   0.00117798    1.424    0.298
       345 -10.8406     73.9757    233.0135   1.3718667902e+02   1.6908579215e+01    0.3088118    0.1740439  52.63  0.001247221    1.501    0.334
       346  -9.4685     50.3141    240.3145   1.4229483430e+02   1.8737110455e+01   0.09996203   0.09165499 -55.30  0.000395133    1.641    0.391
       347  -9.7285    108.3491     17.4046   7.8306639378e+01   5.4712485171e+01     0.167947    0.1141848  61.37  0.000526075    1.482    0.325
       348  -9.9915    195.7861    238.5308   1.1338660944e+02  -4.8227669102e+00    0.2349303     0.166861  28.39  0.001110155    1.240    0.194
       349 -10.1058      9.8405     15.9871   1.1331020222e+02   6.9777616294e+01    0.1762391    0.1204427  -5.86 0.0006738547    1.208    0.172
       350 -10.0635    164.3087     14.8052   6.6729174198e+01   4.1931500454e+01    0.2216598    0.1581017  79.26 0.0005779837    1.303    0.233
       351 -10.1852     71.9353    243.8252   1.3863341074e+02   1.5068344594e+01    0.2221549    0.1919927 -31.01 0.0009017562    1.947    0.486
       352 -11.5746    176.7932    235.8969   1.1675535185e+02  -1.0829492686e+00    0.4865743    0.3015537  -6.53  0.002069261    3.073    0.675
       353 -10.3695    159.9035    235.8564   1.2018336505e+02   1.9385411053e+00    0.2069547    0.1688104  25.98 0.0005827911    1.237    0.192
       354  -9.5415     24.3785    232.2591   1.4630224948e+02   2.3496777574e+01    0.1966965    0.1104742  57.87  0.000866406    1.458    0.314
       355 -10.3618    180.9617    224.1961   1.1396964578e+02   1.5835281306e-01    0.2310425    0.1707282 -23.48  0.000639203    1.610    0.379
       356 -10.4401    167.0331    233.7680   1.1840208638e+02   1.0225205733e+00    0.2116217    0.2000094 -31.85 0.0007796618    1.223    0.182
       357  -9.9231     79.5602    231.3786   1.3592310522e+02   1.6408867495e+01    0.2269022    0.1370194  43.45 0.0006172859    1.530    0.346
       358  -9.3621    102.4471     10.4171   7.7262382057e+01   5.6619018046e+01     0.128634    0.1018715  37.07 0.0001392066    1.051    0.048
       359  -9.3166     58.3577    230.2937   1.3992814316e+02   1.9671931589e+01    0.1050074   0.09787861 -31.64 0.0004021424    1.694    0.410
       360 -10.9883    153.4384    233.6006   1.2116602252e+02   3.4983046719e+00     0.245876    0.2047251 -12.33  0.001039209    1.549    0.354
       361 -10.4245    190.4421    226.8391   1.1248594810e+02  -2.0048448048e+00    0.3002448    0.1618185 -41.81  0.001118847    2.081    0.519
       362  -9.9225     85.7618    232.9697   1.3487058849e+02   1.5142232117e+01    0.1564646    0.1012796 -69.61 0.0008155541    1.601    0.375
       363 -10.7875    115.9868    226.4476   1.2791575759e+02   1.1503198933e+01    0.2947366    0.1699906 -67.64  0.001272642    2.021    0.505
       364  -9.1463    249.3405    227.2666   1.0123412326e+02  -1.1802201702e+01    0.1269891   0.08142604   7.57 0.0003312252    1.599    0.375
       365  -9.5409    139.9828    227.2143   1.2300171617e+02   7.1075254226e+00    0.1908562   0.09836884  42.41 0.0008669014    1.687    0.407
       366 -10.2773    130.0517    226.7714   1.2501879851e+02   8.9737270497e+00    0.3732752    0.1780042  56.79  0.001536194    2.386    0.581
       367 -10.2563     87.9477    227.1061   1.3377157601e+02   1.5992061536e+01    0.2305558    0.1677558  42.73  0.001342967    1.357    0.263
       368 -10.4290     66.3512    226.3403   1.3799924515e+02   1.9374330555e+01    0.2766255     0.167989  51.67 0.0009181143    1.423    0.297
