#   1 NUMBER                 Running object number                                     
#   2 MAG_AUTO               Kron-like elliptical aperture magnitude                    [mag]
#   3 X_IMAGE                Object position along x                                    [pixel]
#   4 Y_IMAGE                Object position along y                                    [pixel]
#   5 X_WORLD                Barycenter position along world x axis                     [deg]
#   6 Y_WORLD                Barycenter position along world y axis                     [deg]
#   7 A_WORLD                Profile RMS along major axis (world units)                 [deg]
#   8 B_WORLD                Profile RMS along minor axis (world units)                 [deg]
#   9 THETA_WORLD            Position angle (CCW/world-x)                               [deg]
#  10 FWHM_WORLD             FWHM assuming a gaussian core                              [deg]
#  11 ELONGATION             A_IMAGE/B_IMAGE                                           
#  12 ELLIPTICITY            1 - B_IMAGE/A_IMAGE                                       
         1 -15.2102    189.3452    151.9093   5.1103865410e+01   1.2106434232e+01     5.037834     3.055266 -71.70   0.01734633    3.206    0.688
         2 -18.9036    238.8720    101.1563   3.0842301784e+01   1.1734005226e+01      7.50679     6.106751 -55.00   0.02362697    1.064    0.060
         3 -10.9787    202.4552     24.5556   1.8848719291e+01   3.1372189404e+01    0.3658762    0.3224303 -17.98  0.001260915    1.581    0.367
         4 -10.4773    199.2959     16.5323   1.7431669494e+01   3.3016608460e+01    0.3580658    0.1932693  55.80  0.001276217    1.888    0.470
         5 -12.0154    216.0121     11.9739   1.4836336089e+01   2.9768208337e+01    0.7696316    0.2054858  55.11  0.002822009    4.386    0.772
         6 -11.4437    203.9490     17.9124   1.7242589682e+01   3.1800876220e+01    0.7817392    0.3816136  46.85  0.003607742    2.845    0.648
         7 -10.2515    222.9904     13.4995   1.4521868467e+01   2.8076392077e+01     0.415128    0.1836674  52.99  0.001975592    2.847    0.649
         8  -9.7328    226.3215     12.6560   1.4071510250e+01   2.7455735477e+01    0.2549947    0.1660269 -60.51  0.001605376    1.337    0.252
         9  -9.5854    115.9699     12.5206   2.8767200712e+01   5.2892759217e+01    0.2669888    0.1807867  61.13 0.0008770257    1.270    0.212
        10 -11.1595    120.3340      8.9940   2.6776145336e+01   5.2211366790e+01    0.4215654    0.3091423  49.84  0.001559046    1.139    0.122
        11 -11.3927    211.0486     14.4654   1.5806806345e+01   3.0589887242e+01    0.2789676    0.2527835  41.85  0.001931876    1.559    0.359
        12 -11.1294     60.9159    149.9181   8.4294223715e+01   3.7226685047e+01    0.3546968    0.2978506  58.44  0.001248596    1.271    0.213
        13 -13.5338    244.0954    247.4443   5.9159960730e+01  -1.4322294950e+01     2.587602    0.5950918  34.62  0.009629834    4.137    0.758
        14 -13.0353    225.0405    245.2800   6.2385632682e+01  -1.1448512182e+01    0.9715896    0.6199936 -33.17  0.005689387    1.573    0.364
        15 -13.3570    218.7430    241.7511   6.3000406485e+01  -1.0016157246e+01      1.87132      1.08312  -8.55  0.009192542    2.161    0.537
        16 -12.2885    194.9638    248.5782   6.8934523799e+01  -7.4924347354e+00    0.7186992    0.2941273  32.88  0.003159192    2.196    0.545
        17 -11.0098    100.3399    145.3661   7.2054357048e+01   3.2129927014e+01    0.4449413    0.2830172 -64.69 0.0008377485    1.729    0.422
        18 -13.0760     68.0365    142.5704   8.0858390542e+01   3.8103406771e+01     1.116926    0.6731263 -69.66  0.003755052    1.759    0.432
        19  -9.7569     93.9846    146.2139   7.4052198123e+01   3.3050527137e+01    0.2059479    0.1262192  36.98 0.0003956297    1.690    0.408
        20 -11.6328    187.6816    169.5911   5.5394296164e+01   8.6878548668e+00    0.7496744    0.4855572  44.74  0.001929113    1.598    0.374
        21  -9.5043    110.0077    137.9870   6.7633380011e+01   3.2139607055e+01    0.1945428    0.1828745 -52.18 0.0005367305    1.043    0.041
        22 -13.9024     25.2164    120.8646   8.9866390632e+01   4.8373956960e+01     1.074936    0.9342334 -53.08  0.004129186    1.056    0.053
        23 -13.3166      7.9183    121.0858   9.5196582876e+01   4.9606596033e+01     1.822891    0.6656469 -72.16  0.007694145    2.476    0.596
        24 -13.3657     50.7820    118.5183   8.1284025763e+01   4.6340163851e+01    0.9788909    0.6033065 -52.86 0.0008816701    1.418    0.295
        25 -14.0777     66.3725    119.4492   7.6485350503e+01   4.4077978960e+01     1.852183     1.375004  12.29  0.002242686    1.580    0.367
        26 -13.2735     59.3494    116.6404   7.8105372290e+01   4.5716709915e+01     1.355173    0.7405309 -33.28 0.0008716842    2.164    0.538
        27 -10.2033     38.7480    130.0195   8.7299035948e+01   4.4865045119e+01    0.2198127    0.1664502 -46.88 0.0005980599    1.221    0.181
        28 -11.4327     37.9771    125.4084   8.6702817860e+01   4.6077921475e+01    0.3822558    0.2049401 -59.41 0.0008200837    1.578    0.366
        29 -10.7677    125.8018    126.9468   6.0533092604e+01   3.1577837197e+01    0.3808721    0.2128931 -53.57  0.001465027    1.890    0.471
        30  -8.8728     96.6979    115.0171   6.5894781541e+01   4.0168917491e+01    0.2153507    0.1945952 -38.68 0.0004167077    1.071    0.066
        31 -11.2979    176.6884    170.1116   5.7955218922e+01   1.0803320362e+01    0.7207435    0.3929169 -40.25   0.00290311    1.849    0.459
        32 -12.4574      4.9360     93.2971   9.1622808676e+01   5.6189193739e+01    0.8699421    0.3771042 -64.75  0.004300464    1.905    0.475
        33 -11.2562    180.1455    173.1786   5.7837910959e+01   9.4384464869e+00    0.6195332    0.2812461 -48.65  0.002280579    2.279    0.561
        34 -10.3234    125.9778     76.5212   4.6522255270e+01   4.2095955191e+01    0.3412314    0.1421791  49.14  0.001245041    2.289    0.563
        35 -12.6599    135.5862     80.3617   4.5196804245e+01   3.9196304680e+01      0.90677    0.5729361 -50.55  0.003992027    1.767    0.434
        36 -11.6393    130.4771     77.9514   4.5781945667e+01   4.0813173156e+01    0.5188213    0.4114775 -44.95  0.002616452    1.333    0.250
        37 -10.8877    140.6558     78.2990   4.3362877044e+01   3.8381596068e+01    0.3875597     0.303903  88.63  0.001855201    1.605    0.377
        38 -11.8192    139.2039     75.4074   4.2877462291e+01   3.9234609527e+01    0.6441564    0.3605267  67.47   0.00228614    2.403    0.584
        39 -11.2677    148.2655     77.3048   4.1303071884e+01   3.6750899349e+01    0.4600329    0.3120845  -6.60  0.001900764    2.362    0.577
        40 -12.0208    151.3944     71.1922   3.8887965968e+01   3.7050373091e+01    0.6473277    0.2981504 -44.62  0.002521263    2.309    0.567
        41 -10.6378    134.8115     60.2706   3.9465884396e+01   4.2765473097e+01    0.3519918    0.2199604 -25.64  0.001607048    1.901    0.474
        42  -9.2967    101.0957     64.8993   4.9875029676e+01   4.9491480736e+01     0.200546    0.1943278  71.13  0.001172318    1.221    0.181
        43  -9.7873     75.5594     57.5397   5.5638526170e+01   5.5538531527e+01    0.3895537    0.2562748  -5.02  0.001357549    1.838    0.456
        44  -9.5550    126.4930     56.5222   4.0318300449e+01   4.5272848537e+01    0.2467986    0.1420749 -18.61 0.0009653289    2.405    0.584
        45 -10.1409    101.0062    175.9873   7.8011982709e+01   2.4328696114e+01    0.2138236    0.2043488  83.05            0    1.004    0.004
        46 -11.2445    139.4484     45.2249   3.3961049210e+01   4.3835291393e+01    0.4477425     0.288431   3.36  0.001971382    2.537    0.606
        47 -10.6215    149.1794     41.1015   3.0825655829e+01   4.2043859175e+01     0.261801    0.1856697 -28.70  0.001381468    1.632    0.387
        48 -10.7860    146.2383    171.8464   6.5568632960e+01   1.6652638620e+01    0.4233031     0.323287 -87.38  0.001843881    1.775    0.437
        49  -8.7739     84.5304    170.0454   8.1315970460e+01   2.8602458963e+01    0.2239799    0.1418198 -59.99 0.0005107805    1.514    0.340
        50 -14.9425    214.3438     81.5298   3.0109774674e+01   2.0358859431e+01     1.113206    0.8814054 -25.31  0.003089715    1.565    0.361
        51 -10.6964    123.3547     31.5597   3.3256190155e+01   4.9294736085e+01    0.3599697    0.2337202   4.88   0.00152126    2.178    0.541
        52 -10.0359    159.3136    159.9235   5.9768949271e+01   1.6698829556e+01    0.4338775    0.2637774 -22.21  0.001560527    2.552    0.608
        53 -10.9637    244.3580    233.5237   5.6652323177e+01  -1.2368899620e+01    0.2239862    0.1772884 -17.88  0.001233793    1.144    0.126
        54 -11.4288    198.9492     21.0393   1.8461680967e+01   3.2588391595e+01     0.523876    0.2402737  72.33  0.002529199    1.914    0.478
        55  -9.5101    128.8205    232.9012   8.0648178510e+01   6.4039700854e+00    0.1971431    0.1806561  15.29   0.00034548    1.195    0.163
        56  -9.0312     55.0382    232.9848   9.6673908938e+01   1.7939425770e+01     0.155208    0.1262006  72.79 0.0003501554    1.010    0.010
        57 -10.2404    139.6677    159.4048   6.4531388603e+01   2.0941740486e+01    0.4140884    0.2788596 -71.36  0.001388837    1.988    0.497
        58  -9.2019    201.2676    182.4703   5.5231062858e+01   3.4006089810e+00    0.2820896    0.2076037  77.42  0.001123807    2.342    0.573
        59  -9.6918    141.0862    181.2133   6.8772669104e+01   1.5499126119e+01    0.2457089    0.2172599 -46.74 0.0003080931    1.157    0.136
        60 -10.5406    249.0959     20.8146   1.3751570235e+01   2.1766756681e+01    0.3480353    0.1695802  68.42  0.001964899    1.954    0.488
        61  -9.4537    124.4589    157.2754   6.8026773274e+01   2.4554824647e+01    0.3016343    0.2305131 -80.98  0.001117336    1.625    0.385
        62 -11.0557    236.1849    212.7893   5.4341531158e+01  -7.9837945477e+00    0.3531927    0.2454201  45.42 0.0009507792    1.831    0.454
        63  -9.4394    243.0064    213.0806   5.3128986300e+01  -9.0276467881e+00    0.1926623    0.1565208 -10.18    0.0012099    1.012    0.012
        64 -10.7458    227.6831    208.3553   5.5112383770e+01  -5.9435414938e+00    0.4419457    0.1520644 -33.01  0.001582111    3.246    0.692
        65 -11.2239    169.1234    156.1245   5.6586088281e+01   1.5475554728e+01    0.8997456    0.4359499 -64.36  0.002397425    4.749    0.789
        66 -11.6370    192.5020    194.1714   5.9489026337e+01   2.6979920398e+00     1.110304    0.5613256 -62.89   0.00328421    4.942    0.798
        67 -10.3401    220.9487    195.9263   5.3987490990e+01  -2.6574477105e+00    0.2424531    0.2058925  45.18 0.0004595018    1.402    0.287
        68  -9.9992    104.1029    244.4545   8.7610864631e+01   8.1996980853e+00    0.2190697    0.1897102 -70.77 0.0003739751    1.281    0.219
        69 -11.1346    163.9589    154.2390   5.7369566936e+01   1.7004376222e+01    0.4800412    0.3098981 -51.98  0.001646357    1.601    0.375
