#   1 NUMBER                 Running object number                                     
#   2 MAG_AUTO               Kron-like elliptical aperture magnitude                    [mag]
#   3 X_IMAGE                Object position along x                                    [pixel]
#   4 Y_IMAGE                Object position along y                                    [pixel]
#   5 X_WORLD                Barycenter position along world x axis                     [deg]
#   6 Y_WORLD                Barycenter position along world y axis                     [deg]
#   7 A_WORLD                Profile RMS along major axis (world units)                 [deg]
#   8 B_WORLD                Profile RMS along minor axis (world units)                 [deg]
#   9 THETA_WORLD            Position angle (CCW/world-x)                               [deg]
#  10 FWHM_WORLD             FWHM assuming a gaussian core                              [deg]
#  11 ELONGATION             A_IMAGE/B_IMAGE                                           
#  12 ELLIPTICITY            1 - B_IMAGE/A_IMAGE                                       
         1 -13.5011    220.5416      7.0877   3.6915031766e+01   2.9241890249e+01     1.355809      1.08888  56.13  0.005740765    1.427    0.299
         2 -14.3367    194.7249     37.2080   4.7427984742e+01   3.1950943689e+01     2.830481     1.738182  24.86   0.01180401    2.729    0.634
         3 -10.4099    189.6906     14.5673   4.1874475870e+01   3.5910392618e+01    0.2623326     0.235114 -84.68 0.0008508151    1.022    0.022
         4 -11.0783     65.7901      3.3904   6.3123437948e+01   6.5906934181e+01    0.4378254    0.2091935 -37.42   0.00213126    2.557    0.609
         5 -10.6786     54.8843    222.4393   1.1915233898e+02   2.1526841566e+01    0.2087821    0.1273651  57.37 0.0007878389    1.353    0.261
         6 -11.8771    249.6452    243.9530   8.4496994361e+01  -1.1345666293e+01    0.6119036    0.2597686 -31.19  0.003348939    2.396    0.583
         7  -9.8147     72.1515    250.2670   1.1816435088e+02   1.4062279160e+01    0.1862605    0.1157552  53.27 0.0002709382    1.240    0.194
         8  -9.2648     48.4753    217.5962   1.2000860967e+02   2.3293767744e+01    0.1849325    0.1102522  31.34 0.0006787223    1.970    0.492
         9 -10.8926     53.2869    230.6246   1.2010578801e+02   2.0122797549e+01    0.2593822    0.1505641  89.81 0.0009072264    1.672    0.402
        10  -8.6247    168.3269    213.3177   9.4675848927e+01   5.5369742603e+00    0.1356331   0.09890845   7.07 0.0005331941    1.677    0.404
        11 -10.0626    183.8630    212.3574   9.1362912433e+01   3.0108099293e+00    0.1781929    0.1698292  30.44 0.0007583306    1.175    0.149
        12  -9.4053     56.8524    209.2868   1.1761945822e+02   2.3964813224e+01    0.2112322    0.1522099 -69.31 0.0008751219    1.421    0.296
        13 -10.1510     58.9857    229.9618   1.1897737589e+02   1.9530024562e+01    0.1685809    0.1312322  71.63 0.0003721049    1.047    0.045
        14 -11.0425     65.7762    204.5560   1.1530366677e+02   2.3798172950e+01    0.3206393    0.1822076 -65.21  0.001455413    1.756    0.430
        15  -8.3734     70.0262    199.5026   1.1385901818e+02   2.4306292853e+01    0.2247216    0.1674544  11.56 0.0007019172    2.112    0.526
        16 -12.8361     31.6651    206.1597   1.2244021266e+02   2.7593896319e+01    0.3210776    0.1536998  54.71  0.001196091    1.791    0.442
        17  -8.6622    224.1992    206.5939   8.2544067741e+01  -2.8377535648e+00     0.176231    0.1062719  25.57 0.0002789086    1.572    0.364
        18 -11.0562    195.8365    205.4030   8.7758795738e+01   2.0824181273e+00    0.4982112    0.1828801  34.00  0.001894964    2.791    0.642
        19  -9.6168     95.8959    202.3875   1.0855785022e+02   1.9894670097e+01    0.4803808    0.2202969 -43.59  0.001917231    3.306    0.697
        20 -19.4984     13.9285    144.4046   1.2117183699e+02   4.3200425072e+01     19.11312      4.43703 -76.59   0.06469969    4.033    0.752
        21 -12.5698     54.9738    198.0701   1.1695146403e+02   2.6597863296e+01    0.5767067    0.2794769 -53.04  0.002423984    2.460    0.593
        22 -10.8346    194.4213    195.8362   8.6288978268e+01   3.9216182722e+00     1.081247    0.7691191  80.81  0.004695807    3.089    0.676
        23 -10.1553     50.3547    224.7581   1.2020925180e+02   2.1630434810e+01    0.1863175    0.1135555  84.92 0.0007798239    1.521    0.342
        24 -11.5267    133.6931    196.3407   9.9314277515e+01   1.4835213507e+01    0.3704971    0.2886332 -51.40  0.001140639    1.403    0.287
        25 -12.1072    127.4954    192.9779   1.0015952147e+02   1.6618496206e+01    0.5423973    0.3717241 -81.82  0.002222467    1.950    0.487
        26  -9.1874     82.1626    194.7692   1.1063499686e+02   2.3610650910e+01    0.2358773    0.1536335  53.16    0.0012664    1.400    0.286
        27  -8.6323     96.7997    190.7648   1.0679967168e+02   2.2250024717e+01    0.1908727    0.1426499  68.07  0.000590753    1.322    0.243
        28 -10.8318    149.4087    188.1460   9.4429722284e+01   1.3634900157e+01    0.3893363    0.2887145  82.09  0.001882283    1.909    0.476
        29 -12.3538     65.3790    184.8124   1.1322541955e+02   2.8195875435e+01    0.7039784    0.6389265 -52.06  0.004508742    1.355    0.262
        30  -9.6675    150.8916    196.5845   9.5571616772e+01   1.1698922090e+01    0.2738902    0.1902239 -71.35   0.00132581    1.987    0.497
        31  -9.6497     94.5231    187.1371   1.0681268180e+02   2.3410713469e+01     0.248378    0.1913801  45.93 0.0004237108    1.232    0.188
        32 -10.9582     98.8341    181.3178   1.0495456493e+02   2.4022619322e+01    0.4393718       0.3223 -30.27   0.00216476    1.943    0.485
        33  -8.8716    238.6150    185.3065   7.5862124386e+01  -1.9972541151e+00    0.1185693    0.1074634 -85.90 0.0007019602    1.799    0.444
        34 -10.3613    150.3500    178.7419   9.2497652291e+01   1.5370058742e+01    0.4644547    0.2688287 -67.68  0.001628122    2.706    0.630
        35 -11.1606    144.0645    178.4006   9.3867748717e+01   1.6635575385e+01    0.5003207    0.3000894 -59.54  0.001613044    1.956    0.489
        36 -10.1637    189.3310    177.4671   8.3759364079e+01   8.1146861625e+00    0.4630086    0.3432672 -54.63  0.002345397    1.635    0.388
        37  -9.7010     40.6324    224.6214   1.2203899306e+02   2.2821729353e+01    0.1947634   0.09738343  86.86 0.0007392146    1.968    0.492
        38  -9.8597     56.5149    174.9747   1.1412276222e+02   3.1610134717e+01    0.3540304    0.1531871  47.59  0.001592536    2.216    0.549
        39 -10.4960    126.2985    173.1918   9.7068829579e+01   2.1077686538e+01    0.3167339    0.1918954  50.30  0.001426478    1.644    0.392
        40  -9.8247     46.4378    172.8281   1.1624748631e+02   3.3328667226e+01    0.3363109     0.228384  18.64  0.001834015    2.068    0.516
        41 -10.4290    139.1497    171.3705   9.3687673634e+01   1.9066400739e+01    0.3614564    0.2716935  42.62  0.001095915    1.273    0.214
        42 -10.0014    240.1328    169.1906   7.2328688610e+01   2.4503492307e-01    0.1720786    0.1545104 -38.75 0.0004260303    1.309    0.236
        43  -8.3530    156.4866    189.5336   9.3113849605e+01   1.2044188209e+01    0.1420022    0.1309106  37.65  0.000327407    1.012    0.012
        44  -8.2130     76.5629    224.2381   1.1504924346e+02   1.8292745430e+01    0.1349236    0.1114843 -71.19 0.0003321196    1.345    0.257
        45  -8.9334     65.0000    223.8819   1.1730118456e+02   1.9934333128e+01     0.161931   0.06365155 -69.58 0.0007527727    2.609    0.617
        46 -11.4489     94.2463    151.8193   1.0119594176e+02   3.1668911816e+01    0.6929065     0.483509 -36.12  0.003105736    1.775    0.437
        47 -10.7592    133.7624    145.1680   8.9630861880e+01   2.5961910441e+01     1.257643    0.3285844 -55.15  0.002904771    5.918    0.831
        48  -8.8358    113.0852    150.6647   9.6065170132e+01   2.8663168859e+01    0.2467382    0.1824701  62.05  0.001172871    1.479    0.324
        49  -9.5835    174.5338    148.8746   8.0811909468e+01   1.6667716090e+01    0.2932641    0.2462647  85.49 0.0008784361    1.531    0.347
        50  -9.1254    109.0450    147.4511   9.6471723922e+01   3.0157826103e+01    0.2139543    0.1966543 -73.54 0.0003637896    1.058    0.055
        51  -9.7057     86.5306    143.4736   1.0171342431e+02   3.4937640397e+01    0.3388612    0.1977703  44.11 0.0009542704    1.751    0.429
        52 -10.5301    106.5166    137.8416   9.5154435488e+01   3.2908910946e+01    0.5127095    0.3355124 -32.44   0.00220298    1.956    0.489
        53 -11.5787     94.3186    137.7625   9.8469007577e+01   3.5058357486e+01    0.2841467    0.2609949 -42.52 0.0004351721    1.154    0.134
        54  -9.9191    135.8937    130.0493   8.5605439737e+01   2.8969126331e+01    0.4531374    0.1595894 -47.45  0.001441491    2.817    0.645
        55 -10.4343    105.8839    130.6743   9.3761706357e+01   3.4741170782e+01    0.3994506     0.318104 -64.07  0.001417721    1.258    0.205
        56  -8.2542     99.6823    131.2692   9.5615478776e+01   3.5709662444e+01    0.1498347    0.1148844  75.15 0.0002326883    1.558    0.358
        57 -10.1876    114.1162    129.1675   9.1158193400e+01   3.3557798775e+01    0.3332109    0.3026427 -15.03 0.0008521454    1.242    0.195
        58 -10.3879    101.5702    124.9684   9.3674967342e+01   3.6890816168e+01    0.3007713    0.2480132 -31.83 0.0007023561    1.337    0.252
        59 -10.4241    120.4539    122.8582   8.7928114853e+01   3.3794425339e+01    0.4382774    0.3567557 -10.17  0.002077893    1.544    0.352
        60  -9.5649    135.1507    120.6613   8.3474320910e+01   3.1250018650e+01    0.4059739    0.1086939 -44.37  0.001106165    3.730    0.732
        61  -9.8232    187.7750    152.2630   7.8715321099e+01   1.3220252455e+01    0.2882031      0.24264  83.33  0.001442041    1.577    0.366
        62  -9.4125    109.6794    118.2961   8.9790527383e+01   3.6972787897e+01    0.2439324    0.2200108 -80.81  0.000414048    1.175    0.149
        63 -10.0428    231.3066    113.6429   6.1461665587e+01   1.1238609906e+01    0.2800857    0.2658527   4.22 0.0007563728    1.116    0.104
        64  -9.1256    167.7643    112.8296   7.3501464205e+01   2.5622241693e+01    0.3731727    0.2457187 -71.99  0.001414072    2.404    0.584
        65  -9.6011    134.5547    104.7966   7.9428743556e+01   3.4896332040e+01    0.3989568    0.1518853 -46.36  0.001298673    2.620    0.618
        66 -11.2692    118.4475    110.2165   8.5262464870e+01   3.7113236065e+01    0.5848964    0.4467932  69.51  0.002679243    1.626    0.385
        67  -9.6214    205.2488    110.1220   6.5117484221e+01   1.7514116776e+01    0.3376139    0.2249459  47.95 0.0009964053    1.579    0.367
        68  -9.8113     64.7398    100.0316   9.9044804808e+01   4.8725482905e+01    0.3684788    0.2052656  34.94  0.001675303    1.969    0.492
        69  -8.9805    184.1299     77.1858   6.0322508159e+01   2.8481234720e+01    0.2330345    0.2107876  24.66 0.0007269314    1.233    0.189
        70  -9.0004     66.4100     70.8894   9.0478189265e+01   5.5073439387e+01    0.2211898    0.1889983  43.88 0.0006353298    1.363    0.266
        71  -9.8662     72.4384    245.4955   1.1772899981e+02   1.4869232447e+01      0.28323    0.1234722  60.54 0.0007643375    2.270    0.559
        72 -12.6025    179.0739     51.8038   5.3967316691e+01   3.3853604180e+01    0.7311012    0.6894263  43.09 0.0007961787    1.129    0.114
        73 -10.1119     56.3648    217.9626   1.1848655044e+02   2.2239221591e+01    0.2686825    0.1400454  75.03   0.00103939    2.030    0.507
        74  -9.2606    158.0649    235.7187   1.0013000381e+02   3.5483861259e+00    0.1855446    0.1421709  36.44 0.0006012014    1.084    0.078
        75  -9.8484     80.3055     15.1783   6.3798238198e+01   6.1919999415e+01    0.2396436    0.1763196  52.50  0.000791323    1.452    0.311
        76  -9.4753    167.9582    233.0699   9.7806914142e+01   2.3527847175e+00    0.2441057    0.1576522  45.70  0.001155464    1.419    0.295
