#   1 NUMBER                 Running object number                                     
#   2 MAG_AUTO               Kron-like elliptical aperture magnitude                    [mag]
#   3 X_IMAGE                Object position along x                                    [pixel]
#   4 Y_IMAGE                Object position along y                                    [pixel]
#   5 X_WORLD                Barycenter position along world x axis                     [deg]
#   6 Y_WORLD                Barycenter position along world y axis                     [deg]
#   7 A_WORLD                Profile RMS along major axis (world units)                 [deg]
#   8 B_WORLD                Profile RMS along minor axis (world units)                 [deg]
#   9 THETA_WORLD            Position angle (CCW/world-x)                               [deg]
#  10 FWHM_WORLD             FWHM assuming a gaussian core                              [deg]
#  11 ELONGATION             A_IMAGE/B_IMAGE                                           
#  12 ELLIPTICITY            1 - B_IMAGE/A_IMAGE                                       
         1 -11.3942    224.1356     22.6073   5.4948460693e+01   2.5362445149e+01     1.068656    0.5301579  47.59  0.004563958    2.054    0.513
         2  -9.9319    240.8171      2.0602   4.7722802728e+01   2.3104301909e+01    0.4781144    0.2527438  69.85  0.001918076    1.882    0.469
         3 -10.9995    248.3721     33.0398   5.5231154404e+01   1.8391759285e+01    0.7501723    0.4228353 -45.74   0.00353491    1.828    0.453
         4  -9.9696    233.0195     10.8040   5.0745786161e+01   2.4253020829e+01    0.2888726    0.2472878  19.31 0.0004785198    1.254    0.203
         5 -10.7877    238.1014      8.3254   4.9617947160e+01   2.3223526280e+01     0.592468    0.3489507 -59.98  0.002133441    1.899    0.473
         6 -10.4378    249.8795     19.0949   5.1429172925e+01   1.9411179588e+01    0.6741424    0.2163637 -26.39  0.002581078    2.656    0.624
         7 -11.2796    245.0388     22.5608   5.2789442826e+01   2.0224941117e+01    0.8687282    0.4688821 -48.11  0.003907495    1.938    0.484
         8 -10.8271    239.1569     18.0767   5.2150478910e+01   2.2072139666e+01    0.6610184    0.3375295 -34.13  0.003032637    1.799    0.444
         9 -10.1836    244.8442     13.9029   5.0514805526e+01   2.1089630609e+01    0.4043267    0.2902406  68.37  0.002212859    1.435    0.303
        10 -11.2380    249.2065      7.2705   4.8417860918e+01   2.0649495014e+01    0.9749259    0.3800045 -21.07  0.004039313    2.433    0.589
        11  -9.5236    231.7342      2.9487   4.8707452943e+01   2.5258714580e+01    0.3281797    0.2151256 -74.65  0.001123945    1.699    0.411
        12 -10.0548    219.7500     16.9243   5.3794450860e+01   2.7031282419e+01    0.4477981    0.3158534 -72.77  0.002218047    1.640    0.390
        13  -9.9001    222.0123     13.2941   5.2512878583e+01   2.6793949981e+01    0.3821526    0.2682161 -77.46  0.001909267    1.626    0.385
        14  -9.5129    199.9111     15.0876   5.5518695369e+01   3.2378046127e+01    0.3281454    0.2854495  31.10  0.001160979    1.159    0.137
        15  -9.5383     66.6776     13.3410   8.4048510947e+01   6.4165752915e+01       0.2303     0.166467 -34.60  0.001342232    1.329    0.248
        16  -9.6356     68.4010     10.2018   8.1907341987e+01   6.4316576143e+01    0.2361663      0.16239 -14.23 0.0008120656    1.345    0.256
        17  -9.6694    155.1877      9.8357   6.0099712494e+01   4.4792085698e+01    0.4822085    0.1965192  -8.56  0.001645983    3.124    0.680
        18  -8.8974    129.4020     11.8043   6.5692568734e+01   5.1186432638e+01     0.199897    0.1327405  -2.43 0.0007323311    1.591    0.372
        19  -8.9660     58.4745     11.9547   8.6460068887e+01   6.5679010959e+01    0.1958474    0.1087024 -32.99 0.0008192844    1.572    0.364
        20  -9.5525    193.0172     11.0396   5.5091766741e+01   3.4587499650e+01    0.2182172    0.2108702  58.86 0.0004922541    1.020    0.020
        21  -9.5178     84.6774     10.4435   7.6592080856e+01   6.1301757312e+01    0.2480502    0.1859217 -23.14 0.0008424272    1.240    0.193
        22 -10.2177    213.1445      8.5363   5.2043762185e+01   2.9506366444e+01     0.383743    0.3345776  -7.29  0.002176075    1.183    0.154
        23  -9.4924    223.9462      6.6066   5.0421078855e+01   2.6901706659e+01    0.2917533     0.280372 -37.97  0.001522096    1.031    0.030
        24  -9.7262    220.4881      5.2689   5.0366998996e+01   2.7898349579e+01     0.441056    0.1672357 -25.04  0.001729578    2.444    0.591
        25  -8.9084    206.4866      7.0344   5.2297084691e+01   3.1377198116e+01    0.2163186     0.138466 -19.20 0.0009454315    1.587    0.370
        26  -8.4710     34.2985      7.6855   9.4621183016e+01   6.9601277189e+01    0.1057227   0.09007353 -56.40  0.000459441    1.608    0.378
        27  -9.0376    111.4755      5.4583   6.6982364772e+01   5.6123264512e+01    0.1405654    0.1254196  17.37 0.0001177534    1.016    0.016
        28  -9.7344     60.0388      5.4868   8.2623353320e+01   6.6347200867e+01    0.2415288    0.1213287  44.02  0.001210817    2.167    0.539
        29 -10.3074     64.0501      2.3796   7.9508310583e+01   6.6085209168e+01    0.3029858    0.2150806  24.98  0.000759806    1.375    0.272
        30  -9.1173    183.4381      3.0278   5.3671526845e+01   3.7850431521e+01    0.2150803    0.1393848 -20.08  0.000651066    1.584    0.369
        31  -8.6030    189.6840      2.3605   5.2710192601e+01   3.6232142783e+01    0.1554353    0.1002748 -55.14 0.0007042787    1.758    0.431
        32  -8.2813    201.6874      1.6555   5.1168503848e+01   3.3096614845e+01    0.1538574    0.0971976  35.21 0.0007046591    1.708    0.414
        33 -10.9679    214.6482    215.1114   1.0080478411e+02   3.8755506681e+00    0.2592632    0.2234149 -42.11  0.001942787    1.705    0.414
        34  -9.1197    209.7454    250.0937   1.0631178497e+02   1.3419419763e+00    0.1921899    0.1050641  38.20 0.0009005744    1.265    0.209
        35  -8.6328    109.4573    216.4927   1.1862164359e+02   2.0208099977e+01    0.1084229   0.08332061  55.38 0.0001351625    1.004    0.004
        36 -10.0400    232.4156    212.9070   9.7659301143e+01   1.2430498994e+00    0.2587562    0.2046772 -17.18   0.00127812    1.489    0.329
        37  -9.7309    186.6077    213.4359   1.0514369941e+02   8.6267680103e+00    0.2138126    0.1871686  68.19  0.001578274    1.496    0.332
        38  -9.3853    132.2043    214.1003   1.1447278515e+02   1.7209736706e+01    0.1603674    0.1332288  39.07  0.000632106    1.204    0.170
        39  -8.5461    205.6665    208.3074   1.0123820092e+02   6.0572365519e+00      0.10701   0.08495168  60.79 0.0003457365    1.669    0.401
        40  -8.5484     86.3279    208.6590   1.2184584771e+02   2.4545296574e+01    0.1136249   0.06421908  66.39 0.0003462615    1.738    0.425
        41 -10.5756    124.0077    205.9985   1.1496899770e+02   1.9610547182e+01    0.1609669    0.1266434  52.79  0.001161733    1.010    0.010
        42  -9.7852    235.6351    203.9607   9.5729881166e+01   1.5736950197e+00    0.2155467    0.1924714 -27.61   0.00102646    1.584    0.369
        43  -8.7095    188.1568    204.1766   1.0354306062e+02   9.4570107233e+00    0.1557415    0.1258101  54.71 0.0009760612    1.359    0.264
        44  -8.5843    198.4521    202.9328   1.0161607835e+02   7.8653882495e+00     0.141142     0.103046 -66.67 0.0008084026    2.625    0.619
        45  -9.1945    249.6892    201.4560   9.3136292826e+01  -4.4888717241e-01    0.2029269    0.1629289 -20.67  0.001125297    1.531    0.347
        46 -10.5289    247.9494    194.0966   9.2152194365e+01   5.0998265760e-01    0.4104517     0.362749 -67.21  0.002790357    2.199    0.545
        47  -9.6601    218.3143    201.9971   9.8183036476e+01   4.6253600802e+00    0.1616924    0.1325869  21.07  0.001026745    1.107    0.096
        48  -8.5048    160.3441    202.2141   1.0807053279e+02   1.4364608824e+01    0.1350467    0.1103773 -63.07 0.0005024805    1.610    0.379
        49  -9.5923    241.8289    200.3660   9.4167437098e+01   9.1216214074e-01    0.2859327    0.2108988  40.87   0.00142799    1.345    0.257
        50 -10.2061    230.7933    195.4270   9.5082931001e+01   3.2157994951e+00    0.3654973    0.2245567  -8.15  0.001475725    1.838    0.456
        51  -8.9742    192.9909    202.2155   1.0242758052e+02   8.8732402212e+00    0.1437638    0.1310154 -81.68 0.0006282632    1.608    0.378
        52  -9.2380    164.5447    200.7935   1.0713328230e+02   1.3855515282e+01    0.1422687    0.1143263 -66.73 0.0009514684    1.706    0.414
        53  -9.4882    184.4996    196.4450   1.0300017457e+02   1.1027055313e+01    0.2088106    0.1204368 -37.05   0.00105876    2.126    0.530
        54 -10.4422    237.7489    192.4155   9.3459431043e+01   2.3553503246e+00     0.355046    0.2696341  27.45  0.001411714    1.055    0.052
        55 -10.1428    237.1972    187.1773   9.2633116512e+01   2.9774488539e+00    0.3057657    0.1834629 -15.97  0.001810101    1.792    0.442
        56  -8.8636    223.9668    191.9252   9.5595091331e+01   4.7379066681e+00    0.1622483    0.1487302  77.59 0.0009137064    1.726    0.421
        57  -9.0098    198.9879    191.9845   9.9790703198e+01   9.0602050526e+00    0.1520473    0.1202541  32.65 0.0007074146    1.003    0.003
        58  -8.5370    157.3388    187.3174   1.0646130964e+02   1.6948061014e+01    0.1218059   0.08771877  19.23 0.0007048825    1.706    0.414
        59  -9.6336    249.6321    184.9135   9.0272476372e+01   1.1113890824e+00    0.2659914    0.2030592 -28.01  0.001786595    1.612    0.380
        60  -9.3263    230.3278    185.8651   9.3507619668e+01   4.2906778473e+00    0.2114976    0.1017866 -36.04  0.001088615    2.526    0.604
        61  -9.8356    225.0138    184.8674   9.4200560672e+01   5.3209457660e+00    0.2429831    0.2025896 -38.90  0.001580531    1.638    0.389
        62  -8.7796    230.5172    180.4964   9.2517158227e+01   4.8344177868e+00    0.1660733     0.108591  -6.68 0.0002619631    1.637    0.389
        63 -10.2656    226.4421    179.3366   9.2976046595e+01   5.6801453746e+00    0.3265139    0.2367363  11.49  0.001335211    1.297    0.229
        64 -10.4775    242.8409    179.8475   9.0416998211e+01   2.7642154376e+00    0.4490947    0.2685504  24.04  0.002609845    1.479    0.324
        65  -8.5236    198.3044    182.6644   9.8348999394e+01   1.0324515578e+01    0.1135373   0.09659509  73.95 0.0007038911    1.667    0.400
        66  -9.0411    235.8739    180.5368   9.1655669949e+01   3.8951794326e+00    0.2109302    0.1528414 -41.44  0.001285622    1.952    0.488
        67  -9.7372    157.5218    178.7606   1.0510482674e+02   1.8173066949e+01    0.2587799    0.1911694   3.91  0.001480359    1.921    0.479
        68  -8.9423    219.2530    178.5840   9.4037347383e+01   7.0469975852e+00     0.233894    0.1068216  48.88  0.001017568    2.084    0.520
        69  -9.2485    152.2332    178.3870   1.0604308042e+02   1.9157238444e+01    0.1745995    0.1013284  51.28 0.0003801401    1.568    0.362
        70  -8.7250    197.6111    176.8079   9.7450649586e+01   1.1192745900e+01    0.1586852    0.1187006 -44.98 0.0009480041    1.723    0.420
        71  -9.7928    233.4722    174.5080   9.0934776051e+01   4.9654524547e+00    0.2989495    0.2053501 -27.97  0.001818905    1.626    0.385
        72  -9.9051    225.5574    172.6292   9.1887535484e+01   6.5954003516e+00    0.3558066    0.2372433 -25.68  0.001776168    1.630    0.387
        73 -10.3624    212.4933    169.5372   9.3523773933e+01   9.3599475292e+00    0.3912617    0.2204945 -32.68  0.001637392    1.988    0.497
        74  -9.0839    237.4365    169.8035   8.9403736920e+01   4.7733158045e+00      0.20655    0.1136875 -29.55    0.0011108    1.964    0.491
        75  -8.9600    169.8766    169.1120   1.0116612298e+02   1.7376621253e+01      0.19196    0.1674264  60.43  0.001132935    1.244    0.196
        76  -9.4263    147.2644    168.0801   1.0534494540e+02   2.1643172825e+01    0.2269807    0.1643568  50.64 0.0004573034    1.237    0.191
        77  -9.0294    249.4924    166.9292   8.6933839610e+01   2.9445378557e+00    0.2649549    0.1534544  15.18  0.001419669    1.768    0.435
        78  -9.5744    193.0211    166.0706   9.6324477257e+01   1.3467573156e+01    0.2829229    0.1896211 -20.50   0.00155888    1.751    0.429
        79  -9.2529    234.0547    164.5282   8.8936049709e+01   5.9708212098e+00    0.2160436    0.1720817 -38.58  0.001136358    1.643    0.391
        80  -8.9125    240.7289    163.2169   8.7597375357e+01   4.9028877133e+00    0.1816113    0.1226795  16.04 0.0007101984    1.362    0.266
        81  -8.7442    250.5016    158.5132   8.5117290206e+01   3.6518801132e+00    0.1713319    0.1103465 -31.82 0.0009711128    1.749    0.428
        82 -10.5533    246.4292    158.1149   8.5676022413e+01   4.4284205324e+00    0.4449973    0.2967472  15.48  0.002368328    1.384    0.277
        83  -8.7559     46.6506    162.1998   1.2496431578e+02   3.7378248394e+01    0.1433861   0.08603466 -65.51  0.000418851    1.625    0.385
        84 -10.4843    229.8053    148.2118   8.6342393095e+01   8.6822989415e+00    0.2375262    0.1801003 -40.71  0.001315586    1.662    0.398
        85  -9.9317    226.8022    157.0724   8.8661500664e+01   8.1888757167e+00    0.3122455    0.1979539  16.78  0.001281382    1.646    0.393
        86  -9.8150    233.0011    152.5593   8.6713634275e+01   7.5499286577e+00    0.2627686    0.2034479   3.11  0.001115308    1.198    0.165
        87  -8.6914     41.4451    157.5224   1.2558756944e+02   3.8813512811e+01    0.1078316   0.08697258  81.72 4.815569e-05    1.026    0.025
        88 -10.3447    249.6994    150.7231   8.3657506763e+01   4.6388351763e+00    0.5310264    0.3240827 -32.25  0.002923299    1.796    0.443
        89  -9.6217    250.2181    140.1749   8.1356303955e+01   5.7127876694e+00    0.2862941    0.1952893  27.26  0.001039304    1.301    0.231
        90 -11.2367    248.9250    133.0916   8.0017105995e+01   6.7644670546e+00    0.6412551    0.2582517 -31.41  0.002795715    2.443    0.591
        91  -9.9117    242.5167    152.9980   8.5259439080e+01   5.7123506756e+00    0.2658703    0.2184109 -28.52  0.001403863    1.427    0.299
        92 -11.1149    244.2456    148.5055   8.4055257878e+01   5.8968020931e+00     0.591307    0.3082411 -21.28  0.002060752    1.939    0.484
        93  -9.3846    221.6472    152.9261   8.8693318759e+01   9.6818175426e+00    0.2597316    0.1956086 -32.25  0.001107398    1.498    0.332
        94  -9.5935    197.3056    150.2855   9.2465126659e+01   1.4816722797e+01    0.2516222    0.1569025 -54.78  0.001167303    2.514    0.602
        95  -8.3660     35.5419    150.4906   1.2616193434e+02   4.0758873529e+01    0.1090331   0.08589128  81.94  9.57943e-05    1.013    0.013
        96  -9.4727    234.8588    147.7421   8.5409340078e+01   7.7649603343e+00    0.2228349    0.1926981 -26.50  0.001194352    1.348    0.258
        97  -8.9852    191.4186    148.2278   9.3135458381e+01   1.6284374092e+01    0.1781411    0.1279068 -44.79 0.0009526187    1.667    0.400
        98  -9.9969    224.0004    146.3092   8.6919296526e+01   1.0048804687e+01    0.3062376    0.2377213  15.42   0.00132929    1.172    0.147
        99  -8.6043    111.4417    147.2113   1.0928114991e+02   3.1439952045e+01    0.1704215    0.1184894 -72.15 0.0009411735    1.647    0.393
       100 -10.3869    230.5219    141.1998   8.4735465885e+01   9.3984056619e+00    0.3444263    0.2308179 -22.56  0.001030455    1.503    0.335
       101  -9.0489      9.3293    141.6912   1.3094394063e+02   4.4758987954e+01    0.1094918   0.05904571  67.89 0.0007040083    1.662    0.398
       102 -10.4275    225.2607    138.3139   8.4991895644e+01   1.0806111108e+01    0.3886238     0.221948 -10.60  0.001812948    2.077    0.518
       103  -9.6973    218.7950    138.9881   8.6244273042e+01   1.2023453383e+01     0.240612     0.173424  58.35  0.001273199    1.656    0.396
       104 -11.1700    241.8860    133.5392   8.1217787191e+01   8.0841237218e+00    0.4850816    0.3673181 -28.79   0.00235395    1.407    0.289
       105 -11.4258    233.3115    133.6759   8.2631253514e+01   9.7701913574e+00    0.5782707    0.3595058 -14.24  0.002959591    1.657    0.396
       106  -8.9957    209.5217    138.0035   8.7658635693e+01   1.4045794729e+01    0.2036474    0.1320487 -27.98  0.001039801    1.614    0.380
       107  -9.2818     53.0091    135.9665   1.2075537208e+02   4.1785668334e+01    0.1737495    0.1510846  86.96 0.0005708607    1.053    0.050
       108  -9.1428    169.8213    134.6002   9.4471710156e+01   2.2763576406e+01    0.2169106    0.1854518  -6.18 0.0005706021    1.275    0.216
       109  -8.9199    221.0393    129.3345   8.3714687250e+01   1.2828489773e+01     0.198919    0.1660553  33.02 0.0005938876    1.106    0.096
       110  -8.7636     61.9944    129.7296   1.1782590235e+02   4.1996916703e+01    0.1381628    0.1002249  42.88 0.0003514696    1.438    0.304
       111 -10.4585    228.9405    125.5230   8.1514497479e+01   1.1683699475e+01    0.3594701     0.242673  15.71  0.001839924    1.545    0.353
       112  -9.6346    206.3161    126.7872   8.5723813876e+01   1.6273367861e+01    0.2195788    0.2160333 -41.80 0.0006909656    1.243    0.195
       113  -9.8157    212.2906    124.8104   8.4200452368e+01   1.5277366323e+01    0.4150028     0.276908  13.58  0.002019103    1.710    0.415
       114  -8.5936    113.9926    126.9544   1.0504094805e+02   3.4866358990e+01    0.1561597    0.1490735  89.54 0.0004063383    1.031    0.030
       115 -10.7768    241.3797    124.6003   7.9292814619e+01   9.2545033638e+00    0.3492589    0.3286481  46.45  0.002195116    1.309    0.236
       116  -9.0861    161.3528    124.4055   9.3967552862e+01   2.6209187745e+01    0.2229563    0.2120093  23.56 0.0005751597    1.031    0.030
       117  -9.7070    189.2985    122.9025   8.7995944175e+01   2.0498699548e+01    0.3240127    0.2273222 -24.17  0.001635911    1.515    0.340
       118  -9.3595    221.5838    120.9322   8.1685847739e+01   1.3824508026e+01    0.2460614      0.17507  33.20  0.000721615    1.305    0.234
       119  -9.7976    230.8743     94.3456   7.3661953882e+01   1.5276405410e+01     0.362061     0.244414 -29.50  0.001171058    1.446    0.308
       120 -10.5992    241.8965     68.9568   6.5489540454e+01   1.5915536316e+01     0.665332    0.3067335 -14.28  0.002594583    2.468    0.595
       121 -10.4664    237.1765     90.1213   7.1627433602e+01   1.4404481969e+01    0.5057306    0.3447257  -6.51  0.001918216    1.499    0.333
       122  -9.3451    244.4130    119.5337   7.7656876059e+01   9.2503819745e+00    0.2570129    0.2258881 -81.71  0.001492291    1.712    0.416
       123 -10.5171    242.0405    104.7847   7.4530334523e+01   1.1532901369e+01    0.4553962    0.2568919 -25.95  0.002177721    1.683    0.406
       124  -9.9358    232.3913     83.9284   7.0754252777e+01   1.6259135498e+01    0.6057351    0.3245659 -51.96  0.002381252    2.787    0.641
       125 -10.0309    237.5014     84.2132   7.0070342539e+01   1.5065354473e+01    0.4065179    0.3517787 -81.19  0.002257299    1.526    0.345
       126 -12.2794    247.7047    108.2173   7.4502403642e+01   9.9310218169e+00      1.40945    0.5493928 -17.58  0.005196579    3.032    0.670
       127 -10.5199    242.9744     92.2161   7.1298112983e+01   1.2869974829e+01    0.4819417    0.2747293 -26.58  0.001627957    1.645    0.392
       128 -10.9131    235.9422     73.6127   6.7534742984e+01   1.6724797052e+01    0.9341125    0.4652603 -33.95  0.004045154    1.914    0.478
       129  -9.9279    247.1969     86.8262   6.9343758198e+01   1.2601032865e+01    0.4579752    0.2336576  55.76  0.002059712    2.061    0.515
       130 -11.5068    244.9868     79.9948   6.7923332064e+01   1.3903818788e+01    0.9302335    0.6085958 -51.47  0.004462389    1.956    0.489
       131  -8.6364    124.9724    119.9873   1.0104926603e+02   3.4230949574e+01    0.1621447    0.1484331  50.25 0.0003455549    1.060    0.056
       132 -11.1235    213.3711    115.6543   8.1850202529e+01   1.6308869256e+01    0.7101568    0.3146616  27.14  0.002278816    3.861    0.741
       133  -9.5821    218.3028    115.4280   8.0941455516e+01   1.5266735009e+01    0.3883952    0.1424862  55.39  0.001377062    3.033    0.670
       134 -10.1713    245.1564     98.1862   7.2456076894e+01   1.1673831505e+01    0.4099517    0.1940992 -25.61  0.001791424    1.983    0.496
       135 -10.8036    229.8502    115.9363   7.9129159231e+01   1.2720923361e+01    0.4946355    0.3443531  51.28  0.002082736    1.488    0.328
       136 -10.2373    235.4185    114.9701   7.8001350203e+01   1.1667715458e+01    0.3672026    0.2130065 -37.91  0.001748824    1.883    0.469
       137  -8.5062    203.6225    115.7616   8.3616619516e+01   1.8431345055e+01    0.1950646    0.1301685 -37.85 0.0007455841    1.608    0.378
       138  -8.5424     52.2091    113.0615   1.1776672795e+02   4.6591259002e+01    0.1622285    0.0838196 -64.18 0.0008072771    1.699    0.411
       139  -9.6096    104.6482    111.8963   1.0419317093e+02   3.9441692154e+01     0.212193    0.1798593  32.57 0.0004440028    1.282    0.220
       140  -9.3669     15.0068    112.0441   1.2706358062e+02   5.0258581044e+01    0.1670589    0.1302399 -82.88 0.0004875148    1.017    0.016
       141  -8.7568    183.2483    107.9721   8.5557585010e+01   2.4153152374e+01    0.1915628    0.1236806 -32.51 0.0005879066    1.594    0.373
       142 -11.0837    220.9868    104.6275   7.7846669690e+01   1.6133650789e+01    0.3887358    0.2835376  39.01  0.001858572    1.298    0.230
       143  -9.4510    221.4831    100.4773   7.6724083250e+01   1.6579000650e+01    0.2751485    0.1311235 -31.70  0.001146363    2.047    0.512
       144 -10.7699    235.7493     99.6492   7.4235099395e+01   1.3524881468e+01    0.6170152    0.2224037 -29.41  0.002340737    2.595    0.615
       145  -8.3228    196.2963    103.3100   8.1873157122e+01   2.1904943955e+01    0.1515037    0.1072208  17.44 0.0007007018    1.594    0.373
       146  -9.5588    130.3721     97.9386   9.4566911147e+01   3.7376943835e+01    0.2562403     0.204492  33.06 0.0005596994    1.308    0.236
       147  -9.8363    225.0069     93.7711   7.4443721967e+01   1.6672807149e+01    0.3613453    0.1943144  -5.56   0.00141496    2.509    0.601
       148  -9.6269    225.9899     86.6684   7.2449783088e+01   1.7375877466e+01    0.3892945    0.2445151   2.05  0.001734846    1.909    0.476
       149  -8.9968    176.1881     87.4110   8.1526849208e+01   2.9044845254e+01    0.2058571    0.1449648  65.28 0.0005427237    1.665    0.399
       150  -9.1645    135.0656     83.0349   8.9387095798e+01   3.9159923033e+01    0.2262354    0.2173147 -10.22  0.001207054    1.022    0.022
       151  -8.7824    195.4318     78.1486   7.5260063630e+01   2.5812654116e+01    0.4535662    0.1795546 -47.27  0.001407853    3.674    0.728
       152  -8.8708    175.2457     77.3984   7.8867174464e+01   3.0841412367e+01    0.2084247    0.1467653  63.92 0.0009477251    1.599    0.375
       153  -9.6520    226.3493     74.4382   6.9152763851e+01   1.8862124057e+01    0.4432785    0.2910635  29.14  0.001763572    1.637    0.389
       154  -8.3784    230.3145     72.3035   6.7994777299e+01   1.8196525932e+01    0.1511716    0.1027379  22.41 0.0002572949    1.618    0.382
       155  -9.5528    214.4540     75.6206   7.1321170404e+01   2.1545731096e+01    0.4117111    0.1600433  51.48   0.00152255    2.421    0.587
       156  -9.4451    200.5282     74.0117   7.3192426723e+01   2.5151948775e+01    0.2320656    0.1435193 -27.97 0.0006925937    1.593    0.372
       157  -8.5342     88.3347     82.2226   1.0151524012e+02   4.8169591256e+01    0.1895144    0.1178213 -57.02 0.0005568764    1.619    0.382
       158  -9.3263    249.9168     71.2200   6.5017203600e+01   1.3840531596e+01    0.2569312    0.1753352  33.65  0.001020916    1.516    0.340
       159  -9.2788    227.5788     61.5672   6.5475182850e+01   2.0167591508e+01    0.3537274    0.1719189 -37.58 0.0009775399    2.035    0.509
       160  -9.3893    227.2670     66.9379   6.6988182435e+01   1.9583746247e+01    0.3769325    0.2689531  -2.01  0.001373868    1.484    0.326
       161 -10.2001    223.5014     66.1565   6.7323529282e+01   2.0584635833e+01    0.4104055    0.2467952  -6.22  0.001779101    1.924    0.480
       162  -9.8320    249.9588     65.7109   6.3595968106e+01   1.4465595809e+01    0.5307675    0.2200401 -32.74  0.002186408    2.174    0.540
       163  -9.6325    245.8020     61.6281   6.3060206750e+01   1.5875773161e+01    0.5799905     0.192659 -31.77  0.002151381    2.613    0.617
       164  -9.3809    238.5802     65.4044   6.4998270392e+01   1.7101876356e+01    0.2707635    0.2057324 -24.40  0.001241482    1.238    0.192
       165  -9.8584    206.9248     60.6971   6.8313819469e+01   2.5357388212e+01    0.3682703    0.1743169 -42.42  0.001342766    2.312    0.568
       166  -8.8377    238.4793     60.4686   6.3696620669e+01   1.7706931278e+01    0.2384361    0.1329471 -22.21 0.0007839762    1.705    0.413
       167  -9.0190    235.0081     59.9591   6.4019105044e+01   1.8584995078e+01    0.2944513    0.2513011 -56.40  0.001046587    1.338    0.253
       168  -9.2323    172.0228     59.4618   7.4079900681e+01   3.4338004304e+01     0.442731     0.188605  49.77  0.001631258    2.219    0.549
       169  -8.6899    134.6578     59.3245   8.2178465330e+01   4.3382213543e+01     0.150832    0.1185187 -72.28 0.0007050897    1.732    0.423
       170  -8.4707    126.5134     58.5032   8.3923876750e+01   4.5343041187e+01    0.1457442    0.1400238 -11.91 -4.320535e-05    1.037    0.036
       171  -9.0302    213.2255     57.4181   6.6396699929e+01   2.4200432009e+01     0.197975      0.14562  77.45 0.0009400166    1.632    0.387
       172  -9.4399    250.3558     54.6720   6.0686001341e+01   1.5620835137e+01    0.3050299    0.1696396 -27.70  0.001121775    1.631    0.387
       173 -10.2392    232.8654     44.6439   6.0113220325e+01   2.0860805641e+01    0.7635353    0.2938458  33.99  0.002294459    4.386    0.772
       174 -10.4256    244.3169     51.3507   6.0532985484e+01   1.7382620602e+01    0.4574729    0.3195505 -53.71  0.001987299    1.655    0.396
       175 -10.8112    236.2279     53.6232   6.2145564753e+01   1.9033279394e+01    0.6828179    0.3396435  72.70  0.002738161    2.602    0.616
       176 -10.8546    228.5586     52.4868   6.2834960934e+01   2.1013148368e+01    0.5266022    0.3439564  15.20  0.001979097    1.821    0.451
       177  -8.8020    207.5316     53.9598   6.6257000524e+01   2.6063622708e+01    0.2244451    0.1429273 -23.86 0.0005950248    1.542    0.351
       178 -10.5355    199.5405     54.4999   6.7671083927e+01   2.8023522278e+01    0.4234939    0.2448252  29.05  0.001555023    2.088    0.521
       179  -9.7266    250.1308     48.0246   5.8977422580e+01   1.6402081459e+01    0.4234506    0.1940292 -16.66  0.001737534    2.256    0.557
       180 -10.8328    244.3998     42.0317   5.8043461169e+01   1.8383522929e+01    0.4475965    0.4317911 -46.08  0.002129123    1.089    0.082
       181  -9.8556    238.5025     38.1417   5.7664207303e+01   2.0205627109e+01    0.3513263    0.2886624  60.36  0.001703389    1.266    0.210
       182  -9.1192    216.1005     47.3763   6.3087303259e+01   2.4701362580e+01    0.2816683    0.1923276  86.73  0.001279199    1.897    0.473
       183  -9.5885    238.5538     45.2161   5.9578567547e+01   1.9425191773e+01    0.2354098    0.1979402 -32.63  0.001058966    1.152    0.132
       184  -8.8550    124.2382     46.4191   8.0315588987e+01   4.7825062990e+01    0.1941492    0.1442182  62.91 0.0007034389    1.571    0.364
       185  -8.2226    113.2973     46.6798   8.3279586129e+01   5.0167779904e+01    0.1405569    0.1137048 -65.77 0.0003223636    1.617    0.382
       186  -9.8583    189.9499     43.4490   6.5838753532e+01   3.1893812031e+01    0.3477744    0.2239044 -21.53  0.001569165    1.564    0.361
       187 -10.2671    217.5788     41.9536   6.1316932972e+01   2.4958132431e+01    0.4930434    0.3170196  77.61  0.002244836    1.843    0.457
       188  -8.6600    183.6381     43.2090   6.6806583799e+01   3.3567282599e+01    0.2149994    0.1419011  -9.36 0.0007546183    1.668    0.401
       189 -10.4928    159.4823     42.0131   7.0829090109e+01   3.9964413043e+01    0.3081735    0.2782958 -23.51 0.0004377074    1.117    0.105
       190  -8.4656    134.5803     42.8161   7.6491870236e+01   4.5989911540e+01     0.210998     0.132334 -40.35 0.0009392515    1.658    0.397
       191 -10.1652    200.9213     39.2798   6.2855299198e+01   2.9540771009e+01    0.3297655    0.2240185  -5.37  0.001355935    1.617    0.382
       192  -8.7874    165.6408     40.3248   6.9066504906e+01   3.8609358451e+01    0.1587463    0.1161939 -64.36 0.0004311269    1.779    0.438
       193  -8.7322    209.0521     39.3239   6.1707319767e+01   2.7433433952e+01    0.1999387    0.1897431  50.95 0.0005255049    1.064    0.061
       194 -10.3623    185.5764     37.7094   6.4725727208e+01   3.3737753784e+01    0.4640653    0.2218923 -35.63  0.001828576    2.072    0.517
       195  -8.9554    173.4995     39.5369   6.7366664263e+01   3.6672638052e+01    0.1520458    0.1428703  24.47  0.000185818    1.012    0.012
       196  -8.7806     61.3590     38.2339   9.6544579707e+01   6.0861646299e+01    0.1862498    0.1087574 -50.13 0.0009494256    1.667    0.400
       197  -9.4929    233.3445    247.5042   1.0247931367e+02  -1.8718200663e+00    0.2017377     0.146174  56.73  0.001459455    2.076    0.518
       198  -9.2341    249.1265    246.4586   1.0004190115e+02  -4.0357134397e+00    0.1618066    0.1295202   4.04 0.0008076457    1.379    0.275
       199  -9.6848    242.7080     34.4020   5.6188722115e+01   1.9591144506e+01    0.2923104    0.2512721  -0.43 0.0007456581    1.167    0.143
       200  -9.8905    233.9714     20.1737   5.3230476632e+01   2.3142244618e+01    0.4374042    0.2512246  30.18  0.001823243    2.137    0.532
       201  -9.0242    186.9911    247.2861   1.0942299630e+02   4.9615335078e+00    0.1530083   0.09969381  40.04 0.0004913245    1.079    0.074
       202  -9.6615    191.6425    245.4666   1.0849473771e+02   4.4460310298e+00    0.2584827     0.122615  29.15  0.001368707    2.193    0.544
       203 -10.0909    225.1882    242.6954   1.0305265145e+02  -2.9400958664e-01    0.2280005    0.2030653   0.32  0.001444141    1.452    0.311
       204  -9.3488    202.4930    242.0547   1.0641081520e+02   3.1451195623e+00    0.2219684    0.1196855  40.91  0.001127035    1.324    0.245
       205 -10.2143    240.1678    240.3056   1.0050248639e+02  -2.2904957125e+00    0.2425937    0.1755964  34.69   0.00105478    1.208    0.172
       206  -9.7548    246.7737    240.4095   9.9547404671e+01  -3.2510599839e+00    0.2098108    0.1708435   6.31  0.001005406    1.348    0.258
       207  -8.9815    243.6130    236.7956   9.9503198785e+01  -2.5145868805e+00    0.1653269    0.1184351 -13.90  0.001165119    1.611    0.379
       208  -9.3161    214.9391    240.4828   1.0430740682e+02   1.4202572965e+00    0.1798801     0.149029   5.95  0.001193373    1.342    0.255
       209 -10.7075    227.3712     33.0158   5.7532289732e+01   2.3480943639e+01    0.6338795    0.2861846 -34.67  0.002614879    2.065    0.516
       210  -9.1549    232.0893     32.3036   5.6788350757e+01   2.2386105546e+01    0.3549553    0.2157912 -78.22  0.001171314    2.279    0.561
       211  -9.5359    236.4322     30.5211   5.5814992536e+01   2.1506221169e+01    0.3916472     0.209972 -28.86   0.00169737    1.722    0.419
       212  -8.9806    221.7394     31.3268   5.7721655579e+01   2.5074623789e+01    0.2784595    0.1570896 -32.91  0.001250184    1.689    0.408
       213  -9.5018    216.2393     30.9673   5.8291369631e+01   2.6512620591e+01    0.3469742    0.2483205 -45.62  0.001343646    1.461    0.315
       214  -9.4098    213.3166     31.6906   5.8873104295e+01   2.7185030097e+01    0.3462614    0.1731425 -43.31  0.001408722    2.119    0.528
       215 -10.0454    201.4071     27.2358   5.9089011987e+01   3.0759045312e+01    0.4158201    0.2143982  -6.96  0.001338184    2.372    0.578
       216 -10.1498    175.8372     27.7692   6.3037903301e+01   3.7464717912e+01    0.4415354    0.2824056 -58.46  0.001698283    2.015    0.504
       217  -9.8862    230.9799    236.7439   1.0137772619e+02  -6.5129178737e-01    0.2363196    0.1493981 -17.42  0.001361395    1.887    0.470
       218  -8.9636    142.6847     25.3499   6.8241478674e+01   4.6353154257e+01    0.1527593    0.1124719 -58.25 0.0007047085    1.728    0.421
       219  -9.1663    110.6356     23.7651   7.5086820442e+01   5.4166303905e+01    0.2053528    0.1220781 -35.30 0.0006217208    1.680    0.405
       220  -9.0350    117.8638     22.1352   7.2572448449e+01   5.2745824407e+01    0.2074352    0.1578245  23.73 0.0004895063    1.304    0.233
       221  -8.6994    199.4985     20.5017   5.7254108720e+01   3.1957986813e+01    0.1425103    0.1414994  40.65 2.498602e-05    1.027    0.026
       222  -8.4535    148.3153     20.7271   6.5387433017e+01   4.5458435463e+01    0.1437208    0.1143382 -64.59 0.0004626754    1.560    0.359
       223  -9.1047     89.0040     19.1242   7.9247094377e+01   5.9310142505e+01    0.2041395    0.1809273  -0.26 0.0004592532    1.025    0.024
       224 -10.4880    205.9277    235.7361   1.0506900137e+02   3.2217929996e+00     0.335528    0.2656174  49.65  0.002103531    1.418    0.295
       225  -9.5520    219.1932    235.6989   1.0302117997e+02   1.2072470061e+00    0.2439097    0.1529264  33.58  0.001734906    1.139    0.122
       226  -9.4399     73.7747     17.5818   8.3518690253e+01   6.2344645744e+01    0.1667081    0.1285197  54.56 0.0009471393    1.663    0.399
       227  -8.9742    248.4275    234.2773   9.8434094892e+01  -3.0174266247e+00    0.1377272    0.1253873  -5.55 0.0009962914    1.608    0.378
       228  -8.8157    201.6846     11.6896   5.4255022601e+01   3.2226312720e+01    0.2288464    0.1393565  63.39 0.0008733491    1.565    0.361
       229  -8.4436    162.1998     15.3945   6.0968737838e+01   4.2399792131e+01    0.2009257    0.1414921  80.45 0.0009334363    1.623    0.384
       230  -9.1281    107.4564     15.3557   7.2345221636e+01   5.5938472779e+01    0.2273461    0.1304321  55.10 0.0005654944    1.795    0.443
       231  -8.5289    173.0131     14.4845   5.8955504207e+01   3.9613456485e+01    0.2223606    0.1391016  62.68 0.0005578032    1.524    0.344
       232 -10.7552    238.6554    220.1283   9.7805541351e+01  -3.8641004225e-01    0.3029016    0.2750539   2.02  0.001760418    1.452    0.311
       233  -9.0494    244.7801    231.6478   9.8592732308e+01  -2.2758603608e+00    0.1945605    0.1352078 -30.67 0.0009123429    1.985    0.496
       234  -9.1194    243.8411    225.2618   9.7792881086e+01  -1.6136508212e+00    0.2223196     0.132308 -19.59  0.001520271    1.916    0.478
       235  -9.6212    238.0728    231.6061   9.9588231453e+01  -1.2781034303e+00    0.3700521    0.2071219  58.69  0.001880071    3.633    0.725
       236 -10.8829    229.3854    226.7701   1.0020897556e+02   4.5136575219e-01    0.4532793    0.2095484 -28.90  0.002281328    2.654    0.623
       237 -10.2759    227.4944    219.6526   9.9454818944e+01   1.3912069398e+00    0.2882415    0.1757704   3.76  0.001585946    1.902    0.474
       238  -9.0956    113.6605    231.3135   1.1934797092e+02   1.7551290971e+01    0.1086777   0.06287614  62.95 0.0007046856    1.698    0.411
       239 -10.3251    248.2192    227.0558   9.7406183224e+01  -2.4141309338e+00    0.2550873    0.1667134  -4.51  0.001154754    1.579    0.367
       240  -9.0816    199.4141    227.7444   1.0502937991e+02   5.0186424837e+00     0.171142    0.1068061 -40.80   0.00114061    2.213    0.548
       241  -9.0475    216.0906    231.1067   1.0287085603e+02   2.0989915438e+00    0.1728179     0.113015  24.25 0.0008128418    1.309    0.236
       242  -9.0903     99.2623    226.2584   1.2123818659e+02   2.0215328003e+01     0.145863   0.09135026  60.81  0.001038586    1.350    0.259
       243 -10.7938    208.5591    223.8385   1.0303942053e+02   3.9724498917e+00    0.3397321    0.1796695  34.78   0.00195065    1.466    0.318
       244  -9.6824    193.4165    219.3481   1.0484759476e+02   6.8577078301e+00    0.2402536    0.1966009  64.20  0.001729667    1.617    0.381
       245 -11.1446    247.2407    214.7904   9.5674554711e+01  -1.2433302728e+00    0.4895905    0.2987978 -23.72  0.003304922    1.879    0.468
       246  -8.9250    159.9615    218.5319   1.1028413628e+02   1.2311700767e+01    0.1655891   0.08009029  29.57 0.0008097618    2.641    0.621
       247  -8.7569    166.3115    217.3111   1.0906268858e+02   1.1453303376e+01    0.1105359    0.0761517  23.30 0.0007028278    1.628    0.386
       248 -10.0722    214.7465    209.6636   9.9965077846e+01   4.4161624847e+00    0.2194502    0.1699026 -15.17  0.001566148    1.483    0.326
