#   1 NUMBER                 Running object number                                     
#   2 MAG_AUTO               Kron-like elliptical aperture magnitude                    [mag]
#   3 X_IMAGE                Object position along x                                    [pixel]
#   4 Y_IMAGE                Object position along y                                    [pixel]
#   5 X_WORLD                Barycenter position along world x axis                     [deg]
#   6 Y_WORLD                Barycenter position along world y axis                     [deg]
#   7 A_WORLD                Profile RMS along major axis (world units)                 [deg]
#   8 B_WORLD                Profile RMS along minor axis (world units)                 [deg]
#   9 THETA_WORLD            Position angle (CCW/world-x)                               [deg]
#  10 FWHM_WORLD             FWHM assuming a gaussian core                              [deg]
#  11 ELONGATION             A_IMAGE/B_IMAGE                                           
#  12 ELLIPTICITY            1 - B_IMAGE/A_IMAGE                                       
         1 -11.1483    110.3576     39.9493   1.7092335256e+01   5.0583008643e+01    0.9689013     0.372062 -38.82  0.004259147    2.817    0.645
         2 -12.1609    116.8444     46.5774   1.7631223468e+01   4.8299700230e+01     1.027206    0.4881423 -41.05  0.002523497    2.246    0.555
         3 -12.2533    164.8074     17.9687   3.7235126491e+00   4.1706013385e+01    0.4207548    0.2591092  46.58  0.002545225    2.316    0.568
         4 -11.9018    146.8696     26.6991   7.6861131644e+00   4.4387093581e+01    0.8866155    0.3833675  86.62   0.00383414    3.132    0.681
         5 -12.8921    153.1091     22.7108   6.0057868533e+00   4.3545816994e+01     1.397884    0.4096018  77.68  0.004861917    4.886    0.795
         6 -12.9184    164.6222     27.0847   5.7364187316e+00   4.0756288142e+01    0.3892038    0.2469231 -76.97 0.0006411733    1.460    0.315
         7 -13.0189    111.3090     26.6385   1.3067007779e+01   5.1995843238e+01     1.107272    0.5534221  39.87  0.005039965    2.886    0.654
         8 -10.1393     60.4757     22.1504   2.4399557230e+01   6.3478530973e+01    0.4020565    0.1718021 -30.82  0.001829462    2.991    0.666
         9 -11.4318     20.6439     21.5969   4.2664563921e+01   7.0729558047e+01    0.4913861    0.3398383 -19.33  0.001865339    1.632    0.387
        10 -11.3628    134.0114     21.5410   8.0830845326e+00   4.7649796842e+01     0.449869    0.2978522 -33.58  0.002799745    1.780    0.438
        11 -12.1296    128.0866     15.6101   7.3456179137e+00   4.9532458457e+01    0.4498195    0.4143609 -86.23  0.001877965    1.192    0.161
        12 -11.2943    135.8743     14.4353   6.0336292603e+00   4.7990179280e+01    0.4087954    0.1935477  68.12  0.002245188    1.779    0.438
        13 -11.7044     36.2434     18.1621   3.2629198746e+01   6.8653625937e+01    0.5544487    0.4425725 -36.94  0.002371694    1.525    0.344
        14  -9.9371     12.5785      2.2149   3.8181544274e+01   7.4563348725e+01     0.251054      0.16589 -17.37  0.001315432    1.760    0.432
        15 -11.6261      9.1785     19.4885   4.9200123593e+01   7.2588102700e+01    0.5171588    0.2692103   3.95  0.001106788    2.610    0.617
        16 -11.8366     16.1072     13.7292   4.1829154511e+01   7.2527938497e+01    0.6390961    0.3693131 -20.09  0.003417657    2.241    0.554
        17 -10.5526     12.9842      8.2406   4.1138204078e+01   7.3730033046e+01    0.2844572    0.2645338  35.74    0.0015358    1.388    0.279
        18 -12.0164     22.9454     10.4385   3.6009113935e+01   7.1914413279e+01    0.4548146    0.3778738  -2.61  0.002042939    1.270    0.213
        19 -11.0131     85.7053     14.7083   1.4546829722e+01   5.8902841945e+01    0.4611529    0.3220627  17.72  0.002427095    2.125    0.530
        20 -11.0211     88.1339      8.0039   1.1740200757e+01   5.9015274001e+01    0.4045034     0.259326  65.59  0.002239043    1.253    0.202
        21 -11.0095    242.3372     14.9658   3.5784789457e+02   2.8636111293e+01    0.1668632    0.1320782 -54.22 0.0001461898    1.312    0.238
        22 -12.0383    227.7314     14.8253   3.5857835397e+02   3.0877360709e+01    0.3445705     0.152877 -72.35  0.001427763    2.104    0.525
        23 -11.9325    104.6805     12.5056   1.0060910813e+01   5.4939973692e+01    0.3601748    0.3147432 -22.65  0.001464464    1.486    0.327
        24 -11.6911    191.2184     11.6264   2.5984031871e-01   3.7366682574e+01    0.3456442    0.2065179 -24.75  0.002100805    2.466    0.595
        25 -11.1153    120.7150     11.4909   7.2559892952e+00   5.1529482302e+01    0.2985768    0.1584945  74.65 0.0009274487    1.604    0.377
        26 -10.0453      5.6167      9.1170   4.6858110175e+01   7.4593664582e+01    0.2026815     0.154865  -6.02 0.0007602146    1.235    0.190
        27 -10.5722    223.5482      2.4569   3.5674578880e+02   3.2764968021e+01    0.1862293    0.1154289 -65.03 0.0006504484    1.154    0.133
        28 -11.7832    212.2552      9.5347   3.5854318822e+02   3.3919889300e+01    0.3687473    0.2552798 -23.56  0.001949576    2.227    0.551
        29 -10.9062    218.5493      3.4417   3.5715630480e+02   3.3477362485e+01    0.2072974    0.1473969  72.90 0.0008539518    1.594    0.373
        30 -12.2149    168.1911      9.4815   1.5898498151e+00   4.1901203801e+01    0.4758405     0.174575  67.02  0.002330682    2.392    0.582
        31 -12.5198     48.6965     12.8391   2.4861529575e+01   6.6928630528e+01    0.7078822     0.237756  51.06  0.003063374    2.354    0.575
        32 -10.9291     64.2841     10.0154   1.8384928260e+01   6.4009405551e+01    0.3123711    0.1764434  62.14 0.0005551091    1.509    0.337
        33 -10.2049     62.9358      6.5028   1.7376277695e+01   6.4635032327e+01    0.3123649    0.1554939  54.44  0.001671859    1.565    0.361
        34 -11.8884    185.3761      6.6512   3.5970210333e+02   3.8922655481e+01    0.2449949    0.1748076 -71.68  0.001151259    1.070    0.065
        35  -9.6725      1.1518      7.2627   4.9390416650e+01   7.5392588858e+01    0.1805907   0.07851273 -44.39 0.0007468778    2.556    0.609
        36 -10.1304    180.2938      7.6480   2.6165987314e-01   3.9769227651e+01    0.1141587   0.05887933 -64.85 0.0004328556    1.681    0.405
        37 -11.3529    153.9982      6.5278   2.1894059181e+00   4.5002496234e+01    0.2160735    0.1424913  75.62 0.0007030724    1.306    0.234
        38  -9.5776     78.0560      7.4822   1.3774488172e+01   6.1277453887e+01    0.1861699   0.09950594  64.43 0.0006302917    1.522    0.343
        39 -10.0667     30.5663      5.1884   2.9255250270e+01   7.1221494391e+01    0.2313937    0.1186902 -36.35 0.0009525446    2.400    0.583
        40 -10.1871     28.8677      1.4575   2.8198267578e+01   7.1928742805e+01    0.1701256    0.1225241  43.17 0.0003903366    1.104    0.094
        41 -10.2028    247.7851      5.4333   3.5613365800e+02   2.8784716364e+01    0.1089871   0.07274105  77.88 0.0009502149    1.655    0.396
        42 -10.6840    144.9968      9.7327   3.8319224091e+00   4.6540651435e+01    0.1763018    0.1475665  46.44  0.000683151    1.575    0.365
        43 -10.1843    164.8858      4.2489   7.4069561949e-01   4.3047200037e+01    0.1758857    0.1391222  27.99  0.001238052    2.146    0.534
        44 -10.3723    148.9649      5.5005   2.4274523325e+00   4.6123091036e+01    0.1709206   0.09054796  75.63 0.0008053579    1.580    0.367
        45 -10.9211    142.2598      3.4641   2.6020326063e+00   4.7692916417e+01    0.2747291    0.1940541 -73.83  0.001911299    1.225    0.184
        46 -10.3238    128.9750      4.7642   4.3795153536e+00   5.0376293207e+01    0.1700738    0.1374366  89.17            0    1.031    0.030
        47 -12.2675    135.0348      2.9951   3.2393312625e+00   4.9247971996e+01    0.7038407    0.2357364  79.41  0.003102333    2.927    0.658
        48 -10.8256     41.4088      3.8744   2.3696951259e+01   6.9308612218e+01    0.3629249    0.1848484  34.17  0.001870152    2.066    0.516
        49 -10.5290    235.8650      4.1267   3.5644637128e+02   3.0682622601e+01    0.1547643   0.08691518 -63.50 0.0008864806    1.271    0.213
        50 -11.4578    113.4129      2.2126   5.6659045036e+00   5.3962463928e+01    0.4218912    0.1952617  80.75  0.001614621    1.997    0.499
        51 -11.7510    206.2043      1.9622   3.5754672043e+02   3.5678273683e+01    0.4230462    0.1503105  80.53  0.002107628    2.609    0.617
        52 -10.6229    105.5580      2.1464   6.7813881924e+00   5.5688423359e+01    0.2541151    0.1579155 -74.02   0.00148196    1.714    0.417
        53 -10.0072     75.4001      2.9327   1.2727262131e+01   6.2263839078e+01     0.298972    0.1419153  72.73  0.001478796    2.035    0.509
        54 -10.2588      1.9211      2.1860   4.6073893201e+01   7.6024216818e+01    0.2092084    0.1475787 -14.84  0.001037801    1.442    0.306
        55  -9.2398     52.6467      1.8645   1.8628373590e+01   6.7225341613e+01    0.1423992    0.1074167 -46.59 0.0004028833    1.697    0.411
        56  -9.4232    160.3304      1.3163   4.7162197512e-01   4.4215346670e+01    0.1005203   0.07449858  54.70 0.0007046313    1.682    0.406
        57  -9.6785    152.1243      1.4403   1.1945863974e+00   4.5849715434e+01     0.163583   0.08796601  78.32 0.0009077637    1.542    0.352
        58 -10.1165    123.5856      1.4921   4.1546607282e+00   5.1819618738e+01    0.2312209   0.09246057  72.38  0.001171492    2.030    0.507
        59  -9.4818     82.2457      1.2511   1.0615817868e+01   6.0904168645e+01    0.1677865   0.08543067  71.17 0.0005286434    1.669    0.401
        60 -12.0034     25.7094    107.3072   6.5194274202e+01   5.2311929738e+01     0.800871    0.4736756 -62.89  0.003666133    1.710    0.415
        61 -10.5266    249.5091    250.0278   3.2945160227e+01  -3.7370067145e+00    0.1620281    0.1429926 -23.40  0.001051037    1.635    0.388
        62  -9.4746    201.5139    250.4917   4.0590581170e+01  -3.2359833648e-01    0.1121078   0.08147344 -15.36 0.0008104726    1.004    0.004
        63 -11.5290     27.6081    112.4611   6.5315275809e+01   5.0814794079e+01    0.6047768      0.29628  41.50  0.002344647    2.190    0.543
        64 -10.0377     48.9586    111.8836   5.6407830662e+01   4.8456309591e+01     0.226703    0.2096173  19.34 0.0004841288    1.040    0.039
        65 -11.0668     16.5617    109.0161   6.9509697870e+01   5.2692967142e+01    0.4260845     0.328464 -77.25  0.002098849    1.417    0.294
        66 -10.6514     12.4665    110.0589   7.1479154254e+01   5.2739184816e+01    0.3191063    0.1734325 -52.38 0.0008428261    1.701    0.412
        67 -11.7442     79.0302    108.0437   4.4489124363e+01   4.4714312444e+01    0.5763646    0.3648995  20.73  0.001445418    1.841    0.457
        68 -11.3361     50.3964    100.7035   5.3338348871e+01   5.0948663928e+01    0.6767121    0.4008296 -23.77  0.002763197    2.291    0.564
        69 -10.2950     91.6006    102.0362   3.8988194140e+01   4.3780146714e+01    0.3545821    0.2699584 -17.39  0.001739225    1.682    0.406
        70  -9.5369     86.0172    103.2985   4.1048864758e+01   4.4528899111e+01    0.2039646    0.1834324  34.91 0.0003942529    1.066    0.062
        71  -9.6673     57.1867    103.1855   5.1230302817e+01   4.9370334763e+01    0.2040648    0.1756808  65.99 0.0006311678    1.357    0.263
        72 -11.4341     28.1092     85.1423   5.9456775912e+01   5.7451087557e+01    0.6079762    0.4347181  17.62  0.001225461    1.317    0.241
        73 -10.5966     17.1479    100.1249   6.7718234964e+01   5.4899435353e+01    0.3029985    0.1904085 -57.60  0.001116934    1.540    0.351
        74 -11.4023     22.8789     94.3158   6.3943068355e+01   5.5814634933e+01    0.5267023     0.308872 -25.08  0.001995695    1.900    0.474
        75 -10.8620     18.6606     87.5832   6.4556356183e+01   5.7840244888e+01    0.6423669    0.3632623 -67.28  0.002945678    1.939    0.484
        76  -9.9293     38.8607     90.1882   5.5723649019e+01   5.4977628958e+01    0.2716919    0.1889786   0.32 0.0006732031    1.587    0.370
        77 -11.6354      9.2257     96.9246   7.0857466891e+01   5.6310148213e+01    0.4602135    0.4008901  54.70 0.0003525829    1.316    0.240
        78 -11.6922     22.4180    114.0238   6.7797491107e+01   5.0904573093e+01    0.6035298    0.3055333   0.23  0.002232017    2.341    0.573
        79 -12.0154    210.4260     98.1269   1.4612114316e+01   2.3109326485e+01     0.197184    0.1625347 -56.70 0.0002772943    1.018    0.018
        80 -11.9241     67.8950     94.8317   4.5129469034e+01   4.9545643845e+01    0.4986765    0.3280323  34.56  0.001569196    1.432    0.302
        81 -10.1510     77.1540     96.6450   4.2316347406e+01   4.7546791473e+01    0.2676177    0.2223984   3.28 0.0005260827    1.367    0.268
        82 -11.2078     79.0453     93.0544   4.0749842897e+01   4.7969448068e+01    0.7591134    0.5299938  43.36  0.003761126    1.364    0.267
        83 -11.5576    248.5428     95.3292   1.0156320173e+01   1.8172393529e+01    0.2263481    0.1405498 -43.88  0.001673039    1.261    0.207
        84 -10.2810     42.5117     94.0423   5.5054807856e+01   5.3600494736e+01    0.3719041    0.3357394  26.73   0.00209331    1.083    0.077
        85  -9.9659     43.5150     90.2191   5.3692613218e+01   5.4347987660e+01    0.2203741    0.1806741  32.03 0.0005136193    1.174    0.148
        86 -10.2900     35.8542     92.5971   5.7633173244e+01   5.4794613918e+01    0.5215461    0.3121009  87.66  0.001999785    3.117    0.679
        87 -10.2195     98.1789     90.8598   3.4210228598e+01   4.4807523903e+01    0.2328764    0.1896555  48.90 0.0004473984    1.173    0.147
        88 -10.0154     50.3975     91.1409   5.1010485039e+01   5.3153722781e+01     0.260757    0.1946605  15.34  0.001037798    1.350    0.259
        89 -10.5321     10.7009     90.2955   6.8981735995e+01   5.7845064082e+01    0.2210511    0.2083441 -40.36 0.0004496288    1.092    0.084
        90 -11.4272      6.4025     88.3160   7.0744687887e+01   5.8630977959e+01    0.6858515    0.3511909  13.28  0.003103568    1.885    0.469
        91  -9.8563     66.8905     88.2119   4.3767822045e+01   5.1142244128e+01    0.2669616    0.1956655  13.47 0.0006998248    1.569    0.363
        92 -10.0202     52.1815     86.8748   4.9172089424e+01   5.3834471175e+01    0.2067711    0.1913246  52.63 0.0003573107    1.182    0.154
        93  -9.9871     90.6081     85.6990   3.5095837960e+01   4.7283749179e+01    0.3280408    0.2457431  75.33  0.001626979    1.717    0.418
        94 -11.3183     44.8746     84.0250   5.1520924078e+01   5.5550318135e+01    0.4657467    0.3876371 -89.72  0.002164856    1.567    0.362
        95 -10.3399    115.2919     85.6369   2.8325306993e+01   4.2403742102e+01    0.3977148    0.1817799  54.45  0.001181323    2.275    0.560
        96  -9.6801    113.3227     82.6555   2.8052150597e+01   4.3336623223e+01    0.3031537    0.2152265  59.33  0.001588924    1.406    0.289
        97 -10.1071     81.4399     83.5487   3.7414502093e+01   4.9460762856e+01    0.4672348    0.2999401  25.76  0.002145819    1.835    0.455
        98 -11.7936     75.4399     78.5788   3.8051187450e+01   5.1563658910e+01    0.5445079    0.4851156  67.48  0.001281178    1.225    0.183
        99 -12.5365     60.9384     83.3971   4.4723117605e+01   5.3171314815e+01    0.3026903    0.2686344  37.21 0.0003697145    1.077    0.072
       100 -10.2927     58.0390     77.9648   4.4348107323e+01   5.4785796231e+01    0.2136983    0.1983106  19.21 0.0004198897    1.022    0.022
       101  -9.5158     37.0866     85.5078   5.5369033434e+01   5.6281824493e+01    0.2208147    0.1316445  27.23 0.0008597191    1.561    0.359
       102  -9.3785    143.4279     84.2489   2.1902481071e+01   3.7043875600e+01    0.1693908    0.1167598 -55.99 0.0005139074    1.447    0.309
       103 -10.8782      2.3396     80.3466   7.1387140392e+01   6.0812187038e+01     0.518811    0.2743726  87.06  0.001570658    2.888    0.654
       104 -10.6982      1.9841     71.2027   6.9820328309e+01   6.2981492001e+01    0.3880591    0.2065926 -57.27  0.001887963    1.767    0.434
       105 -10.2345     67.2739     81.4451   4.1777059407e+01   5.2480798035e+01    0.3289956    0.2536721   5.35  0.001673681    1.555    0.357
       106  -9.7354    162.3338     81.1574   1.7912152984e+01   3.3911102666e+01    0.1635751    0.1356684 -61.35 0.0003143688    1.103    0.093
       107 -10.8559     89.3028     77.0172   3.3123149131e+01   4.9185932964e+01    0.4178609     0.302621  60.04  0.001782239    1.454    0.312
       108 -10.5155     94.3453     75.5577   3.1225951443e+01   4.8446141375e+01    0.3933429    0.3424788 -85.75  0.001843205    1.285    0.222
       109  -9.4897    118.9991     78.2207   2.5563013821e+01   4.2961592635e+01    0.1795005    0.1674777  82.02 0.0003988498    1.019    0.019
       110 -10.7294     53.2328     75.9136   4.5721596681e+01   5.6000848640e+01    0.3721319    0.3274894  35.04  0.001747276    1.085    0.078
       111 -12.1456    247.9475     75.9888   7.1379982503e+00   2.0792257767e+01    0.3034957    0.1989229 -71.99  0.002328798    1.517    0.341
       112 -10.7962     14.2173     74.3197   6.3879267135e+01   6.1343761824e+01     0.315888    0.2949627 -57.39  0.001339423    1.206    0.171
       113  -9.7058     46.5379     75.2398   4.8389026141e+01   5.7194992057e+01    0.3799265    0.2002905 -24.85  0.001402063    3.148    0.682
       114  -9.9027     64.5834     75.2784   4.1028016735e+01   5.4194212338e+01    0.3596383    0.1652483  29.70 0.0009759914    2.485    0.598
       115 -11.5582     27.3922     73.4152   5.6874625623e+01   6.0185112083e+01    0.4431465    0.2847818  -1.91   0.00107341    1.729    0.422
       116 -10.6225     34.7910     71.3216   5.2673082332e+01   5.9705638782e+01    0.4435144    0.2191638  36.49  0.001376417    1.905    0.475
       117 -10.2282     40.7126     72.5883   5.0248348049e+01   5.8614566158e+01    0.3506194    0.2444536  10.81  0.001013111    1.509    0.337
       118 -11.0318     40.5396     68.8456   4.9240325805e+01   5.9415882956e+01    0.3114099    0.2349409  30.14  0.000835792    1.210    0.173
       119 -10.1581     80.6294     71.5207   3.4282753494e+01   5.1902655627e+01    0.3458433    0.2211915 -42.76  0.001579933    1.716    0.417
       120  -9.4453    154.0507     72.0000   1.7225005421e+01   3.6919341123e+01    0.1927901   0.06778649  57.28 0.0005730543    2.844    0.648
       121 -11.0790    122.7495     68.3932   2.2210861847e+01   4.3816965025e+01    0.3759809    0.2138454  48.61 0.0009605563    1.734    0.423
       122  -9.6657     13.4626     67.8160   6.2722402457e+01   6.2874405261e+01    0.4825162    0.2366739  11.36  0.001725302    2.025    0.506
       123 -10.1946    102.0869     66.5845   2.6603266042e+01   4.8413608076e+01    0.2608791    0.1914791 -39.94            0    1.508    0.337
       124 -11.6154     13.8445     57.0470   5.9643070511e+01   6.5155718618e+01     1.485091     0.709702  -6.96   0.00578736    2.985    0.665
       125 -12.2138      7.4923     63.4802   6.4994131071e+01   6.4337157758e+01    0.2787845    0.2204998 -13.27 0.0005110097    1.133    0.117
       126 -12.4442      4.2893     61.0489   6.6259797260e+01   6.5112986145e+01    0.3132178    0.2588414 -30.23 0.0003183472    1.109    0.099
       127 -10.0061    202.2858     63.1020   9.0890913401e+00   2.9380452471e+01    0.2499504    0.1286059 -40.84  0.001185061    1.784    0.440
       128 -11.4754     46.6223     59.2950   4.3504380477e+01   6.0346306381e+01    0.6917368    0.2662695  49.90  0.002300671    3.801    0.737
       129 -11.7228     43.1258     60.4109   4.5449112813e+01   6.0695892442e+01    0.4684347    0.2838382 -52.83  0.001142102    1.901    0.474
       130 -11.4765     39.5572     56.6043   4.5889278020e+01   6.1973385252e+01    0.2913183    0.2136729  31.17 0.0006031417    1.214    0.176
       131 -10.0407    158.9360     62.7639   1.4388000791e+01   3.7329403274e+01    0.2280844    0.1442545  52.66 0.0007278774    1.701    0.412
       132 -10.0074    106.0414     63.2210   2.4664151264e+01   4.8135111286e+01    0.2790723    0.1401741  37.66  0.001156168    2.572    0.611
       133 -10.9328     92.5560     62.5006   2.8016986058e+01   5.1064727658e+01    0.3697664    0.2252296  64.37  0.000832026    1.856    0.461
       134  -9.9928     58.2165     62.2573   3.9553731602e+01   5.7810113313e+01    0.2709511    0.2259713  66.99  0.001519106    1.444    0.308
       135  -9.5655    150.8685     60.8659   1.5187850174e+01   3.9198599789e+01    0.1658822    0.1624869  85.90 0.0005126524    1.231    0.188
       136  -9.9294    113.4929     60.6310   2.2193100217e+01   4.6972734541e+01    0.2486174    0.2055888 -77.53 0.0008147927    1.276    0.216
       137 -10.1102     25.8032     59.3742   5.3710735418e+01   6.3345631470e+01    0.7004839     0.242235  26.44  0.002668435    2.655    0.623
       138 -10.8075     25.6047     55.3783   5.2577911001e+01   6.4170616429e+01    0.3345011    0.2303177 -23.61 0.0007454504    1.558    0.358
       139 -10.2470    219.0058    248.4772   3.7374644334e+01  -1.3931436079e+00    0.1455845   0.08862728  11.36  0.001023542    1.566    0.361
       140  -9.8573    239.4824    250.4327   3.4456562553e+01  -3.1260679100e+00    0.1023582   0.06920625 -20.12 0.0003062449    1.013    0.013
       141 -12.0568    119.8070     37.7882   1.4648390852e+01   4.8813551036e+01    0.6117958    0.3175248 -53.20  0.002545849    2.149    0.535
       142 -11.6698     75.5262     56.5287   3.1404704984e+01   5.5518395041e+01     0.599726    0.3212725 -38.72  0.002544147    2.151    0.535
       143  -9.9938    106.5234     58.1104   2.3117325566e+01   4.8834089532e+01    0.2442549    0.1694385  71.08 0.0005439702    1.510    0.338
       144 -10.8743     88.3553     52.9706   2.6348159579e+01   5.3456010056e+01      0.71694    0.2307436 -38.18  0.002610018    3.683    0.729
       145 -11.4409     72.6977     46.6373   2.9121333599e+01   5.7654360736e+01     0.749998    0.2791337 -45.21  0.002998069    3.147    0.682
       146 -10.1247    124.8872     56.6192   1.8719105897e+01   4.5168344749e+01    0.2325667    0.1814435 -55.32 0.0007620928    1.312    0.238
       147 -10.2784    156.8673     54.3353   1.2790862416e+01   3.8915991699e+01     0.358672    0.2053267 -69.86  0.001866337    2.060    0.515
       148  -9.9346    155.1445     48.4000   1.1679840273e+01   4.0054640502e+01    0.2265779    0.1659632 -26.76  0.001169264    1.804    0.446
       149  -9.1844     33.9454     57.0000   4.8764359563e+01   6.2729496685e+01    0.2294833   0.07000604  31.63 0.0008025081    2.943    0.660
       150  -9.6825    237.6786     55.6944   4.6670090386e+00   2.4771498219e+01   0.08287598   0.07653002 -24.72 0.0002961413    1.637    0.389
       151 -10.8601     60.1956     51.3354   3.5190943701e+01   5.9356937875e+01    0.5035866    0.2816887 -57.68  0.002261481    2.582    0.613
       152 -10.3253     61.5794     46.6820   3.3067390649e+01   5.9847730139e+01    0.3581819    0.1928817 -28.69  0.001602449    2.589    0.614
       153 -10.7912     32.0156     52.5805   4.8292341221e+01   6.3848329526e+01     0.482632    0.2198073  22.29   0.00198955    2.391    0.582
       154 -10.4178     50.7641     56.4315   4.0751856261e+01   6.0176512843e+01    0.4741408     0.224997 -49.65  0.002078506    2.436    0.590
       155 -10.0169    126.6421     50.6557   1.6826218241e+01   4.5646903847e+01    0.3418049    0.1300316 -29.89  0.001235999    4.295    0.767
       156  -9.7115     54.4155     51.6377   3.7601566750e+01   6.0372031849e+01    0.3063205    0.2056235 -11.76  0.001472758    2.190    0.543
       157 -10.8594    243.7624     51.0459   3.4759889691e+00   2.4451996219e+01    0.1512695    0.1139243 -74.57 0.0003839028    1.189    0.159
       158  -9.8582    145.0708     49.8668   1.3499186097e+01   4.1904835272e+01    0.1983522    0.1620244   4.30 0.0004799672    1.961    0.490
       159  -9.4778     97.6750     49.9820   2.2940678425e+01   5.1933394135e+01    0.1726526    0.1616099  80.92 0.0003809753    1.081    0.075
       160  -8.7284    137.3349     49.3139   1.4602531131e+01   4.3581134953e+01    0.1192969   0.09425905  35.41 0.0007046224    1.687    0.407
       161 -10.2875     82.9844     46.9618   2.6014976420e+01   5.5484910277e+01    0.3029128    0.2073387 -21.01  0.001572889    2.024    0.506
       162 -12.4633     41.3181     44.0806   4.0709436569e+01   6.3926088672e+01     1.122318    0.3255866  38.05  0.003751908    3.027    0.670
       163 -10.4276     20.3822     45.8974   5.2370872154e+01   6.6650200956e+01    0.3161533    0.2154023 -27.25   0.00107724    1.536    0.349
       164 -11.2467     26.4047     42.7070   4.7841734050e+01   6.6447727084e+01    0.4321833    0.2479642  41.52  0.001146833    1.765    0.433
       165  -9.3289      2.0256     48.5040   6.4409427381e+01   6.7947853368e+01    0.1965477    0.1133128  13.28  0.001022477    1.559    0.359
       166 -10.4758     22.2738     37.0042   4.8063387332e+01   6.8014771840e+01    0.4508615    0.1808915  40.78  0.001392392    2.521    0.603
       167  -9.7962     13.8397     45.9033   5.6247597369e+01   6.7399290657e+01    0.2112853    0.1535196 -16.16 0.0008610986    1.337    0.252
       168  -9.7555    145.9063     43.3670   1.1814323788e+01   4.2586093216e+01    0.3195553    0.1113376 -52.75  0.001285955    3.351    0.702
       169  -9.7870    139.0424     43.8907   1.2980391169e+01   4.3942709771e+01    0.1851227    0.1425898  37.22  0.001003737    1.742    0.426
       170  -9.8746    156.0336     42.4652   1.0200414170e+01   4.0639706866e+01    0.1931991    0.1690138 -27.88  0.001052002    1.493    0.330
       171 -11.0824     18.0064     40.7646   5.1974111878e+01   6.7892195524e+01    0.2854687    0.2016787 -27.76 0.0006537504    1.455    0.313
       172  -9.7460     56.9180     41.7237   3.3106590830e+01   6.1511544408e+01    0.1959159    0.1493663  43.99 0.0006794539    1.139    0.122
       173  -9.1870     99.3066     41.6289   2.0031780633e+01   5.2755418105e+01    0.1334251   0.09420224 -80.05 0.0007033431    1.761    0.432
       174 -11.0197      3.7270     36.5563   5.9642674496e+01   7.0177097185e+01    0.4837565    0.3559967 -45.27  0.002951986    1.415    0.293
       175 -10.2260      9.3088     30.2239   5.3572924381e+01   7.0782265104e+01    0.5452661    0.2930464  13.94  0.002802738    1.759    0.431
       176 -10.1983    249.8543     38.9894   1.1834026463e+00   2.4977858191e+01    0.1490312    0.1080268 -73.65 0.0003650484    1.186    0.157
       177 -10.7709     79.0004     37.7445   2.4158337451e+01   5.7628053783e+01    0.3902665    0.2551223 -89.99  0.001778927    2.457    0.593
       178 -11.0948     78.8977     33.6719   2.2806846864e+01   5.8190853847e+01    0.5470217    0.2928189  36.44  0.002421501    2.239    0.553
       179 -10.4267     61.6263     34.9216   2.8844309987e+01   6.1589323570e+01    0.4142831    0.2757951 -13.60   0.00213781    2.208    0.547
       180  -9.3850     70.6355     33.6868   2.5325223133e+01   5.9923816833e+01    0.1634834     0.134256  -2.10 0.0009811792    1.547    0.354
       181  -9.3365     67.6550     31.8404   2.5631035412e+01   6.0784546780e+01     0.378325    0.1953242  32.02  0.001650647    2.621    0.618
       182  -9.5158     12.6827     36.8424   5.3845914869e+01   6.9227949147e+01    0.1515363    0.1201065 -61.76            0    1.659    0.397
       183 -10.6132    169.4070     22.9925   4.3662940858e+00   4.0270854203e+01    0.2033334    0.1498757  83.02  0.000536898    1.190    0.159
       184 -11.2399    146.8372    238.1453   4.9557489011e+01   6.7071841070e+00    0.4085695    0.2331586 -63.32  0.002003209    2.709    0.631
       185 -11.0555    175.7713     34.5691   6.1794528575e+00   3.7738346044e+01     0.608897    0.3053412 -51.75  0.002807427    1.773    0.436
       186 -10.5201    126.6078    241.2028   5.4478462229e+01   8.2345275924e+00    0.1802424     0.105448 -38.63 0.0008730586    1.677    0.404
       187 -10.3334     67.7862    240.4746   6.8864880171e+01   1.4495178678e+01    0.2519772     0.143916 -26.07  0.001155625    2.133    0.531
       188 -11.3781    157.3860     28.9727   6.9554927153e+00   4.1984520872e+01    0.3482243    0.2069161  80.54  0.001227618    1.543    0.352
       189 -10.5779    131.9165    240.4935   5.3175279767e+01   7.8154230201e+00    0.1943976    0.1107438  19.52 0.0007364675    1.563    0.360
       190 -10.5883    153.2141     35.6918   9.0047555138e+00   4.2042568998e+01    0.2020105    0.1744136  82.23 0.0004005389    1.127    0.113
       191 -10.7129     72.7134    237.9977   6.7344471123e+01   1.4527436698e+01    0.3076867    0.2534566  42.19  0.001831364    1.260    0.206
       192 -12.4719    105.6596     19.9493   1.2134741990e+01   5.3969289316e+01    0.2865873    0.2305265 -87.33 0.0003537759    1.187    0.157
       193 -10.2044    240.4863     32.4742   7.1743120675e-01   2.7054111416e+01    0.1414796    0.1376032  -6.28  0.001315594    1.762    0.433
       194 -10.6565    216.9780     32.0548   2.1809032361e+00   3.0750587872e+01    0.1516236    0.1125531 -66.00 0.0002996404    1.005    0.005
       195  -9.4151    243.6974    235.6553   3.1855857434e+01  -1.4273474817e+00    0.1084734   0.05509806 -22.00 0.0007039494    1.684    0.406
       196 -11.9006     58.3276     29.2982   2.7936991811e+01   6.3011557450e+01    0.3683352    0.2591503  27.50  0.002089684    1.549    0.354
       197 -11.6198     49.0011     30.0436   3.1901167273e+01   6.4719087368e+01    0.6532069    0.2660854  39.76  0.002145403    2.215    0.549
       198  -9.4655     36.2299     30.9626   3.8117374955e+01   6.6868378818e+01    0.1699551    0.1506647  20.01 0.0004882177    1.080    0.074
       199 -11.7783     26.5231     27.7894   4.1929427016e+01   6.8911615156e+01    0.4126371     0.327623 -53.16  0.002139447    1.675    0.403
       200  -9.3114    233.3050    234.3334   3.3203822724e+01  -4.7515246652e-01    0.1107758   0.05820198 -21.12 0.0007038485    1.663    0.399
       201  -9.0059     22.2723     31.2922   4.5821832183e+01   6.8977719746e+01    0.1242933   0.08783252  -1.27 0.0002364724    1.516    0.340
       202 -12.1241    127.2359     28.3485   1.0844134220e+01   4.8344855558e+01    0.7108554    0.3058192  73.50  0.002241232    2.358    0.576
       203 -10.7924    189.2530     27.0441   3.4011505332e+00   3.6091840569e+01    0.2627046    0.2104654  46.90  0.001881553    1.834    0.455
       204 -11.0346    229.9283     26.9322   4.5467901712e-01   2.9258070436e+01    0.1904591    0.1531557  83.52 0.0009312386    1.392    0.282
       205 -11.2448    183.4748     26.1166   3.7157628725e+00   3.7255723986e+01    0.3184285     0.139889 -51.18  0.001831256    1.954    0.488
       206  -9.0513    200.6665     27.7189   2.6067992877e+00   3.3985701353e+01   0.08921408   0.07824273  56.84 0.0002484575    1.612    0.380
       207  -9.4993     97.8334     25.8007   1.5492596306e+01   5.5045489101e+01     0.170324    0.1329214 -87.24  0.000502269    1.322    0.244
       208 -10.1101     45.7804     24.5081   3.1023287856e+01   6.6076508228e+01    0.1931918    0.1691072 -21.34 0.0002173218    1.329    0.248
       209 -11.0613    178.3437     21.1252   3.1532825625e+00   3.8759879349e+01    0.3227442    0.2010909  45.85  0.001832209    2.460    0.594
       210  -9.0377     15.6540    233.6845   8.1985341011e+01   2.0692378779e+01    0.1330005   0.09161986 -28.48 0.0007047859    1.719    0.418
       211  -9.0178    218.4774    231.4960   3.5115096090e+01   1.1110965503e+00    0.1116659   0.07886405 -20.82 0.0003905186    1.055    0.052
       212 -10.5704    248.0786    223.1880   2.9524818051e+01  -3.7264524985e-02     0.279812    0.1857762 -48.10   0.00207709    1.735    0.423
       213  -8.9483     86.2446     23.3385   1.7345690617e+01   5.7861167260e+01    0.1175474   0.08909541  32.46 0.0004288466    1.558    0.358
       214  -9.5346     44.3632    215.2875   7.2775162431e+01   2.2513209551e+01    0.1458589   0.09873715 -22.31 0.0007023228    1.693    0.409
       215 -10.0791     13.6498     22.9131   4.7671552592e+01   7.1488541011e+01    0.2258969    0.1521585  30.02 0.0005446953    1.291    0.225
       216 -10.7588     68.5460     20.6811   2.1222344666e+01   6.1969763483e+01     0.309712    0.2656892 -38.93  0.001802066    1.401    0.286
       217 -10.8569      9.0081    211.7502   8.2501521944e+01   2.6349348993e+01      0.25352    0.1616472  71.77  0.001292879    1.667    0.400
       218  -9.3785     39.7807    205.9573   7.3211113076e+01   2.5214572882e+01    0.1850634    0.1153351 -69.63 0.0008813599    1.714    0.417
       219 -11.2131      5.3828    200.8080   8.2879057912e+01   2.9302498168e+01    0.2941281    0.1186364 -71.55  0.001211703    2.426    0.588
       220  -9.2432    135.4597    196.4776   4.5946828862e+01   1.6091345553e+01    0.1358297    0.1208802 -10.88 0.0001325201    1.009    0.009
       221 -10.9887    246.1756     20.9960   3.5859467166e+02   2.7452481988e+01    0.1689123     0.144581  73.67  0.001585601    1.632    0.387
       222 -10.2416     46.3265     19.9409   2.8872713843e+01   6.6558403904e+01    0.2841158    0.1570676  47.55  0.001292406    1.491    0.329
       223 -10.6167     16.1087    191.0002   7.8996430763e+01   3.1020672940e+01    0.2569547     0.215131  83.23 0.0004883583    1.238    0.192
       224  -9.5203    216.5288     19.5700   3.5046404949e-02   3.2183843169e+01     0.100483   0.07286268 -68.02 7.923369e-05    1.008    0.008
       225  -9.6985     74.8781     19.1124   1.8811649962e+01   6.0794667064e+01     0.195656    0.1299776  35.72 0.0009845452    1.668    0.401
       226  -9.3178     89.4750     16.4790   1.4300665941e+01   5.7894178203e+01     0.190154    0.0935645  54.49 0.0009743279    1.698    0.411
       227 -11.9448      6.6072    185.8426   8.1540665476e+01   3.3029688116e+01    0.4287732    0.3397577  62.65  0.002028383    1.270    0.213
       228 -12.0050      2.7770    183.0823   8.2542058008e+01   3.3992497466e+01    0.6175025    0.2473597 -61.46  0.002514884    2.347    0.574
       229 -10.7226     15.9910    173.7640   7.7589835694e+01   3.5527546595e+01    0.3262847    0.2110884  83.01  0.001537983    1.721    0.419
       230 -11.9961      9.1427    166.8159   7.9259357453e+01   3.7860065995e+01     0.706962    0.2602729  30.17  0.002704916    2.442    0.591
       231 -10.7405    186.9147     14.9566   1.2188693877e+00   3.7811457830e+01    0.1637551     0.125103 -73.18 0.0007678421    1.018    0.017
       232 -10.0332    148.2198     15.5564   4.8733937744e+00   4.5298603355e+01    0.2689061   0.09079082  68.51  0.001214973    2.501    0.600
       233 -12.7540     13.3622    160.4604   7.7242720569e+01   3.9264737672e+01    0.6782761    0.4519224 -45.96  0.001915677    1.505    0.336
       234  -9.6639    196.2133     14.2282   4.0621480403e-01   3.6208793396e+01    0.1466601   0.08903226 -67.07 0.0004336739    1.323    0.244
       235  -9.9157    205.0463    162.9950   2.6697710701e+01   1.3437686045e+01    0.1830377    0.1461527 -34.94 0.0007206284    1.032    0.031
       236 -10.2323     28.7098    160.5943   7.1923191262e+01   3.7984052015e+01    0.2576265    0.1746988  73.06 0.0008382015    1.748    0.428
       237  -9.2151      5.0049     13.0000   4.9229754400e+01   7.4090551399e+01    0.1951273    0.1324709  20.74  0.001225186    1.195    0.164
       238  -9.2609     32.3146    157.6527   7.0305850596e+01   3.8435143750e+01    0.1593403    0.1048614  56.11 0.0005250755    1.720    0.419
       239  -9.7712    104.3970    154.2557   4.6524248185e+01   2.9847597326e+01    0.2618892    0.1958263 -64.56  0.001286688    1.505    0.335
       240  -9.0835     80.4817    165.0128   5.5475951572e+01   3.0785995213e+01    0.2155199    0.1100058 -36.25 0.0006830813    2.348    0.574
       241 -11.8872     16.6839    147.7667   7.4732124787e+01   4.2429014140e+01    0.7808101    0.2451707 -76.36  0.002471408    3.550    0.718
       242 -11.7530     21.0578    150.4932   7.3448300168e+01   4.1351088155e+01     0.466562     0.290328 -37.62 0.0003509209    1.676    0.403
       243 -11.4513     24.0007    148.0012   7.2073527587e+01   4.1773402210e+01    0.3602116    0.3017361 -20.56 0.0007328665    1.215    0.177
       244 -11.2697     47.5071    148.4831   6.3646613129e+01   3.9263473643e+01    0.6719132    0.4288292 -34.32  0.002251215    1.715    0.417
       245 -10.9724      4.2407    153.4286   7.9800260458e+01   4.1750614621e+01    0.3228914    0.1000599  25.20   0.00113921    2.860    0.650
       246  -9.3645     55.5143    152.5178   6.1501199606e+01   3.7250091294e+01    0.1512204    0.1427865  -7.30  0.000810014    1.034    0.033
       247 -12.1213      4.0629    142.5144   7.8864316619e+01   4.4689682396e+01    0.7926179    0.4066803  40.88  0.003427212    2.018    0.504
       248  -9.3687    104.4547    147.5055   4.5207602602e+01   3.1399556109e+01    0.1439177    0.1414567  36.51    0.0001948    1.069    0.064
       249 -12.0205     12.4782    135.5482   7.4906865009e+01   4.6017226088e+01    0.7270252    0.3368726 -43.63  0.002931606    2.147    0.534
       250 -10.6810     32.8142    143.9169   6.8281029567e+01   4.2052686219e+01    0.3056724     0.277528 -67.41 0.0007308722    1.134    0.118
       251 -10.9694     40.9955    138.5240   6.4425894329e+01   4.2622225096e+01    0.4427744     0.361958 -61.27  0.001706186    1.247    0.198
       252 -11.6312     23.7112    137.0067   7.0747929425e+01   4.4742335609e+01    0.6314003    0.3379698 -38.96  0.002642863    1.961    0.490
       253 -10.9608     20.4901    134.0084   7.1588826612e+01   4.5815735895e+01    0.3422649    0.2681562  -6.32  0.001038138    1.302    0.232
       254 -10.9652     30.4286    132.6276   6.7515338405e+01   4.5284682484e+01    0.3798696    0.2479717 -19.26  0.001019427    1.722    0.419
       255  -9.2521    103.9955    130.5446   4.1867581026e+01   3.5337508324e+01    0.2080347    0.1411812  35.93 -2.831736e-05    1.454    0.312
       256 -11.0613     11.2997    125.0325   7.4076284011e+01   4.8901612931e+01    0.5863144    0.2611027 -39.81  0.001565348    2.301    0.565
       257  -9.4169     26.6514    127.2048   6.8168177609e+01   4.7077457051e+01    0.1967127    0.1748721  30.91 0.0002542521    1.139    0.122
       258  -9.8525     33.4720    125.9927   6.5255086029e+01   4.6719685005e+01    0.2225971    0.1468235 -67.01 0.0009053574    1.576    0.366
       259 -10.0214     23.0092    126.3612   6.9502363080e+01   4.7630291108e+01    0.2049483    0.1834247   2.19  0.000401158    1.091    0.083
       260  -9.8721      2.0337    125.2752   7.7886404906e+01   4.9407875796e+01    0.2805092    0.2079636 -89.02   0.00145001    1.441    0.306
       261 -10.5349    104.8094    122.5549   3.9900513019e+01   3.6966614756e+01    0.2936908    0.2626956  42.53 0.0009216001    1.108    0.098
       262  -9.8463     49.8087    122.4028   5.8221893915e+01   4.5722786374e+01     0.322982    0.1910842   4.03  0.001303295    2.114    0.527
       263 -10.3934     43.3948    117.0778   5.9679894009e+01   4.7879241540e+01    0.4646838    0.2382538 -75.93  0.001728785    2.718    0.632
       264 -11.6287      7.7679    114.7523   7.4201259017e+01   5.1841908542e+01     0.324222    0.2769614 -35.21 0.0002155408    1.104    0.094
       265 -12.0268      2.7823    111.4990   7.5937732532e+01   5.2987028161e+01    0.3776812    0.3720281   7.95  0.001016988    1.086    0.080
       266 -11.2025      5.3784    108.2224   7.4352984080e+01   5.3685583842e+01    0.4563967    0.2596011 -62.78  0.001407054    1.652    0.395
       267 -11.1597      2.2759    105.6159   7.5388073292e+01   5.4535278195e+01    0.4863975    0.2767515 -32.36  0.001544087    1.728    0.421
       268  -9.5828     79.1457    114.8419   4.6037248596e+01   4.3148882462e+01    0.2078452    0.1736136 -16.72 0.0008197451    1.331    0.249
       269  -9.8616     58.7665    115.1479   5.3330463359e+01   4.6284158515e+01    0.2178666    0.1967248  52.92  0.000465895    1.189    0.159
       270 -11.0325     35.3756    102.9082   6.0122874175e+01   5.2370584896e+01    0.7330655    0.2873941  12.42   0.00207775    3.502    0.714
