#   1 NUMBER                 Running object number                                     
#   2 MAG_AUTO               Kron-like elliptical aperture magnitude                    [mag]
#   3 X_IMAGE                Object position along x                                    [pixel]
#   4 Y_IMAGE                Object position along y                                    [pixel]
#   5 X_WORLD                Barycenter position along world x axis                     [deg]
#   6 Y_WORLD                Barycenter position along world y axis                     [deg]
#   7 A_WORLD                Profile RMS along major axis (world units)                 [deg]
#   8 B_WORLD                Profile RMS along minor axis (world units)                 [deg]
#   9 THETA_WORLD            Position angle (CCW/world-x)                               [deg]
#  10 FWHM_WORLD             FWHM assuming a gaussian core                              [deg]
#  11 ELONGATION             A_IMAGE/B_IMAGE                                           
#  12 ELLIPTICITY            1 - B_IMAGE/A_IMAGE                                       
         1 -13.9625     68.6481    144.4177   9.7521358443e+01   3.7491539260e+01     4.046131     2.072516  71.06  0.003114514    4.952    0.798
         2 -13.5372    205.0279     41.8602   3.8726497322e+01   2.9363938563e+01     1.487441     1.254096  27.04  0.007316579    1.653    0.395
         3 -13.3979    217.1667     30.5771   3.4889421518e+01   2.8143242889e+01    0.9255116     0.786271  38.44  0.004791882    1.626    0.385
         4 -12.7124    243.2917      5.7357   2.7819612748e+01   2.5633051761e+01    0.7512611     0.525596 -84.08  0.005340857    1.194    0.162
         5  -9.7248      2.1761      3.5361   8.4553597469e+01   7.4233818725e+01    0.1976564   0.07407573 -45.44  0.001005559    2.743    0.635
         6  -9.8651     47.7985      2.4993   5.9687814059e+01   6.8466813461e+01    0.1955513    0.1705827   6.10 0.0004630289    1.232    0.188
         7 -14.8180      9.4038    207.3949   1.2030802350e+02   2.8498104430e+01     1.800077     1.172742 -74.61  0.004189491    1.397    0.284
         8 -15.5826     35.8950    193.5009   1.1318016389e+02   2.9139206823e+01     10.85588     4.117271  84.27   0.02387542    5.338    0.813
         9  -8.5903     67.0107    197.0297   1.0592677937e+02   2.4565927608e+01    0.2184444    0.1457017  64.04 0.0004938269    1.578    0.366
        10  -9.4822    148.9171    189.9323   8.4402204576e+01   1.3110718942e+01    0.2891158    0.1882523  59.30  0.001238763    2.129    0.530
        11  -9.6447    146.7002    186.0113   8.4193851845e+01   1.4349257900e+01    0.3192919    0.1920921 -61.91 0.0006144042    2.161    0.537
        12 -10.1216    184.5000    212.9997   8.0629819848e+01   2.5808580552e+00    0.2051846    0.1291415 -39.24  0.001040593    1.614    0.380
        13  -9.7573     81.0514    182.0512   1.0027634457e+02   2.6223074391e+01    0.3204096    0.3035618 -75.01  0.001342895    1.054    0.052
        14  -9.4119     99.3992    180.8761   9.5244655827e+01   2.3684236573e+01    0.2640068    0.2135143  25.69 0.0005595778    1.291    0.225
        15 -16.5857     15.2599    243.1294   1.2119567443e+02   2.0367968998e+01     6.761022     2.470202  22.62   0.02830456    4.258    0.765
        16 -10.1374    186.8964    175.0707   7.2840224567e+01   9.3766479850e+00    0.3497537    0.3126474 -53.42  0.001177965    1.292    0.226
        17  -9.0015     86.5650    176.4791   9.7935936740e+01   2.6769187239e+01    0.2018406    0.1442674  19.82 0.0001348697    1.614    0.380
        18  -9.2261     89.4861    174.4507   9.6815073496e+01   2.6820518449e+01    0.2451873    0.1432275 -59.71 0.0001772062    1.705    0.413
        19 -11.4284     64.2558    172.6334   1.0339340593e+02   3.0900863431e+01    0.4680068    0.3055875 -33.43  0.002163774    1.988    0.497
        20 -11.2246     68.9495    168.0096   1.0141290625e+02   3.1434905562e+01    0.3762619    0.2816355 -30.19 0.0006992441    1.632    0.387
        21 -10.3999    116.4872    173.4922   8.9428074729e+01   2.2581030379e+01    0.3317679    0.1465689  36.10  0.001226068    2.219    0.549
        22 -12.3881     78.2109    159.2281   9.7356963707e+01   3.2342859661e+01     1.101921    0.6007035  51.99 0.0004668561    2.127    0.530
        23 -12.8067     65.7939    154.8078   1.0019365897e+02   3.5220595409e+01    0.5742022    0.4725368 -43.76  0.001057648    1.251    0.200
        24 -10.1577    119.4614    245.5079   9.9798171822e+01   6.6738487212e+00     0.295649    0.1494981 -47.48  0.001439936    2.313    0.568
        25  -8.3611    110.7119    167.3483   8.9798739674e+01   2.5063777781e+01    0.1556676     0.119453  77.47  0.000671948    1.659    0.397
        26 -13.5671     47.9870    187.6475   1.0958632987e+02   2.9200852059e+01      1.44113     1.080248  70.61  0.008106725    1.298    0.230
        27  -8.2613    102.7033    164.7394   9.1480902193e+01   2.7074036365e+01    0.1465617    0.1182106 -13.98 0.0001850187    1.505    0.335
        28 -10.6310     34.6130    160.6079   1.0995033277e+02   3.7378109452e+01    0.4469548    0.2130299  38.27  0.001481847    2.126    0.530
        29  -9.4382    111.0156    203.3331   9.5902366491e+01   1.6592954125e+01    0.2043529    0.1699257  41.47 0.0004636446    1.126    0.112
        30 -10.5537    192.1378    193.0263   7.5312198651e+01   5.0116157063e+00    0.5847181    0.3562407 -69.05  0.002008964    4.501    0.778
        31 -11.5636     85.5302    152.7430   9.4062010125e+01   3.2873645055e+01    0.6682706    0.4529895 -24.73   0.00290397    1.964    0.491
        32 -10.2769    134.0000    147.0303   7.9309936624e+01   2.5592050643e+01    0.7886486    0.2414557 -53.69  0.002152494    3.998    0.750
        33  -9.4949    122.1857    198.8244   9.2448297938e+01   1.5770655316e+01    0.2822284     0.241622  71.21 0.0009816743    1.332    0.249
        34  -9.2295    174.8632    149.0885   6.9863735820e+01   1.6964828767e+01    0.2319966    0.2107312 -71.51 0.0007057215    1.284    0.221
        35 -11.1492     54.1217    145.2464   1.0207490211e+02   3.9163620951e+01    0.6902453    0.2424506 -63.53  0.002472737    2.614    0.618
        36  -8.8735     34.5085    145.5270   1.0801316090e+02   4.1223426891e+01    0.2178817    0.1973941 -69.84 0.0008015975    1.035    0.034
        37  -9.4149     32.2298    143.0020   1.0834279001e+02   4.2084658895e+01    0.3305732    0.1899647 -65.22  0.001617976    1.504    0.335
        38 -10.2296    100.5384    138.6381   8.6751191172e+01   3.3909519793e+01    0.5916956    0.3700043 -20.19  0.002229091    2.501    0.600
        39 -11.6659     87.4720    138.1738   9.0557151068e+01   3.6241300646e+01    0.3224802    0.2809102 -41.35 0.0005090123    1.133    0.118
        40  -9.7963    105.9553    130.8450   8.3371083860e+01   3.4838383403e+01    0.3770175    0.3299054 -38.86  0.001218562    1.128    0.114
        41  -9.5260    110.1668    129.5964   8.1840293311e+01   3.4351681010e+01    0.3667446    0.2608817  -5.36 0.0008272725    1.999    0.500
        42  -9.6940     66.8348    125.4049   9.4336869960e+01   4.2580039225e+01    0.4143274    0.1716498 -42.23  0.001461889    2.643    0.622
        43  -9.9382     97.1509    125.3461   8.4707919908e+01   3.7770174865e+01    0.3088685    0.2492598  -6.48 0.0006372421    1.460    0.315
        44  -9.8205    133.4672    128.4730   7.5063547925e+01   2.9989549848e+01    0.2664392    0.2111996  50.17 2.983986e-05    1.325    0.245
        45 -10.2795     43.6060    122.6043   1.0145474884e+02   4.6145123650e+01    0.2875435    0.2118105 -43.78 0.0007526972    1.286    0.222
        46 -10.4387     43.8326    128.8484   1.0250446100e+02   4.4536495119e+01    0.3086022    0.2261062  84.96  0.001567245    1.592    0.372
        47  -9.1335    106.9163    118.4958   8.0059658975e+01   3.7607223189e+01     0.222063    0.2006064 -38.07 0.0003863722    1.083    0.077
        48  -8.5826     88.9581    210.2850   1.0224677901e+02   1.8422119850e+01    0.1911026    0.1707349  45.29 0.0004622533    1.052    0.049
        49 -10.0622    231.2430    113.7221   5.1371706147e+01   1.2694550470e+01     0.251409    0.2421853 -66.03 0.0007739945    1.130    0.115
        50 -10.7553     52.6239    110.0980   9.5832243468e+01   4.8243873873e+01    0.3452357    0.2754442 -63.80  0.001851712    1.237    0.191
        51  -9.3687    205.2945    110.2444   5.4780956690e+01   1.8414870187e+01    0.2841799    0.2024779  44.30  0.001079475    1.551    0.355
        52  -9.8329    240.2325    169.3829   6.1508633471e+01   1.5188506114e+00    0.1579784    0.1256077  45.58 0.0003447669    1.587    0.370
        53 -10.1444    246.4821    107.4894   4.7894790681e+01   1.0970828633e+01    0.1303914     0.109964 -41.43  0.000171301    1.042    0.041
        54 -10.8474    247.8912    100.5986   4.6286692033e+01   1.1841224844e+01    0.2686516    0.2075254  23.33  0.001561595    1.860    0.462
        55  -9.3150     53.0000     90.9682   9.1090713644e+01   5.2762213178e+01    0.2363807   0.07501009 -55.04 0.0008004351    2.929    0.659
        56  -9.4378    244.3253     84.3181   4.3359121239e+01   1.5074895795e+01    0.1184133   0.09942836  -0.61 0.0003818113    1.675    0.403
        57  -8.9058     72.9865     83.6846   8.1619055462e+01   5.1515855386e+01    0.2009929    0.1766975  26.31 0.0005279499    1.163    0.140
        58  -8.7097    159.7729     83.0245   5.6629230731e+01   3.3499248897e+01    0.1985644    0.1219883 -39.50  0.000477743    1.631    0.387
        59  -8.0784    184.3696     77.2788   5.0386604562e+01   2.8791062091e+01    0.1428321    0.1107495  26.21 0.0007010571    1.688    0.408
        60  -8.8326     90.6977     65.9983   6.9797981757e+01   5.1866691444e+01    0.3005696    0.1913329  66.88  0.001197634    2.795    0.642
        61  -8.1134     49.3242     62.7388   8.4242222835e+01   5.9297387610e+01    0.1206991    0.1068395  56.56 0.0002703462    1.557    0.358
        62 -10.1691     13.4695     60.0779   9.9357149366e+01   6.3379873464e+01    0.2374598    0.1913985 -45.61 0.0004854945    1.120    0.107
        63 -12.6973    194.9349     48.6429   4.1607582372e+01   3.0723463766e+01    0.7830557     0.744155  56.94  0.001150536    1.217    0.178
        64 -10.9730     95.0553    241.4872   1.0462040352e+02   1.0974821659e+01    0.4538233    0.2140903 -62.28  0.002162188    2.418    0.586
        65  -8.8505     48.7457     42.8361   7.7341152101e+01   6.3014686198e+01    0.2130985    0.1632605  52.38 0.0007042463    1.929    0.482
        66  -9.3914    187.8228     31.1415   3.8239399450e+01   3.4612935388e+01    0.1677777    0.1509096  48.52 0.0005225308    1.307    0.235
        67  -9.7210      2.5020     24.5040   9.3649494064e+01   7.0912946495e+01    0.2147911   0.06918138 -42.56  0.001033212    2.304    0.566
        68  -9.1733    197.9872     23.6199   3.5276969992e+01   3.3176474488e+01    0.1933561    0.1729791 -30.54 0.0006186901    1.358    0.264
        69  -9.9755    117.7448    237.4347   9.9147697658e+01   8.4512655130e+00    0.2196067    0.1631532 -74.56 0.0006382004    1.697    0.411
        70  -8.6862    169.0623    235.8475   8.7733569719e+01   9.4629817066e-01    0.1801662    0.1638055  29.08 0.0004223143    1.203    0.169
        71 -13.4191     15.4757    215.7035   1.1954751222e+02   2.6098931424e+01    0.9059613    0.5181862  26.24  0.005154478    1.999    0.500
