#   1 NUMBER                 Running object number                                     
#   2 MAG_AUTO               Kron-like elliptical aperture magnitude                    [mag]
#   3 X_IMAGE                Object position along x                                    [pixel]
#   4 Y_IMAGE                Object position along y                                    [pixel]
#   5 X_WORLD                Barycenter position along world x axis                     [deg]
#   6 Y_WORLD                Barycenter position along world y axis                     [deg]
#   7 A_WORLD                Profile RMS along major axis (world units)                 [deg]
#   8 B_WORLD                Profile RMS along minor axis (world units)                 [deg]
#   9 THETA_WORLD            Position angle (CCW/world-x)                               [deg]
#  10 FWHM_WORLD             FWHM assuming a gaussian core                              [deg]
#  11 ELONGATION             A_IMAGE/B_IMAGE                                           
#  12 ELLIPTICITY            1 - B_IMAGE/A_IMAGE                                       
         1 -11.8895     28.0445     18.4365   7.1388614540e+01   7.0995299083e+01     0.574933    0.3572123  -9.00  0.003123723    1.893    0.472
         2 -11.2913     10.3092     15.3229   8.0647128413e+01   7.3466366862e+01    0.9169766    0.3791547 -34.17  0.004239578    2.359    0.576
         3 -12.4136     16.1233     13.4725   7.5964603935e+01   7.3203917000e+01    0.2669384    0.2021632  -6.06 0.0002697625    1.183    0.155
         4 -12.0219     23.9173     12.0436   7.0422460941e+01   7.2522087486e+01    0.3815819    0.2884766 -25.83 0.0003871146    1.186    0.157
         5 -11.8225     35.0564     26.9033   7.1697185403e+01   6.8671172372e+01    0.7973226    0.4189691 -33.88  0.004047606    1.854    0.461
         6 -12.0548     35.2578     19.3876   6.7964019180e+01   6.9867293236e+01    0.9405053    0.4946617  -0.56  0.001669161    4.289    0.767
         7 -11.5388    238.5618     21.2604   2.5963570243e+01   2.4471500965e+01    0.4093326    0.3110252 -46.23  0.001577363    1.163    0.140
         8 -12.1933    112.0153     18.9222   4.1050564391e+01   5.4497947967e+01     0.519423    0.3809015   7.01  0.002750864    1.701    0.412
         9  -9.5639    150.5327     12.5252   3.2241161189e+01   4.5692743128e+01    0.2463498    0.1650609 -36.36 0.0007456503    1.537    0.350
        10 -10.7459    153.3132      3.1355   2.8972497908e+01   4.5908565166e+01     0.397254    0.2923607  43.63  0.001730736    1.540    0.351
        11 -10.3733    156.5267      9.9918   3.0689398430e+01   4.4465394326e+01    0.2452974    0.2407329 -56.15  0.001021087    1.168    0.144
        12  -9.9620    153.4702      9.5043   3.0918226250e+01   4.5268307234e+01    0.2501874    0.2116259 -86.31 0.0005220702    1.067    0.063
        13 -11.2132    155.3418     15.1998   3.2434356973e+01   4.4223750069e+01    0.4420691    0.3365566  -7.46  0.001477002    1.675    0.403
        14 -12.2070    128.1205      5.0123   3.2955609791e+01   5.1960033398e+01    0.4278533    0.3434058 -78.54   0.00253583    1.265    0.209
        15  -9.8833    134.9647      2.0463   3.0931763522e+01   5.0532563114e+01    0.3213626    0.2098207  51.39  0.001109751    1.496    0.331
        16  -9.4706    138.5166      1.5172   3.0276649926e+01   4.9701422033e+01    0.2229252    0.1416623 -80.71 0.0006880018    1.656    0.396
        17 -12.2165    122.2796     11.3217   3.6190770742e+01   5.2802780618e+01    0.5756794    0.3435435  43.72 0.0007799711    1.731    0.422
        18  -9.4906    116.9520      8.9348   3.6267037042e+01   5.4334491242e+01    0.2598159    0.1783123 -69.35 0.0008577976    1.726    0.421
        19 -11.1018     56.4479     17.8507   5.7315027094e+01   6.6630384368e+01    0.5243819    0.2828045  24.85   0.00193594    2.335    0.572
        20 -10.9865     59.0905     12.4521   5.3540293081e+01   6.6824449840e+01     0.474725    0.2148978  40.08  0.001989911    2.103    0.524
        21 -11.3922    100.2255     16.1438   4.2627004165e+01   5.7596849211e+01    0.5332545    0.2747822  45.21  0.001692231    1.857    0.461
        22  -9.8621    176.3026     12.1095   2.9069685919e+01   3.9419506319e+01    0.4244702    0.2133063 -69.48 0.0003337312    2.252    0.556
        23 -10.2725    188.8111      8.1548   2.6800405879e+01   3.6851604465e+01    0.3583493    0.1647634  60.04 0.0007013159    2.163    0.538
        24 -12.5291    187.0995     13.6305   2.8396117562e+01   3.6680268117e+01    0.3137052    0.2362839 -66.94 0.0003669776    1.184    0.156
        25 -11.7268    182.5816     12.2959   2.8482232033e+01   3.7894724319e+01    0.3848886     0.312685   5.10  0.001430759    1.700    0.412
        26 -10.4523    247.2467     12.8943   2.3631880120e+01   2.3693980326e+01    0.2096775    0.1620051 -54.29 0.0003227928    1.073    0.068
        27 -10.3097    143.5506     11.3772   3.2834994065e+01   4.7540369478e+01    0.4518175    0.2868272 -53.18  0.001841504    1.644    0.392
        28 -10.4438     75.5396     12.3694   4.7746447267e+01   6.3520289313e+01    0.3379486    0.2017313 -42.71  0.001724584    1.972    0.493
        29  -9.3057    133.0518     12.9990   3.4964680388e+01   4.9980822944e+01    0.2241991    0.1470529  35.63  0.001127599    1.798    0.444
        30 -11.3057    209.7168      8.8502   2.5261419087e+01   3.1995426215e+01    0.4858281    0.3610412  42.41  0.002112566    1.850    0.459
        31 -11.6259    216.6600      6.4954   2.4208407746e+01   3.0715140940e+01    0.4251289    0.2730321 -17.85  0.002398981    2.039    0.510
        32  -9.9960    100.3450      7.9934   3.9238268766e+01   5.8399209921e+01    0.7341841    0.2243718  72.17  0.002057757    5.527    0.819
        33 -10.8497    106.1137      3.3201   3.6132906005e+01   5.7455111312e+01    0.6548445    0.3552294 -83.84  0.002792493    2.770    0.639
        34  -9.7454     99.0755      4.1755   3.7923846292e+01   5.9046317154e+01     0.219869    0.1683782  18.25 0.0002912388    1.452    0.311
        35 -11.1154     93.4924     10.4000   4.1853419348e+01   5.9756562811e+01    0.6131728    0.2880889  64.31  0.002593462    2.073    0.518
        36 -11.9480     89.7391      3.2635   3.9647583196e+01   6.1288153203e+01    0.4807724    0.3338244  54.29  0.001350827    1.261    0.207
        37 -10.4308     34.9944      8.7484   6.2413897286e+01   7.1446359346e+01    0.3058161    0.2095615  -1.94  0.001769166    1.515    0.340
        38 -11.0438      2.8319      3.7073   7.9857074059e+01   7.6067559515e+01    0.3233127     0.276264  65.37  0.002242671    2.081    0.519
        39 -10.1281      9.7578      1.5574   7.3555666383e+01   7.5739513964e+01    0.2451222    0.1516035  29.36  0.001317352    1.663    0.399
        40 -10.7849      8.0845      8.9370   7.8921706431e+01   7.4749273504e+01    0.2122219    0.1578714 -17.35 0.0003576204    1.126    0.112
        41 -11.8461     10.5278      5.1876   7.5159915772e+01   7.5109517459e+01    0.8209772    0.3068165  22.09  0.003621983    3.095    0.677
        42  -9.2313    238.8750      7.8754   2.3085474541e+01   2.5906756979e+01     0.159021    0.1418104 -60.57 0.0003928489    1.218    0.179
        43 -10.8650    168.0396      6.4306   2.8332791485e+01   4.1993602168e+01    0.4156148    0.2320999 -47.11   0.00128813    1.718    0.418
        44 -12.3146     46.0516      9.1626   5.7267842887e+01   6.9593193025e+01    0.2849914    0.2284327   2.65 0.0003794905    1.153    0.133
        45  -9.8395     77.6280      6.3810   4.4279015650e+01   6.3696438524e+01    0.3320426    0.1936222 -27.72  0.001750317    1.823    0.452
        46  -9.0222    178.8905      6.8331   2.7361484089e+01   3.9336084851e+01    0.1762686    0.1270289 -68.38 0.0002526166    1.263    0.208
        47  -9.5284     40.7319      5.1426   5.7485259053e+01   7.0985607324e+01    0.1881921    0.1510671  44.39 0.0002676181    1.360    0.265
        48  -9.8812    204.1576      2.4872   2.4147474634e+01   3.3893173278e+01    0.2213183    0.1670833  -3.46  0.001321097    1.922    0.480
        49  -9.6313    186.4952      3.3364   2.5744212676e+01   3.7876259925e+01    0.2233257    0.1301391  56.36   0.00117798    1.845    0.458
        50  -9.8684    170.2910      2.3364   2.6941936559e+01   4.1836692390e+01    0.2366314    0.2114005 -16.52 0.0008675624    1.366    0.268
        51  -9.6312     33.0786      2.8552   5.9980811892e+01   7.2496277335e+01    0.3188495    0.1225883  33.21  0.001408598    2.782    0.641
        52 -10.3490    244.6246      1.6270   2.1464372722e+01   2.5419197051e+01    0.4041016    0.1366264  80.06  0.001902106    2.987    0.665
        53  -9.7776    119.8687      2.0990   3.3210236685e+01   5.4236251310e+01    0.1929941    0.1654761 -81.58 0.0004416512    1.181    0.153
        54  -9.5048     25.7610      1.8689   6.3431673033e+01   7.3707845841e+01    0.1994686    0.1292832  -6.16  0.001192625    1.592    0.372
        55 -10.1382    195.0451      1.5357   2.4592397398e+01   3.6061811657e+01    0.1853579    0.1091402  79.36 0.0004438187    1.550    0.355
        56  -8.4642     64.3220      1.3371   4.5899464141e+01   6.6980042876e+01    0.1347986   0.08166847  27.13  0.000502026    1.713    0.416
        57  -8.8284     59.0004    169.7785   9.7291692268e+01   3.2314794484e+01    0.1711392    0.1078986  34.90 0.0003490742    1.586    0.370
        58  -9.1723     84.1480    250.1627   9.9810941133e+01   1.2128159006e+01    0.1668446    0.1143268  57.97  0.001071182    1.323    0.244
        59 -10.4760     14.8221    249.8586   1.1315084542e+02   2.0189148673e+01    0.2581621    0.1346754  58.73  0.001091651    1.440    0.305
        60  -8.6463     25.0254    173.7914   1.0652383133e+02   3.5222701977e+01    0.1488414   0.09693468  34.22 -0.0006383859    1.574    0.365
        61 -10.2663     10.1346    163.7583   1.0955255103e+02   3.8969383508e+01    0.2135257    0.1708803  75.63 0.0003499444    1.047    0.045
        62 -10.3705     80.5523    152.0893   8.8842307882e+01   3.3587107753e+01     0.249519    0.2021768  43.28 0.0003041768    1.224    0.183
        63 -10.6395    125.3601    147.5294   7.5970244056e+01   2.6921515252e+01    0.2926559    0.2558767  79.77 0.0002472607    1.253    0.202
        64 -10.6717     31.0309    147.1082   1.0231246582e+02   4.1164460108e+01     0.209757     0.179358  88.53  0.001273048    1.012    0.012
        65 -10.8444     11.7141    145.9938   1.0772308227e+02   4.3172858842e+01     0.305116    0.1769676 -71.75  0.001342182    1.484    0.326
        66 -10.4222      2.7057    143.3646   1.1004704650e+02   4.4487165110e+01    0.2800258    0.2417729  77.68  0.001306011    1.088    0.081
        67  -9.3059     44.9687    141.6476   9.7529187906e+01   4.1036370913e+01    0.1851782    0.1722108  71.67 0.0004947964    1.085    0.078
        68 -10.7076     21.2640    141.7560   1.0456912597e+02   4.3429614457e+01    0.3535264     0.164352  42.89  0.001257283    2.111    0.526
        69 -11.0865     28.4809    138.2815   1.0203682899e+02   4.3639168037e+01    0.4597975    0.2565395 -71.76  0.001057472    1.576    0.366
        70  -9.4819     37.4947    137.9986   9.9279167311e+01   4.2795796510e+01    0.2040782   0.08715314 -49.31 0.0008102388    2.520    0.603
        71  -9.6099     46.9614    136.2155   9.6143384394e+01   4.2182320437e+01    0.2373568    0.1784451 -73.69 0.0004111275    1.218    0.179
        72 -11.1268     14.2710    133.6585   1.0581269634e+02   4.6045635074e+01    0.4508522    0.3565969 -76.44  0.002441342    1.096    0.087
        73 -12.2183     10.1633    128.9814   1.0659291480e+02   4.7528789610e+01     0.962795    0.2902405 -70.03  0.003828863    2.599    0.615
        74  -9.6864     15.8358    128.8746   1.0482531627e+02   4.7125009051e+01    0.2193649    0.1785883 -27.54 0.0004609718    1.515    0.340
        75 -10.8998      8.4941    118.5341   1.0602973441e+02   5.0264481421e+01    0.3873468    0.2458182  75.08 0.0006839927    1.583    0.368
        76 -11.5700      4.4409    116.0586   1.0709037522e+02   5.1146756533e+01     0.397328    0.2496509  15.24  0.001504247    1.943    0.485
        77  -8.5026     74.2615    134.2797   8.7507509247e+01   3.8976898832e+01    0.1385892    0.1112046 -32.64 0.0001794117    1.477    0.323
        78 -10.6305     25.1657    132.1979   1.0231515135e+02   4.5489937089e+01    0.3895545    0.2052252 -30.96  0.001642254    2.945    0.660
        79  -8.8682      1.6464    130.6885   1.0933994053e+02   4.7682993809e+01    0.1303269   0.08142099 -47.92 0.0007044622    1.728    0.421
        80 -10.8312     48.9703    126.7045   9.4014476679e+01   4.4365048978e+01    0.5210352    0.2613815  52.45  0.001713558    2.286    0.562
        81 -10.1792     53.1845    124.7090   9.2321913819e+01   4.4349417712e+01    0.4111021    0.2457159 -36.95  0.001547521    2.106    0.525
        82 -10.8486     23.8413    124.9460   1.0182647956e+02   4.7448184615e+01    0.4700821    0.2016237 -79.83   0.00194335    2.321    0.569
        83 -10.6522    229.8896    122.8996   4.9410680889e+01   1.1452469024e+01    0.5182763    0.2698352 -50.33  0.002398328    2.065    0.516
        84  -9.7298     31.5054    123.7913   9.9195022532e+01   4.7026984539e+01    0.3385262     0.176159 -41.64  0.001491832    2.279    0.561
        85  -9.2641      1.2158    124.0291   1.0889157890e+02   4.9361037113e+01    0.1750896   0.08658128 -77.26 0.0006953045    1.668    0.401
        86  -9.9550     93.9646    122.9859   7.9279242077e+01   3.8520240390e+01    0.2168636    0.2089787 -78.85            0    1.007    0.007
        87  -8.9790     83.4432    119.4604   8.1676913731e+01   4.1200128341e+01    0.1489425    0.1414953 -75.72 0.0001163494    1.004    0.004
        88 -10.1179     67.0788    117.6244   8.6469372061e+01   4.4235875765e+01    0.3972659    0.1944792  44.77  0.001501784    2.153    0.536
        89 -10.4987     44.7731    109.3598   9.2325367252e+01   4.9273400101e+01    0.3678894    0.2183092 -81.97  0.001649069    1.931    0.482
        90 -10.0077     45.8590    117.1667   9.3391409191e+01   4.7167020936e+01    0.2836787    0.2043119 -85.11 0.0004494719    1.426    0.299
        91  -8.7944     98.5263    117.4354   7.6649053198e+01   3.9029809765e+01    0.1503077    0.1462033 -78.18 7.568764e-05    1.011    0.011
        92  -8.6600     52.3119    116.3357   9.1079451973e+01   4.6587879521e+01    0.1483285    0.1029664 -35.51 0.0007045096    1.685    0.406
        93  -8.6057     38.4494    115.4099   9.5585086763e+01   4.8448443828e+01     0.137136    0.1235446 -81.48 0.0001278177    1.030    0.029
        94 -10.6572      1.4636    112.0451   1.0765939244e+02   5.2323756864e+01    0.3182339    0.1445234 -75.10  0.001372944    1.805    0.446
        95  -9.1178     84.2448    113.0218   7.9959049326e+01   4.2641332338e+01    0.2007579    0.1843821 -64.63  0.000223136    1.046    0.044
        96  -9.3702     62.4966    112.0890   8.6817978438e+01   4.6286824605e+01    0.2187348    0.1357475 -60.75   0.00048083    1.509    0.337
        97 -10.3430     34.6627    107.3248   9.5503531326e+01   5.0894479913e+01    0.6546722    0.1276698 -67.62  0.001746682    5.107    0.804
        98 -10.1962     26.4481    107.9009   9.8506111336e+01   5.1537385281e+01    0.3260708    0.1781712  60.54  0.001466279    2.272    0.560
        99 -10.7831     66.4942    105.5333   8.4018460940e+01   4.7332097994e+01    0.4074723    0.2802523 -30.42   0.00179106    1.789    0.441
       100  -9.8092     17.4765    107.4703   1.0160439073e+02   5.2395617044e+01    0.1327306    0.1141026 -75.01 0.0008094616    1.007    0.007
       101  -8.8818    126.8362    105.8223   6.5799096022e+01   3.6017766750e+01    0.2086664    0.1779285 -83.11 0.0004151641    1.319    0.242
       102  -8.9154     88.4399    105.5169   7.6811714990e+01   4.3714792630e+01     0.149962    0.1436796 -54.86 5.413515e-05    1.028    0.027
       103  -9.6303      7.1686    108.8685   1.0537477532e+02   5.2770136659e+01    0.2727791    0.1623635   3.72  0.001422038    2.200    0.545
       104  -9.5034    105.9346    103.4596   7.0957652803e+01   4.0875758786e+01    0.2693897    0.2187161  13.11  0.001008996    1.533    0.348
       105 -11.3896     80.2973    103.3631   7.8886517318e+01   4.5652309328e+01    0.4995065    0.2751668  28.82            0    2.151    0.535
       106  -9.0760      9.0118    102.9835   1.0399429447e+02   5.4119744715e+01    0.1515668    0.1410447 -75.04  0.000999957    1.104    0.094
       107 -10.9101     45.3701    101.4049   9.0529477211e+01   5.1200317919e+01    0.3581795    0.2796567 -62.06 0.0009930839    1.163    0.140
       108  -9.0878     48.5331     97.5124   8.8540790712e+01   5.1781562790e+01    0.1412657    0.1290477 -60.12 4.311714e-05    1.005    0.005
       109  -9.5400     52.9623    100.9320   8.7696511772e+01   5.0370278628e+01     0.210853    0.2020341 -66.44 0.0005653173    1.039    0.037
       110 -11.7057    101.6578     97.8717   7.0719283985e+01   4.2995640713e+01    0.2635466    0.2581687 -81.35 0.0002285542    1.016    0.016
       111 -10.0579     68.2012     99.5407   8.2005997678e+01   4.8538090203e+01    0.2449351    0.1973364 -43.18 0.0004853369    1.233    0.189
       112  -9.4966     69.6891     96.3257   8.0685750810e+01   4.9081357631e+01    0.2622793    0.2025947 -70.08  0.001020813    1.362    0.266
       113 -10.2407     61.1966     97.2350   8.3898985917e+01   5.0145306510e+01    0.2963085    0.2292552 -78.71 0.0004586196    1.418    0.295
       114 -10.6027     27.8478     85.1058   9.3791115052e+01   5.7074105229e+01    0.4579826    0.2984514  36.48  0.001837276    1.696    0.411
       115 -12.5026     30.0851     93.0980   9.4540601688e+01   5.4904480350e+01      0.43451    0.2668162 -40.14 0.0003724264    1.687    0.407
       116 -12.0315     34.8072     89.8337   9.2044913980e+01   5.5237858365e+01    0.2975304    0.2614656  73.21 0.0002443979    1.249    0.200
       117  -9.5833     96.7851     95.2455   7.1480419415e+01   4.4546053501e+01    0.2200073    0.2045875  77.67 0.0008156291    1.129    0.114
       118 -10.0562     16.0290     95.0982   1.0026326156e+02   5.5595968446e+01    0.1978201    0.1758412 -67.95 0.0005467326    1.035    0.034
       119 -10.3556    116.2619     93.7041   6.5333316406e+01   4.0906542600e+01    0.4855882    0.2546578  58.02  0.001615252    2.370    0.578
       120  -9.6339      6.0720     93.4299   1.0378190310e+02   5.6667583356e+01    0.3509491    0.1599164 -20.87  0.001381166    3.286    0.696
       121  -9.4566     45.4912     93.4997   8.8769014765e+01   5.3141697478e+01    0.1396854    0.1282449 -65.48 9.854459e-05    1.032    0.031
       122 -10.3046    126.3857     91.3670   6.1947192243e+01   3.9197105159e+01    0.2662209    0.2492132  81.26 0.0003807756    1.095    0.087
       123  -9.8824     12.2832     88.2861   1.0059962237e+02   5.7539171919e+01    0.3303241    0.1836337  23.93  0.001144691    2.032    0.508
       124 -10.5645     86.5429     86.4527   7.2252375938e+01   4.8475896513e+01    0.3827996    0.2686114 -80.73  0.001661342    2.065    0.516
       125  -9.4859    139.0660     87.0065   5.7543454898e+01   3.7217470307e+01    0.2238647    0.2104824 -66.54  0.001194696    1.048    0.046
       126 -10.7206    119.6721     86.5770   6.2342168706e+01   4.1671322811e+01    0.3806814    0.2735666  77.13  0.001050138    1.859    0.462
       127 -11.1340    131.2655     85.8585   5.9114642897e+01   3.9225323922e+01    0.2588367    0.2420797  51.78 0.0002571811    1.085    0.078
       128 -10.1229    102.6204     85.4206   6.6871659803e+01   4.5549315133e+01    0.2816701    0.2316627 -51.30 0.0008369124    1.206    0.171
       129 -10.7616     83.4485     74.4291   6.9631541389e+01   5.1677288698e+01    0.3137331    0.2758386 -36.38 0.0006455139    1.121    0.108
       130 -10.8606     70.9850     82.2101   7.6381240238e+01   5.2172205021e+01    0.2487332    0.2331503 -47.83            0    1.023    0.022
       131 -11.0982     75.6738     67.8460   7.0217339931e+01   5.4490316823e+01    0.5495825    0.2961547 -47.92   0.00110258    1.821    0.451
       132 -11.2077     70.3905     64.2387   7.0946175435e+01   5.6171405471e+01    0.5387911    0.3940721  57.53  0.002339613    1.664    0.399
       133 -10.4713     72.9989     77.2420   7.4175447350e+01   5.2945671439e+01    0.2817842     0.200334 -48.73 0.0005082569    1.351    0.260
       134 -10.7632     77.3490     74.9893   7.1925459001e+01   5.2676201549e+01    0.4252041    0.2749866  38.56 0.0007682677    1.596    0.374
       135  -9.7352     20.0163     82.7216   9.6482429950e+01   5.8327393824e+01    0.2592994    0.1989158  37.18  0.000919111    1.474    0.322
       136  -9.4423      1.7017     82.9836   1.0398606517e+02   5.9455068410e+01    0.1739804    0.1368254 -68.42 0.0004345222    1.058    0.055
       137 -10.0394    143.7683     81.8611   5.4970692403e+01   3.7125141769e+01    0.2401261    0.2362069  60.63 0.0003628811    1.058    0.055
       138 -10.1920     53.9420     81.1689   8.2463006148e+01   5.5005570538e+01    0.2693228    0.1857087 -44.68 0.0007434279    1.371    0.271
       139  -9.8432     45.8626     81.3038   8.5670388949e+01   5.6035025598e+01    0.3248505    0.2489477 -83.34  0.001716787    1.535    0.348
       140  -9.7954     91.9517     80.1908   6.8613976525e+01   4.8815238412e+01    0.2486717    0.2113127 -46.51  0.000589583    1.154    0.133
       141 -10.2213    104.4988     79.5994   6.4544662192e+01   4.6386181287e+01    0.3674653    0.1854696 -48.24  0.001451802    2.000    0.500
       142 -11.0200    104.9458     74.4195   6.2789155949e+01   4.7347959498e+01    0.3743805    0.3042307  86.05 0.0005083388    1.524    0.344
       143 -10.7047    101.9862     69.0357   6.1929294795e+01   4.9046119086e+01    0.3032207    0.2279032 -42.80            0    1.327    0.246
       144  -9.7646    112.8057     81.9004   6.2842771010e+01   4.4135148672e+01    0.2234853    0.2054766  -6.03 0.0005216509    1.206    0.171
       145 -10.1315    121.4211     78.5124   5.9457350826e+01   4.2911572901e+01    0.2515118    0.2445906 -27.83 0.0003096731    1.065    0.061
       146 -10.7818      4.7974     76.0799   1.0160599301e+02   6.0949347181e+01    0.4070703    0.2459655 -45.22  0.002127099    1.500    0.333
       147 -11.1929     47.4346     73.7838   8.2995502241e+01   5.7584112293e+01    0.6394292    0.3842035  62.03  0.002714372    2.695    0.629
       148  -9.7144     60.9832     76.0169   7.8276665377e+01   5.5164005701e+01    0.2006026    0.1933875 -32.36  0.001181572    1.029    0.028
       149  -8.8851    136.2836     74.3423   5.4478661530e+01   4.0287056108e+01    0.2697812    0.2068857 -10.74 0.0006883308    1.723    0.420
       150 -10.2362    140.4110     72.5212   5.2977728054e+01   3.9648857229e+01    0.2879976    0.2498343  37.05 9.596308e-05    1.254    0.203
       151 -11.5143    136.9793     69.5053   5.2844561112e+01   4.1005806172e+01    0.4174899    0.2902226 -37.06 0.0003085834    1.461    0.316
       152  -9.7376     56.8843     72.6995   7.8878352509e+01   5.6521374422e+01    0.2506317    0.1745329 -40.71  0.000652259    1.384    0.278
       153  -8.9879     38.4639     72.4877   8.6366252010e+01   5.8976300339e+01    0.1358848    0.1215992 -44.81 0.0001687872    1.005    0.005
       154  -9.6618     33.0154     72.0084   8.8562070816e+01   5.9682433861e+01    0.1962322    0.1797417 -54.05 0.0003152323    1.055    0.052
       155 -10.7728     35.4577     67.9628   8.6412340332e+01   6.0350013568e+01    0.3326284    0.2222124 -60.80 0.0008630137    1.429    0.300
       156 -10.4346     33.3223     63.1297   8.5979863145e+01   6.1672058217e+01    0.2771805    0.2439346 -16.77  0.001291472    1.139    0.122
       157  -8.9778    129.1358     70.8132   5.5112957720e+01   4.2612130552e+01    0.1935343    0.1750714   6.58 0.0002906932    1.273    0.214
       158 -10.2538     97.2158     69.6488   6.3589245937e+01   4.9930386421e+01    0.3096299    0.2499478 -50.94 0.0008519792    1.264    0.209
       159  -9.9990     63.6857     70.6337   7.5589051454e+01   5.5934790498e+01    0.3055888    0.2301818  30.93 0.0008211247    1.395    0.283
       160 -10.8630     17.5462     70.6428   9.4991992680e+01   6.1401196237e+01    0.2520449    0.2176035  -4.68 0.0008530761    1.274    0.215
       161 -11.8905    110.9995     65.8343   5.8262221407e+01   4.7686865144e+01    0.2736041    0.2514119 -44.65 0.0003071551    1.093    0.085
       162 -10.4778    108.0521     62.9551   5.8130820948e+01   4.8876978014e+01    0.2524618    0.2372427  14.40            0    1.122    0.109
       163 -10.4632     48.6731     66.7804   8.0407692364e+01   5.8993436255e+01    0.3037594    0.2485613  37.87  0.001170403    1.326    0.246
       164 -10.4758     42.7362     63.6815   8.1979956709e+01   6.0449587840e+01    0.5210805    0.3758318 -64.41  0.002523325    1.491    0.329
       165 -10.3299      3.6514     66.7336   1.0041497974e+02   6.3215813510e+01    0.3680252    0.2021849  45.87  0.001902426    2.282    0.562
       166  -8.8611    121.3364     66.3265   5.5651922513e+01   4.5245832212e+01    0.1538495    0.1185323  14.45 0.0003969306    1.722    0.419
       167  -9.5574     58.7469     66.3448   7.6151213648e+01   5.7634830998e+01     0.351823    0.1586016  38.45  0.001455862    2.306    0.566
       168  -9.6129    180.4822     65.5267   4.3279467219e+01   3.1304582977e+01    0.1444491    0.1312413 -66.32 -3.823875e-05    1.018    0.017
       169 -10.6489     82.6977     63.7048   6.6340251528e+01   5.4021091920e+01    0.3744385    0.2539441 -20.68 0.0007640446    1.884    0.469
       170  -9.9581    194.7700     62.8380   4.0408557226e+01   2.8416860584e+01    0.4206289    0.2805662  -3.18  0.001575918    2.609    0.617
       171  -8.7014    184.0040     64.0357   4.2322017903e+01   3.0716718435e+01     0.166844    0.1533715 -73.50 0.0009571658    1.027    0.027
       172 -10.9134    147.0576     61.5515   4.8216535498e+01   3.9965123440e+01    0.2687919    0.2313842 -50.29 0.0002193844    1.145    0.127
       173 -13.0328    150.7707     57.7173   4.6306886744e+01   3.9690158274e+01    0.4020078    0.3353896 -53.66 0.0005020644    1.182    0.154
       174  -8.6328    211.7221     63.7246   3.8361680136e+01   2.4508493450e+01     0.120231    0.1059274  13.23            0    1.496    0.332
       175  -9.1722    172.0107     62.7853   4.3923710259e+01   3.3747530170e+01    0.2240317    0.1478663 -59.59  0.001044252    1.618    0.382
       176 -10.0273     90.5037     62.1437   6.3187690419e+01   5.2777028313e+01    0.3947223    0.2327765  65.20  0.001233943    2.565    0.610
       177  -8.7057    167.5004     61.4791   4.4329268129e+01   3.5036118110e+01    0.1438036    0.1365052 -74.30 0.0008101253    1.031    0.030
       178  -9.9122    131.8045     60.8244   5.1319481696e+01   4.3757536900e+01    0.3085838    0.2009401 -76.87  0.001258833    2.314    0.568
       179 -10.7547     76.9109     81.9131   7.4191150420e+01   5.1230542046e+01    0.5750594    0.4389772  20.67  0.002872607    1.511    0.338
       180  -9.6707    219.0343     59.0869   3.6365369042e+01   2.3618771989e+01     0.233875    0.1695401 -39.35  0.000727011    1.253    0.202
       181 -10.2132    103.1535     59.4841   5.8357499939e+01   5.0592380408e+01     0.460195    0.3091264  27.47  0.001728003    1.861    0.463
       182 -10.7322     97.0535     58.6813   5.9907390721e+01   5.2058652307e+01     0.467258    0.2624432  45.82  0.001476194    1.765    0.434
       183 -10.1708     95.8113     55.3806   5.9118163996e+01   5.2920570361e+01    0.5024459    0.3132108  31.26  0.001881757    1.913    0.477
       184 -11.1754     60.6164     57.4788   7.2395428838e+01   5.9188799973e+01    0.4562172    0.3045622  30.88  0.002313228    1.569    0.362
       185 -10.2907    184.9487     54.8529   3.9717023210e+01   3.1901061663e+01    0.4223544    0.1784932 -43.53  0.001326108    2.171    0.539
       186 -10.8648    161.3021     55.8572   4.3793650435e+01   3.7420486267e+01    0.4382183    0.3373349 -21.73  0.001225701    1.511    0.338
       187 -10.0458     81.4275     43.3056   5.9234850201e+01   5.7998212912e+01     0.354603    0.2344635  22.55  0.001273291    1.884    0.469
       188 -11.1698     83.9829     48.3598   6.0331864272e+01   5.6622030607e+01    0.5533777    0.4733377  32.12  0.002272164    1.157    0.136
       189 -10.9135     78.3833     55.4994   6.4939776823e+01   5.6434509047e+01    0.2975511    0.2736364  58.99 0.0006311701    1.198    0.165
       190 -10.2779     83.2948     54.5949   6.2897565619e+01   5.5645698868e+01    0.3847919    0.2542612  52.33  0.001618696    1.617    0.382
       191 -10.7354     35.0478     51.3176   8.1448625606e+01   6.4029623128e+01    0.2244061    0.1720894 -47.13   0.00028957    1.197    0.165
       192  -9.9775     26.9132     56.1405   8.6876700138e+01   6.3877500420e+01    0.2279264    0.1757215  10.85  0.001356614    1.399    0.285
       193 -11.4561     30.0632     53.0764   8.4412240527e+01   6.4216019009e+01    0.4519637    0.3194838  67.80  0.002135281    2.235    0.553
       194 -10.7710      9.2036     55.7943   9.5400767251e+01   6.5395368032e+01    0.3799919    0.2245507 -37.86  0.002110791    1.556    0.357
       195 -11.1528    246.1053     55.6981   3.2780562993e+01   1.8612601591e+01    0.2135643    0.1638222 -46.21 0.0002260379    1.079    0.073
       196  -8.7889    239.3139     56.2979   3.3562310802e+01   1.9852614217e+01    0.1127925   0.09849031  10.58 0.0007014206    1.605    0.377
       197 -10.5654    200.7283     54.7735   3.7540605628e+01   2.8266106350e+01    0.2858874    0.2638637  15.65 0.0008866469    1.378    0.275
       198 -10.2815    201.4865     50.2678   3.6303893079e+01   2.8740333106e+01    0.2979842    0.2464609 -85.52  0.001369132    1.174    0.148
       199 -10.7749    175.6162     55.0690   4.1184055216e+01   3.4084692310e+01    0.4788115    0.2791779 -67.24  0.001987542    2.168    0.539
       200 -11.0159    128.1374     53.1918   4.9681291462e+01   4.5903441268e+01    0.3727855    0.3294009  66.92  0.001272999    1.112    0.101
       201 -10.0822    117.2445     51.6157   5.1783319089e+01   4.8743392582e+01    0.4117439    0.2509487  46.11  0.001118887    1.638    0.390
       202 -10.8922    122.0738     48.6742   4.9582360461e+01   4.8072860706e+01    0.3138048    0.2563453 -58.88 0.0006835055    1.315    0.239
       203  -9.1502    118.9818     64.0190   5.5511756952e+01   4.6207309502e+01    0.1757701    0.1669975 -46.10            0    1.060    0.057
       204 -10.1681     63.6952     49.0276   6.8039312331e+01   6.0318265540e+01    0.3159381    0.2479865 -70.56 0.0008648316    1.747    0.428
       205 -10.0928      9.6676     65.8897   9.7499153623e+01   6.3062227907e+01    0.2632932    0.2043377  75.30  0.001579779    1.548    0.354
       206 -10.7957     24.5030     50.0011   8.6140411091e+01   6.5434955489e+01    0.4437183    0.2275892 -26.40  0.001229621    2.410    0.585
       207 -10.8163     17.7373     48.7784   8.9173520344e+01   6.6305637870e+01    0.3873666      0.23131 -48.67 0.0009054209    1.412    0.292
       208 -10.7798    211.5804     49.4632   3.4908590212e+01   2.6596962067e+01    0.2790176    0.2188777 -82.09 0.0006517731    1.252    0.201
       209  -9.1635    191.8175     50.2046   3.7526586466e+01   3.0971423158e+01    0.1767026    0.1642457  32.32 0.0009528017    1.322    0.244
       210 -12.1688    137.6810     47.3125   4.5662038131e+01   4.4507241355e+01     0.362253    0.2930762 -71.99 0.0007314161    1.334    0.251
       211 -11.2957    143.0540     42.4101   4.3012950789e+01   4.3905435488e+01    0.6805153    0.2309245  50.58  0.002375748    2.920    0.658
       212  -9.8575    103.7526     49.3650   5.4596408205e+01   5.2212892024e+01      0.40627    0.2382462  77.33  0.001496363    3.107    0.678
       213 -10.0302    246.3610     48.0039   3.1103345982e+01   1.9594285961e+01    0.2207683    0.1849644 -28.81  0.001463959    1.342    0.255
       214  -8.7638     55.6281     49.6710   7.1595543733e+01   6.1526171938e+01    0.1453355    0.1009102  -8.10 0.0007029559    1.828    0.453
       215  -9.2520    233.0236     48.2733   3.2386699936e+01   2.2208861333e+01    0.1711909    0.1433736 -69.09 0.0003114991    1.095    0.087
       216 -12.4338    163.4862     42.6117   3.9526065669e+01   3.8840429166e+01    0.5040928    0.3264101 -79.72  0.002350644    1.839    0.456
       217  -8.9776     37.7505     47.3264   7.8754433840e+01   6.4519592774e+01    0.1962642    0.1437759 -52.79 0.0003053342    1.366    0.268
       218  -9.6465     39.7490     44.5789   7.6780539769e+01   6.4809252135e+01     0.230898    0.1708605  25.48 0.0006173375    1.396    0.284
       219 -10.4801     33.5363     45.6910   8.0193537935e+01   6.5360125986e+01    0.3899681      0.20631 -50.19 0.0009691191    1.734    0.423
       220 -10.9298    108.5622     43.3430   5.1084131166e+01   5.2075787678e+01    0.3939304    0.2355672  55.01 0.0001230738    1.616    0.381
       221 -10.3565     90.8437     43.8347   5.6366456755e+01   5.5950491051e+01    0.2531235     0.199667  45.10 0.0002621522    1.230    0.187
       222 -10.4861     91.0504     40.2500   5.4907145724e+01   5.6475765065e+01    0.2813417    0.2478187  18.05 0.0001933889    1.165    0.141
       223 -10.6514     54.4119     36.7095   6.6905062635e+01   6.4090947512e+01    0.2245083    0.2039189  -0.10 0.0002940756    1.017    0.017
       224 -11.8831     56.7693     41.7769   6.8011462824e+01   6.2812504150e+01    0.3289405    0.2555971 -13.61 0.0002222143    1.348    0.258
       225 -11.5676     62.6551     37.7972   6.3931232550e+01   6.2494787256e+01    0.4734437    0.4056277  17.01  0.001932141    1.131    0.115
       226  -9.6291    209.1520     42.8046   3.3550644278e+01   2.8044808888e+01    0.2135461    0.1555826 -62.63 0.0008390181    1.251    0.201
       227 -10.4324     18.2194     42.1359   8.6786392807e+01   6.7660705923e+01    0.2708068    0.2026666 -48.97 0.0009250645    1.187    0.158
       228  -9.4027     97.9030     41.6579   5.3403299723e+01   5.4755036025e+01    0.1914279    0.1723573  53.17 0.0004313314    1.093    0.085
       229 -10.1211    230.7955     39.6250   3.0645080784e+01   2.3807820623e+01    0.2603821    0.1568095 -45.82 0.0005783348    1.376    0.273
       230  -9.4465     28.1270     41.1081   8.1221590223e+01   6.6890928102e+01    0.2017786    0.1503686 -25.78 0.0004995126    1.256    0.204
       231  -9.4457     76.0748     40.2547   5.9874759045e+01   5.9570275991e+01    0.1881279    0.1820749  24.87  0.001147493    1.076    0.071
       232  -8.9458    177.3269     39.3292   3.6540137647e+01   3.5919749636e+01    0.1370144    0.1057948  31.80 0.0002887408    1.705    0.414
       233 -11.8293    140.2041     37.8374   4.2069644924e+01   4.5247595029e+01    0.2670101    0.2472402 -64.11 0.0002529873    1.077    0.072
       234  -9.9234    127.7303     37.8768   4.4582378186e+01   4.8306794846e+01    0.3916156    0.2789022  80.27  0.001937233    1.560    0.359
       235 -10.0799     44.0381     38.9842   7.2538378632e+01   6.5283731277e+01    0.1933358    0.1666118 -16.28 0.0003125951    1.055    0.052
       236  -9.9867    201.8522     37.1921   3.2954899342e+01   3.0433814296e+01    0.2423253    0.1797276 -59.98 0.0006953673    1.209    0.173
       237 -10.7233      4.5116     49.9912   9.6325586173e+01   6.6968606192e+01    0.4702291    0.2559546 -35.30  0.002564553    1.719    0.418
       238 -10.1069    114.7011     35.9931   4.6847410069e+01   5.1710896438e+01    0.4883481    0.2493223 -17.00    0.0016889    2.925    0.658
       239 -10.2692     83.7712     37.0877   5.5954420389e+01   5.8511216249e+01     0.372339    0.2082785 -58.33  0.001476878    2.972    0.663
       240 -10.1288     81.8143     32.8781   5.4856806603e+01   5.9553190745e+01     0.340556    0.2131697   8.41  0.001472749    2.497    0.600
       241  -9.9082      2.6648     38.0899   9.4086657001e+01   6.9630521840e+01    0.2290827    0.1551631  -4.71 0.0006539842    1.564    0.361
       242 -10.1503    194.2241     36.6168   3.3671461384e+01   3.2268067686e+01    0.3085253      0.18145 -64.20   0.00128016    1.770    0.435
       243  -8.8883    190.2946     36.3271   3.4059855156e+01   3.3225642514e+01    0.1275313    0.1048233  29.52 0.0002662054    1.626    0.385
       244 -11.3050     72.8522     35.9248   5.9239961033e+01   6.0898210129e+01    0.4733154    0.3008654   3.52 0.0009503942    2.429    0.588
       245 -10.1154     23.2212     25.4891   7.7486181659e+01   7.0376067240e+01    0.2805038    0.1570214 -43.72 0.0006881893    1.616    0.381
       246 -10.7979     46.4575     19.4884   6.2499726105e+01   6.8133542026e+01    0.5434619    0.2549471  55.66  0.001490167    3.737    0.732
       247 -10.4692     30.3641     30.9160   7.5951919898e+01   6.8569538038e+01    0.4198907    0.2966771 -66.03  0.001799434    2.066    0.516
       248  -9.7539     68.4732    248.9846   1.0282150291e+02   1.4324978566e+01     0.152954    0.1094789 -81.77 0.0004745452    1.555    0.357
       249 -10.1803    220.3055    246.9894   7.3578539152e+01  -5.5070699902e+00    0.2122361    0.1232069  19.44 0.0009071715    1.478    0.323
       250  -9.4085    181.4844    247.4987   8.0525740140e+01  -6.6724969751e-01    0.1168001   0.09218673  16.85 1.366521e-05    1.022    0.022
       251  -8.8111     76.9831    246.9475   1.0096773073e+02   1.3615762497e+01     0.139224    0.1112743  51.44 0.0004043597    1.018    0.018
       252 -10.6937    106.2152    244.2622   9.4826702840e+01   1.0204854582e+01    0.2707833    0.2327966  67.24 0.0008604012    1.228    0.185
       253 -10.6320      4.4583    246.0287   1.1490547425e+02   2.1892155867e+01    0.2484546    0.1160792  39.35  0.001547377    1.703    0.413
       254  -9.3422     27.8751     36.8631   7.9724696824e+01   6.7748908854e+01     0.226093    0.1435191  13.71  0.001239192    1.718    0.418
       255  -9.5548    161.5041     35.7701   3.7801795115e+01   4.0255404945e+01    0.3167812    0.1937059 -71.33  0.001153497    1.951    0.487
       256 -11.0648    246.5081     32.5144   2.7787377767e+01   2.1541586368e+01    0.3712303    0.1876098 -51.01   0.00106326    1.602    0.376
       257 -10.3899    169.9330     33.6799   3.5958885337e+01   3.8458014068e+01    0.2741052    0.1905002 -34.58 0.0004885972    1.465    0.317
       258  -9.1770    152.6448     35.7240   3.9195851137e+01   4.2451277149e+01     0.142814     0.102785  38.36 0.0007006662    1.649    0.394
       259  -8.5637    106.7312     34.6810   4.8329844892e+01   5.3770721953e+01    0.1389982    0.1054612  20.96 0.0003054648    1.560    0.359
       260  -9.6836     86.9443     33.3852   5.3423603677e+01   5.8393371498e+01    0.3668271    0.1748275  34.83 0.0009083144    2.625    0.619
       261 -11.5454     40.1683     33.0947   7.1900819426e+01   6.6893968782e+01     0.237954    0.2135291   0.58            0    1.066    0.062
       262 -10.6648     46.9445     28.6917   6.6696312090e+01   6.6634713014e+01    0.5792521    0.2549602  35.95  0.002074651    2.299    0.565
       263  -9.8849     97.0291     33.1374   5.0335115714e+01   5.6210006202e+01    0.1985178    0.1860183  47.90 0.0002827367    1.031    0.031
       264 -11.2365    236.2339     29.6940   2.7972625822e+01   2.3938302461e+01    0.4341095    0.2802781 -36.41  0.001780641    1.427    0.299
       265 -11.3667    132.0419     29.6865   4.0890530513e+01   4.8334657322e+01    0.3575553    0.2705727 -18.06            0    1.530    0.347
       266  -9.3942    151.6703     31.3322   3.7984889837e+01   4.3261436420e+01    0.1503159    0.0983583 -67.21 0.0007051929    1.720    0.419
       267 -10.9395    124.0341     30.4040   4.2742858038e+01   5.0208101590e+01    0.3061052    0.2521907  69.78 0.0004496882    1.165    0.142
       268  -9.6398    120.7065     26.4144   4.2003975236e+01   5.1519146456e+01    0.2585193    0.2269508  58.95  0.000781672    1.066    0.062
       269 -10.1221    215.9305     29.1348   2.9567945059e+01   2.8301512065e+01    0.2229054    0.1808752 -82.61 0.0004590051    1.140    0.123
       270  -9.7565    109.7455     29.3186   4.5542946164e+01   5.3785079051e+01     0.229232     0.201204  86.04 0.0005072894    1.217    0.178
       271 -10.2095     77.2665     29.3263   5.4863268076e+01   6.1008586538e+01    0.2179083    0.1856607 -26.33 0.0002802067    1.200    0.166
       272  -9.3459    172.0126     28.9378   3.4316961194e+01   3.8546903685e+01    0.2079023    0.1572606  38.74 0.0007437903    1.637    0.389
       273 -10.9802     15.7591     27.7295   8.2785185344e+01   7.0724781979e+01    0.4436477    0.2880188 -33.54  0.002675368    1.347    0.257
       274  -9.7284    179.7783     28.3217   3.3165829031e+01   3.6741132266e+01    0.2283356    0.1528769  77.51 0.0004610824    1.436    0.304
       275  -8.8293    154.5658     27.4711   3.6331966301e+01   4.3021931388e+01    0.1358322    0.1264609  79.14 4.161501e-05    1.063    0.059
       276 -10.1814     81.4190     26.5328   5.2281419684e+01   6.0532732673e+01    0.2587484    0.2388347 -68.03 0.0009089052    1.290    0.225
       277  -9.5755    206.9534     25.6872   2.9568566875e+01   3.0715111686e+01    0.1962093    0.1698221 -31.57 0.0005194602    1.307    0.235
       278 -10.5026    183.5040     25.1484   3.1859611064e+01   3.6230701003e+01     0.292655    0.1870208 -58.63 0.0008457319    1.499    0.333
       279 -10.4422    179.4587     21.4515   3.1308524742e+01   3.7633315173e+01    0.3880148    0.2108328 -63.28   0.00181741    1.957    0.489
       280 -10.7926     73.0439     25.3868   5.4582090713e+01   6.2419509128e+01    0.2792659    0.2136668  48.42 0.0007644896    1.279    0.218
       281 -10.2715     66.1217     25.3994   5.7106376413e+01   6.3779423345e+01    0.2453638    0.1862108 -37.43 0.0005940261    1.394    0.283
       282  -9.4335    144.7106     25.0615   3.7111086417e+01   4.5759274974e+01    0.1910474    0.1809904 -71.05 0.0008493066    1.070    0.066
       283  -9.9197    243.9055     19.1179   2.5140681496e+01   2.3649139294e+01    0.2777517    0.1810464 -68.89  0.001654051    1.336    0.251
       284 -10.1634     29.9039    244.7569   1.1008326481e+02   1.9573497714e+01    0.1575465    0.1317726  53.83 0.0005346849    1.186    0.156
       285 -11.1722    236.7789     16.6322   2.5088991384e+01   2.5365218646e+01    0.3522922    0.1737234  75.00   0.00115654    2.057    0.514
       286  -9.8271    212.0952     22.5478   2.8339762286e+01   2.9938103634e+01    0.2689231    0.1748088 -21.76  0.001124289    1.867    0.464
       287 -10.1968     98.9495     23.2670   4.5852186385e+01   5.7068982220e+01    0.3523009     0.218355  43.84   0.00175487    1.554    0.356
       288 -10.0961    224.7896     23.0134   2.7387348298e+01   2.7124567859e+01    0.3305085    0.1751165  76.46  0.001152344    1.904    0.475
       289 -10.5231    222.5092     19.5078   2.6766680105e+01   2.8020039497e+01    0.2473703    0.1088229 -32.92  0.001194788    2.111    0.526
       290 -10.4621    164.1734     22.3528   3.3429721855e+01   4.1252443692e+01    0.3260955    0.2438469  52.43  0.001415517    1.418    0.295
       291 -10.1893    158.7422     22.7339   3.4276118594e+01   4.2548499316e+01     0.283606    0.1993394  58.44 0.0006922865    1.393    0.282
       292 -10.4817    166.1679    243.3634   8.2845036065e+01   1.9900749948e+00    0.1977711     0.176559  37.73 0.0002785017    1.252    0.201
       293  -9.7664      1.4797     22.4958   8.9549499638e+01   7.2833371383e+01    0.2144784    0.1037688 -60.57 0.0008184336    2.021    0.505
       294  -9.2648      2.4637     19.4585   8.7694908156e+01   7.3343785106e+01    0.2070249    0.1028013 -37.54 0.0005980772    1.695    0.410
       295  -9.4114    248.8783     22.4760   2.5512271834e+01   2.2283924103e+01     0.161303    0.1063407  84.61  0.001016701    1.545    0.353
       296  -8.6142    205.7026     21.2460   2.8593550656e+01   3.1521713030e+01    0.1292345   0.08119811 -66.47 0.0001879055    1.484    0.326
       297  -9.5366    142.9796     21.3629   3.6184171242e+01   4.6618438363e+01    0.2024615    0.1665145  71.42  0.001155601    1.120    0.107
       298  -8.8717     75.8903     20.3634   5.1340614005e+01   6.2499748046e+01    0.1957545    0.1059253  41.98 0.0009319483    1.751    0.429
       299 -10.2286    159.5100    243.0556   8.4083762349e+01   2.9577466092e+00    0.1588891    0.1170307 -40.74  0.001031074    1.588    0.370
       300  -9.1279     92.6624    242.9846   9.7450724072e+01   1.2266345097e+01    0.1585054    0.1362395  54.21 0.0004472763    1.082    0.076
       301 -10.0763     41.9423    242.0873   1.0759047156e+02   1.8747665494e+01    0.1769697    0.1370986  55.72 0.0006367638    1.037    0.035
       302 -10.6648     14.6399    238.3467   1.1270449377e+02   2.2353339430e+01    0.1953838    0.1644038  64.94 0.0005918731    1.185    0.156
       303 -11.1085    150.5434     18.2296   3.4036571360e+01   4.5087429161e+01    0.3122195    0.2664315  88.01 0.0006246811    1.073    0.068
       304 -10.8206      4.4485    238.6465   1.1464593607e+02   2.3273642470e+01    0.1967178    0.1190486  36.03  0.001003066    1.555    0.357
       305  -9.6727    130.7627     19.5397   3.7617620118e+01   4.9853106004e+01    0.3885846    0.1261177  65.97  0.001393866    2.870    0.652
       306  -9.7804    118.0874     19.1746   3.9880871590e+01   5.3002663684e+01     0.303712    0.1959748  39.85  0.001087993    1.652    0.395
       307 -11.6442    119.3798    231.0830   9.0652972562e+01   1.0653539229e+01    0.3194924    0.2565359  89.41 0.0004402044    1.551    0.355
       308 -10.9618      4.0818    228.6612   1.1434213907e+02   2.5238436589e+01    0.2527176    0.1283996  50.63  0.001569312    1.485    0.326
       309 -10.3931    140.1723    227.4659   8.5878253227e+01   8.2379933659e+00    0.2738366     0.186064  33.38  0.001396363    1.265    0.209
       310  -8.6873    104.5761    228.4766   9.3468321649e+01   1.3253175073e+01    0.1246609    0.1065672  44.86  8.08845e-05    1.015    0.015
       311 -10.0999     98.0699    225.2181   9.4495493144e+01   1.4790002315e+01    0.1961138    0.1791776 -89.34 0.0005334008    1.201    0.168
       312 -10.3783     22.8926    225.0028   1.1042792881e+02   2.4141000505e+01    0.2768759    0.1827577 -53.63  0.001719308    2.030    0.507
       313 -11.0935      5.7633    224.9758   1.1386655539e+02   2.5815201484e+01    0.3935848    0.1487474  27.01  0.001957635    2.854    0.650
       314  -8.9988    226.3715     18.2922   2.6195796440e+01   2.7337088138e+01    0.1135741   0.09134275  43.49 0.0004718116    1.725    0.420
       315 -10.7670     76.3260    219.7849   9.8652233302e+01   1.8859255698e+01    0.5664151    0.3835327  14.56    0.0030549    2.025    0.506
       316 -10.0256     63.5730     18.3496   5.4749423858e+01   6.5227988462e+01    0.2731513    0.1407426  42.31 0.0007397611    1.815    0.449
       317 -10.7887    193.5081     16.8377   2.8617849106e+01   3.4824671257e+01    0.2279931    0.1873274 -84.10 0.0002772847    1.083    0.076
       318 -11.2925     73.2204    213.8972   9.8754923188e+01   2.0478223655e+01     0.696077     0.380937  33.10  0.003589035    1.724    0.420
       319 -11.1226    108.3317    220.2874   9.1706256231e+01   1.4252563080e+01    0.3931568    0.1878161  41.78  0.001134201    1.781    0.439
       320  -8.9147     28.4646    221.4356   1.0907601500e+02   2.4284698157e+01    0.1181145   0.09363759  63.42 0.0002014542    1.030    0.029
       321 -10.9637    118.4916    216.5025   8.9020928667e+01   1.3462891137e+01    0.3764109    0.2632613 -64.84  0.001900253    1.684    0.406
       322 -10.6027      3.8979    217.0821   1.1391359324e+02   2.7584721289e+01    0.2082349     0.135481 -84.74  0.001380385    1.417    0.294
       323 -10.2270     12.0468    216.8871   1.1223826506e+02   2.6871632346e+01    0.1885372    0.1373805  83.36 0.0003514706    1.190    0.160
       324  -9.1813     91.0514    214.5287   9.4836197884e+01   1.7885429740e+01    0.2061123    0.1105371  38.65  0.001031164    1.610    0.379
       325  -9.3116     23.5633    213.2087   1.0962204911e+02   2.6504138343e+01    0.1518209   0.09965453 -70.42 0.0003822799    1.588    0.370
       326 -11.7210    148.9855    210.7135   8.1657999105e+01   9.8326953774e+00    0.2241973    0.2095585  -5.39 0.0004004579    1.117    0.105
       327  -9.3982    104.8817    210.1577   9.1213799605e+01   1.6747198932e+01    0.1668066    0.1519652   4.86 0.0003543811    1.283    0.221
       328  -9.7457    141.5780    207.3692   8.2730149919e+01   1.1608044833e+01    0.2202197    0.1776486  39.59 0.0003074063    1.133    0.117
       329  -9.1688     42.0620    208.2845   1.0523816684e+02   2.5548962291e+01    0.1721213    0.1373044  56.49 0.0002682214    1.070    0.065
       330 -10.9752     90.0703    204.7017   9.3909733063e+01   2.0052669667e+01    0.4796975    0.2917001 -89.76  0.001751368    2.172    0.540
       331  -9.6342     74.1846    205.0110   9.7613374803e+01   2.2221309065e+01    0.1841162     0.177507  -7.46  0.001026707    1.305    0.234
       332 -11.3985     11.2551    201.9540   1.1164867065e+02   3.0112665080e+01    0.2418816    0.1651651  60.63  0.001561387    1.180    0.153
       333 -10.3211      2.9957    200.0194   1.1334902707e+02   3.1268055795e+01    0.1473185    0.1131828  68.93  0.001013063    1.017    0.017
       334 -10.8971    167.1401    198.2050   7.5870610875e+01   9.1785559923e+00    0.2250104    0.2024925   7.87 0.0002530991    1.038    0.037
       335  -8.6424    135.6683    198.3050   8.2633706079e+01   1.4282993626e+01    0.1367503      0.10104  64.56  0.000381389    1.659    0.397
       336  -9.6048    104.2840    193.6733   8.9147115824e+01   2.0256628441e+01    0.2727975    0.1971622 -10.43  0.001008062    2.148    0.534
       337  -9.0514    109.4997    193.5338   8.7898677251e+01   1.9467734943e+01    0.1366583    0.1246753  48.87 7.782403e-05    1.008    0.008
       338  -9.8522     62.8605    188.4844   9.8504080279e+01   2.7404392518e+01    0.2079166    0.1737537 -86.67 0.0003612036    1.152    0.132
       339  -8.9208     89.5788    188.2018   9.1921580630e+01   2.3704147722e+01    0.1721976    0.1268301 -52.41 0.0003701571    1.489    0.329
       340  -9.6709    109.4792    185.7327   8.6744234714e+01   2.1144634101e+01    0.2438456    0.2056835  34.85 0.0006731675    1.156    0.135
       341  -9.8709    113.4882    183.5396   8.5441561111e+01   2.0967765386e+01    0.3048883    0.2136472 -84.65  0.001348948    1.854    0.461
       342  -9.4768      1.2111    184.7705   1.1300384526e+02   3.4796414927e+01    0.2694339   0.07923333 -78.75  0.001129635    2.901    0.655
       343  -9.1263    138.4887    178.8596   7.8772552589e+01   1.7720738215e+01    0.1896322    0.1396365 -50.35 0.0002902873    1.429    0.300
       344  -9.2671     34.2692    177.7440   1.0453417951e+02   3.3334032519e+01    0.1614215    0.1414895 -60.28 0.0004060468    1.311    0.237
       345  -8.9352    170.8255    173.1769   7.0610570545e+01   1.3157717234e+01    0.1860043    0.1544027  -3.77 0.0003193247    1.284    0.221
       346  -8.6922    102.0464    173.2311   8.6616792611e+01   2.5138866136e+01    0.1800307    0.1143272  36.42  0.000373673    1.529    0.346
       347 -11.1445     68.5284    171.4098   9.4993656212e+01   3.0644000958e+01    0.3401491    0.2757049  25.03            0    1.400    0.286
       348 -10.3212     36.6964    172.5614   1.0343212750e+02   3.4307203185e+01    0.2282943    0.1929723 -89.48 0.0003656441    1.077    0.071
       349  -8.7006    129.2895    171.3386   7.9590242636e+01   2.0920306694e+01    0.1435211    0.1124279 -13.58 0.0004420193    1.641    0.390
       350  -8.9439     87.5560    171.4330   9.0037735749e+01   2.7854517707e+01     0.140802    0.1294586  67.78 0.0001038228    1.003    0.003
       351  -8.7750     20.4440    170.4585   1.0741625171e+02   3.6457041481e+01    0.1284583    0.1058898  79.21 0.0008065231    1.003    0.003
