#   1 NUMBER                 Running object number                                     
#   2 MAG_AUTO               Kron-like elliptical aperture magnitude                    [mag]
#   3 X_IMAGE                Object position along x                                    [pixel]
#   4 Y_IMAGE                Object position along y                                    [pixel]
#   5 X_WORLD                Barycenter position along world x axis                     [deg]
#   6 Y_WORLD                Barycenter position along world y axis                     [deg]
#   7 A_WORLD                Profile RMS along major axis (world units)                 [deg]
#   8 B_WORLD                Profile RMS along minor axis (world units)                 [deg]
#   9 THETA_WORLD            Position angle (CCW/world-x)                               [deg]
#  10 FWHM_WORLD             FWHM assuming a gaussian core                              [deg]
#  11 ELONGATION             A_IMAGE/B_IMAGE                                           
#  12 ELLIPTICITY            1 - B_IMAGE/A_IMAGE                                       
         1 -10.0995    119.0934     19.3416   6.0422830557e+01   5.3026002749e+01    0.4154117    0.2088808 -13.53  0.001617445    2.309    0.567
         2  -8.8397      5.3481      9.6963   1.0527817769e+02   7.5116219618e+01    0.1099367   0.09119284  73.44 0.0007040623    1.695    0.410
         3 -10.2755    168.3781      5.2375   4.7086876178e+01   4.1488529093e+01    0.4680143    0.1267186 -19.84  0.001497825    3.532    0.717
         4 -10.3424     79.3061      4.8815   6.3630947632e+01   6.4272322224e+01    0.3020748    0.2395283  53.15  0.001679468    1.297    0.229
         5 -10.9998    144.6394    241.2887   1.0676854250e+02   1.1022521604e+01    0.4056296    0.3149536   5.22  0.001459328    1.502    0.334
         6 -10.5431    110.3490    246.3699   1.1318856431e+02   1.4747538527e+01    0.3694342    0.2679791   1.62  0.002641195    2.112    0.527
         7 -16.5664     51.3797    240.2142   1.2304621687e+02   2.2366879849e+01      2.48671     1.664591  18.75  0.006655552    2.039    0.510
         8 -10.1176    142.9612    231.4953   1.0600448027e+02   1.2458809300e+01    0.2010873    0.1568522  40.99  0.001535794    1.132    0.117
         9  -9.1825    114.4084    231.7111   1.1115188424e+02   1.6203097220e+01    0.1199871    0.1013461 -36.31 0.0009403155    1.586    0.370
        10 -13.3490    112.1402    215.0033   1.0989899228e+02   1.8916459335e+01    0.9284339    0.5225685  49.82  0.005685875    1.592    0.372
        11 -13.3438    134.5829    210.8928   1.0514854469e+02   1.6413357552e+01    0.7306406    0.5377164  26.28  0.004991036    1.259    0.206
        12 -11.9658    123.4167    217.8572   1.0806685089e+02   1.6965571201e+01    0.4620453     0.326076  -5.49  0.001830154    2.212    0.548
        13  -8.9130    179.3234    228.3175   9.9291620533e+01   7.8870131033e+00    0.1111304    0.0694014  14.00 0.0003982346    1.669    0.401
        14 -11.5053    106.9003    225.4674   1.1193343825e+02   1.8057705784e+01      0.28547    0.2217014  32.59  0.001823929    1.183    0.155
        15 -10.3369    150.1719    238.6460   1.0553028431e+02   1.0613001029e+01    0.3053741    0.2621486  74.67  0.002450093    1.672    0.402
        16 -11.4054     99.2595    220.3191   1.1287921813e+02   1.9804635646e+01    0.3984239    0.2479001  16.02  0.002038652    2.322    0.569
        17 -11.9715    146.7934    221.5753   1.0417278114e+02   1.3218998836e+01    0.4000044     0.310719 -13.62  0.002883783    1.608    0.378
        18 -11.9487    191.9644    218.2244   9.5784189114e+01   7.2731115813e+00    0.3932712    0.3510367  -4.16   0.00314264    1.325    0.245
        19  -9.6704      8.5874    214.6775   1.2957711868e+02   3.0477865399e+01    0.2324107    0.1231292  75.77  0.001660467    1.606    0.377
        20  -9.6629    141.4908    235.5493   1.0670642240e+02   1.2143148234e+01    0.1576897    0.1273752  21.69 0.0006379201    1.201    0.167
        21 -10.7745    205.8349    213.1517   9.2726553456e+01   5.8880962945e+00    0.3930416     0.135078  39.71     0.001944    2.426    0.588
        22 -10.7545    159.9707    211.0017   1.0042592075e+02   1.2737651751e+01     0.230042    0.1756557 -53.40  0.001582271    1.801    0.445
        23  -9.6166    121.9940    229.6924   1.0957804748e+02   1.5492212038e+01    0.1973051    0.1636661  18.27 0.0007533673    1.312    0.238
        24 -10.6069    153.5153    210.4899   1.0154569722e+02   1.3744453099e+01    0.1924688    0.1550247  29.43  0.001092911    1.024    0.024
        25 -12.6816    125.6670    225.3435   1.0845761073e+02   1.5602670107e+01    0.6317397    0.3810375  47.37  0.004156156    1.435    0.303
        26 -11.8313    126.9449    203.3380   1.0569475361e+02   1.8628306936e+01    0.4500529    0.2164459  34.58  0.002407528    1.791    0.442
        27 -10.1028      2.7428    200.6667   1.3022451659e+02   3.3366676407e+01    0.2288194    0.1156888  49.54 0.0008245024    1.457    0.314
        28 -11.3868     79.2920    197.8028   1.1469841869e+02   2.6012561243e+01    0.2989106    0.1651091  46.75  0.001789954    1.490    0.329
        29 -11.2862    152.9652    197.1573   9.9817706033e+01   1.5689933512e+01    0.2724362    0.2190187  22.20  0.001854541    1.134    0.118
        30 -10.3256     68.8664    195.6107   1.1665480389e+02   2.7679932336e+01    0.2422768    0.1525248 -49.77  0.001497491    2.067    0.516
        31 -11.5013     69.7391    189.9438   1.1595980298e+02   2.8595379463e+01    0.3106166    0.2361834  14.40  0.002023857    1.742    0.426
        32  -9.8704    201.0219    193.7567   9.0523865132e+01   8.7965848696e+00    0.2343106    0.1721186 -37.85  0.001545009    1.712    0.416
        33 -10.3441     20.7334    189.4383   1.2621592275e+02   3.3879289943e+01    0.2892079    0.1346345  81.83  0.001692276    2.068    0.516
        34 -10.4113     28.4146    181.9128   1.2419172345e+02   3.4592528201e+01    0.1895785    0.1489402  36.53 0.0007514675    1.336    0.252
        35 -11.3724     79.4330    183.7270   1.1325768929e+02   2.8519835405e+01    0.4508617    0.1492573  29.41  0.001746341    3.674    0.728
        36 -12.2457     78.9456    173.7269   1.1226389359e+02   3.0468937649e+01    0.3868523    0.2855152  46.43  0.002333456    1.184    0.155
        37 -10.6436    132.5471    238.2853   1.0856274690e+02   1.2974108337e+01    0.4796124    0.1765404  40.49  0.002621546    2.014    0.504
        38  -8.4972      4.4837    171.4717   1.2882726946e+02   3.8673474538e+01    0.1081287   0.08243513  68.67 0.0008097784    1.004    0.004
        39 -10.2784    101.0069    175.9866   1.0760283294e+02   2.6989510600e+01     0.174976    0.1527867  49.55 -0.007547014    1.002    0.002
        40 -11.3630    125.0350    166.2823   1.0088321727e+02   2.5067220065e+01     0.403247    0.2909733 -39.61  0.001914127    1.591    0.372
        41 -15.7884     39.2254    221.3604   1.2423909126e+02   2.6541248806e+01     2.316579     1.799357  72.04    0.0191923    1.176    0.149
        42  -9.9913    137.7063    236.9990   1.0752463199e+02   1.2461115551e+01    0.2265506    0.1180387  36.24 0.0009348128    1.444    0.308
        43 -11.5616     82.4508    163.9018   1.1026513728e+02   3.1918639543e+01    0.4141393    0.2186183  70.78  0.001812259    2.901    0.655
        44 -10.6387     89.9865    161.7367   1.0820360011e+02   3.1292349914e+01    0.2292056    0.1616538 -85.31  0.001297426    1.656    0.396
        45 -10.9284    107.6232    233.9456   1.1258552323e+02   1.6759574905e+01    0.5823569    0.1646582  38.38  0.002812709    2.565    0.610
        46  -8.9527    109.4880    239.4856   1.1274555976e+02   1.5766071751e+01    0.1062931   0.07859284  42.49 -6.028585e-05    1.019    0.018
        47 -11.7782     81.0023    144.3738   1.0791401710e+02   3.6127872592e+01    0.4284365     0.406778  70.21  0.002816151    1.060    0.057
        48 -10.8743    122.5603    144.6786   9.7725541001e+01   2.9490965238e+01    0.2323208    0.2135622 -68.37   0.00141792    1.185    0.156
        49 -12.1919     56.8288    128.5281   1.1205433415e+02   4.2798884394e+01    0.6443815    0.4129504 -47.53    0.0034532    1.753    0.429
        50 -12.7974    116.8591    120.9837   9.4333512617e+01   3.5213280797e+01    0.7651852    0.6879538 -44.21  0.004318781    1.139    0.122
        51 -10.1917     95.3113    116.4643   9.9091324662e+01   3.9948240731e+01     0.249972    0.1752304 -80.67  0.001202592    1.822    0.451
        52  -9.9020      2.1879    109.9070   1.2601831413e+02   5.2054913818e+01    0.4934117    0.1291047 -69.81  0.002081807    2.874    0.652
        53 -11.5744    160.8623    100.3053   7.8826453129e+01   3.0235713372e+01    0.6041489    0.4230616 -33.44   0.00289148    1.412    0.292
        54  -9.6371    181.4084     99.7979   7.4554609214e+01   2.5851326597e+01    0.2087905    0.1337499 -19.62 0.0009536149    1.669    0.401
        55  -9.6983     48.2808     99.3221   1.0995698161e+02   5.0597555714e+01    0.3291879    0.1814888 -51.61  0.001609552    1.749    0.428
        56 -10.4492     37.7597     98.2767   1.1327295660e+02   5.1984878542e+01    0.3536425    0.3065366 -26.22  0.002219754    1.392    0.282
        57  -8.8070    107.4161     94.7909   9.0528597458e+01   4.2442053191e+01     0.207922    0.1350983 -36.41 0.0007853169    1.643    0.391
        58 -10.4264     13.9746     95.6597   1.2092059410e+02   5.4635798534e+01    0.5454234    0.2523872 -63.66  0.002777835    1.803    0.445
        59 -10.2536    129.0872     83.3473   8.1452685325e+01   4.0290762862e+01    0.3043612    0.2612875 -12.17  0.001574474    1.249    0.199
        60 -10.3106     86.3911     81.7809   9.3269021528e+01   4.9119370212e+01    0.3945784    0.2510448 -47.93  0.001809077    1.496    0.332
        61 -10.3075     83.3288     82.6797   9.4508651250e+01   4.9451617671e+01    0.3785798     0.253325 -52.63  0.001842619    1.429    0.300
        62 -11.0668      4.7076     68.2468   1.2086553735e+02   6.1753614377e+01     0.417449    0.3550039  85.25  0.002860856    1.147    0.128
        63 -11.2851    139.9105     63.9774   7.2697336517e+01   4.1310381569e+01    0.6879712     0.594102 -68.39  0.003526377    1.351    0.260
        64 -10.5394     87.2822     64.4057   8.7591545401e+01   5.2677425460e+01     0.432395    0.3603315  22.52  0.002295428    1.325    0.245
        65  -9.9652     20.7102     55.8782   1.1163662591e+02   6.3661303115e+01    0.3832761    0.1852934 -38.94  0.001795224    2.238    0.553
        66 -10.0910     95.8011     54.0949   8.1144588407e+01   5.3043107998e+01    0.4226451    0.3368562  11.86  0.002124716    1.468    0.319
        67 -10.0831    199.0283     47.9712   5.7004288671e+01   2.9169012938e+01    0.2412242    0.1661741  24.54  0.001149546    1.717    0.418
        68 -10.3368     49.9213     42.5599   9.4062592036e+01   6.3476991531e+01    0.4609815    0.3383161 -13.94  0.002447433    1.623    0.384
        69 -11.2127     81.9061     43.1441   8.1488778823e+01   5.7914696460e+01    0.7649975     0.433402 -30.64   0.00333623    1.839    0.456
        70 -10.2692    140.7255     38.0414   6.3359852459e+01   4.5108458423e+01    0.3992294     0.329417 -57.77  0.002022147    1.350    0.259
        71  -9.4657    172.8826     36.5655   5.7171559148e+01   3.7054673054e+01    0.3291879    0.1688526 -42.05  0.001350117    1.955    0.488
        72 -10.0254     40.3089     33.3034   9.4845856891e+01   6.6717078565e+01    0.3952152     0.166511 -51.22  0.001696042    2.121    0.529
        73  -9.6907    180.4822     25.4945   5.2466186668e+01   3.6381619694e+01    0.1419225    0.1376506 -27.93  0.000136297    1.005    0.005
        74 -10.2477    109.3391     24.6440   6.5055467846e+01   5.4785037113e+01    0.4808713    0.2346431  26.73  0.001605138    3.343    0.701
        75 -10.3597    185.7521    247.5919   1.0060308515e+02   4.9847366117e+00    0.2953064    0.1483043 -24.81  0.001860656    2.720    0.632
        76  -9.9019    143.1549     18.1136   5.5298646516e+01   4.6925435194e+01    0.3996461    0.2883275  31.49  0.001938788    1.480    0.325
        77  -9.8797     62.4387     18.3288   7.7278682172e+01   6.5956151505e+01    0.2921808    0.2141315 -80.36  0.001348481    2.616    0.618
        78 -10.2418    124.1478    243.3969   1.1052835515e+02   1.3404512664e+01    0.3850472    0.2437631   7.74  0.002363264    2.575    0.612
        79  -9.4543    180.9000    244.1404   1.0098405255e+02   5.9618896030e+00    0.1549031    0.1152769  36.76  0.001028451    1.257    0.205
