#   1 NUMBER                 Running object number                                     
#   2 MAG_AUTO               Kron-like elliptical aperture magnitude                    [mag]
#   3 X_IMAGE                Object position along x                                    [pixel]
#   4 Y_IMAGE                Object position along y                                    [pixel]
#   5 X_WORLD                Barycenter position along world x axis                     [deg]
#   6 Y_WORLD                Barycenter position along world y axis                     [deg]
#   7 A_WORLD                Profile RMS along major axis (world units)                 [deg]
#   8 B_WORLD                Profile RMS along minor axis (world units)                 [deg]
#   9 THETA_WORLD            Position angle (CCW/world-x)                               [deg]
#  10 FWHM_WORLD             FWHM assuming a gaussian core                              [deg]
#  11 ELONGATION             A_IMAGE/B_IMAGE                                           
#  12 ELLIPTICITY            1 - B_IMAGE/A_IMAGE                                       
         1 -13.7463     14.0106     12.3561   1.1720204765e+02   7.1785838194e+01     1.450304    0.8545888 -38.54  0.009419685    1.328    0.247
         2 -13.2441      2.4028     13.1040   1.2396808142e+02   7.2433115537e+01     3.081908    0.2467413 -55.86  0.007652928   10.210    0.902
         3 -14.3191    198.8286     17.1019   6.5326659929e+01   3.2750376640e+01     2.764039     1.509086  31.35   0.01129485    2.773    0.639
         4 -11.2739    144.3932    243.2271   1.2753724018e+02   6.6628956435e+00    0.2348722    0.1585123  51.33 0.0005544834    1.256    0.204
         5 -12.1602    140.0051    248.7036   1.2898890980e+02   6.5681898740e+00    0.3945782    0.3153842  74.04  0.002743462    1.454    0.312
         6 -12.5788    127.4281    244.9150   1.3088023228e+02   9.1298522654e+00     0.419762    0.3355647  53.45   0.00294981    1.076    0.070
         7 -12.7652    100.1767    248.2342   1.3618352406e+02   1.2771569688e+01    0.5770409    0.3343377  48.07  0.003630745    1.294    0.227
         8 -11.8935    105.9035    246.7735   1.3501381140e+02   1.2154281683e+01     0.325268    0.2204054  71.56  0.001343271    1.507    0.336
         9 -13.2513     82.5216    247.3836   1.3925464133e+02   1.5431934820e+01    0.8039035    0.3836751  44.40  0.004727286    1.614    0.380
        10 -12.0970     75.6797    242.9692   1.4011286891e+02   1.7102929957e+01    0.3725663     0.230074  63.64  0.001714118    1.336    0.251
        11 -15.0650     31.9688    247.7121   1.4785284982e+02   2.1706279150e+01      8.36756     2.659283  30.31   0.02965218    7.345    0.864
        12 -15.8728      3.6642    235.0931   1.5182968750e+02   2.6757234903e+01     11.06018    0.5783979 -75.07   0.03709024    8.238    0.879
        13 -15.0988     51.3977    219.1003   1.4269249049e+02   2.4500129530e+01     2.333562     1.503992  55.10   0.01102485    1.232    0.188
        14 -11.5673     35.7255    225.4161   1.4597265111e+02   2.5174680874e+01    0.2815275    0.1626833  53.92  0.001351484    1.339    0.253
        15 -11.7217    152.0938    228.7811   1.2423291247e+02   7.5650032250e+00    0.4737282     0.152051  35.26  0.001721277    3.380    0.704
        16 -11.3627    120.0705    238.4179   1.3154053874e+02   1.1309008852e+01    0.2800038    0.1780047  81.58  0.001577282    2.147    0.534
        17 -11.9038     69.4413    234.9494   1.4059737142e+02   1.9316340221e+01    0.4313139    0.2246467  81.29  0.002155029    2.187    0.543
        18  -9.3770     94.8848    216.9622   1.3408001054e+02   1.8925989883e+01    0.1945048    0.1194437  66.52 0.0004088175    1.621    0.383
        19 -10.8467    193.0880    194.9746   1.1074790613e+02   5.4863646017e+00    0.7566507    0.3972076 -62.83  0.002154989    7.274    0.863
        20 -11.5140     69.0400    195.3541   1.3707864015e+02   2.6863377791e+01    0.3551222    0.2458251 -43.13  0.001777204    2.122    0.529
        21 -11.6226     73.9279    188.1915   1.3525114073e+02   2.7662564869e+01    0.2688625    0.2246727 -58.92 0.0005296965    1.405    0.288
        22  -9.2850    113.5624    193.4325   1.2726130715e+02   2.0421355051e+01    0.2387796    0.1212073  31.02  0.001021349    2.379    0.580
        23  -9.4200    125.5106    185.0076   1.2336357817e+02   1.9999935408e+01    0.2713987    0.1741471   7.52  0.001033425    3.554    0.719
        24 -10.8301     82.6615    176.0470   1.3179584377e+02   2.8971077186e+01    0.2347381    0.2066681  86.13  0.000391667    1.072    0.067
        25 -13.2553     70.2724    173.5905   1.3433435461e+02   3.1280112888e+01    0.4746976    0.2775133 -45.22  0.001667706    2.287    0.563
        26 -10.7981    105.4760    173.3804   1.2611018328e+02   2.5904186027e+01    0.7019979    0.1430503  46.60  0.001943318    4.870    0.795
        27 -12.2211     89.1524    167.1174   1.2901553433e+02   2.9921584729e+01    0.9562135      0.48915  51.72   0.00438759    1.917    0.478
        28 -13.1040     67.8134    145.0769   1.3100353212e+02   3.8017343245e+01     1.354159     0.709628  83.47  0.005288682    3.123    0.680
        29 -12.4724     58.3921    132.2339   1.3150715635e+02   4.2215544301e+01     1.492911    0.5083658 -75.78  0.003942398    6.355    0.843
        30  -9.2446    103.8373    147.0022   1.2200131003e+02   3.1973185347e+01    0.3187672    0.1861161 -34.73  0.001307982    2.496    0.599
        31 -11.9995     90.1806    150.2537   1.2607770491e+02   3.3526260406e+01    0.2691783    0.2469585 -33.98 0.0005227513    1.305    0.234
        32 -12.3950     43.4729    148.9016   1.3772814633e+02   4.0106555454e+01    0.4876578    0.3411411  11.34  0.002757299    2.125    0.529
        33  -8.8337    192.0211    144.0187   1.0053233812e+02   1.4386230367e+01    0.1780881    0.1669393  -9.92 0.0003923198    1.073    0.068
        34  -9.6136    134.4483    148.4845   1.1461761394e+02   2.5857544763e+01    0.2604509    0.1439891 -61.48  0.000853953    2.291    0.564
        35  -9.8496    111.5859    136.4080   1.1788984930e+02   3.2958197130e+01    0.3072465    0.2421298 -12.22  0.001374812    1.767    0.434
        36 -10.5019     99.2569    133.5523   1.2058124180e+02   3.5826116486e+01    0.2730749    0.2230766 -30.38 0.0005684971    1.467    0.319
        37  -9.9513    101.3311    150.8259   1.2334202989e+02   3.1548443520e+01    0.2806622    0.2465898 -49.39  0.000840984    1.236    0.191
        38 -11.6200     50.0007    130.1236   1.3348046243e+02   4.3701993387e+01    0.2940265    0.2482842  89.42 0.0008728959    1.090    0.083
        39  -9.4203    108.1442    123.5026   1.1600209298e+02   3.6513734283e+01    0.2013487    0.1926908 -64.04 0.0003698623    1.039    0.037
        40 -14.2830     10.2406    207.2136   1.4948817407e+02   3.1193276925e+01     2.127875      1.56452 -27.32   0.01379463    2.877    0.652
        41 -11.1231    168.2436    113.4261   9.8233855161e+01   2.5631008985e+01    0.3689119    0.3201718 -73.64 0.0008066341    1.347    0.258
        42 -12.1753     33.1301    157.7421   1.4119803190e+02   3.9203603980e+01    0.7109354    0.1647356 -74.54  0.002373167    4.536    0.780
        43 -13.6154     45.8952    229.6929   1.4444245678e+02   2.3224035276e+01    0.8073307    0.3473802  52.23   0.00147274    1.777    0.437
        44 -10.2943    249.7363    249.3848   1.0960010502e+02  -1.0586537100e+01    0.2086237    0.1080735  27.77  0.001283361    1.479    0.324
        45 -11.7519     33.2474    228.9969   1.4662099097e+02   2.4804351942e+01    0.2903149    0.2042978 -83.72 0.0006411483    1.373    0.272
