#   1 NUMBER                 Running object number                                     
#   2 MAG_AUTO               Kron-like elliptical aperture magnitude                    [mag]
#   3 X_IMAGE                Object position along x                                    [pixel]
#   4 Y_IMAGE                Object position along y                                    [pixel]
#   5 X_WORLD                Barycenter position along world x axis                     [deg]
#   6 Y_WORLD                Barycenter position along world y axis                     [deg]
#   7 A_WORLD                Profile RMS along major axis (world units)                 [deg]
#   8 B_WORLD                Profile RMS along minor axis (world units)                 [deg]
#   9 THETA_WORLD            Position angle (CCW/world-x)                               [deg]
#  10 FWHM_WORLD             FWHM assuming a gaussian core                              [deg]
#  11 ELONGATION             A_IMAGE/B_IMAGE                                           
#  12 ELLIPTICITY            1 - B_IMAGE/A_IMAGE                                       
         1 -10.6708    238.1990     43.7087   6.3335300894e+01   2.1384947333e+01     0.255475     0.182338 -32.84  0.001452046    1.637    0.389
         2 -11.1261    190.4060    243.8391   1.1382658296e+02  -4.6860230569e+00     1.098646    0.6035992   8.19  0.004029133    4.216    0.763
         3  -9.8887    216.3156    229.9729   1.0649716610e+02  -6.7701019045e+00    0.5979033    0.3294339   9.57  0.002482929    3.061    0.673
         4 -12.0376    241.2283    217.9064   9.9690862064e+01  -8.8463862307e+00     1.490899    0.8674557  -3.11  0.007035159    2.421    0.587
         5 -11.1847    197.3986    244.8630   1.1263772643e+02  -5.9947827657e+00     1.282984    0.6409222  15.81   0.00460374    4.221    0.763
         6 -11.5324    248.6919    214.5406   9.7734261233e+01  -9.4687517742e+00     1.215396    0.3890188 -33.70  0.004752487    3.192    0.687
         7 -10.8816    226.0427    240.8041   1.0654717407e+02  -9.9118468499e+00    0.6462359    0.4482729  -6.61   0.00384794    1.511    0.338
         8 -10.0217    218.8624    245.3291   1.0864354429e+02  -9.4638438052e+00    0.4416255    0.2973988  -4.73  0.001593282    1.670    0.401
         9 -11.2047    234.1911    234.5245   1.0396296572e+02  -1.0239690930e+01      1.18601    0.3458607  38.65  0.004698834    3.223    0.690
        10 -11.4461    243.9408    228.7643   1.0117886456e+02  -1.0857918997e+01     1.092823    0.5446873  39.20  0.005672842    2.005    0.501
        11 -12.6005    244.0225    246.9072   1.0432656635e+02  -1.3364995874e+01     2.014014     0.761579  36.55  0.009683416    2.429    0.588
        12 -11.8328    247.6605    236.4131   1.0187246379e+02  -1.2466406709e+01    0.4415921    0.3627582  -8.40 0.0004042563    1.097    0.088
        13 -10.4072    167.6447    249.9517   1.1921104380e+02  -1.8582693285e+00    0.6317581     0.220865  41.61  0.002621209    2.418    0.587
        14  -9.4321    171.1937    246.6189   1.1801928069e+02  -1.9109996235e+00    0.3073154    0.1596779  33.41  0.001257222    1.818    0.450
        15 -10.0492    144.5256    249.5307   1.2369150985e+02   2.1180956900e+00    0.3791287     0.199601  33.77  0.001837237    1.896    0.473
        16 -10.7371    120.9359    248.6136   1.2820533840e+02   6.2321565196e+00    0.4048628    0.2180517  36.67  0.002030574    1.802    0.445
        17  -9.7530     66.7365    249.0936   1.3856832924e+02   1.4504081694e+01    0.3345095    0.1895313  64.03  0.001686544    1.548    0.354
        18  -9.5956     51.8800    249.7871   1.4130549552e+02   1.6397295930e+01    0.3804463    0.1599753  50.05  0.002005007    1.924    0.480
        19  -9.0091     38.5399    241.1924   1.4300395601e+02   1.9799638305e+01      0.26096    0.1345704  68.04 0.0009983002    1.712    0.416
        20 -10.5010      4.0123    214.1601   1.4727611520e+02   2.9173521454e+01     1.071686     0.338272  70.36  0.004000045    4.475    0.777
        21 -10.3568     35.6996    248.1643   1.4401333552e+02   1.8771397295e+01    0.5362865    0.3236297  42.23  0.002868918    1.686    0.407
        22 -11.1974     12.6652    227.9099   1.4663549259e+02   2.5450329264e+01     1.054725    0.3622023  68.72  0.004520964    3.367    0.703
        23  -9.6025     26.3931    249.2309   1.4566923900e+02   1.9675502538e+01    0.3462828    0.1835743  66.12  0.001206784    1.510    0.338
        24 -11.3953     27.2172    240.9278   1.4497287195e+02   2.1209514026e+01    0.9223954    0.4202786  63.29  0.005118697    1.894    0.472
        25 -10.0289      5.5868    229.9708   1.4798783715e+02   2.5754969680e+01    0.5726483    0.1404884  54.79  0.002497421    3.454    0.710
        26 -10.4104      3.6752    222.4318   1.4786012104e+02   2.7482911467e+01     1.074456    0.3350207  77.57  0.003805486    5.011    0.800
        27 -10.2219     19.4558    248.8483   1.4680100255e+02   2.0543522938e+01    0.5044972    0.2192762  46.09  0.002968537    1.956    0.489
        28  -9.9805     21.0816    244.6638   1.4626884133e+02   2.1173910351e+01    0.3368087    0.2031702  81.65  0.002238848    1.298    0.229
        29 -11.5927     12.5138    239.8578   1.4741070349e+02   2.3060229874e+01     1.025072    0.4103055  51.44  0.005834622    2.019    0.505
        30  -9.6331      6.1077    235.6453   1.4823416433e+02   2.4563813441e+01     0.278226    0.1604768  68.23  0.001159163    1.335    0.251
        31 -10.7719      9.7058    247.1720   1.4829901774e+02   2.1932084383e+01    0.5220074    0.2987976  84.79  0.003531914    1.344    0.256
        32 -10.1407      4.1860    248.9669   1.4928174425e+02   2.2166342565e+01    0.3462622    0.1834867  50.74  0.002144628    1.597    0.374
        33 -10.8268      3.5849    242.8959   1.4905523923e+02   2.3395442570e+01    0.5572491    0.2365417  77.49  0.003130077    2.058    0.514
        34  -9.6150    152.0774    249.2617   1.2216815479e+02   8.8651368429e-01    0.3271118    0.1522688  39.12  0.001358213    1.864    0.464
        35  -9.1182     58.1165    247.6705   1.4001264443e+02   1.5974401084e+01    0.1974726    0.1127747  58.74 0.0005904753    1.438    0.304
        36  -9.3160    115.2450    247.5976   1.2919418017e+02   7.3557540157e+00    0.1784586    0.1106506  35.83 0.0009220138    1.628    0.386
        37  -8.0052     99.0151    247.5001   1.3233478273e+02   9.9841434572e+00    0.1628536    0.1100827  19.41 0.0008098721    2.496    0.599
        38 -10.3096    157.6846    245.2502   1.2048669441e+02   6.1851165212e-01    0.3174073    0.1885155  31.19   0.00161555    1.695    0.410
        39 -10.0849    139.8389    245.8581   1.2411802565e+02   3.5595095673e+00    0.3027777    0.1588141  44.67  0.001112405    1.618    0.382
        40  -8.4726     89.7681    250.1631   1.3438575800e+02   1.0912420044e+01    0.2782347   0.05938776  44.72 0.0009835835    3.564    0.719
        41  -9.5866     45.4251    244.8738   1.4206301961e+02   1.8200663866e+01    0.3426376    0.1898582  60.58  0.001591878    1.481    0.325
        42 -10.3886    177.7830    243.5101   1.1624616917e+02  -2.5164080009e+00    0.4541307    0.2776419  23.68  0.002090647    1.834    0.455
        43  -9.4135    147.9996    244.9509   1.2236949436e+02   2.3282411552e+00    0.2083792    0.1757096  43.23  0.001101793    1.035    0.034
        44  -8.4986     84.7546    244.8831   1.3478994634e+02   1.2693062300e+01     0.258869    0.1241397  60.42  0.001190143    2.083    0.520
        45  -9.6091    163.8706    244.1702   1.1909926425e+02  -2.5585839563e-01    0.2045573    0.1629991  52.16  0.001143539    1.217    0.178
        46  -8.8399     60.7081    244.1655   1.3923472564e+02   1.6310828625e+01    0.2880491   0.08538142  36.80  0.001125857    3.631    0.725
        47 -10.3503    133.5201    245.2502   1.2529125150e+02   4.7410744094e+00     0.257979    0.1603437  43.25  0.001390827    1.377    0.274
        48  -9.8285    114.7360    242.9825   1.2872926558e+02   8.3073340544e+00    0.2518707    0.1375416  52.82  0.001268685    1.634    0.388
        49  -9.6693    143.7897    241.9711   1.2279046056e+02   3.5817426618e+00    0.2447089    0.1687779  42.72 0.0009744969    1.252    0.201
        50  -8.6705    104.4758    241.4606   1.3057527975e+02   1.0275208225e+01    0.1297721     0.108456  61.47 0.0001705837    1.022    0.022
        51  -9.2726     54.2837    239.9532   1.4004948312e+02   1.8024767384e+01    0.3515374    0.1781653  72.11  0.001816335    2.004    0.501
        52  -9.1207    170.4695    239.9935   1.1715000939e+02  -6.7983313729e-01     0.263739    0.1692254  25.30  0.001172838    1.688    0.408
        53  -8.7043     74.2675    240.1481   1.3631125331e+02   1.5190479330e+01    0.2541251    0.1214752  60.72  0.001227274    2.045    0.511
        54  -9.3744     45.0332    236.8726   1.4149022458e+02   1.9857057503e+01    0.3432374    0.1698639  65.51    0.0015898    1.864    0.463
        55  -9.8241    195.8513    236.3402   1.1154026177e+02  -4.4010971757e+00    0.3189475     0.206661  22.39  0.001193708    1.604    0.376
        56  -9.8023    184.3020    236.3264   1.1381283627e+02  -2.4410889224e+00     0.290694    0.2059573   9.08  0.001553362    1.728    0.421
        57  -8.9974    176.3351    237.1120   1.1552552575e+02  -1.2025369310e+00    0.2320283    0.1649344  29.36 0.0008753121    1.330    0.248
        58  -9.0618    149.9983    238.0000   1.2096625686e+02   3.2245837124e+00    0.2296347   0.06713946  40.92 0.0008079183    2.981    0.664
        59 -10.1141    207.0109    235.2246   1.0918708423e+02  -6.0736290772e+00    0.3571221    0.2150821  30.12  0.001760335    1.540    0.351
        60  -8.0391     82.4861    236.5094   1.3434318375e+02   1.4703282735e+01    0.1319556    0.1020646  69.02  0.000809307    1.076    0.071
        61  -8.9541     35.0089    235.7862   1.4322393360e+02   2.1322264590e+01    0.2658392    0.1364974 -70.42      0.00115    1.805    0.446
        62  -9.8118    190.2521    234.7461   1.1237503650e+02  -3.1957645884e+00    0.3836517    0.2370607  -1.19   0.00169719    2.742    0.635
        63  -9.1180    195.8425    229.7338   1.1042562240e+02  -3.3213909058e+00    0.3647105    0.1994708  24.50  0.001663388    2.140    0.533
        64  -9.3119    161.6071    234.7772   1.1812428600e+02   1.7721319097e+00    0.2784643     0.152235  15.98 0.0009550827    4.211    0.763
        65  -9.6208     63.6982    232.3074   1.3756725631e+02   1.8302242210e+01    0.5000443    0.2337145  74.85  0.002164711    2.803    0.643
        66  -8.2648     39.1877    235.3706   1.4243583547e+02   2.0896878859e+01    0.1683293   0.08416861  52.49 0.0009391668    1.687    0.407
        67  -9.8396    126.4362    240.7318   1.2610586864e+02   6.7764150232e+00    0.2268214    0.1572906  24.85  0.001194407    1.817    0.450
        68  -9.0184     27.9257    232.4668   1.4424714541e+02   2.2837138754e+01     0.229633     0.124419  81.36 0.0009602369    1.613    0.380
        69  -9.3665    207.4256    230.2848   1.0825728689e+02  -5.3622853825e+00    0.2824932    0.1911051   7.59  0.001226156    1.748    0.428
        70  -8.9171     48.2393    230.0147   1.4030899691e+02   2.0859719697e+01    0.3324824    0.1558061  69.02  0.001603081    2.252    0.556
        71  -8.9117    188.2242    229.8736   1.1196117691e+02  -2.0333647594e+00    0.2636031     0.161871  16.94  0.001229533    2.134    0.531
        72  -8.7430     31.9991    229.6297   1.4329697780e+02   2.2946608276e+01    0.2166212    0.1248616  73.06 0.0008572098    1.482    0.325
        73  -8.3898     40.4245    229.2871   1.4171415705e+02   2.1999989779e+01    0.2163151    0.1075135  58.82  0.000962041    1.762    0.432
        74  -9.8293     15.9818    223.4842   1.4574951407e+02   2.6016633314e+01    0.1911708    0.1093076  34.84  0.001153318    2.091    0.522
        75 -10.3447     23.4751    227.9027   1.4471436615e+02   2.4283476428e+01    0.3445094    0.1992094  49.41   0.00215672    1.570    0.363
        76 -10.5185     25.8807    224.5521   1.4402918560e+02   2.4711639420e+01     0.707839    0.1591727  52.65  0.002685735    4.039    0.752
        77  -9.2991    224.0130    225.0584   1.0416811768e+02  -7.2456569572e+00    0.3013823    0.1855149  15.81  0.001502579    1.858    0.462
        78  -8.8298    212.3947    225.4346   1.0644555362e+02  -5.4101948655e+00    0.2810627    0.1847436  -2.36  0.001177972    1.945    0.486
        79  -8.7026    199.5131    225.1077   1.0889921888e+02  -3.1797895903e+00    0.2764951    0.1592816  24.14  0.001299056    1.963    0.490
        80  -8.3961    191.7603    225.3784   1.1048589817e+02  -1.8828494120e+00    0.1901202    0.1150668  30.71 0.0009369595    1.609    0.378
        81  -8.5136     76.0014    224.0048   1.3426397133e+02   1.8275993742e+01    0.2354481    0.1211288  85.29  0.001013268    2.613    0.617
        82  -8.5504    206.4003    222.7092   1.0712230795e+02  -3.9581298165e+00    0.2284413    0.1487756  18.75  0.001042123    1.701    0.412
        83 -10.1761     30.3422    221.6693   1.4297709117e+02   2.4810405492e+01    0.5112725     0.162371  59.03  0.002052311    3.465    0.711
        84  -8.9976    217.0263    220.5122   1.0467134433e+02  -5.3853297279e+00      0.25825    0.1724246 -17.72  0.001366039    1.671    0.402
        85  -8.6363     45.1160    220.8352   1.4008393709e+02   2.3203109823e+01    0.2053102    0.1340996  72.03   0.00122843    1.313    0.238
        86  -9.3385    226.4667    219.1382   1.0263249605e+02  -6.7125352598e+00    0.2911122    0.1972696  -5.81  0.001116914    1.682    0.405
        87  -8.6749    228.4711    215.4554   1.0157771649e+02  -6.4518526529e+00    0.2045465     0.147248  -1.19 0.0009548914    1.480    0.324
        88  -8.1728    202.6148    218.7077   1.0714752024e+02  -2.6345703785e+00    0.1418602   0.09786576   8.35 0.0007014829    1.760    0.432
        89  -9.6716     34.1051    217.0989   1.4188388955e+02   2.5349866797e+01    0.2887385     0.144314  88.96  0.001490626    1.929    0.482
        90 -10.4801     13.3828    216.6893   1.4574542223e+02   2.7714267449e+01    0.3546778    0.1709119  59.37  0.002022363    1.819    0.450
        91  -8.5433     54.1169    221.6691   1.3839991944e+02   2.1857574919e+01    0.2117582    0.1272079  60.78  0.001000398    1.471    0.320
        92  -8.2287    210.8779    216.2123   1.0507251683e+02  -3.6387737616e+00     0.185593    0.1463943  -0.96 0.0006427207    1.310    0.237
        93  -9.6027    160.6457    215.1494   1.1513174217e+02   5.6100948841e+00    0.2437542    0.2229045  39.23  0.000358992    1.023    0.022
        94  -8.0523     19.5086    215.5334   1.4452748810e+02   2.7320632619e+01    0.1225254   0.08639081  78.21 0.0008079867    1.093    0.085
        95  -7.2975     37.6341    214.3255   1.4095554317e+02   2.5532545920e+01    0.1364647   0.07242649  68.73  0.000703776    1.800    0.444
        96  -9.6424    233.0222    212.1251   1.0011102431e+02  -6.6561317495e+00    0.2823453    0.1895184 -11.28   0.00143156    1.644    0.392
        97  -8.0202     44.6748    212.3656   1.3937710499e+02   2.5100668769e+01    0.1388136    0.0760789  71.65 0.0003483935    1.798    0.444
        98  -9.0036     22.0312    210.9809   1.4369656818e+02   2.8031258101e+01    0.2014904    0.1075194  68.80 0.0007766504    1.700    0.412
        99  -8.7464      9.0425    210.0554   1.4607688789e+02   2.9560356894e+01    0.2342477    0.1091057  76.35  0.001239732    2.010    0.502
       100  -9.0444      6.5346    205.4104   1.4621591043e+02   3.0798946456e+01     0.256721    0.1424058  68.77  0.001272924    1.561    0.359
       101  -8.3954     35.7945    208.2190   1.4076530049e+02   2.7091757141e+01    0.2195214   0.09411848  68.01 0.0009448402    2.742    0.635
       102  -9.7956    247.5909    205.6729   9.6257844247e+01  -7.9386546089e+00    0.2950115    0.1918273 -16.88  0.001079999    1.579    0.367
       103  -9.2940    240.6842    206.0494   9.7562297549e+01  -6.9137200478e+00    0.3188318    0.1425243 -32.88  0.001426319    2.211    0.548
       104  -8.7622    221.9969    213.0381   1.0234622330e+02  -4.9938630653e+00    0.3006966    0.1643573  18.34  0.001288727    2.548    0.608
       105  -8.6510      1.6429    205.6668   1.4714568852e+02   3.1197260287e+01    0.2575925    0.1054646 -78.16  0.001336782    1.923    0.480
       106  -8.1155     17.6568    206.2835   1.4416400164e+02   2.9513008672e+01    0.1253915   0.06873132  68.50 0.0004240537    1.638    0.390
       107  -9.7874     12.8964    204.8337   1.4496654328e+02   3.0309210583e+01     0.313464    0.1505378  86.47   0.00166854    1.885    0.470
       108  -8.2892    235.7757    202.0235   9.7680903082e+01  -5.4672020124e+00    0.2224809    0.1400796 -10.25  0.001077505    1.983    0.496
       109 -11.7888    214.0471    238.6515   1.0842627030e+02  -7.7329835978e+00       2.3934     1.198598   8.70  0.007174287    6.316    0.842
       110  -9.5869      4.3592    198.0998   1.4610213546e+02   3.2586237056e+01    0.3390123    0.1465468  89.05  0.001698041    2.096    0.523
       111  -8.8296    244.4076    198.7737   9.5495107842e+01  -6.3380991706e+00     0.190433    0.1106418 -26.41 0.0009492407    1.715    0.417
       112  -8.0575     14.2214    196.4234   1.4404349762e+02   3.2028544049e+01    0.1597787   0.09018438  53.79 0.0009387807    1.672    0.402
       113 -11.9181    207.6962    247.7055   1.1113228796e+02  -8.0711748252e+00     1.560003    0.6441004  32.88  0.007058682    2.286    0.563
       114  -8.2474     11.4747    191.4934   1.4418805631e+02   3.3389013586e+01    0.1213376   0.09060412  88.01 0.0008039568    1.013    0.012
       115  -8.8313      3.7477    189.1568   1.4554889251e+02   3.4607807475e+01    0.1961689    0.1115217  84.63 0.0007206866    1.465    0.318
       116  -8.5635      1.8297    177.0023   1.4496574072e+02   3.7483925500e+01     0.204003    0.1008579  78.38  0.001076992    1.974    0.494
       117  -8.7667      4.7286    174.4186   1.4413556373e+02   3.7829482424e+01    0.2006653   0.09980005  39.22   0.00113417    2.175    0.540
       118  -9.1475    243.4010    147.7898   8.5243327465e+01   2.6865369112e+00    0.2073658    0.1214421 -31.06 0.0009553519    1.714    0.416
       119 -10.0380    221.1721    147.1083   8.8976339264e+01   7.1496294496e+00    0.2549902    0.2388081  50.86 0.0003951463    1.152    0.132
       120  -8.4661    247.6608    144.3324   8.3809176414e+01   2.5184065861e+00    0.1402688    0.1040733 -69.22 0.0007051733    1.745    0.427
       121  -7.8384    107.0328    142.7358   1.1390425041e+02   3.2162084262e+01    0.1740113    0.1325297  44.59 0.0002739673    1.356    0.263
       122  -9.2568    243.4737    139.9586   8.3554173522e+01   4.0962985609e+00    0.2265812    0.1246624 -40.63  0.001039269    1.614    0.380
       123  -9.2787     20.0278    137.0298   1.3639687598e+02   4.5234935227e+01    0.2048461    0.1319063  75.26  0.001135076    1.757    0.431
       124  -9.4825    247.9675    130.0171   8.0702378235e+01   5.0367134387e+00     0.387526    0.1783793 -47.83  0.001387192    2.037    0.509
       125  -8.8593    231.9012    133.3042   8.4023810418e+01   7.6002211187e+00    0.2696037    0.1838483 -49.06  0.001328916    1.382    0.277
       126  -9.9712    238.7404    124.1699   8.0881838864e+01   7.9123968967e+00    0.5947355    0.2364227 -43.45  0.002318254    2.234    0.552
       127  -7.9075    219.3305    127.3320   8.4856014992e+01   1.1350173685e+01    0.1484522    0.1173354   1.31 0.0005014683    1.721    0.419
       128  -9.7101    247.4780    120.0064   7.8621034442e+01   6.9280927441e+00    0.4648961     0.201668 -49.58  0.001878981    2.245    0.555
       129  -9.1690    231.0360    114.5991   7.9983554621e+01   1.1261811558e+01    0.4516067    0.1938253 -40.72  0.001785405    2.120    0.528
       130  -9.4836    240.6247    110.2382   7.7520490050e+01   1.0056049745e+01    0.3618463    0.2172041 -47.27  0.001742992    1.487    0.328
       131  -9.5796    247.7271    112.7631   7.7018760355e+01   8.1688780019e+00    0.2572561    0.1547804 -38.46  0.001252065    1.516    0.340
       132  -9.1762    242.8726     98.5407   7.4621883671e+01   1.1659231712e+01    0.3050189    0.1532267 -53.21  0.001321748    1.965    0.491
       133  -8.3554    235.3969     95.1950   7.4953916739e+01   1.3822454941e+01     0.213662    0.1134245 -50.48 0.0009326902    1.755    0.430
       134  -8.9798    246.5102     84.5005   7.1077910449e+01   1.3294452476e+01    0.1372957    0.1177959 -61.09 8.423662e-05    1.015    0.015
       135  -9.2255     21.1752     77.9892   1.2536760788e+02   5.8354302203e+01    0.1856305    0.1339153 -88.13  0.001081037    1.993    0.498
       136 -11.1161    235.6435     72.9337   6.9964966636e+01   1.7524158422e+01    0.4407592    0.3054978  52.37  0.001123864    1.657    0.396
       137  -8.6144    248.3015     73.6735   6.8538235683e+01   1.4689067352e+01    0.1419466   0.08850408 -66.55 0.0003270416    1.640    0.390
       138  -8.8374     21.0000     69.9625   1.2346425053e+02   5.9989056525e+01    0.2058493   0.05674715 -56.73 0.0008138822    3.022    0.669
       139  -8.6163    242.3017     61.3450   6.6625683957e+01   1.7899952546e+01    0.1202701    0.1070495  15.22 0.0007038764    1.683    0.406
       140 -10.2454    243.3665     57.8435   6.5758622944e+01   1.8202250195e+01    0.2758238   0.09172765 -45.57  0.001095054    2.565    0.610
       141 -11.2634    249.4042     52.2904   6.3940078264e+01   1.7738996782e+01    0.5235688    0.2297733 -44.35  0.002470908    1.964    0.491
       142  -9.6254    231.4604     51.5181   6.5766829346e+01   2.1758750611e+01    0.2754319    0.1217254 -38.15  0.001215905    2.195    0.544
       143 -11.2484    247.2239     44.4435   6.2553837843e+01   1.9329919403e+01       0.5035    0.3511619  -3.92  0.002388536    3.200    0.687
