#   1 NUMBER                 Running object number                                     
#   2 MAG_AUTO               Kron-like elliptical aperture magnitude                    [mag]
#   3 X_IMAGE                Object position along x                                    [pixel]
#   4 Y_IMAGE                Object position along y                                    [pixel]
#   5 X_WORLD                Barycenter position along world x axis                     [deg]
#   6 Y_WORLD                Barycenter position along world y axis                     [deg]
#   7 A_WORLD                Profile RMS along major axis (world units)                 [deg]
#   8 B_WORLD                Profile RMS along minor axis (world units)                 [deg]
#   9 THETA_WORLD            Position angle (CCW/world-x)                               [deg]
#  10 FWHM_WORLD             FWHM assuming a gaussian core                              [deg]
#  11 ELONGATION             A_IMAGE/B_IMAGE                                           
#  12 ELLIPTICITY            1 - B_IMAGE/A_IMAGE                                       
         1 -14.4591    155.2762     55.0806   8.3669038584e+01   3.9486294713e+01     1.234198     1.077298  43.19  0.003147507    1.128    0.114
         2 -14.7555    167.3791     40.0563   7.6878196388e+01   3.8658331087e+01     1.159664     1.012671   9.00  0.004055581    1.348    0.258
         3 -14.5398    182.8509      7.8075   6.5557161835e+01   3.8547311053e+01     1.041804    0.8578433  76.47  0.004221564    1.041    0.039
         4  -9.2003     13.5225    243.1280   1.5049969168e+02   2.3103317334e+01      0.34973    0.1133626 -67.87  0.001887418    2.803    0.643
         5 -19.9579     67.1921    171.4192   1.3377531608e+02   3.1635542655e+01     18.41562     6.610073 -65.89   0.07321697    2.618    0.618
         6 -12.1174    163.1952    188.3878   1.1513243120e+02   1.0959853225e+01    0.3395649    0.2839889 -58.09 0.0009761088    1.284    0.221
         7 -10.0053    135.1736    234.8872   1.2830617744e+02   7.3122681090e+00    0.1444974    0.1402138 -78.05 0.0005091375    1.237    0.192
         8 -11.2482    169.7881    195.2179   1.1500869235e+02   8.3041519319e+00    0.1916459    0.1661859  15.40  0.001050278    1.289    0.224
         9 -10.6222     19.3064    236.2147   1.4918856338e+02   2.3768759315e+01    0.1572301    0.1032518 -81.06  0.001135966    1.341    0.254
        10 -11.1787    170.4353    185.2359   1.1298909152e+02   1.0135338424e+01    0.2974858    0.2465174  87.28 0.0007362235    1.459    0.314
        11 -11.6393    153.3838    184.5766   1.1653442590e+02   1.3697662657e+01     0.360898    0.2520416 -81.46  0.001632529    1.984    0.496
        12 -10.0247     16.0806    233.9836   1.4956777038e+02   2.4538694187e+01    0.2327614    0.1165271 -54.13  0.001300183    3.107    0.678
        13 -10.6695    219.1560    224.1289   1.1047929022e+02  -5.8051362159e+00    0.1558622    0.1525184  54.62 0.0004422669    1.320    0.243
        14 -12.8371    207.5090    178.4476   1.0399205294e+02   3.9311479533e+00     0.607576    0.4591792  -3.61  0.002550784    1.608    0.378
        15 -10.6960    219.2922    177.3505   1.0147128203e+02   1.8007641983e+00    0.1462827    0.1069521   0.19 0.0002573433    1.674    0.403
        16 -12.9333    166.9796    188.0018   1.1425316858e+02   1.0279775536e+01    0.4803425    0.4019183 -34.55  0.001752527    1.323    0.244
        17 -13.0080    195.7131    170.0114   1.0459981807e+02   7.9272822577e+00    0.5733272    0.4406955 -48.52  0.001775197    1.366    0.268
        18 -11.7022    193.8053    164.9427   1.0390763375e+02   9.3159382840e+00    0.3625588    0.3398502  77.64  0.001316301    1.170    0.145
        19 -10.7302    110.2594    222.9599   1.3158947626e+02   1.3800225776e+01    0.1673672    0.1453375  86.79 0.0003782241    1.125    0.111
        20 -12.8634    137.3724    171.2957   1.1758295710e+02   1.9732043799e+01    0.6209978    0.4205028  67.12  0.002816261    1.740    0.425
        21 -11.7608    125.6612    171.9941   1.2039945621e+02   2.1847116876e+01    0.3380055    0.2494722 -70.43  0.001111912    1.431    0.301
        22 -11.2047    203.5293    171.3134   1.0329232068e+02   6.0626364702e+00     0.433486    0.2493562  33.50  0.001857853    1.920    0.479
        23 -10.6833    177.4573    169.4724   1.0831222870e+02   1.1863920444e+01    0.1479534    0.1440062  44.09 0.0001093793    1.002    0.002
        24 -10.1526    217.9850    218.7220   1.0973725136e+02  -4.7934852150e+00     0.165655    0.1035967  38.10 0.0004477038    1.443    0.307
        25 -11.5249    116.2798    212.0128   1.2891796951e+02   1.4958444064e+01    0.2779995    0.1858967 -82.66  0.001437177    1.727    0.421
        26 -11.7962    142.1794    166.3735   1.1551572822e+02   1.9858393797e+01    0.3027463    0.2126663 -59.01  0.001084056    1.483    0.326
        27 -10.3461    201.6905    166.3340   1.0259929729e+02   7.3898033202e+00    0.2138471    0.1514456 -57.68 0.0007719921    1.682    0.405
        28 -10.7242    200.8315    162.7704   1.0200125134e+02   8.2560868455e+00    0.3363858    0.2540084  13.87  0.001411291    1.639    0.390
        29 -10.1037    111.5804    213.5245   1.3008320973e+02   1.5457601986e+01    0.1632131    0.1191943 -86.23 0.0001022762    1.437    0.304
        30 -10.5166    222.4650    161.7559   9.7551132239e+01   3.9728847995e+00    0.2631836    0.1340466 -44.40 0.0008152445    1.983    0.496
        31 -10.5655    109.5469    210.4454   1.3007687932e+02   1.6430959638e+01     0.242217    0.1755559  65.16 0.0005193246    1.277    0.217
        32 -12.4192    134.6845    109.3278   1.0414199703e+02   3.4144882402e+01     1.196824     0.181806 -46.12  0.002519557    6.660    0.850
        33 -14.8881    132.3670    144.0275   1.1313359119e+02   2.6882411323e+01     1.637673    0.7254182 -55.35  0.005414296    2.426    0.588
        34 -11.5583    161.6579    153.6457   1.0838358676e+02   1.8565314477e+01    0.3382418    0.2641835  87.50  0.001570147    1.609    0.378
        35 -13.8458    135.7554    127.2824   1.0841817972e+02   2.9969299798e+01     1.833067    0.3158816 -49.78  0.003822894    6.825    0.853
        36 -10.5691    174.8694    149.0912   1.0442056607e+02   1.6649155849e+01    0.2410202    0.2112075 -86.27 0.0005994236    1.282    0.220
        37 -13.6052    144.3039    145.5152   1.1059367273e+02   2.4069532386e+01      1.14096    0.4820519 -60.66   0.00336299    3.793    0.736
        38 -10.7128    107.4733    206.5739   1.2996884584e+02   1.7583583588e+01    0.1985461    0.1746088  70.02 0.0001368974    1.050    0.048
        39 -11.9475    133.6074    249.7637   1.3050029110e+02   5.0117059517e+00     0.205447    0.1694746 -61.06   0.00136598    1.446    0.309
        40 -10.4722    119.2300    243.9412   1.3245227950e+02   8.4040706786e+00    0.1522601    0.1215908  69.49 0.0003390521    1.123    0.109
        41 -10.0079    171.4839    137.5150   1.0247650975e+02   1.9852481157e+01    0.1561765    0.1512865 -86.05 0.0001536931    1.034    0.033
        42 -11.6863    160.3069    127.9004   1.0268301073e+02   2.4438381612e+01    0.3954518    0.2878287 -56.24  0.001789048    1.442    0.306
        43 -12.0752    163.8744    203.1540   1.1766300457e+02   7.9317937834e+00    0.3100016    0.2626396  43.04  0.000329583    1.087    0.080
        44 -11.5237    157.6766    202.0151   1.1875401642e+02   9.3449084667e+00    0.5337973    0.3408404  74.84  0.002291882    2.428    0.588
        45 -10.7118    167.7124    112.7015   9.7154224439e+01   2.5933467005e+01    0.3293595    0.2304701 -82.73  0.001326007    2.114    0.527
        46 -12.9968    113.9855    110.0715   1.0974288741e+02   3.8236647422e+01    0.3438368    0.2706145 -59.64 0.0006158964    1.301    0.231
        47 -11.0503    154.6768    196.2266   1.1837406832e+02   1.1067053489e+01    0.4460293    0.2799562  84.22  0.001742426    2.957    0.662
        48 -10.4641    139.2081    200.9658   1.2246031874e+02   1.3067337003e+01     0.211136     0.172031  84.26 0.0005464925    1.319    0.242
        49 -10.1858    131.8117    236.4307   1.2915378338e+02   7.6170527237e+00    0.1711338    0.1087421  47.25 0.0003571109    1.327    0.247
        50 -10.8445    205.4370    110.1599   8.8748491092e+01   1.7492908406e+01     0.330844    0.2203293  44.35 0.0009665986    1.602    0.376
        51 -11.4886    161.1809    197.5876   1.1724268129e+02   9.5308543349e+00    0.2791958     0.227065  85.44  0.001483808    1.465    0.317
        52 -12.7825    180.6065    193.4329   1.1242700798e+02   6.5077142720e+00    0.4320414    0.2934977 -70.92  0.001951442    2.209    0.547
        53 -12.0890     42.2529     91.4827   1.2619939741e+02   5.2995116766e+01     0.321261    0.2377142   4.26 0.0009993601    1.675    0.403
        54 -13.0231    174.8793    193.2348   1.1357743560e+02   7.6799502431e+00    0.6331331    0.4087591 -76.00  0.001862153    2.709    0.631
        55 -11.9557    125.0143    247.3601   1.3179013881e+02   6.8516046313e+00    0.2876007    0.1534215 -58.44  0.001541555    2.189    0.543
        56 -10.1680    150.6852    247.9158   1.2710659558e+02   2.4200861511e+00    0.1566179    0.1457583  83.04 0.0008587754    1.208    0.172
        57 -12.9406    171.3554     32.2867   7.3957381520e+01   3.8672049861e+01    0.4137427    0.3650668  17.67 0.0009506445    1.328    0.247
        58 -13.3628    175.3708    186.1370   1.1211956593e+02   8.9598904520e+00    0.6290852    0.4002758 -68.96  0.002540877    2.383    0.580
        59 -10.4638     13.5202     59.9249   1.2831688471e+02   6.1815557000e+01    0.1602187     0.129121 -38.44 0.0004083582    1.076    0.070
        60 -10.5804    137.9882     31.4975   7.9956599368e+01   4.6850038168e+01    0.2977279    0.1860659  76.13  0.001370849    2.028    0.507
