#   1 NUMBER                 Running object number                                     
#   2 MAG_AUTO               Kron-like elliptical aperture magnitude                    [mag]
#   3 X_IMAGE                Object position along x                                    [pixel]
#   4 Y_IMAGE                Object position along y                                    [pixel]
#   5 X_WORLD                Barycenter position along world x axis                     [deg]
#   6 Y_WORLD                Barycenter position along world y axis                     [deg]
#   7 A_WORLD                Profile RMS along major axis (world units)                 [deg]
#   8 B_WORLD                Profile RMS along minor axis (world units)                 [deg]
#   9 THETA_WORLD            Position angle (CCW/world-x)                               [deg]
#  10 FWHM_WORLD             FWHM assuming a gaussian core                              [deg]
#  11 ELONGATION             A_IMAGE/B_IMAGE                                           
#  12 ELLIPTICITY            1 - B_IMAGE/A_IMAGE                                       
         1 -14.5554      6.6962    138.4896   1.4575041083e+02   4.4670441281e+01     4.049091    0.8501675 -76.82   0.01433429    4.514    0.778
         2 -13.7188    196.5462     24.8443   7.0659643164e+01   3.2617005219e+01     1.796452     1.430538  23.19  0.007680504    1.448    0.309
         3 -13.4420    211.4134      6.3323   6.3807998236e+01   3.0846126843e+01     0.927488    0.7870082  66.20  0.005620695    1.146    0.128
         4 -11.2209      2.2461     11.0059   1.2272174711e+02   7.1316304983e+01     0.384062   0.07613748 -49.80  0.001632986    3.234    0.691
         5  -9.2762      2.1278    248.7175   1.5294155694e+02   2.4382419685e+01    0.1605583   0.08860914  78.38 0.0008878252    1.343    0.255
         6 -12.1431    173.4794    248.8888   1.2526732220e+02   2.1291694981e+00     0.398169    0.2655371  43.47  0.002669496    1.201    0.167
         7 -13.3965    132.7834    245.8230   1.3190658653e+02   8.7738229552e+00    0.8599467    0.3735069  38.45  0.004578605    1.981    0.495
         8  -9.5114     73.7650    250.4215   1.4219125259e+02   1.6299115397e+01    0.1405969   0.08575678  38.40 0.0009553095    1.655    0.396
         9 -11.1850     30.5926    249.0445   1.4881458044e+02   2.1527592217e+01    0.2858804    0.1944472  42.19  0.002303354    1.572    0.364
        10 -11.2318    237.5996    247.6009   1.1432881345e+02  -7.3896620326e+00    0.2148695    0.1653178  25.49  0.001347317    1.153    0.132
        11 -10.2910     81.1389    248.0993   1.4081920781e+02   1.5712286939e+01    0.1502649    0.1291011  57.38 0.0008723847    1.243    0.196
        12 -13.4500    142.1066    248.1913   1.3056621540e+02   7.0345261768e+00    0.9591076    0.3932988  41.60  0.005086294    1.907    0.475
        13 -10.5448    198.5721    246.2037   1.2062603859e+02  -1.4211203684e+00     0.143512    0.1020334 -11.66 0.0008103075    1.697    0.411
        14 -10.7544    216.1511    248.8311   1.1803924479e+02  -4.3785964297e+00    0.2467991    0.1094693  31.68  0.001335297    1.896    0.473
        15 -11.2570     37.2938    215.4385   1.4575087612e+02   2.6492121433e+01     0.652468    0.4890005 -79.06  0.005057033    1.326    0.246
        16 -13.0887     48.8613    217.9785   1.4393567359e+02   2.4744387875e+01      1.12238    0.6863369 -88.64  0.006907902    1.501    0.334
        17 -14.0353     38.5324    230.4554   1.4652373932e+02   2.3726681774e+01    0.6631612    0.4813955  63.11  0.002402113    1.084    0.077
        18 -11.5053    184.5114    237.4918   1.2183882670e+02   1.8419557484e+00    0.4564317    0.2724032 -68.02   0.00200337    4.753    0.790
        19 -11.8478     90.3495    227.6889   1.3747007809e+02   1.7773418615e+01    0.6332695    0.1554658  46.13  0.002661465    3.167    0.684
        20 -12.0676    107.1594    230.7604   1.3478847845e+02   1.4877332423e+01    0.5804793    0.1308734  42.27  0.002275584    3.480    0.713
        21 -12.8557    125.1633    232.3923   1.3174969902e+02   1.1932592270e+01    0.7139457    0.2381732  40.84  0.003245415    2.500    0.600
        22  -9.2609      3.5059    227.8466   1.5190608225e+02   2.7658581576e+01    0.1737313    0.1082665  50.97  0.001399363    1.399    0.285
        23 -10.2772     21.5106    238.3903   1.4964998783e+02   2.4182723778e+01    0.1915355     0.134063  72.32 0.0006207276    1.031    0.030
        24 -10.2812     27.5982    221.9083   1.4779056860e+02   2.6364026437e+01    0.2046474    0.1638153  24.24  0.001365869    1.941    0.485
        25 -10.6055     57.3064    212.0888   1.4197727539e+02   2.4813051874e+01    0.2452385    0.1395004  57.84  0.001018746    1.489    0.328
        26  -9.8484     20.7811    211.9400   1.4833431249e+02   2.8822472428e+01    0.2643365    0.1437079  30.85   0.00170786    2.347    0.574
        27 -12.0965     10.4850    206.8161   1.4977290405e+02   3.0723254815e+01    0.4669979    0.3206897  30.13  0.002860735    1.955    0.489
        28 -13.0997     34.3283    236.6264   1.4756655400e+02   2.3143825012e+01    0.2785314    0.2142356 -79.66  0.000850243    1.414    0.293
        29 -11.7985     60.6268    201.8418   1.4046613570e+02   2.6316039879e+01    0.2235887    0.1931519  84.55 0.0005347344    1.147    0.129
        30 -12.1305     67.0569    193.0840   1.3837329297e+02   2.7195312678e+01    0.2328417    0.2034134 -85.94   0.00042202    1.164    0.141
        31 -13.2747     64.1245    177.9092   1.3732614614e+02   3.0604998658e+01     0.462726    0.2531233 -47.45  0.001972096    2.357    0.576
        32 -10.8196     77.5350    179.5300   1.3471309980e+02   2.8513876182e+01    0.2185572    0.1929356  82.28 0.0002860255    1.051    0.049
        33  -8.8915    101.6396    178.3018   1.2944026332e+02   2.5241572611e+01    0.1998374    0.1334919  73.95 0.0008868628    1.746    0.427
        34 -10.9493    248.6444    248.9975   1.1276038264e+02  -9.0805740287e+00    0.3569317    0.1436007  33.82  0.001988366    1.929    0.482
        35 -10.0773    100.2373    150.0689   1.2527436757e+02   3.1344998957e+01    0.2957034    0.2339056 -54.60 0.0008361489    1.262    0.208
        36  -8.6106    104.4544    154.4310   1.2504523366e+02   2.9729827981e+01    0.1329323    0.1248322  79.97 0.0002295118    1.010    0.010
        37 -11.9547     86.0536    153.1018   1.2911952375e+02   3.2868576648e+01    0.2687829    0.2340644 -46.32 0.0006036594    1.286    0.222
        38  -9.5961    134.1071    146.9435   1.1674241069e+02   2.6062291145e+01    0.7036136    0.1817358 -55.37  0.001572903    7.603    0.868
        39 -12.1715     67.3325    143.5440   1.3208721886e+02   3.7546497186e+01    0.6186967    0.3906418  65.41  0.003148079    1.809    0.447
        40 -10.1620    109.2380    138.2857   1.2090862234e+02   3.2394212491e+01    0.4386075    0.2850253 -20.34   0.00178769    2.674    0.626
        41  -9.0942     31.9865    132.0000   1.3910278074e+02   4.4020846926e+01    0.1674861   0.06856735  28.88 0.0004887431    2.907    0.656
        42 -10.5485     96.3681    135.7475   1.2359107552e+02   3.5084588275e+01    0.2269943    0.2167189 -24.43  0.000402771    1.184    0.155
        43 -10.5613     22.4511    126.7709   1.4080949597e+02   4.6008479001e+01    0.2278867    0.1545876  69.58   0.00143848    1.529    0.346
        44  -9.1526    106.4904    124.5259   1.1873805143e+02   3.5864297296e+01    0.1402735    0.1348945 -63.46 0.0001392417    1.009    0.009
        45 -11.9275     84.7764    170.1376   1.3193431447e+02   2.9433564470e+01    0.6042667    0.4706287 -52.97  0.003691765    1.400    0.286
        46 -10.3403    157.6387     75.8720   9.3064495197e+01   3.5033950117e+01    0.2699299    0.2085965  37.68  0.000683783    1.313    0.239
        47 -11.0222     12.3059     54.1030   1.3160364231e+02   6.2545623065e+01    0.1893746    0.1691492  23.17 0.0008021363    1.432    0.301
        48 -10.6291     97.3325    153.9324   1.2661864621e+02   3.0976592248e+01    0.2924677    0.2844402 -79.66 0.0007868981    1.107    0.097
        49 -10.6609     99.3369    249.1023   1.3790161813e+02   1.3118041079e+01    0.2292198    0.1269832  49.74  0.001486363    1.386    0.279
        50 -11.4587     19.7340    247.6244   1.5035818463e+02   2.2868527088e+01    0.3000244    0.1955896  39.44  0.001893577    1.726    0.421
