#   1 NUMBER                 Running object number                                     
#   2 MAG_AUTO               Kron-like elliptical aperture magnitude                    [mag]
#   3 X_IMAGE                Object position along x                                    [pixel]
#   4 Y_IMAGE                Object position along y                                    [pixel]
#   5 X_WORLD                Barycenter position along world x axis                     [deg]
#   6 Y_WORLD                Barycenter position along world y axis                     [deg]
#   7 A_WORLD                Profile RMS along major axis (world units)                 [deg]
#   8 B_WORLD                Profile RMS along minor axis (world units)                 [deg]
#   9 THETA_WORLD            Position angle (CCW/world-x)                               [deg]
#  10 FWHM_WORLD             FWHM assuming a gaussian core                              [deg]
#  11 ELONGATION             A_IMAGE/B_IMAGE                                           
#  12 ELLIPTICITY            1 - B_IMAGE/A_IMAGE                                       
         1 -15.2532     68.5521    144.0836   1.0309662592e+02   3.7498765763e+01     5.632941     2.562463  64.59  0.003703305    3.596    0.722
         2 -14.2159    198.0872     39.9897   4.5931268408e+01   2.9990578356e+01     1.495475     1.173132 -25.93  0.003825424    1.284    0.221
         3 -14.7854    207.9191     29.7873   4.2093388694e+01   2.8896104254e+01     1.991604     1.397621  20.15  0.001767786    2.032    0.508
         4 -13.5597    232.5306      4.7259   3.3880779484e+01   2.6010249747e+01    0.8367154    0.5599596  86.23  0.004968458    1.525    0.344
         5 -10.6264     61.1643      7.8570   6.2243872088e+01   6.8391155114e+01    0.1914345    0.1860908 -70.96 0.0004537953    1.234    0.189
         6 -10.9974    112.8533    205.6187   1.0021802412e+02   1.8170015976e+01    0.2390893     0.167327  52.58    0.0012358    1.373    0.272
         7 -12.2920    139.7226    249.5834   9.9771993151e+01   7.7300154689e+00    0.5784712    0.2650197  40.88  0.003353687    1.715    0.417
         8 -11.8181    140.3981    245.2196   9.9181529047e+01   8.2185518842e+00    0.2416299    0.2051558 -87.78  0.001814667    1.778    0.438
         9 -13.1871     72.4450    171.5014   1.0564525751e+02   3.0720421700e+01     1.008589    0.5375668 -32.54  0.002999687    4.039    0.752
        10 -16.5563     47.6964    200.8675   1.1437347039e+02   2.7694542694e+01     11.26467     3.895226  65.01   0.03193839    4.190    0.761
        11 -12.7741    109.2511    201.5628   1.0051537642e+02   1.9419427593e+01    0.6679863     0.466875 -25.25  0.002029001    2.106    0.525
        12 -15.1076     55.3605    240.7447   1.1532478638e+02   1.9587679782e+01    0.8316424    0.6599918 -25.13  0.005069597    2.077    0.518
        13 -10.6623     32.9251    204.7642   1.1792482512e+02   2.8533712374e+01    0.2081269    0.1721395  50.83 0.0004929747    1.127    0.113
        14 -11.9125    194.2702    196.8964   8.2464972759e+01   7.1543611214e+00    0.9873333    0.5940062 -61.67  0.004043294    4.951    0.798
        15 -11.5087    203.5104    197.8232   8.0959378009e+01   5.6700654558e+00    0.3004608     0.200698 -45.53  0.001802107    2.034    0.508
        16  -9.9830    133.9563    195.9987   9.4368969259e+01   1.6644163690e+01    0.1971948    0.1654826  33.26 0.0004770944    1.009    0.009
        17  -9.4307    150.4895    195.4981   9.0792914558e+01   1.4130304091e+01    0.1286592    0.1082238  27.48 -0.0001081844    1.007    0.007
        18  -9.6373     81.9664    194.8636   1.0594476235e+02   2.4575505543e+01    0.1870609    0.1661674  20.16  0.001222925    1.294    0.227
        19 -10.1342    120.0838    194.0174   9.7134373544e+01   1.9148362550e+01    0.1906473    0.1650867  40.29 0.0004140206    1.028    0.027
        20  -9.5417    127.2903    192.6568   9.5347392204e+01   1.8271366055e+01    0.1280659   0.09394623  63.94 0.0004056157    1.653    0.395
        21  -9.1301    156.6099    190.2010   8.8702758623e+01   1.4016268413e+01    0.1614692    0.1169701 -26.03 0.0002993692    1.580    0.367
        22  -9.9808    150.4180    188.2223   8.9682128596e+01   1.5341629835e+01    0.1626799    0.1276058 -62.07 0.0009482032    1.686    0.407
        23  -9.4543     81.4408    185.4089   1.0502801519e+02   2.6540068251e+01      0.38732    0.1833747  68.60  0.001460599    3.609    0.723
        24  -9.6861     91.9571    183.9186   1.0232144786e+02   2.5335205623e+01    0.1998809    0.1721243  45.25 0.0005474467    1.035    0.033
        25 -10.9860     99.2205    180.8832   1.0018545015e+02   2.4860258037e+01    0.2772658    0.2217621  30.12 0.0007760884    1.225    0.184
        26 -11.0129    143.9338    178.3914   8.9487793268e+01   1.8106906502e+01    0.2756555    0.2220154 -32.50  0.001175356    1.387    0.279
        27  -9.9570    188.8763    178.1063   8.0255885534e+01   1.0667911428e+01    0.2391902    0.2123711 -40.14 0.0008704857    1.385    0.278
        28 -10.4351    187.6415    173.2731   7.9617172961e+01   1.1596795218e+01    0.3959341    0.2482839 -64.61  0.001645806    3.842    0.740
        29  -9.9877    149.4764    177.0576   8.8057535663e+01   1.7408181402e+01    0.1983019    0.1626458  34.93 0.0003975114    1.085    0.079
        30 -10.5558     47.4208    172.4242   1.1216252744e+02   3.3691799831e+01    0.3824052    0.2608827 -46.16  0.001856797    1.907    0.476
        31 -13.2925     54.4804    147.4485   1.0760540334e+02   3.8574019859e+01     1.124714    0.8226824 -49.15  0.006166017    1.580    0.367
        32 -13.8991     71.5682    155.1516   1.0380578005e+02   3.4495755547e+01    0.6069242    0.5913706 -77.83  0.003827173    1.162    0.140
        33 -11.0505    107.9706    210.9518   1.0189990221e+02   1.7946180260e+01    0.2721017    0.1456828  36.92  0.001430722    1.509    0.337
        34  -9.7652     37.2965    167.9550   1.1439174865e+02   3.5816577747e+01     0.251485    0.1296637  49.15  0.001008208    1.662    0.398
        35 -16.7162      6.2874    209.2471   1.2383464819e+02   3.0196460062e+01     11.31829     1.318483 -80.34   0.02658525    7.494    0.867
        36 -10.7870     32.4961    164.9261   1.1540507651e+02   3.7001868280e+01    0.3020758    0.2050025 -10.21  0.001577877    2.436    0.590
        37  -9.4380     48.3666    160.2667   1.1074974127e+02   3.6321088811e+01    0.1697479    0.1467786  51.66 0.0004062537    1.095    0.087
        38 -12.4681     90.2595    153.2164   9.8440704719e+01   3.2133512306e+01    0.7433283    0.5363047  -0.30  0.003540822    2.130    0.531
        39 -13.0453     82.9416    160.5319   1.0148761952e+02   3.1628419730e+01     1.142316    0.5308145  59.06 0.0003742232    2.861    0.650
        40 -10.3647    187.2936    151.9241   7.5573221416e+01   1.5001175987e+01    0.1920094    0.1671981 -12.48  0.001156973    1.095    0.087
        41 -11.4418    133.7280    144.7753   8.5719412487e+01   2.6329997130e+01     1.083163    0.3083886 -54.73   0.00288681    5.555    0.820
        42  -9.2334    112.4898    150.5289   9.2131539795e+01   2.9005007729e+01    0.1437985    0.1308729  53.62 8.237988e-05    1.043    0.041
        43 -10.7225    174.3716    148.5960   7.7445846610e+01   1.7923090932e+01    0.3387321    0.2530093 -55.79  0.001140572    1.688    0.408
        44 -10.9768     40.1264    146.6271   1.1164974935e+02   4.0454066262e+01    0.2956271    0.2449962  34.80 0.0009112651    1.264    0.209
        45 -10.5530    143.8338    145.8438   8.3535350782e+01   2.4204123290e+01    0.1984376    0.1741375  76.13  0.001086376    1.353    0.261
        46 -11.2308    103.1340    139.2042   9.2511622176e+01   3.3127294778e+01    0.5137669    0.3581201 -16.05  0.002253403    2.305    0.566
        47 -12.4902     90.7306    138.8064   9.5885498122e+01   3.5333662898e+01    0.2711818    0.2693204  20.47 0.0005275286    1.119    0.107
        48 -13.5564     42.9562    110.9854   1.0616324424e+02   4.8936727590e+01     1.436156    0.4828546 -64.52  0.005400064    2.622    0.619
        49 -12.8688     44.6289    130.0096   1.0834906482e+02   4.3987679248e+01    0.8192953    0.3646867 -82.65  0.003256153    2.615    0.618
        50 -12.3812     39.7242    124.8243   1.0923709710e+02   4.5823030322e+01    0.4946752    0.2938963  64.99  0.002391791    1.777    0.437
        51 -11.5977    135.9409    129.7399   8.1994740657e+01   2.8964039984e+01    0.9641988    0.1882653 -49.24  0.002296236    6.165    0.838
        52 -11.3417     32.9556    131.1761   1.1215048483e+02   4.4956997752e+01    0.2721595    0.2266551 -73.89  0.001274454    1.164    0.141
        53 -17.6877     13.8053    245.8456   1.2345076257e+02   2.3019873157e+01      7.40012     2.148383  24.51    0.0267831    4.596    0.782
        54 -10.6068    112.1857    129.6791   8.8130834064e+01   3.3605261900e+01    0.3271766    0.2572799  15.93 0.0007845878    1.544    0.352
        55 -10.0784    160.5959    127.7626   7.5825886416e+01   2.4347840838e+01    0.2796137     0.227973 -76.41  0.001418493    1.629    0.386
        56 -11.7445    119.0827    123.4205   8.4898939345e+01   3.3653118506e+01    0.6699135    0.4545538 -12.64  0.002722102    2.486    0.598
        57 -11.1139     99.4054    125.6728   9.0860193486e+01   3.6866895911e+01    0.2755676    0.2399833  -2.72 0.0004416266    1.403    0.287
        58 -11.1108    131.9215    172.1665   9.1154808115e+01   2.1278475553e+01    0.3290488    0.1750431  31.50   0.00149603    1.856    0.461
        59 -10.7723    105.8717    130.8351   9.0104697071e+01   3.4517688897e+01    0.3449883    0.3143748  84.76  0.001226311    1.134    0.119
        60 -10.4441    135.0000    116.0402   7.9033980161e+01   3.1977140088e+01    0.3033414     0.162783 -50.39  0.001225842    1.987    0.497
        61 -10.0226    108.0938    118.9044   8.6898775584e+01   3.6793233984e+01    0.2150578    0.2064883  56.33 0.0003037422    1.012    0.012
        62  -9.6268    168.0418    113.0275   7.0732305911e+01   2.5499899853e+01    0.2414667     0.185644 -79.82  0.001139199    1.857    0.461
        63 -11.5284    117.2326    109.4323   8.2073801085e+01   3.7083143044e+01    0.6640728    0.4480861  60.41  0.002939228    1.705    0.413
        64 -11.0423    138.1163    169.8913   8.9354535592e+01   2.0645272730e+01    0.3883668    0.3374802  70.14  0.001471577    1.354    0.261
        65 -11.7563     18.5017    109.9192   1.1460146438e+02   5.1555891250e+01    0.3619474    0.1967061 -87.06  0.001576678    1.731    0.422
        66  -8.7123    142.2463    108.6766   7.5413779496e+01   3.1923831293e+01    0.1464826    0.1184025 -76.16 0.0002950668    1.532    0.347
        67 -10.3963    134.6961    105.4508   7.6440646663e+01   3.4222014513e+01    0.5058267    0.1388961 -41.80  0.001444664    3.811    0.738
        68 -10.2453    205.4346    110.1960   6.3112973434e+01   1.8185510484e+01    0.2749963    0.2229173  40.28  0.000881623    1.294    0.227
        69 -10.4953    241.4965    102.4763   5.6089004815e+01   1.2465160541e+01    0.1274363    0.1077859 -20.90 0.0001368319    1.020    0.019
        70  -9.0417    129.4417     96.4921   7.5382121513e+01   3.7220273306e+01     0.152337    0.1487269 -89.78 0.0001773149    1.034    0.033
        71 -11.6207     51.9203     92.8321   9.9514525447e+01   5.2415592804e+01     0.521164    0.4271099  63.10   0.00274715    1.277    0.217
        72  -9.5780     75.5284     85.0341   8.8790088512e+01   5.0713281525e+01    0.2065969    0.1960372  48.80 0.0003851029    1.075    0.069
        73 -10.4396    157.9041     82.3225   6.4672497767e+01   3.3341998372e+01    0.2911297    0.2250485 -26.59 0.0006159176    1.364    0.267
        74  -9.1686    184.6071     77.1218   5.8190888899e+01   2.7905750370e+01    0.2034196    0.1360407 -18.80 0.0007133728    1.707    0.414
        75 -10.2544     58.8631     67.6100   9.0159479401e+01   5.7560781188e+01    0.2546694    0.2224137  80.20 0.0006303336    1.295    0.228
        76 -13.9503    187.6123     47.9490   4.9510346370e+01   3.1483825450e+01     1.233995    0.9982204  28.79 0.0008619591    1.490    0.329
        77 -14.1060     56.3794    187.8795   1.1131673686e+02   2.9310302025e+01     1.536088    0.8246945  56.39  0.008095047    1.700    0.412
        78  -9.9387    169.0630    236.1897   9.2795144189e+01   5.5613920310e+00    0.1668616    0.1422981   2.42 0.0004519457    1.225    0.184
        79  -9.3611     72.1627     53.8833   7.9948430203e+01   5.8310230126e+01    0.2184791     0.199681  84.17 0.0008143888    1.249    0.199
        80 -11.7904    144.9590     49.5863   5.7121511807e+01   4.2046881300e+01    0.5548621    0.3443889 -76.55  0.001465586    2.387    0.581
        81  -9.2866     35.2683     37.9790   9.1074892582e+01   6.7548277307e+01    0.1655072    0.1090888 -52.34 0.0004306104    1.414    0.293
        82 -11.5054     24.2812     34.4243   9.6067850079e+01   6.9566906186e+01    0.2937804    0.2099753  35.73  0.001161361    1.565    0.361
        83 -10.8080    197.9764     23.7666   4.1404936205e+01   3.1946585900e+01    0.3129975    0.1987879 -21.45 0.0009574242    1.665    0.399
        84  -9.8087    189.7750     15.0732   3.9708596208e+01   3.4899295602e+01    0.2175575    0.1650656 -54.91 0.0007433814    1.204    0.169
        85 -10.0990     92.6134    249.9638   1.0872913491e+02   1.3708766053e+01     0.273706    0.1529688  17.59  0.001483432    2.420    0.587
