#   1 NUMBER                 Running object number                                     
#   2 MAG_AUTO               Kron-like elliptical aperture magnitude                    [mag]
#   3 X_IMAGE                Object position along x                                    [pixel]
#   4 Y_IMAGE                Object position along y                                    [pixel]
#   5 X_WORLD                Barycenter position along world x axis                     [deg]
#   6 Y_WORLD                Barycenter position along world y axis                     [deg]
#   7 A_WORLD                Profile RMS along major axis (world units)                 [deg]
#   8 B_WORLD                Profile RMS along minor axis (world units)                 [deg]
#   9 THETA_WORLD            Position angle (CCW/world-x)                               [deg]
#  10 FWHM_WORLD             FWHM assuming a gaussian core                              [deg]
#  11 ELONGATION             A_IMAGE/B_IMAGE                                           
#  12 ELLIPTICITY            1 - B_IMAGE/A_IMAGE                                       
         1 -13.7699    235.6720     77.3739   7.2262358955e+01   1.6630571055e+01     1.853186     1.597569 -32.45  0.009107773    1.007    0.007
         2 -15.0661    186.2824    103.4721   8.6446316544e+01   2.3067363037e+01     7.976582     1.655439 -33.31   0.01863268    6.011    0.834
         3 -14.7551    179.4020     80.9939   8.1697535777e+01   2.8525216999e+01     5.147682     2.867229  -2.75   0.01501114    4.639    0.784
         4 -16.0923    207.2626    106.9164   8.3514012897e+01   1.8012309120e+01     7.476885     4.548291   6.41    0.0303187    2.714    0.632
         5 -14.4411    230.2694     98.0313   7.7842331329e+01   1.4782438035e+01     6.900936     1.418686 -40.27   0.02083992    4.374    0.771
         6  -9.4214    174.5032     30.3476   6.7208367629e+01   3.7315242226e+01    0.2627927    0.1335217  70.32  0.001085645    1.931    0.482
         7 -10.1927    131.4425    203.8696   1.1903186348e+02   1.4928843321e+01    0.2824621    0.1569986  21.24   0.00133855    1.942    0.485
         8 -11.2563    183.1078    198.5397   1.0708180605e+02   7.7562036383e+00    0.3236998    0.2480712  13.19  0.001477579    1.097    0.088
         9 -11.1986    190.0152    200.6778   1.0606009909e+02   6.4004109943e+00    0.3899044     0.197312  38.06  0.002004883    1.791    0.442
        10 -10.4450    213.1224    197.7137   1.0119996986e+02   3.4246227868e+00    0.4537023    0.3642108 -57.05  0.002749852    2.373    0.579
        11  -9.5002    198.2450    184.6899   1.0170909971e+02   7.4415805535e+00    0.2425314    0.1999025  44.20 0.0006895456    1.537    0.349
        12 -11.0256    202.9107    176.5167   9.9319970732e+01   7.9004541814e+00    0.3216555    0.2807011  15.63  0.002080919    1.172    0.147
        13 -11.2847    204.4724    183.7306   1.0034811484e+02   6.6117257098e+00    0.5889608    0.3288365   7.95  0.002787385    2.281    0.562
        14 -10.4693    207.4151    188.2356   1.0060261455e+02   5.5312555684e+00    0.2204362    0.1988609 -42.97  0.001350659    1.637    0.389
        15 -12.0205    193.6354    183.0365   1.0231100356e+02   8.4139866709e+00    0.7483785    0.3420381 -24.28   0.00316197    2.843    0.648
        16 -11.5437    188.7467    182.9025   1.0325864711e+02   9.2184816903e+00    0.4625595    0.2996094 -40.73  0.002529012    1.767    0.434
        17 -10.2307    200.1640    192.9177   1.0278758224e+02   5.9703427873e+00     0.297346    0.1522075 -18.66  0.001400012    2.429    0.588
        18 -11.6064    155.9763    194.7643   1.1218676588e+02   1.2620701403e+01    0.4212213    0.2623525  55.36  0.002031114    2.246    0.555
        19 -11.5645    152.3105    193.8359   1.1285115641e+02   1.3367291104e+01    0.3593968    0.2515446 -53.24  0.001981176    1.839    0.456
        20 -12.0874    141.6744    191.6556   1.1491741172e+02   1.5469733100e+01    0.6982613    0.3654172  55.95  0.002819732    2.976    0.664
        21 -10.6225    117.7554    192.2250   1.2064218942e+02   1.9192708337e+01    0.3201541    0.1999904  27.23  0.001625371    1.489    0.328
        22  -9.9437    226.8243    191.2878   9.7668598893e+01   2.3199760530e+00     0.262131    0.1730779 -11.04 0.0008314877    1.344    0.256
        23 -13.4807    163.8454    178.2125   1.0766790297e+02   1.4130152779e+01    0.9622106    0.7236009   8.30   0.00530315    1.358    0.264
        24 -12.4377    182.0770    186.1592   1.0518969037e+02   9.7930694704e+00    0.7200881    0.3020637 -41.56  0.003182127    2.656    0.623
        25 -11.6712    178.9963    182.9999   1.0526893728e+02   1.0792250500e+01    0.4519395     0.242361 -33.84  0.002210103    2.018    0.504
        26 -10.7720    129.7090    188.5764   1.1724979594e+02   1.7978195895e+01     0.288743     0.196323  17.07  0.001371204    1.595    0.373
        27  -9.1536    232.1210    188.7829   9.6326831563e+01   1.9009909684e+00     0.172676    0.1452219   6.97    0.0012187    1.239    0.193
        28  -9.4113    216.0058    185.9745   9.8628613701e+01   4.5603242596e+00    0.1897254    0.1507118  11.30 0.0003631214    1.066    0.062
        29 -12.2050    175.0970    178.0755   1.0520507509e+02   1.2240348791e+01    0.5890689    0.3519018   5.53  0.002626108    2.341    0.573
        30 -11.4336    138.3129    183.5113   1.1441998072e+02   1.7509291705e+01    0.4224422    0.2339916  39.90   0.00200982    1.570    0.363
        31 -11.7748    142.5271    176.5020   1.1225986225e+02   1.8108965063e+01    0.5692122    0.2315272  37.52  0.002278975    2.135    0.532
        32 -10.9059    148.5925    172.9090   1.1020067435e+02   1.7728579434e+01    0.3111227    0.2623054   7.17  0.001756292    1.189    0.159
        33  -9.5468    119.0000    176.9246   1.1809795297e+02   2.2018695413e+01    0.2131188   0.08272069 -54.86 0.0008064925    2.971    0.663
        34  -8.7056    216.3664    175.8009   9.6701107373e+01   5.8960879330e+00    0.1840412    0.1037571 -21.34 0.0009569963    1.763    0.433
        35  -8.6658    215.4844    243.5052   1.0782774043e+02  -2.2686079480e+00     0.111311   0.07747889  14.14 -0.0001466527    1.033    0.032
        36 -13.2096    222.1790    136.0548   8.7673154938e+01   1.0678776539e+01     1.713702     0.963105  43.05  0.004840051    1.883    0.469
        37 -14.4603    203.0307    141.1815   9.2170156503e+01   1.3328608382e+01     2.853193     1.936369 -31.01   0.01114737    1.406    0.289
        38 -10.5088    180.3058    223.4665   1.1146565883e+02   4.6667265156e+00    0.3871639    0.1506137  35.03  0.001876228    2.051    0.512
        39 -10.8777    115.0709    149.8259   1.1452026182e+02   2.8506379599e+01     0.469926    0.3052902  80.39  0.001862726    2.608    0.617
        40 -10.6765    135.4236    143.2112   1.0773133822e+02   2.6117376237e+01    0.3350741     0.226345 -62.92  0.001433532    1.890    0.471
        41 -10.7768    134.7690    138.7558   1.0695538662e+02   2.7197956592e+01    0.3757869    0.2205487 -58.81  0.001533586    2.132    0.531
        42 -12.7358    141.9254    152.6237   1.0799662919e+02   2.2907683158e+01    0.9792129    0.4325579 -48.29  0.003789078    2.484    0.597
        43 -12.2135    146.4171    164.0547   1.0910354939e+02   1.9802518048e+01     0.693589    0.4770416 -83.67  0.002897762    2.887    0.654
        44 -11.9097    142.0520    167.0415   1.1070932879e+02   2.0008699609e+01    0.4780284    0.3697608  52.58  0.002514146    1.401    0.286
        45 -11.1795    139.2576    132.9708   1.0450043189e+02   2.7529580675e+01    0.3596153    0.2563375 -40.34  0.001319856    1.483    0.326
        46  -9.4602    201.9794    216.5480   1.0630400005e+02   2.5639576918e+00    0.2263204    0.1518226 -26.91  0.001456243    1.585    0.369
        47 -11.2723    124.8707    130.6992   1.0786943333e+02   3.0943229916e+01    0.4961209     0.264049  50.43  0.001919786    2.004    0.501
        48 -12.8683    138.2310    118.1509   1.0125073037e+02   3.0918438611e+01     1.200332      0.47741 -44.77  0.004091796    2.607    0.616
        49 -12.9410    149.4863    119.7852   9.8759844382e+01   2.8130704896e+01    0.8901621    0.6712521 -33.04  0.004216601    1.392    0.282
        50 -12.2769    151.1390    114.5619   9.7035779474e+01   2.8836622901e+01    0.8438076     0.440204  36.92  0.002988063    2.034    0.508
        51 -10.0762     96.1584    118.8649   1.1385176304e+02   3.9290108135e+01    0.2501559    0.2130987  72.65  0.001002093    1.266    0.210
        52 -10.2981    132.5224    112.1210   1.0126556199e+02   3.3470679746e+01    0.4014678    0.1760016  47.15  0.001395985    2.264    0.558
        53 -11.6616    146.6105    105.3080   9.5738583692e+01   3.1753954590e+01    0.6321365    0.3275309  53.44  0.002094463    2.083    0.520
        54 -10.4178    140.6954    102.1203   9.6393015523e+01   3.3776032111e+01    0.2646244    0.2305547  75.97  0.001042057    1.309    0.236
        55 -10.6553    101.3528    105.8417   1.0904270003e+02   4.1484476407e+01    0.3783204    0.2473177 -38.76  0.001591146    1.711    0.416
        56 -10.7534    148.5326     99.6761   9.3714311584e+01   3.2456649733e+01    0.3213554    0.2755965  -1.28  0.001558922    1.321    0.243
        57 -10.0991     82.1527     95.1474   1.1297719495e+02   4.7750911876e+01    0.2394904    0.2178037 -22.96 0.0006958404    1.198    0.166
        58 -11.2156    146.5916     93.6242   9.2486502931e+01   3.4134517420e+01     0.649461    0.2483582  52.64  0.002073166    2.766    0.638
        59 -10.8368    129.7769    104.7298   1.0007448397e+02   3.5700088744e+01    0.5168726    0.2145659 -47.28  0.001743448    2.517    0.603
        60  -9.6595    124.0207     89.3527   9.7336748383e+01   4.0373623390e+01    0.3464828    0.2127296 -69.96   0.00119248    2.765    0.638
        61  -8.6549    151.5120     89.5231   9.0093899214e+01   3.3759878938e+01    0.1572132    0.1544105  88.45 0.0002039982    1.049    0.047
        62  -9.9635     73.9689     87.0527   1.1395463473e+02   5.1207746924e+01    0.3942591    0.2395245 -21.91  0.001436292    2.719    0.632
        63  -8.7756    155.5197     86.0168   8.8125269664e+01   3.3454599326e+01    0.2387971    0.1549608 -38.34 0.0006731552    1.543    0.352
        64  -8.9246    136.2701     86.6709   9.3099417864e+01   3.8026529180e+01    0.1602887    0.1274621 -76.98 0.0001316451    1.582    0.368
        65 -10.1757     49.8597     85.2838   1.2357596716e+02   5.5187550208e+01    0.2400343    0.1770322  49.20 0.0005716684    1.444    0.307
        66 -10.0286    142.8880     84.2411   9.0641699592e+01   3.6901214034e+01    0.3052264     0.218071  31.86  0.001001826    1.586    0.369
        67  -8.9092    115.3058     84.6697   9.8534186097e+01   4.3411963326e+01    0.1645719    0.1297873 -88.97 0.0007037802    1.658    0.397
        68 -11.5410    168.6354     80.2672   8.3594069991e+01   3.1275168443e+01    0.5455227    0.4337088 -26.98 0.0007329448    1.295    0.228
        69 -12.5409    134.1786    166.1108   1.1248040189e+02   2.1599247848e+01    0.5949962    0.5129274  48.82  0.003323991    1.176    0.150
        70  -9.3634    103.3178     79.3275   1.0074020702e+02   4.7302203356e+01    0.1645859    0.1288232  -0.83 0.0004642711    1.679    0.404
        71  -9.7276    132.9648     78.4766   9.1439760149e+01   4.0493670965e+01    0.2583224    0.1568322  49.98  0.001038971    1.612    0.380
        72  -9.2625     67.7443     77.9170   1.1393074355e+02   5.4529572108e+01    0.2530741    0.1795617  85.52  0.001081649    1.985    0.496
        73  -9.3835    136.6312     73.6495   8.8913173645e+01   4.0527599075e+01    0.2762258    0.2153078  44.61 0.0008181614    1.274    0.215
        74  -9.7874    132.7012     72.1816   8.9466166966e+01   4.1801121174e+01    0.3303773    0.2214136  35.24  0.001371251    1.673    0.402
        75  -9.4415    150.0074     73.0116   8.5432558511e+01   3.7252857149e+01    0.2593243     0.197516  14.36  0.001134736    1.708    0.415
        76  -8.8952    100.9983     70.5972   9.8619499418e+01   4.9749148193e+01    0.2441135    0.1951653 -43.76  0.001141042    1.274    0.215
        77 -10.2459    118.7812     69.4634   9.2484274204e+01   4.5799343925e+01    0.3170052    0.2330721 -42.53    0.0014153    1.393    0.282
        78 -10.5758    163.2892     44.2477   7.3410473771e+01   3.8459830255e+01    0.3499694    0.2790117  71.74  0.001267486    1.236    0.191
        79 -10.4574    182.8373     66.6129   7.6965462284e+01   3.0031019125e+01    0.2880261    0.2655893 -88.29 0.0003451441    1.118    0.106
        80 -11.7858    182.1750     60.1401   7.5183399982e+01   3.1195790371e+01    0.6931968    0.4139003 -68.42  0.002763719    2.339    0.572
        81 -11.1183    180.3289     53.4424   7.3487106408e+01   3.2663358396e+01    0.3880082     0.239908  44.52  0.001710391    1.810    0.447
        82 -10.9777    176.1831     52.1614   7.3762684242e+01   3.3916021295e+01    0.4683566    0.3051862  34.17  0.002037154    1.954    0.488
        83 -12.7540    201.5725     92.7512   8.0936377621e+01   2.1483697822e+01      1.01748    0.8401045  18.42  0.003206539    1.347    0.258
        84  -9.7682    136.9524     67.4902   8.6796877261e+01   4.1612044926e+01    0.3773586    0.1616077  60.29  0.001213229    2.702    0.630
        85  -9.7773    160.0494     65.4831   8.0868234014e+01   3.5994837060e+01    0.3420868     0.252647  33.60  0.001552839    1.560    0.359
        86 -10.2889    166.4015     65.1532   7.9501726921e+01   3.4413658076e+01    0.2995876    0.2269362  72.01 0.0007989652    1.414    0.293
        87  -9.1542    137.6646     64.3030   8.5542657005e+01   4.2013900295e+01    0.1650205     0.125577 -78.41 0.0002822993    1.663    0.399
        88  -9.1630     71.6813     64.3469   1.0788361194e+02   5.7138057001e+01    0.1563289    0.1223225  80.05 0.0001676394    1.729    0.422
        89 -13.1690    215.5468    120.9583   8.5428866938e+01   1.4172360467e+01     1.429678     0.688153  57.98  0.005165445    2.984    0.665
        90  -9.6501    195.3417    215.5261   1.0739126129e+02   3.6115672488e+00    0.2183434    0.1405377 -26.33  0.001348802    1.648    0.393
        91 -11.6082    169.4842     48.4924   7.3726001398e+01   3.6201056569e+01    0.7782376    0.3582922  71.76  0.002805512    2.545    0.607
        92  -9.5581    126.0192     56.4724   8.5804090680e+01   4.6448169946e+01    0.3951174    0.1754901  42.53  0.001329347    2.478    0.596
        93 -11.0156    121.7312     59.5480   8.8111226009e+01   4.6988126481e+01     0.554307    0.3202353 -49.46   0.00217429    1.925    0.480
        94  -8.9402    110.6539     60.6847   9.1851921564e+01   4.9535167807e+01    0.1673117    0.1256867  15.41 0.0007047749    1.719    0.418
        95  -9.8014    242.4897     56.6770   6.6617764951e+01   1.7996278673e+01    0.2778029    0.1808125  68.74  0.001433735    1.791    0.442
        96  -9.6558    158.6855     56.1990   7.8169375453e+01   3.7875252637e+01    0.3145817    0.1738189 -47.52  0.001249015    1.902    0.474
        97  -8.4735    155.4479     56.4774   7.8907060398e+01   3.8685925830e+01    0.1536345     0.150912  61.11  0.000193157    1.041    0.039
        98  -9.4041    155.4248     52.5041   7.7596203851e+01   3.9324184391e+01    0.3325884    0.1500164  60.28  0.001211315    2.167    0.538
        99 -12.8635    128.4406    156.1672   1.1212466878e+02   2.4688732120e+01    0.7204967    0.6964647   8.64  0.004146255    1.085    0.078
       100  -9.2621    110.8546     50.5774   8.7928005066e+01   5.1391492327e+01    0.3605157    0.1947599 -20.23  0.001240941    2.760    0.638
       101 -11.2000    129.0500    164.3292   1.1345625481e+02   2.2874552786e+01    0.3708065    0.3442428 -38.96 0.0005621178    1.197    0.164
       102 -11.1888    197.5506     48.4724   6.9567020990e+01   2.9058525471e+01    0.3179385    0.2326011 -60.92  0.001266983    1.388    0.279
       103  -9.8573    230.9009     46.9883   6.5414946122e+01   2.1605247032e+01     0.243506    0.1893149  27.84 0.0007681572    1.687    0.407
       104  -9.4433    234.3142     45.3664   6.4692124124e+01   2.1082439181e+01    0.2679071    0.2208851   5.35  0.001610906    1.523    0.343
       105  -8.1501    227.3163    210.3205   1.0079487975e+02  -5.3469121912e-02    0.1219512   0.07041675   4.41 0.0007041029    1.659    0.397
       106  -8.7444    124.4879     49.4693   8.3608054641e+01   4.8068886178e+01    0.1591131    0.1512985  45.37 0.0001717738    1.038    0.037
       107  -9.6270    159.8867     39.3723   7.2374783803e+01   4.0061786999e+01    0.2913719    0.2174172 -31.82  0.001217129    1.371    0.271
       108 -10.5416    149.0527    154.4833   1.0661499965e+02   2.1185095068e+01    0.2422993    0.2127148 -58.93 0.0007158609    1.356    0.263
       109  -9.7910    241.9723     39.0544   6.2507375603e+01   2.0252455166e+01    0.2567505    0.1706907 -16.89  0.001005928    1.663    0.399
       110  -9.0833    230.5006    157.6054   9.0748350569e+01   6.2236431311e+00    0.2360905    0.1710352 -42.77  0.001384594    1.715    0.417
       111 -10.7877    168.5849     36.6839   7.0084741046e+01   3.8083765602e+01    0.5232275     0.203316 -38.31  0.001917259    2.386    0.581
       112 -10.0717    164.1452     35.8314   7.0494298164e+01   3.9389873023e+01    0.3724722    0.2052156  48.38   0.00154558    1.924    0.480
       113 -12.2733    187.1700    130.4634   9.2855467838e+01   1.8167425426e+01     1.298756    0.6060374  24.18 0.0009026536    4.378    0.772
       114  -9.5803    218.4830     34.6528   6.3490201882e+01   2.5864877418e+01    0.2229594    0.1233448  72.16 0.0009029866    1.919    0.479
       115 -12.1439    207.0383    128.5356   8.8629930096e+01   1.4600880404e+01    0.8201246    0.6107124 -18.60 0.0004164262    1.283    0.220
       116  -9.5003    175.7081     34.3023   6.8290193585e+01   3.6499091747e+01    0.3138644    0.1412287  47.85  0.001176945    2.514    0.602
       117  -9.0609    142.8744     34.3842   7.3722315885e+01   4.5397978925e+01    0.2213058    0.1934362 -59.43  0.001081154    1.169    0.145
       118  -9.0469    133.9804     32.5009   7.4818653707e+01   4.8103975122e+01    0.2367396    0.1460739  63.73 -0.0002103598    1.532    0.347
       119  -9.1267    236.7092     30.6373   6.0924922103e+01   2.2323808995e+01    0.2332717     0.181894  24.35   0.00120187    1.774    0.436
       120 -11.2902    148.1684    148.7646   1.0566677150e+02   2.2490352105e+01    0.6534521     0.208817 -40.60  0.002066273    3.609    0.723
       121  -9.2164    183.1680     26.2652   6.4853852158e+01   3.5527021422e+01    0.2391412    0.1988229 -15.08   0.00109171    1.367    0.268
       122  -9.3138    225.5870     22.9677   5.9904615200e+01   2.5604507409e+01    0.2334089    0.1720202  57.19  0.001009445    1.574    0.365
       123  -9.2338    142.0333     22.2739   6.9362794354e+01   4.7170397592e+01    0.3296984    0.1821178 -35.55  0.001235402    1.826    0.452
       124  -9.1886    209.2663     21.1455   6.0760011811e+01   2.9580446536e+01    0.2819391    0.1450654 -67.60  0.001253949    2.123    0.529
