#   1 NUMBER                 Running object number                                     
#   2 MAG_AUTO               Kron-like elliptical aperture magnitude                    [mag]
#   3 X_IMAGE                Object position along x                                    [pixel]
#   4 Y_IMAGE                Object position along y                                    [pixel]
#   5 X_WORLD                Barycenter position along world x axis                     [deg]
#   6 Y_WORLD                Barycenter position along world y axis                     [deg]
#   7 A_WORLD                Profile RMS along major axis (world units)                 [deg]
#   8 B_WORLD                Profile RMS along minor axis (world units)                 [deg]
#   9 THETA_WORLD            Position angle (CCW/world-x)                               [deg]
#  10 FWHM_WORLD             FWHM assuming a gaussian core                              [deg]
#  11 ELONGATION             A_IMAGE/B_IMAGE                                           
#  12 ELLIPTICITY            1 - B_IMAGE/A_IMAGE                                       
         1 -14.8739      6.4218     71.1798   1.0384536740e+02   6.1758492414e+01     1.186014    0.8020488 -70.00  0.006556896    1.317    0.241
         2 -14.4347    212.4580     41.1490   2.9756770193e+01   2.6986076235e+01     1.995942     1.044749  84.77  0.009092486    2.540    0.606
         3 -13.6656    188.8033     25.8159   2.8075012957e+01   3.4141795961e+01      1.38307    0.6835721 -52.33  0.006094572    2.094    0.523
         4 -13.8020    187.7538     11.3198   2.3984647412e+01   3.5880154640e+01     1.241666    0.6305366 -41.57  0.005917554    1.775    0.437
         5 -14.3898    166.7476     29.1426   3.1783371992e+01   3.9270069812e+01     1.120917    0.9239087  77.48  0.003913459    1.192    0.161
         6 -13.1775    120.9988     26.6426   3.9026298615e+01   5.1706151886e+01    0.8233805    0.6635566  46.53  0.003323925    1.210    0.173
         7 -14.5175    146.9254     29.7149   3.5048791816e+01   4.4383984489e+01     1.573346    0.9163933  64.10  0.007011948    1.630    0.387
         8 -13.3386    131.9925     32.3877   3.8870705022e+01   4.8010850533e+01    0.7351954    0.5848522  85.19  0.002445788    1.340    0.254
         9 -13.6323      3.1156     10.1894   9.4895985958e+01   7.6947437633e+01    0.8245287    0.6071036 -65.19  0.005033282    1.281    0.220
        10 -13.2175      7.9842      2.5857   8.6447294021e+01   7.8393106017e+01    0.7209637    0.3676969  32.09  0.003614018    2.159    0.537
        11 -15.9768     13.2375     20.6344   8.9402914217e+01   7.4035814454e+01     2.186451     1.003235 -42.67  0.008401339    1.939    0.484
        12 -14.3354     24.8892     13.6108   7.6326589508e+01   7.4539431473e+01    0.8390841    0.4551942  25.61  0.004114226    1.840    0.456
        13 -14.8145    217.9908     12.9120   2.2062770574e+01   2.8740549616e+01     1.373316       1.0359 -10.44  0.006918501    1.498    0.333
        14 -15.2084     98.7562     11.4591   3.7703796962e+01   5.9492488175e+01     1.803515    0.9512812  65.11  0.006929821    1.796    0.443
        15 -13.0601     85.5911     14.0281   4.2885831489e+01   6.2585307706e+01    0.6409155     0.438677 -46.55  0.002830073    1.681    0.405
        16 -12.4169     69.9866     16.2533   4.9994663808e+01   6.6028890393e+01    0.4181684    0.3468115 -74.70  0.001816079    1.613    0.380
        17 -11.9453     59.1812     15.9553   5.4886544453e+01   6.8431929570e+01    0.4279355    0.3228262  35.29  0.002256445    1.250    0.200
        18 -11.7972     46.6379     13.0251   6.0157924593e+01   7.1372184611e+01    0.3021739     0.276229  37.74  0.001415759    1.179    0.151
        19 -13.8545     41.7752      4.3162   5.7454939555e+01   7.3683995994e+01    0.7398903    0.6017774  13.11   0.00350792    1.164    0.141
        20 -10.8229    123.4768     11.0829   3.2105234731e+01   5.2852859939e+01    0.2040131    0.1468566 -23.84  0.000472552    1.502    0.334
        21 -11.3825     74.8940      8.2166   4.3424326269e+01   6.5958131463e+01    0.4134951    0.2079795 -15.76  0.001276981    2.519    0.603
        22 -12.0394    153.0091      8.7274   2.6770071259e+01   4.5054469854e+01     0.299175    0.2317315  54.48  0.001191314    1.298    0.230
        23 -10.9204     59.4188      7.5229   4.9588888518e+01   6.9637827884e+01    0.2480164    0.1136043  41.80 0.0007699331    2.081    0.519
        24 -12.2066    120.1774      3.6208   2.9533829805e+01   5.4476844428e+01    0.4037185    0.2337949  86.41   0.00174314    1.852    0.460
        25 -10.9539     66.8216      4.0295   4.4042705756e+01   6.8399035404e+01    0.2070746    0.1903481 -77.35 0.0008166449    1.316    0.240
        26 -11.4028    232.8023      1.8122   1.8491851783e+01   2.6625522312e+01    0.2644337      0.15864  73.00  0.001413988    1.797    0.444
        27 -11.6874     61.0822      1.5541   4.4892478391e+01   7.0029802509e+01    0.4453008    0.1546872  57.74  0.001598752    2.841    0.648
        28 -11.0718    169.6133      1.6170   2.2656597158e+01   4.1323333151e+01    0.2766263    0.1129797  70.06    0.0011427    2.227    0.551
        29 -11.4376     81.5574      1.5033   3.7290488475e+01   6.5037796256e+01    0.5252902    0.1029118  60.20  0.001532139    3.838    0.739
        30 -12.7875    198.1327    181.0583   6.3357824812e+01   1.0422213926e+01    0.3120669    0.3022055 -89.10    0.0021741    1.780    0.438
        31 -12.9347    107.5146    246.6218   9.0373826565e+01   1.3298431442e+01    0.5720878    0.4061648  59.18  0.004013495    1.754    0.430
        32 -13.5218     98.2546    239.0741   9.1646424972e+01   1.5478850524e+01    0.7306749     0.364291  30.58   0.00431176    1.457    0.314
        33 -14.1001     92.0871    230.8967   9.2270408766e+01   1.7463275969e+01    0.5359175    0.4442823  22.25  0.003936814    1.177    0.150
        34 -12.1241     51.2530    248.8131   1.0203662740e+02   1.9089616939e+01    0.2795096    0.2259522  71.60  0.002270922    1.405    0.288
        35 -12.5981      2.8237    248.8971   1.1160739778e+02   2.3345630799e+01    0.3919401    0.2467323  62.10  0.002734406    1.354    0.262
        36 -13.4445      9.5284    245.7307   1.1026375484e+02   2.3317400088e+01    0.6323837    0.2815627  49.69  0.003365863    1.550    0.355
        37 -11.9018    155.8183    185.1837   7.2568019243e+01   1.6142574562e+01    0.1867619    0.1366542   6.36 0.0009643512    1.347    0.258
        38 -12.8499    124.0326    166.7400   7.6989930679e+01   2.4347320323e+01    0.5513351    0.3875091 -79.16  0.002701171    2.305    0.566
        39 -11.9912     25.6253    158.9356   1.0342040226e+02   3.8711345740e+01    0.3328783     0.210669   3.80  0.001768986    1.976    0.494
        40 -12.0916     77.1256    156.9622   8.8205474238e+01   3.3447217951e+01    0.4179679    0.2594272  23.34  0.001477126    1.606    0.377
        41 -13.4991     73.3534    153.3057   8.8822636648e+01   3.4777088126e+01    0.7542856     0.458208  25.98  0.003068159    1.581    0.368
        42 -12.7018    209.2945    154.4724   5.6471689590e+01   1.2344660152e+01    0.5275242    0.3189025  28.37  0.002956712    1.559    0.359
        43 -11.5352     85.9319    152.9654   8.5102193505e+01   3.3090784516e+01    0.4304229    0.2000874 -44.75  0.001749187    2.638    0.621
        44 -11.6151    103.3750    149.9736   7.9664564674e+01   3.1063497102e+01     0.348352    0.2373204 -28.87  0.001666806    1.882    0.469
        45 -11.9590      7.3381    144.9071   1.0809930132e+02   4.3301343776e+01    0.3896028     0.274153 -36.95  0.002282239    1.796    0.443
        46 -12.6416     60.7490    147.3073   9.1852838993e+01   3.7780758073e+01    0.4606879    0.2872217  13.51  0.002192666    1.876    0.467
        47 -12.2896     45.3926    134.2009   9.5199390452e+01   4.2690124085e+01    0.4083322    0.2876756 -70.21  0.002182336    1.444    0.307
        48 -12.8849    246.7501    133.8492   4.6576464619e+01   9.2945649708e+00    0.3455741    0.2986742  -2.64  0.002532686    1.167    0.143
        49 -14.3650    233.5157    128.3051   4.7339024729e+01   1.1981660856e+01    0.8826914    0.5255491 -32.79  0.005095438    1.533    0.348
        50 -12.2784    136.0317    132.5405   6.7499158768e+01   2.8917247857e+01    0.4931303    0.1700609  39.90   0.00170545    2.685    0.628
        51 -11.9017    134.9997    125.9962   6.6331522275e+01   3.0409157055e+01    0.3451825    0.2165178 -46.98  0.001026711    1.727    0.421
        52 -14.2531    106.4146    121.3779   7.3295584313e+01   3.6799970900e+01     1.664636     1.072458  29.67   0.00753498    1.554    0.356
        53 -13.4105     82.6077    113.8655   7.9305637876e+01   4.2671946913e+01      1.15663    0.8170995  35.10  0.005579676    1.342    0.255
        54 -14.5351    105.4404    105.6059   6.9944566580e+01   4.0503883265e+01     1.310774     1.253517 -26.23  0.005889285    1.093    0.085
        55 -13.3548     95.5793    110.4933   7.4256374431e+01   4.1238095718e+01    0.8797008    0.7136903 -88.54  0.003824619    1.515    0.340
        56 -12.5858     28.2488    122.0926   9.9794320629e+01   4.7330600076e+01    0.3201279    0.2770403 -75.61  0.001931658    1.148    0.129
        57 -11.5737    181.4976    120.6833   5.4528822316e+01   2.2239635544e+01    0.2462671    0.1231561  45.05 0.0009078727    1.995    0.499
        58 -11.9570      4.1975    119.7309   1.0804675711e+02   4.9525187540e+01    0.5295302    0.1750565   9.78  0.002059129    3.520    0.716
        59 -12.6491     42.2322     90.6248   9.0120456061e+01   5.4075561458e+01    0.3069569    0.2700501 -71.42  0.000375981    1.110    0.099
        60 -12.4844     36.6744     92.9616   9.2888030002e+01   5.4040746680e+01    0.5317088    0.3496009  -2.53  0.001475694    1.885    0.469
        61 -14.2941     17.9504    110.4650   1.0249987722e+02   5.1044061395e+01    0.9635393    0.7503902 -74.51  0.004514364    1.223    0.182
        62 -14.0781     11.1380    103.3802   1.0454242465e+02   5.3261534565e+01    0.7699298    0.5796565  46.93  0.004489951    1.292    0.226
        63 -13.4070      2.2844     97.4686   1.0764257992e+02   5.5181123866e+01    0.7902082    0.3033699 -89.48  0.003130019    2.442    0.591
        64 -14.6219     22.9140     95.0690   9.8990336571e+01   5.4656854052e+01      1.41927     1.050092  22.89  0.007825016    1.407    0.289
        65 -12.1415    121.4594    112.3194   6.6815867872e+01   3.5883869222e+01    0.3285977    0.2770758  52.40  0.001129812    1.222    0.182
        66 -12.1131     63.0340    110.5017   8.5552488405e+01   4.6443486674e+01     0.546418    0.3534211  57.36  0.002505229    1.714    0.417
        67 -12.0634    169.9157    107.5823   5.3762962682e+01   2.6732359993e+01    0.3728128    0.2402243 -52.49  0.001703309    1.934    0.483
        68 -11.2480     42.2691    107.0893   9.2806482708e+01   4.9830490464e+01    0.3258757    0.1863974  11.25  0.001434071    2.085    0.520
        69 -12.6000    134.3388    102.9135   6.0925008126e+01   3.5145569545e+01     1.210476     0.313017  47.84  0.003329593    4.057    0.753
        70 -13.6205    120.7036    102.0042   6.4441739687e+01   3.8210194778e+01    0.7327127     0.399961  35.08  0.002939477    1.888    0.470
        71 -12.2831     49.2604     93.6655   8.7735814981e+01   5.2491109920e+01    0.4683533    0.2903626  47.98  0.001744285    1.675    0.403
        72 -12.1562     51.0974     98.8974   8.7975844991e+01   5.0929606021e+01     0.704445    0.3664619 -17.60  0.002304057    3.976    0.749
        73 -11.6535     46.1586     98.8371   8.9949215816e+01   5.1525510387e+01    0.3026019    0.2434529 -83.48  0.001288129    1.267    0.211
        74 -11.7655    249.6081     99.7982   3.9260575058e+01   1.2921755806e+01    0.1770773   0.08943181 -35.81   0.00095425    1.712    0.416
        75 -12.0127     60.9130     97.8110   8.3873136209e+01   4.9923811271e+01    0.4475496    0.2934257  61.31  0.002010115    1.811    0.448
        76 -11.2733    163.2190     97.4045   5.2593762087e+01   2.9900754964e+01    0.2072142    0.1407093  58.79 0.0009550676    1.675    0.403
        77 -13.3090    136.1768     95.5104   5.8470590140e+01   3.6202192717e+01     0.563783    0.4330312  39.48  0.002753737    1.260    0.206
        78 -10.8517     81.3518     93.3348   7.5043997629e+01   4.7812300955e+01     0.160417    0.1191057 -13.48 0.0007045864    1.786    0.440
        79 -13.2180     29.5808     89.4141   9.5388471452e+01   5.5604928440e+01     1.071703    0.4524603  59.74  0.003816836    3.269    0.694
        80 -11.7237     35.6445     86.7835   9.2301973319e+01   5.5741998939e+01    0.3238657    0.2532519  49.81 0.0009564295    1.310    0.236
        81 -13.2410    188.3092     84.3232   4.4355298062e+01   2.6544594728e+01    0.7017823    0.3109463  40.55  0.002754421    2.611    0.617
        82 -12.9514    237.6020     80.5330   3.6475757298e+01   1.7278790230e+01    0.3560177    0.2710192 -75.52  0.002155446    1.836    0.455
        83 -14.0415    164.2385     71.7853   4.5310357564e+01   3.3937198716e+01     1.250507     1.034464  64.98  0.006564579    1.279    0.218
        84 -14.0014    160.9644     80.8341   4.8564760870e+01   3.3227959236e+01     1.914162    0.9241184  25.18  0.004950626    5.877    0.830
        85 -14.4661    169.3324     77.0682   4.5829588996e+01   3.1906543737e+01     1.538303    0.4570341  52.78  0.005006556    3.267    0.694
        86 -13.4363     65.4957     52.4771   6.9035132593e+01   6.0137388838e+01     1.357569    0.7882473 -33.97  0.005673897    2.004    0.501
        87 -13.4659     54.0972     67.9720   7.9531203857e+01   5.8341510145e+01     1.927778    0.7835517  29.35   0.00713027    2.506    0.601
        88 -13.3057     91.6349     57.9919   6.0284617448e+01   5.3719427561e+01    0.5544732    0.5347534  76.79  0.002335129    1.110    0.099
        89 -13.4344     87.2975     65.2154   6.4465891652e+01   5.3129247546e+01     1.066506    0.6875256   6.93  0.003944863    2.749    0.636
        90 -12.9770     54.6899     82.0608   8.2937887915e+01   5.4751550286e+01    0.6065214    0.4658268 -80.85  0.003042159    1.445    0.308
        91 -14.0719     61.1444     75.8040   7.8522900225e+01   5.5382801459e+01    0.7324418    0.5511997 -35.59  0.001216669    1.431    0.301
        92 -13.1868     71.3495     75.0015   7.3947806259e+01   5.3925624886e+01    0.6236763    0.4515109  -5.25  0.002532639    1.874    0.466
        93 -12.3209     77.1496     73.3060   7.1069810926e+01   5.3294736024e+01    0.6379871    0.3587557 -33.51  0.001739074    2.273    0.560
        94 -12.0616     47.4244     81.6899   8.6055833260e+01   5.5777167103e+01    0.3688967    0.2686151 -75.97  0.001394941    1.448    0.310
        95 -13.6014    213.0957     78.2848   3.9038822113e+01   2.2223107424e+01     0.882628    0.5589006  79.29  0.004284812    2.386    0.581
        96 -12.6789    218.6076     74.2610   3.7329724367e+01   2.1648732878e+01    0.3098863    0.2491685  88.37  0.001411456    1.583    0.368
        97 -12.1857    214.9527     71.4975   3.7126896871e+01   2.2738315084e+01    0.3185099    0.2373309  40.01  0.001444969    1.483    0.326
        98 -12.8026    135.6383     79.7418   5.4096441382e+01   3.9333957974e+01    0.7238514    0.3790509  49.82  0.002365023    1.862    0.463
        99 -12.0504    113.8284     80.1286   6.0302454275e+01   4.4254136233e+01    0.4107952    0.3585461 -29.29 0.0008882739    1.207    0.172
       100 -11.4632     41.5252     76.4842   8.7608847761e+01   5.7791725111e+01    0.2738069    0.2029289 -66.63 0.0007534026    1.320    0.242
       101 -12.7758     28.4190    245.6483   1.0652197184e+02   2.1731663413e+01    0.4018447    0.2174473  44.65  0.002796285    1.286    0.222
       102 -14.0592      4.8634     63.5057   1.0384973446e+02   6.3784950458e+01    0.6842242     0.632466  -3.85  0.003817247    1.189    0.159
       103 -11.5826     26.5202     75.2488   9.4535475451e+01   5.9535099187e+01    0.4982689    0.2354257  62.55  0.001896831    2.929    0.659
       104 -13.8140    199.0441     69.9519   3.8919528429e+01   2.6280659098e+01    0.7826672     0.480001  44.25  0.003100282    1.765    0.434
       105 -12.8615    199.7886     61.7313   3.6658586570e+01   2.7223483618e+01    0.3681913    0.2951517 -26.68  0.001361539    1.181    0.153
       106 -12.6805    134.2900     66.4496   5.0297465436e+01   4.2070779924e+01    0.6531602    0.4526663  39.70  0.002041951    1.482    0.325
       107 -12.1478     31.4898     63.1454   8.9603838447e+01   6.2221636638e+01    0.6172999    0.3339154 -84.01   0.00259249    2.302    0.566
       108 -11.9166     24.7472     59.3488   9.2401374969e+01   6.3764839103e+01    0.4781899     0.309085 -64.79   0.00174218    1.429    0.300
       109 -10.9695    100.0005     65.5129   6.0010221226e+01   5.0338071139e+01    0.2435064    0.1496605  45.40 0.0007303742    1.570    0.363
       110 -13.6604    177.9258     57.2515   3.8656761030e+01   3.2850375953e+01     0.904272    0.5790345 -41.51  0.003284607    1.519    0.342
       111 -12.6953     79.2479     60.6887   6.6047435115e+01   5.5737420058e+01    0.5680456    0.5102127 -78.96  0.002825002    1.283    0.220
       112 -13.1097     82.2469     54.4624   6.2552572493e+01   5.6452372275e+01    0.7241091    0.5583185  24.29  0.003176769    1.404    0.288
       113 -14.5939    119.7818     54.6005   5.0066405296e+01   4.7727169765e+01       1.1221     0.690657  43.30  0.004804186    1.619    0.383
       114 -11.0143     39.0459     60.0961   8.4840104922e+01   6.2213393281e+01    0.2965967    0.1708572  54.74  0.001261226    2.235    0.553
       115 -12.0839    247.6697     54.0109   2.9475017971e+01   1.8533626032e+01    0.4341896    0.2270157 -43.86  0.002393933    1.704    0.413
       116 -12.2977    248.8575     48.8275   2.8213888238e+01   1.8881992083e+01    0.3311968    0.2368645 -25.33   0.00214009    1.218    0.179
       117 -11.3841     17.7706     55.3918   9.5522355509e+01   6.5260401426e+01    0.3449936    0.1844581 -76.54  0.001597875    1.839    0.456
       118 -13.6374    102.6965     50.3425   5.3582797110e+01   5.2657676442e+01      1.10822    0.5670317 -53.23  0.003178495    2.584    0.613
       119 -13.0970     97.8547     50.5601   5.5274995878e+01   5.3761574197e+01    0.6329176    0.3843053 -51.59  0.001999009    1.914    0.477
       120 -11.7618     37.4551     52.4225   8.3508471273e+01   6.4286716538e+01    0.5004625    0.2622882 -33.71    0.0020709    2.260    0.558
       121 -11.9596    135.8389     49.9336   4.4381349141e+01   4.4440671914e+01    0.4573353    0.2776691  35.38  0.001709646    1.957    0.489
       122 -10.7891     23.5807     50.2329   9.0973178578e+01   6.6157653042e+01    0.1913688    0.1120246 -53.93  0.000443187    1.530    0.347
       123 -13.2499    157.3321     44.2646   3.8143859848e+01   3.9755636712e+01    0.9542902    0.4603488  43.37  0.003690304    2.357    0.576
       124 -13.7949    171.1887    242.9563   7.7470628666e+01   6.1492633662e+00    0.7072687    0.3976162  16.10  0.004531071    1.491    0.329
       125 -13.9405     26.2523    226.7391   1.0634840062e+02   2.5061843323e+01    0.7114618    0.3852884 -58.41  0.004412325    2.502    0.600
       126 -13.7370     20.4627    224.1855   1.0750866120e+02   2.6010432668e+01     0.810275    0.4514701 -62.32  0.005164142    2.345    0.574
       127 -12.2775     14.2897    222.7108   1.0879132136e+02   2.6785440927e+01    0.3833333    0.2466215  59.01  0.001698816    1.286    0.222
       128 -11.9218    238.2641    230.2503   6.4234095133e+01  -1.4747768543e-01    0.1503135   0.06825648  36.84 0.0009010468    2.421    0.587
       129 -13.9606     64.8526    223.5580   9.7706594208e+01   2.1786096110e+01    0.9577138    0.5173579  41.02  0.005779228    1.387    0.279
       130 -12.9939    139.6665     21.5531   3.3347911663e+01   4.7305814124e+01    0.9417794    0.2776316  63.82  0.002131074    2.962    0.662
       131 -14.1627    120.9234     37.0815   4.3200839764e+01   5.0268438447e+01      1.49746    0.5945981  52.59  0.005118654    2.296    0.564
       132 -12.2607    109.6616     42.0255   4.8179709790e+01   5.2389093847e+01    0.5591041    0.2092772  52.19  0.001531005    2.467    0.595
       133 -12.4291     75.7831     37.1548   5.8052079127e+01   6.1236161487e+01    0.4567332      0.25731  44.33  0.001069574    1.704    0.413
       134 -13.1142    242.6188     35.2135   2.5632574372e+01   2.1482023685e+01    0.5641599    0.4669012  38.72  0.003121321    1.486    0.327
       135 -13.0454     59.4755    212.9718   9.8211556011e+01   2.4239529455e+01    0.3274388    0.2283831 -56.51  0.001223099    1.823    0.452
       136 -11.1329     34.8863     34.8375   7.8950592571e+01   6.8746432041e+01    0.2096666    0.1974309 -14.97 0.0005128323    1.036    0.035
       137 -12.8619     45.0805     33.4709   7.2003283991e+01   6.7663236364e+01    0.8422635    0.5121803  36.40  0.004013107    1.650    0.394
       138 -14.0169     64.1820    214.5193   9.7229837032e+01   2.3443880491e+01    0.5954043    0.3166114  46.28  0.003430725    1.537    0.349
       139 -12.6443     94.3744    218.3510   9.0644574732e+01   1.9224926939e+01    0.2447573    0.1732949  39.97  0.001268271    1.152    0.132
       140 -11.9845      3.9615    212.3000   1.1079703654e+02   2.9465796004e+01    0.3317099    0.1386162  79.20  0.001868599    2.357    0.576
       141 -12.0978    147.4978    239.0211   8.1561670055e+01   9.5089341236e+00    0.1378938    0.1123541 -34.30  0.001034752    1.598    0.374
       142 -13.5874    216.4915     28.0536   2.6017848623e+01   2.7551110477e+01    0.5813767    0.3383606 -54.93  0.002316113    1.687    0.407
       143 -11.0196    136.6773    211.3158   8.0476023447e+01   1.4819665968e+01    0.1201253   0.08334774  49.07 0.0005206082    1.663    0.399
       144 -11.6470     70.4837     36.4579   6.0059961113e+01   6.2483372897e+01    0.3010882    0.2884717 -28.82  0.000797087    1.090    0.083
       145 -13.2654     55.3695     27.2177   6.3089834164e+01   6.7202364844e+01    0.7217806    0.4275507  43.69  0.002436707    1.692    0.409
       146 -12.2812     63.2786     25.3262   5.8019631989e+01   6.6008287607e+01    0.6044161    0.4065065   7.38  0.002508077    2.068    0.516
       147 -11.4674     31.0511     25.4914   7.7558327731e+01   7.1291984440e+01    0.3483649    0.2093734   6.03  0.001496582    2.000    0.500
       148 -11.5264     36.2071     23.2020   7.2827224335e+01   7.1116107113e+01    0.3433996    0.2311669 -36.95  0.001771407    1.441    0.306
       149 -11.3445     45.9645     21.2263   6.5379610454e+01   7.0008095240e+01    0.2975664    0.2527619  47.69  0.001189225    1.329    0.248
       150 -11.9385     50.9616     20.3973   6.1922511566e+01   6.9282177231e+01    0.4879648     0.222549  51.18  0.001854018    2.780    0.640
       151 -13.1117    223.5353     20.6844   2.3607555232e+01   2.6797339725e+01    0.3579337    0.2840347  18.89  0.001628486    1.613    0.380
       152 -11.7700     72.5893    207.0703   9.4682568094e+01   2.3834570290e+01    0.2582714    0.2035974  57.02  0.001722834    1.244    0.196
       153 -12.4021     57.6275    203.4211   9.7979548024e+01   2.6212427575e+01    0.5139761    0.2512883  78.67  0.002483147    2.826    0.646
       154 -12.0613     41.1488    206.4639   1.0210447920e+02   2.7346226316e+01    0.2340102    0.1262741  66.84  0.001325359    1.895    0.472
       155 -13.6257     15.4432    197.1667   1.0779784590e+02   3.1446692117e+01    0.5940839    0.4163433 -74.88  0.004008969    1.632    0.387
       156 -13.1915     38.6748    194.9563   1.0205985172e+02   2.9820939204e+01    0.5293249    0.2863946  41.96  0.003029683    1.433    0.302
       157 -12.5174     22.4691    166.3622   1.0472580808e+02   3.7308717237e+01    0.2890403    0.2175627  23.05 0.0003987555    1.338    0.252
       158 -13.6375     30.2213    169.2189   1.0274795059e+02   3.6009351172e+01    0.8546379    0.5238211 -32.89  0.003544365    2.394    0.582
       159 -13.7848     22.1673    181.1006   1.0551726203e+02   3.4156042665e+01    0.8411247     0.412624 -58.98  0.004392635    2.417    0.586
       160 -15.2340      8.3206    183.4243   1.0911384495e+02   3.4759605787e+01     1.157457    0.9791958  57.38  0.008445496    1.083    0.077
       161 -15.3296     16.0682    174.8048   1.0683761900e+02   3.5984287247e+01      2.23779    0.8343886  51.44   0.01072275    2.174    0.540
       162 -12.1114    163.9920    195.2829   7.2414331692e+01   1.3384981131e+01    0.2167408    0.1704655 -83.85  0.001189987    2.726    0.633
       163 -12.0816    200.9079    191.9561   6.4681784058e+01   8.6049238302e+00    0.2832549    0.2023989  -6.51  0.001437154    1.248    0.199
       164 -13.0598      3.9457     43.4702   1.0184910797e+02   6.8898184470e+01    0.5541306    0.3779976 -10.62  0.003115815    1.564    0.361
       165 -11.1530     79.7610    192.8495   9.1631423981e+01   2.5640324738e+01    0.3697194   0.08232811  37.02  0.001344613    3.045    0.672
       166 -12.4581     97.5016    188.0016   8.6665215067e+01   2.4235778211e+01    0.2244864    0.1527134  31.90  0.001265657    1.214    0.177
       167 -12.1663     11.7615     43.6722   9.6844766214e+01   6.8549343070e+01    0.4372581    0.2431877 -24.53  0.002054848    1.922    0.480
       168 -12.0294     48.9627    181.9515   9.8575193813e+01   3.1429751976e+01    0.3297357    0.2368811 -58.57  0.001986575    1.640    0.390
