#   1 NUMBER                 Running object number                                     
#   2 MAG_AUTO               Kron-like elliptical aperture magnitude                    [mag]
#   3 X_IMAGE                Object position along x                                    [pixel]
#   4 Y_IMAGE                Object position along y                                    [pixel]
#   5 X_WORLD                Barycenter position along world x axis                     [deg]
#   6 Y_WORLD                Barycenter position along world y axis                     [deg]
#   7 A_WORLD                Profile RMS along major axis (world units)                 [deg]
#   8 B_WORLD                Profile RMS along minor axis (world units)                 [deg]
#   9 THETA_WORLD            Position angle (CCW/world-x)                               [deg]
#  10 FWHM_WORLD             FWHM assuming a gaussian core                              [deg]
#  11 ELONGATION             A_IMAGE/B_IMAGE                                           
#  12 ELLIPTICITY            1 - B_IMAGE/A_IMAGE                                       
         1 -16.1498    235.1721     94.4204   2.8077075235e+01   1.3612103389e+01     4.760649     2.646806 -37.49   0.02178505    1.627    0.385
         2 -10.3980     63.2837     48.5731   5.5791618932e+01   5.9640552632e+01    0.4137852    0.1439374 -34.00  0.001465995    3.356    0.702
         3 -10.9835     40.8500     13.9961   5.0669926388e+01   6.8189979127e+01    0.1938097     0.144113   8.10 0.0003200312    1.170    0.145
         4 -10.5497     85.0000    226.9978   8.5238074086e+01   1.6636046032e+01    0.1831962   0.06729372 -64.96 0.0008000291    2.926    0.658
         5 -10.6360    161.9937    225.0582   6.9536428875e+01   4.5105856966e+00    0.3416843    0.2261896  13.32  0.001713517    2.087    0.521
         6 -10.1084     99.1029    225.0031   8.2225331332e+01   1.4908236622e+01    0.1957149    0.1619708  60.91 0.0005981585    1.007    0.007
         7 -10.9318    126.2049    220.4594   7.6152756955e+01   1.1417465891e+01    0.2393485    0.1925033  75.62 0.0007126173    1.317    0.241
         8  -9.8981     74.5027    219.4818   8.6556194953e+01   1.9621388961e+01     0.126632    0.1000969  67.93 0.0008102391    1.029    0.028
         9 -10.1855    143.8049    216.8306   7.2008368079e+01   9.0936302622e+00    0.1858217    0.1486921  65.88  0.001075656    1.336    0.252
        10  -9.3430     24.4755    215.4618   9.5860252426e+01   2.6609388128e+01    0.1162116   0.08450702  74.64 0.0001815076    1.022    0.022
        11 -10.3712     76.5705    212.2458   8.5394260914e+01   2.0802889653e+01    0.2345969    0.1164623 -73.43  0.001148985    2.126    0.530
        12  -9.9741    116.9763    210.4968   7.6726028611e+01   1.4884548207e+01     0.201535   0.09375338  57.32 0.0008100904    2.542    0.607
        13 -11.4778    165.6201    203.0153   6.5250869293e+01   7.7433409670e+00    0.3927705    0.2801086  81.78  0.001788292    2.295    0.564
        14 -10.2523    149.1205    198.2427   6.7952451110e+01   1.1665924889e+01    0.2623403    0.1844036 -86.90  0.001232826    2.145    0.534
        15 -12.3617    178.1200    197.1482   6.1609406781e+01   6.5138268941e+00    0.3147363    0.3051185 -50.72  0.001934519    1.178    0.151
        16 -10.7576    124.9533    197.0554   7.3043093422e+01   1.6247985763e+01    0.3694441    0.1808519  42.60  0.001626443    1.854    0.461
        17 -11.9070    162.9742    194.0756   6.4250008916e+01   9.9047679604e+00    0.3752495    0.2727245  68.97  0.001635613    1.815    0.449
        18  -9.6460     66.3235    194.0023   8.5569543841e+01   2.6127231477e+01    0.2120123   0.09193468  88.29 0.0007046221    4.260    0.765
        19 -10.2229    112.8253    194.1675   7.5296608259e+01   1.8948251651e+01    0.2348172    0.1662211 -38.82 0.0004101812    1.823    0.452
        20 -10.4392    139.1140    188.7316   6.8538068117e+01   1.5418802858e+01     0.250733    0.1973124 -69.24  0.001326464    1.431    0.301
        21 -10.2755    165.9876    186.9707   6.2307554726e+01   1.0703134885e+01    0.2301934    0.1769513  75.33   0.00113784    1.748    0.428
        22 -10.6408    120.3333    184.2130   7.2036547404e+01   1.9786378949e+01    0.3526902    0.1338253 -64.87  0.001094818    4.152    0.759
        23 -10.2052    109.0234    185.0354   7.4769122535e+01   2.1573005125e+01    0.2356162    0.1600783  74.49  0.001119439    1.734    0.423
        24 -10.9289     94.8467    182.7987   7.7706213959e+01   2.4413081221e+01    0.3804816     0.228245 -70.16  0.001833846    1.743    0.426
        25 -10.4256    174.6375    183.3645   5.9767011238e+01   9.7365451862e+00    0.2173977    0.1758182  77.72 0.0009629789    1.645    0.392
        26  -9.6575     74.3249    183.6440   8.2547389082e+01   2.7330381078e+01    0.1459415   0.08953992  71.84 0.0007045625    1.770    0.435
        27 -11.3905      1.9598    180.9526   9.7968754874e+01   3.5982012809e+01    0.3043682    0.1262418 -61.69  0.001622003    2.296    0.564
        28 -10.4598    137.9770    178.7596   6.7036974886e+01   1.7726370242e+01    0.2641751    0.1908536 -71.48  0.001198487    1.654    0.395
        29 -11.0269     77.4917    175.1566   8.0679257650e+01   2.8819304819e+01    0.3795868    0.1996895  85.44  0.001489895    2.887    0.654
        30 -10.8102    147.8283    179.7495   6.4975513763e+01   1.5641322802e+01    0.2724461    0.1935214 -84.86  0.001230575    2.045    0.511
        31 -10.9142    177.1846    170.6803   5.6697018174e+01   1.1700012805e+01    0.3043071     0.237748 -78.43  0.001347288    1.791    0.442
        32 -11.2237    121.6061    167.8881   6.8901562630e+01   2.3178139885e+01    0.5910696    0.3152909 -65.30  0.002377201    2.272    0.560
        33 -10.0901    168.3386    168.8414   5.8250480357e+01   1.3845002829e+01    0.2879818    0.1360706 -53.54  0.001070261    2.542    0.607
        34 -11.5718    139.1733    163.7206   6.3901701376e+01   2.0762767344e+01    0.6370762    0.2900517 -60.31  0.002225396    2.899    0.655
        35 -10.0063     98.6619    165.3385   7.4045542805e+01   2.7800247231e+01    0.1544386    0.1046256  74.43 0.0007050956    1.759    0.431
        36 -10.6029     79.7862    163.4151   7.8403842605e+01   3.1234374554e+01    0.5233123    0.2542456 -89.26  0.001654742    4.314    0.768
        37 -11.9398    145.1847    160.7721   6.1884085916e+01   2.0217878205e+01    0.6074913    0.3927276 -86.68  0.001787741    2.815    0.645
        38 -10.4644     15.2548    163.6324   9.3851344023e+01   3.8717188284e+01    0.1333943    0.1171881  20.79 0.0008322012    1.565    0.361
        39 -10.9495    205.8804    161.7892   4.8872221013e+01   7.6510825502e+00    0.2740896    0.1920317 -64.14  0.001239379    2.098    0.523
        40 -10.9071    177.8999    160.2782   5.4354981019e+01   1.3624192940e+01    0.4287724    0.2101264 -49.70  0.001663749    2.240    0.554
        41  -9.6218    178.4684    155.4730   5.3185875756e+01   1.4474290160e+01    0.1506811    0.1435941   7.36 0.0001874472    1.039    0.037
        42 -10.5423     92.6759    159.1982   7.4492921580e+01   3.0231012682e+01    0.3630519    0.2190825 -75.33  0.001516193    1.888    0.470
        43 -11.3980    197.0727    157.1895   4.9642263935e+01   1.0284022952e+01    0.3277716    0.2109094 -44.90  0.001303783    1.591    0.372
        44 -11.2101    188.7369    156.6929   5.1259426929e+01   1.2094302452e+01    0.4106464    0.2550688 -49.34  0.001609821    1.735    0.424
        45  -9.7636    128.3217    158.6504   6.5506949873e+01   2.4008370021e+01    0.1581737    0.1160866  80.87 0.0007048671    1.744    0.427
        46 -10.2166    105.6573    157.6802   7.0950899209e+01   2.8402463518e+01    0.2987854    0.1773046 -81.27  0.001177581    2.451    0.592
        47 -10.8465    167.7176    156.3560   5.5754420007e+01   1.6540076155e+01    0.3987102    0.2083886 -50.82  0.001579754    2.072    0.517
        48  -9.9602    157.8575    155.5719   5.7829620334e+01   1.8757313362e+01    0.3078529    0.2046973 -64.54  0.001315973    1.908    0.476
        49 -10.2793    119.8201    155.1328   6.6909974596e+01   2.6430469690e+01    0.3726424     0.206961 -80.10  0.001201592    3.672    0.728
        50 -11.7771    204.8435    154.2645   4.7434133912e+01   9.2517948123e+00    0.3269328    0.1993964 -38.00  0.001242671    1.604    0.377
        51 -10.2133     49.3411    154.4734   8.4726834119e+01   3.7421710416e+01    0.3103087    0.1611327  75.99  0.001322269    2.568    0.611
        52 -10.5730     95.3552    154.0783   7.2912417155e+01   3.1009950194e+01    0.2219318    0.2001138  28.02 0.0004519747    1.272    0.214
        53 -10.4110     81.8417    154.1548   7.6397150769e+01   3.3136607401e+01    0.2317929    0.1801466  78.06  0.001135506    1.327    0.246
        54 -10.9086     68.0199    153.2145   7.9799398981e+01   3.5356906630e+01    0.3657673    0.2416569  78.95  0.001585081    1.715    0.417
        55 -10.5729    133.0591    152.0649   6.3000441852e+01   2.4579791232e+01    0.4231733    0.2646185 -69.54  0.001728949    2.101    0.524
        56 -12.6595    189.1640    148.6159   4.9367487497e+01   1.3592639453e+01    0.8016754    0.3246317 -45.43  0.002855146    2.531    0.605
        57 -12.3519    193.1779    135.4941   4.5490333614e+01   1.5317335392e+01    0.6520719    0.3531978 -19.61  0.002178481    3.230    0.690
        58 -11.9062    188.8242    135.2374   4.6331563176e+01   1.6321650192e+01    0.6739804    0.2147169 -45.20  0.002074515    3.211    0.689
        59 -11.8526    200.2001    148.2622   4.7018786877e+01   1.1340992079e+01    0.3325125    0.2416588 -48.66  0.001187457    1.449    0.310
        60 -10.4782     38.8744    146.7371   8.6369068867e+01   4.0430612374e+01    0.2668402    0.1451633  81.39  0.001242058    2.174    0.540
        61 -11.5228    148.8279    143.0671   5.7190755383e+01   2.3369562544e+01    0.8345827     0.374734 -55.86  0.002848119    2.723    0.633
        62 -11.1605    107.2781    144.7223   6.8030511655e+01   3.1180782774e+01    0.5607061     0.333788  74.34  0.002062403    2.864    0.651
        63 -10.9760     55.5639    144.4582   8.1705660602e+01   3.9089078297e+01    0.4962086    0.2654079 -89.67  0.002102132    2.445    0.591
        64 -10.8115    165.7957    142.8411   5.3161422899e+01   1.9789845131e+01    0.4344935    0.1792666 -45.05  0.001519201    2.436    0.590
        65 -11.0927    124.6977    141.5490   6.2848083593e+01   2.8646752364e+01    0.6648029    0.3321795 -67.35  0.002168175    3.255    0.693
        66 -10.7183     87.9039    143.3042   7.2881078210e+01   3.4811084193e+01    0.3339496    0.2031596 -76.86  0.001430291    1.959    0.489
        67 -10.5771    182.1747    141.2793   4.9166312486e+01   1.6560146718e+01    0.2940152     0.201423 -67.14  0.001229928    2.049    0.512
        68 -10.8704     23.2901    137.7906   8.9278815420e+01   4.4044982659e+01    0.3915395    0.1722742  80.94  0.001541574    3.329    0.700
        69 -11.8680    197.7556    137.0825   4.4933503770e+01   1.4012750941e+01    0.4301102    0.2313031 -44.42  0.001765458    1.846    0.458
        70 -10.9000    172.1585    136.9883   5.0353470695e+01   1.9633700547e+01    0.4118763    0.2382943 -62.98  0.001495739    2.599    0.615
        71 -10.5646    162.5703    135.3410   5.2142814007e+01   2.2090216259e+01    0.3088588    0.1498662 -48.62  0.001139989    2.128    0.530
        72 -10.4016     38.7172    135.1658   8.4845434120e+01   4.3225727510e+01    0.2194128    0.1461872 -89.25   0.00119212    1.481    0.325
        73 -10.1447     17.0863    244.7996   9.8803028082e+01   2.1765908176e+01    0.1676689   0.09871139  65.73  0.000592236    1.228    0.186
        74 -10.4492    172.7700    120.1222   4.6078876030e+01   2.2999903873e+01    0.4128147    0.1972951 -49.88  0.001482289    2.271    0.560
        75 -10.4876    158.5269    119.9701   4.9297658344e+01   2.6281507611e+01    0.4763904    0.2218176 -45.14  0.001731014    2.134    0.531
        76 -11.8566    141.6902    117.1398   5.2678771620e+01   3.0657536047e+01    0.8689809    0.3461418 -51.61  0.002807988    2.805    0.644
        77 -10.8422     70.8103    118.6707   7.2815234101e+01   4.3358128751e+01    0.4067687     0.188907 -65.69  0.001602993    2.298    0.565
        78 -11.1807    130.6324    117.4988   5.5615559400e+01   3.2960450872e+01    0.5250602     0.301794 -64.20  0.001937806    2.399    0.583
        79 -10.8130      2.5376    114.9265   9.2180895922e+01   5.0896280526e+01    0.6694254    0.2076194 -85.66  0.002229987    4.693    0.787
        80 -11.8264    186.0384    115.1335   4.1965706415e+01   2.0948709874e+01    0.5146391    0.2236906 -41.78  0.001850102    2.231    0.552
        81 -11.8209    109.0824    111.9858   6.0087601961e+01   3.8568942258e+01    0.9002689    0.3622327 -54.62  0.003057119    2.675    0.626
        82 -11.8128    192.5821    129.3256   4.4135917298e+01   1.6662252113e+01    0.3837279    0.2921662 -34.54   0.00169886    1.297    0.229
        83 -12.2015    193.0174    114.0166   4.0262817629e+01   1.9556855302e+01    0.4898719    0.2201067 -43.71  0.001801263    2.170    0.539
        84 -12.3153    189.4491    106.5324   3.9064160979e+01   2.1831951410e+01    0.5647137    0.2081299 -45.14  0.001848837    2.735    0.634
        85 -11.6237     92.3927    109.7545   6.4366490032e+01   4.2117922250e+01    0.9203652    0.3109647 -55.16  0.002991996    3.025    0.669
        86 -11.1132    174.8081    110.4283   4.3136691006e+01   2.4502842046e+01     0.451978    0.2120575 -44.76  0.001655399    2.116    0.527
        87 -11.2496    159.2723    110.5723   4.6681263798e+01   2.8095798344e+01    0.4792176    0.2111724 -42.42    0.0016928    2.242    0.554
        88 -11.1715    122.2147    110.7732   5.6128475520e+01   3.6232970171e+01    0.4980907    0.2546162 -50.70  0.001922574    1.964    0.491
        89 -11.2794     66.2519    108.7541   7.2066368460e+01   4.6365916499e+01    0.6070813    0.2421405 -63.35  0.002230237    2.686    0.628
        90 -11.1369     14.0721    109.4480   8.8171507461e+01   5.1442148212e+01    0.4079684    0.2197031 -85.22   0.00211819    1.870    0.465
        91 -11.1659    182.8838    108.1298   4.0819367648e+01   2.3064039106e+01     0.341705    0.1994732 -43.38  0.001408775    1.674    0.403
        92 -10.4884    133.2067    108.5449   5.2603383115e+01   3.4401619882e+01    0.3101319     0.220359 -46.86  0.001371102    1.387    0.279
        93 -11.2075    168.8290    128.7113   4.9104601207e+01   2.2106650115e+01    0.4878606    0.2140065 -49.63  0.001685806    2.471    0.595
        94 -11.6490    139.5463    102.9957   4.9457904981e+01   3.4203128735e+01    0.6010778    0.2682498 -47.01  0.002137791    2.261    0.558
        95 -11.9124     44.6633    100.7268   7.7166739889e+01   5.0865036774e+01    0.8047215    0.4383013  83.88  0.002972761    3.844    0.740
        96 -10.5839     43.7935     92.3948   7.5670378160e+01   5.2897042746e+01    0.2268364    0.1375306 -36.03  0.001148216    1.730    0.422
        97 -11.7593     22.4555    101.5905   8.4409333342e+01   5.2672478378e+01    0.7004063    0.3404777  81.23  0.002691401    3.864    0.741
        98 -11.8392    149.9795    100.5890   4.6194809302e+01   3.2327427406e+01    0.8735639    0.2893722 -45.82   0.00265645    3.087    0.676
        99 -10.9593    152.8208    127.7088   5.2595780870e+01   2.5886746981e+01    0.5534543    0.2193787 -48.36  0.001842802    2.597    0.615
       100 -11.1481    166.6977    102.1468   4.2722671014e+01   2.8081330788e+01    0.4875731     0.183047 -39.94  0.001592917    2.640    0.621
       101 -11.6081    128.5425    100.2191   5.1565914588e+01   3.7224640427e+01      0.57289    0.2968328 -41.06  0.002223797    1.931    0.482
       102 -10.2770      6.4183    102.2195   8.9454952794e+01   5.3601236569e+01    0.1768547   0.09601355 -81.89 0.0009536216    1.699    0.411
       103 -11.1211    175.8398    100.4698   4.0275179749e+01   2.6235842571e+01    0.3254173    0.2124351 -22.36  0.001330143    1.923    0.480
       104 -11.2717    159.6745     99.3246   4.3548333570e+01   3.0313598194e+01    0.4558747     0.141383 -42.06  0.001355626    3.159    0.683
       105 -11.5269     81.8677     97.9033   6.4580078841e+01   4.6606624672e+01    0.6257329    0.1999325 -53.83  0.002063775    3.039    0.671
       106 -12.1814     99.0872    124.9401   6.6016930869e+01   3.7360565874e+01    0.9769867    0.3787678 -56.20  0.003407088    2.595    0.615
       107 -10.6918     72.8177    127.9441   7.4102625067e+01   4.0825933779e+01    0.4295619    0.1835879 -65.42  0.001624481    2.467    0.595
       108 -11.2687    164.8836     93.3045   4.0696412891e+01   3.0265229395e+01    0.3862808    0.1953731 -46.74  0.001454286    2.031    0.508
       109 -11.7231    176.9720     92.0261   3.7745450236e+01   2.7588234818e+01    0.3438731    0.2155681 -38.37  0.001471095    1.576    0.366
       110 -10.0217     57.9008     92.0664   7.0870904353e+01   5.1357223237e+01    0.1971373    0.1743971 -82.98  0.001165979    1.262    0.208
       111 -12.3357    108.4643     96.2893   5.6076149630e+01   4.2230507496e+01    0.8649214    0.4648336 -55.28  0.003428841    2.052    0.513
       112 -12.0073    124.7141     87.9794   4.9086284191e+01   4.0637688983e+01    0.7919003    0.3499634 -37.15  0.002818127    2.409    0.585
       113 -11.1616     34.7298     86.6308   7.7482374453e+01   5.5103169403e+01    0.8159495    0.2072893 -58.51  0.003005119    2.983    0.665
       114 -10.9833      4.3322     90.1693   8.8359589303e+01   5.6465296475e+01    0.3005847    0.1559137  87.31  0.001496714    2.400    0.583
       115 -11.3765      7.0073     84.9927   8.6648291493e+01   5.7487057257e+01     0.425945    0.0755417 -47.16  0.001493591    4.195    0.762
       116 -11.2659     95.1013     94.3535   5.9523095489e+01   4.5167583836e+01    0.7132207    0.2900723 -41.89   0.00256448    2.487    0.598
       117 -12.1547     63.2752     93.0003   6.9318904482e+01   5.0450243763e+01    0.9405007    0.3275397 -58.34  0.003366316    2.860    0.650
       118 -11.3091    138.7002     90.3357   4.6090393012e+01   3.7031492436e+01    0.5333256    0.2705858 -43.87  0.002052401    1.960    0.490
       119 -11.6007     85.9020     85.5887   5.9924519184e+01   4.8696440152e+01    0.4587384    0.3229831 -68.83  0.002023503    1.833    0.454
       120 -11.4986     86.3296     81.3151   5.8534038472e+01   4.9542350034e+01    0.4714033    0.2835503   9.05  0.001800923    2.964    0.663
       121 -10.6816     12.7022    128.7464   9.1002386549e+01   4.7016177995e+01     0.261792    0.1217093  83.99  0.001183361    2.558    0.609
       122 -11.4644     78.5431    110.7603   6.8759648403e+01   4.4121139976e+01    0.7550781    0.3410561 -68.32  0.002535128    3.323    0.699
       123 -12.2396     48.2148     81.3219   7.1510006827e+01   5.4930822807e+01     0.783946    0.2624114 -56.80  0.003023832    2.636    0.621
       124 -11.1371    179.6276    132.6009   4.7658645809e+01   1.8887164229e+01    0.4827152     0.218806 -48.38   0.00173057    2.342    0.573
       125 -10.5577    170.6116     82.1687   3.6320811020e+01   3.0979545002e+01    0.2244644    0.1495067 -25.58 0.0009545688    1.722    0.419
       126 -10.8428    158.5634     81.7107   3.8803256082e+01   3.4011908134e+01    0.3070745    0.1547415 -33.22  0.001147235    2.131    0.531
       127 -10.9493     24.4002     80.0682   7.9678376281e+01   5.7450776574e+01    0.3788049    0.2037624 -81.55  0.001710372    2.557    0.609
       128 -11.9276     26.6880     72.4153   7.7115096132e+01   5.8959585080e+01     0.766331    0.2665484 -31.38  0.002429985    5.407    0.815
       129 -10.5467     74.1717     78.2178   6.1636174921e+01   5.2171627815e+01     0.550458    0.1714223 -51.82  0.001840099    3.201    0.688
       130 -10.4372    112.8533    132.5753   6.3962724731e+01   3.3033329843e+01    0.3168513     0.204516 -71.29   0.00132583    1.933    0.483
       131 -10.8306    143.0003    129.9813   5.5551980225e+01   2.7521063133e+01    0.5468999    0.2252074 -50.16  0.001859481    2.518    0.603
       132 -11.6284    117.6439    124.0153   6.0688863633e+01   3.4117180914e+01    0.6668735    0.3430219 -64.19  0.002338168    2.694    0.629
       133 -10.1801    157.5748     75.2182   3.7113470008e+01   3.5446313473e+01    0.2188579    0.1511151 -24.06 0.0009545198    1.663    0.399
       134 -11.4258    128.2184     72.6100   4.3437427369e+01   4.2883585580e+01    0.6511849    0.2766908 -33.32  0.002273854    2.630    0.620
       135 -10.9661    140.4942     73.5134   4.0590455014e+01   3.9873556778e+01     0.332554    0.1512563 -37.65  0.001225901    2.217    0.549
       136 -11.6678     62.4721     69.9628   6.3238118669e+01   5.5607726193e+01    0.8360423   0.09946565 -47.76  0.002044217    6.263    0.840
       137 -10.3961     10.0393     74.4819   8.3682645585e+01   5.9651209596e+01    0.1462436    0.1180183   5.13 0.0003260324    1.507    0.336
       138 -11.1140    131.7815    129.7892   5.8342737668e+01   2.9929142484e+01    0.6634333    0.3103651 -58.60  0.002262389    2.691    0.628
       139 -11.3007     81.9970     71.5175   5.6947365447e+01   5.2310537276e+01    0.4169415    0.2558127 -54.38  0.001930689    1.791    0.442
       140 -11.5170     82.5039     65.8677   5.4949841146e+01   5.3348823255e+01    0.5020316    0.2756928 -21.67  0.001966357    2.693    0.629
       141 -11.5212    180.1451    123.3502   4.5279111336e+01   2.0655162893e+01    0.5051521    0.2351519 -39.24  0.001858774    2.141    0.533
       142 -10.9530    119.3367     78.7458   4.7774221211e+01   4.3665707411e+01    0.4326126    0.2039548 -40.65  0.001655263    2.097    0.523
       143 -11.7836    104.4754     80.7690   5.2708048844e+01   4.6320321167e+01    0.7550412     0.284419 -45.15  0.002650507    2.587    0.613
       144 -10.5113    163.1415     70.2467   3.4432545125e+01   3.4953672221e+01    0.3000834    0.1865922 -19.43  0.001210888    2.108    0.526
       145 -11.3738    140.8686     81.6190   4.2966622706e+01   3.8256815623e+01    0.4076278    0.2137916 -41.59  0.001605765    1.898    0.473
       146 -11.1925     94.7649     68.1860   5.1711274682e+01   5.0699655927e+01    0.7189657    0.1846268 -43.78  0.002162092    3.789    0.736
       147 -10.1042      5.6681     70.4966   8.4496006535e+01   6.0758979655e+01    0.2227408   0.08767619 -65.23  0.001091782    1.995    0.499
       148 -11.2234     50.9057     66.8690   6.6542502369e+01   5.7734171851e+01    0.6865364    0.1852311 -56.53  0.002101375    4.509    0.778
       149 -11.1147     17.8032     63.2521   7.8295425911e+01   6.1587701930e+01    0.4751859   0.04261244 -48.16  0.001496349    4.690    0.787
       150 -11.4229     58.6697    121.4598   7.6949403232e+01   4.4294077400e+01    0.8840691    0.3532259 -73.93  0.002832455    3.925    0.745
       151 -10.2100    115.5803     70.6888   4.6283304496e+01   4.6029837628e+01     0.300934    0.1437398 -35.21  0.001151171    2.181    0.542
       152 -10.7448    147.0892     65.7372   3.6604226088e+01   3.9678339562e+01    0.4483177    0.2224837 -22.63  0.001548394    2.910    0.656
       153 -11.4968    188.8769    122.8588   4.3315918760e+01   1.8770481820e+01    0.4332013    0.2037951 -46.00  0.001608322    2.147    0.534
       154 -10.8992    138.5438     64.7598   3.8321941055e+01   4.1900248875e+01    0.3769274    0.1435045 -38.68  0.001304896    2.618    0.618
       155 -11.7086     43.0703    120.5882   8.1362157586e+01   4.6292975675e+01    0.8319867    0.3485692 -81.09  0.002810721    3.909    0.744
       156 -10.4463    100.0801     57.0228   4.6266268763e+01   5.1729359374e+01    0.5328412    0.1763272 -37.81    0.0018284    3.012    0.668
       157 -10.4884    121.7610     63.6831   4.2282256846e+01   4.5961410341e+01    0.5323309    0.1995306 -33.03  0.001777394    2.992    0.666
       158 -11.2838      7.3238     56.1805   8.0766156946e+01   6.3708635978e+01     0.292878    0.1463691 -72.31    0.0015117    2.208    0.547
       159 -10.7535    109.7184     61.3569   4.4880651885e+01   4.8986791551e+01     0.447671    0.1749241 -34.28  0.001581696    2.738    0.635
       160 -10.1409     25.4919     55.9844   7.3301735898e+01   6.2522453882e+01      0.19147   0.06656034 -40.31 0.0008100588    2.569    0.611
       161 -10.0526    140.0000     54.4709   3.4659975718e+01   4.3261730964e+01    0.3274865   0.08506759 -33.91 0.0009393813    3.972    0.748
       162 -11.1857    150.2462     78.9506   3.9899198381e+01   3.6539543700e+01    0.3876646    0.2102704 -40.88  0.001553199    1.838    0.456
       163 -11.8958     45.2277     49.6170   6.3234603397e+01   6.1829609585e+01    0.4600214    0.1903377 -40.46 0.0006103323    2.116    0.527
       164 -10.0767     92.6391    230.3186   8.4084979847e+01   1.4873502553e+01    0.1355268   0.07778235  64.85 0.0007042782    1.766    0.434
       165 -11.0254     29.1175    121.6242   8.5553894335e+01   4.7388300532e+01    0.6008433    0.2145017 -77.32   0.00219753    3.314    0.698
       166 -10.4164     30.5299     50.5305   6.9589250053e+01   6.3178087958e+01    0.2197437    0.1124183 -63.16  0.001036575    2.436    0.590
       167  -9.6340    130.3185     46.3284   3.4244414338e+01   4.6827563449e+01    0.1529854    0.1088112  21.37 0.0004907182    1.683    0.406
       168 -10.1584     82.0000     45.0510   4.7756671318e+01   5.7187054791e+01    0.3716222   0.07363727 -38.72  0.001048453    4.908    0.796
       169 -10.9014     92.0041     47.5423   4.5390576402e+01   5.4920372383e+01    0.6646176     0.172785 -38.55  0.002124208    3.764    0.734
       170  -9.5433     23.6575     46.6958   7.1301354224e+01   6.4519269724e+01    0.1288332   0.07313307 -28.32 0.0007040582    1.683    0.406
       171 -10.3331    113.4093     42.8186   3.7341995032e+01   5.1217843212e+01    0.4404651    0.2429795  -2.94  0.001541211    3.530    0.717
       172 -10.0282    123.0058     41.4790   3.4363496716e+01   4.9243975335e+01    0.3034334    0.1689356  12.81  0.001038841    3.572    0.720
       173 -11.3421      4.7855     40.0050   7.7631200236e+01   6.7084356006e+01    0.4217068    0.1460919 -66.07   0.00174288    3.582    0.721
       174 -11.1636     73.2526     55.6511   5.4673082848e+01   5.6820313173e+01    0.7726745    0.2105563 -40.31  0.002553779    3.543    0.718
       175  -9.9202     83.8158     40.3840   4.5361939552e+01   5.7603859957e+01    0.1984252    0.1159799  31.84 0.0009460844    1.762    0.432
       176 -10.1886     36.6683     39.4928   6.3223195535e+01   6.4647479985e+01    0.2271785   0.09856227 -46.66  0.001098126    2.018    0.505
       177 -10.5323     16.8201     42.3256   7.2926248098e+01   6.5885697933e+01    0.4613999   0.06173124 -49.40  0.001646005    3.863    0.741
       178 -10.3369     53.3959     48.4039   5.9545278203e+01   6.1046395852e+01    0.3421746   0.09535026 -40.26  0.001209722    3.360    0.702
       179 -11.7668     83.2051    129.0953   7.1385833335e+01   3.8995335640e+01    0.9191867    0.2783336 -59.46  0.002901114    3.355    0.702
       180 -10.0762     12.9532     21.2204   6.7323914651e+01   6.9969955815e+01    0.1326595   0.08433907  14.26 0.0005748158    1.657    0.397
