#   1 NUMBER                 Running object number                                     
#   2 MAG_AUTO               Kron-like elliptical aperture magnitude                    [mag]
#   3 X_IMAGE                Object position along x                                    [pixel]
#   4 Y_IMAGE                Object position along y                                    [pixel]
#   5 X_WORLD                Barycenter position along world x axis                     [deg]
#   6 Y_WORLD                Barycenter position along world y axis                     [deg]
#   7 A_WORLD                Profile RMS along major axis (world units)                 [deg]
#   8 B_WORLD                Profile RMS along minor axis (world units)                 [deg]
#   9 THETA_WORLD            Position angle (CCW/world-x)                               [deg]
#  10 FWHM_WORLD             FWHM assuming a gaussian core                              [deg]
#  11 ELONGATION             A_IMAGE/B_IMAGE                                           
#  12 ELLIPTICITY            1 - B_IMAGE/A_IMAGE                                       
         1 -16.1097    131.2568     25.0291   2.9049945389e+02   6.6808740466e+00    0.5773249    0.3125004 -86.26   0.04562113    3.130    0.681
         2 -18.0995    236.3921     43.5299   2.8941143530e+02   5.8354457332e+00    0.4455173    0.1833543 -56.81   0.03606197    2.288    0.563
         3 -14.1883    162.9475     82.2447   2.9049108653e+02   5.8372684027e+00    0.1427657   0.07083721 -78.12   0.01119279    3.039    0.671
         4 -11.3830    206.8520     24.1286   2.8962866404e+02   6.2350853902e+00    0.0212859  0.007740798 -58.72  0.001677384    2.598    0.615
         5 -10.7449     92.2034     21.5838   2.9092563911e+02   6.9551434872e+00   0.01975481   0.01148071 -66.80  0.000819587    1.816    0.449
         6  -9.7667     79.5208     10.8215   2.9100439286e+02   7.1540781875e+00   0.02440038  0.006311116 -61.22  0.001604144    3.769    0.735
         7 -11.9554    203.2425     10.9898   2.8958838882e+02   6.4065965327e+00   0.01528776  0.007963847 -47.85  0.001198522    1.920    0.479
         8 -10.0149    164.3786      8.6684   2.9001868605e+02   6.6677117905e+00   0.01009419  0.007787606 -50.94 0.0003622817    1.276    0.216
         9 -10.0464    219.4350     12.2061   2.8941079135e+02   6.2948642447e+00  0.006918242  0.006383103 -59.89 0.0002420352    1.078    0.072
        10 -11.1795    242.5473      4.2463   2.8909722924e+02   6.2457013664e+00   0.01240951  0.007552354   1.61  0.001113874    2.325    0.570
        11 -10.4980    211.0505    179.0078   2.9053969354e+02   4.4428105892e+00   0.02351752   0.01039906  45.29  0.001929568    2.508    0.601
        12 -12.4865    246.4746    248.4468   2.9056413976e+02   3.4368165970e+00   0.04856367    0.0439419  29.27  0.005960074    1.110    0.099
        13 -11.2504    237.2093    249.6673   2.9067731482e+02   3.4786657931e+00   0.02462672   0.01644433  32.93  0.001966628    1.483    0.326
        14  -9.5429    194.5125    250.5057   2.9116955718e+02   3.7260048262e+00  0.006498705   0.00642188 -36.77 -4.735046e-05    1.002    0.002
        15  -8.5789    187.3686    179.1836   2.9081124139e+02   4.5834473944e+00  0.009191091  0.006309734 -75.85 0.0006934866    1.645    0.392
        16 -10.0927    220.7309    176.1868   2.9041174262e+02   4.4166793475e+00   0.01963318   0.01201147 -75.88  0.001684485    1.949    0.487
        17 -11.1831    216.5180    169.4667   2.9041831494e+02   4.5187843563e+00   0.04065341   0.01287818  40.51  0.002952569    3.164    0.684
        18  -8.2081    101.0296    176.0116   2.9177864337e+02   5.1388397217e+00  0.007342851  0.007041957 -56.07 0.0009071087    1.034    0.033
        19  -9.9301    229.1478    172.9083   2.9029540189e+02   4.4033660675e+00   0.02127992  0.009580837  33.66  0.001488292    2.137    0.532
        20 -11.4892    190.5285    170.8692   2.9072379899e+02   4.6593606002e+00   0.03827846   0.01146016  44.39  0.002495507    4.020    0.751
        21 -11.2512    180.4719    165.4605   2.9080528901e+02   4.7816853848e+00   0.02953314   0.01368236  49.22  0.002160777    2.636    0.621
        22  -8.6572    236.5213    172.4566   2.9020845290e+02   4.3640660869e+00  0.006461426  0.006432637 -36.00 0.0001063864    1.007    0.007
        23  -9.9963    195.3326    167.7448   2.9064962079e+02   4.6660977209e+00   0.01912498  0.007588978  44.25  0.001013323    2.775    0.640
        24  -9.8688    202.7423    166.5276   2.9055746631e+02   4.6353539134e+00   0.01905085  0.009414013  53.27  0.001429585    2.693    0.629
        25 -10.9732    204.0027    161.6534   2.9051295071e+02   4.6834070200e+00    0.0219612   0.01388861 -88.15   0.00166205    2.179    0.541
        26 -12.1486     54.8090    160.7218   2.9221334751e+02   5.5908006502e+00   0.02072057   0.01688289 -28.82 0.0009254593    1.320    0.242
        27 -14.3082     65.3621    152.2851   2.9204058818e+02   5.6239644243e+00    0.1021805   0.06822907 -25.41  0.009035788    1.852    0.460
        28 -12.2429    226.8952    247.9019   2.9078405700e+02   3.5608965899e+00   0.02887741   0.01816897  39.49  0.002953158    1.593    0.372
        29 -11.0775    134.8105    108.7280   2.9097687057e+02   5.7043927681e+00   0.05553874  0.009895415 -61.74  0.003009593    5.609    0.822
        30  -9.9731    132.1372     98.0836   2.9094165360e+02   5.8420103071e+00    0.0154967     0.010176  49.97 0.0004429036    1.670    0.401
        31  -8.8348     99.3121    131.9621   2.9152665582e+02   5.6524406086e+00  0.009152477  0.008173979 -54.46 0.0003969308    1.105    0.095
        32 -14.3237    209.3111     65.8493   2.8985931786e+02   5.7446276046e+00   0.05137312   0.03062427  58.30  0.003983237    2.166    0.538
        33  -9.7227     70.0983    243.9426   2.9255016413e+02   4.5479822874e+00   0.00988506  0.009423246 -35.21 0.0004091762    1.050    0.047
        34  -9.6271    124.2123    123.4662   2.9118922340e+02   5.5998404852e+00   0.02139837   0.01150318 -89.42  0.001606455    3.461    0.711
        35  -9.9278    121.0875    118.1687   2.9119225834e+02   5.6791309784e+00   0.01684696   0.00998441 -76.79 0.0008970121    2.078    0.519
        36 -10.2421    141.5188    122.5152   2.9098533194e+02   5.5065959893e+00   0.01843291   0.01071852  85.45  0.001517415    2.888    0.654
        37  -9.9996    114.9473     94.7275   2.9111768091e+02   5.9837272764e+00   0.01556411   0.01134375  88.15 0.0009770578    1.692    0.409
        38 -10.9270    118.6635     93.0079   2.9106450285e+02   5.9810134963e+00   0.03748601   0.02126691  89.67  0.003061413    2.947    0.661
        39 -10.2467    127.0669    111.7689   2.9108428260e+02   5.7162558423e+00   0.02845268   0.01245257 -70.24  0.001714161    2.853    0.650
        40  -9.2326    127.4876    104.5031   2.9103455850e+02   5.7966903015e+00   0.01687571    0.0102962 -55.43  0.001041826    1.587    0.370
        41 -11.0988    123.1567    102.6703   2.9107280043e+02   5.8436677017e+00   0.02534602   0.01774065 -82.10  0.002075382    1.699    0.411
        42 -11.4411    118.4281    101.3963   2.9111905413e+02   5.8866522422e+00   0.03683066   0.02532467  -3.94  0.002984171    1.861    0.463
        43 -10.5333    118.0385    109.7361   2.9117505530e+02   5.7937634672e+00    0.0119765   0.00963046 -63.01 0.0007093464    1.244    0.196
        44 -11.8196    214.5456    241.6484   2.9088638010e+02   3.7066061124e+00   0.01945481   0.01284963 -26.41  0.001862815    1.871    0.466
        45 -12.2411    153.5631     97.4311   2.9069243626e+02   5.7204775189e+00   0.04638939   0.02586277 -71.90  0.004271036    2.082    0.520
        46 -11.6760    150.1432     87.9309   2.9067278617e+02   5.8495124054e+00   0.01776084   0.01162151 -54.16  0.000720961    1.487    0.327
        47 -11.2933    134.3440    123.6229   2.9107426100e+02   5.5371135862e+00   0.05556281   0.02460899 -73.17  0.004194693    3.158    0.683
        48 -10.7868    172.1827     84.7278   2.9040081436e+02   5.7532704028e+00   0.01143713   0.01114421  17.64 0.0002875666    1.032    0.031
        49 -11.1711    146.0974    149.0028   2.9109658722e+02   5.1765447384e+00   0.04710366   0.02388834  72.58  0.002896203    5.335    0.813
        50  -9.3531    202.7340     80.1759   2.9002328131e+02   5.6209280364e+00   0.01302607  0.008952626  55.34 0.0007930676    1.664    0.399
        51 -12.4298    194.4569     71.6155   2.9006486910e+02   5.7685257945e+00   0.03888556   0.03159134  81.86  0.002547851    1.417    0.295
        52 -11.0503    145.3656    102.4550   2.9081730467e+02   5.7124865918e+00   0.03105133   0.01417089  30.64  0.001844027    2.139    0.532
        53  -9.1207    207.2388     74.7499   2.8993816853e+02   5.6556290726e+00   0.01345177   0.01106233 -46.81  0.001505694    1.209    0.173
        54  -9.9660     79.4134     74.6784   2.9140074966e+02   6.4261376472e+00   0.01247633  0.006581794 -68.07  0.001119739    2.076    0.518
        55 -10.5797    133.7065    146.6330   2.9122366676e+02   5.2781432268e+00   0.05074776   0.01428385 -67.53  0.002854104    5.439    0.816
        56  -9.7737    184.1143     66.1253   2.9014912340e+02   5.8935533721e+00   0.01458468  0.009667624 -69.30  0.001354628    1.605    0.377
        57  -9.5808    133.9677    136.8434   2.9116023152e+02   5.3883888441e+00   0.01680059  0.009340192  19.29  0.001157096    2.023    0.506
        58 -11.5725    159.0802    144.9904   2.9092335210e+02   5.1442407781e+00   0.02135081   0.01386301  41.37  0.001965273    1.562    0.360
        59  -9.0965    196.2205     62.1224   2.8998587364e+02   5.8661572415e+00  0.008322612  0.006937939 -84.43 0.0003896726    1.314    0.239
        60  -8.6816    215.9764     56.4256   2.8972470948e+02   5.8118284505e+00   0.01189104  0.008508923  85.99  0.001219894    1.769    0.435
        61 -10.5973    156.2911    138.6609   2.9091614069e+02   5.2333114716e+00   0.01700647   0.01036537  69.56  0.001511328    2.439    0.590
        62 -11.6780    137.6620     93.1880   2.9084814432e+02   5.8646509386e+00    0.0312212   0.01889315  30.18  0.001876666    1.640    0.390
        63 -10.2358    139.3162    105.4041   2.9090476102e+02   5.7152296049e+00   0.01982396   0.01483157  63.21  0.001380987    1.559    0.359
        64  -9.2239     54.4054     36.6409   2.9145224335e+02   7.0103362997e+00   0.01212663  0.006546611 -68.20 0.0008278058    2.024    0.506
        65  -9.3830     54.9956     41.1744   2.9147351301e+02   6.9550685698e+00   0.01330677  0.008886831 -61.09 0.0006973007    1.485    0.326
        66  -9.7659     57.7716     36.5706   2.9141320370e+02   6.9909485815e+00   0.02455182   0.01107241 -65.00  0.001943581    2.346    0.574
        67 -12.1124    182.0903     38.8217   2.9000303019e+02   6.2171362744e+00   0.01730103   0.01004502 -64.98 0.0007758924    1.776    0.437
        68  -9.1529    195.7002     39.7228   2.8985294136e+02   6.1247066792e+00  0.006630891  0.004959291 -24.68 0.0005419027    1.538    0.350
        69  -8.5177    207.3974     33.3609   2.8967971682e+02   6.1265769973e+00    0.0063058  0.006217997  15.62 8.845508e-05    1.019    0.019
        70  -9.7918     57.3843     30.6360   2.9138093264e+02   7.0609778934e+00   0.01157106  0.009775306 -68.73 0.0005196051    1.209    0.173
        71  -8.3516     47.7804    222.9758   2.9267654904e+02   4.9213097230e+00  0.008502825  0.005306609 -60.81 0.0003324432    1.582    0.368
        72  -9.5123    177.5162     25.7713   2.8997442509e+02   6.3935137841e+00  0.007612648  0.006391642 -56.64 0.0003644976    1.175    0.149
        73  -8.9012    171.1770     24.8760   2.9004141767e+02   6.4419721214e+00  0.008509602  0.007009128 -38.91  0.000372528    1.243    0.196
        74 -10.8505    200.4388     23.9382   2.8970082133e+02   6.2759997908e+00   0.01015918   0.00886126  27.49 0.0003100074    1.152    0.132
        75 -10.5842    191.6570    192.4147   2.9084393929e+02   4.4065354650e+00   0.04978567   0.02358153 -87.62  0.002726399    6.602    0.849
        76  -9.7953     78.8785     19.1779   2.9106351386e+02   7.0626473737e+00   0.01441449  0.008849674 -55.53 0.0009652689    1.579    0.367
        77 -14.0638     15.1752    178.5198   2.9277648485e+02   5.6245978269e+00    0.1169747   0.08875851  89.35   0.01277248    1.563    0.360
        78 -13.6720     29.6333    176.0529   2.9259583859e+02   5.5663169788e+00   0.04873979   0.04589421  56.94  0.003800594    1.096    0.087
        79  -9.7287    213.7678    186.0035   2.9055188086e+02   4.3465710248e+00  0.008914625  0.008801844 -40.96 0.0004262077    1.002    0.002
        80  -9.1312    209.0322    186.0201   2.9060604963e+02   4.3749110603e+00   0.01060333  0.007709941  64.66 0.0005061126    1.649    0.393
