#   1 NUMBER                 Running object number                                     
#   2 MAG_AUTO               Kron-like elliptical aperture magnitude                    [mag]
#   3 X_IMAGE                Object position along x                                    [pixel]
#   4 Y_IMAGE                Object position along y                                    [pixel]
#   5 X_WORLD                Barycenter position along world x axis                     [deg]
#   6 Y_WORLD                Barycenter position along world y axis                     [deg]
#   7 A_WORLD                Profile RMS along major axis (world units)                 [deg]
#   8 B_WORLD                Profile RMS along minor axis (world units)                 [deg]
#   9 THETA_WORLD            Position angle (CCW/world-x)                               [deg]
#  10 FWHM_WORLD             FWHM assuming a gaussian core                              [deg]
#  11 ELONGATION             A_IMAGE/B_IMAGE                                           
#  12 ELLIPTICITY            1 - B_IMAGE/A_IMAGE                                       
         1  -8.4106    111.9298     34.7437   2.9591316622e+01   5.2706171371e+01    0.2815318    0.1776947 -55.87 0.0009060351    2.071    0.517
         2  -8.2027     30.0214     15.9604   5.3751597402e+01   7.1600326309e+01    0.1700973    0.1561008 -72.74 0.0005549494    1.609    0.379
         3  -8.1551     17.1493     14.1196   6.0966012475e+01   7.3361986458e+01    0.1497859    0.1410983 -45.54 0.0003997422    1.343    0.255
         4  -8.0231     47.5311     10.0031   4.0753345934e+01   6.9912120473e+01    0.1914982    0.1180254 -31.11 0.0006645873    1.569    0.363
         5  -8.2466     90.7886      8.8047   2.3871086682e+01   6.1044621814e+01    0.1804724    0.1635225 -71.17 0.0004735004    1.330    0.248
         6  -7.5930    101.3378      7.7253   2.0653054800e+01   5.8587720863e+01    0.1365142    0.1062874 -72.17 0.0003757828    1.609    0.378
         7  -8.2236     70.2133      6.1822   2.8971943875e+01   6.5981528986e+01    0.1722821    0.1564158 -43.44 0.0005738751    1.339    0.253
         8  -8.3518     33.1746      4.3374   4.5052980913e+01   7.3010578953e+01     0.225739    0.1582571 -54.61   0.00122462    2.278    0.561
         9  -8.6375     79.2184      3.6102   2.4608539914e+01   6.4256926787e+01    0.2628793    0.1520534 -36.98  0.001041189    1.942    0.485
        10  -8.5192     55.9020     10.0422   3.6852024788e+01   6.8401499151e+01    0.1856999    0.1761504 -42.21 0.0005638009    1.350    0.259
        11  -8.1235     62.3090      1.3784   2.9158551504e+01   6.8153885122e+01    0.1651772    0.1206342  58.70 0.0003195567    1.510    0.338
        12 -10.0396    223.9631    243.8638   5.5347112288e+01  -3.9698296297e+00    0.3665407    0.2023046 -39.54  0.002293531    2.529    0.605
        13  -8.6632    248.5161    249.3198   5.2173099559e+01  -7.4779539933e+00    0.2547604    0.1336951   2.98  0.001637415    1.843    0.457
        14  -9.8500    248.6700    241.8904   5.1061149808e+01  -6.8019749723e+00    0.3618256    0.1813463 -31.90  0.001762201    2.252    0.556
        15  -8.5324    248.0772    234.1489   4.9987158417e+01  -5.9810128071e+00     0.183253     0.115871  -6.29 0.0008226916    1.347    0.258
        16  -9.7309    246.7830    228.2025   4.9272095699e+01  -5.2257675696e+00    0.4789012    0.1859249 -25.25  0.002479176    2.615    0.618
        17  -9.2099    146.9279    245.4327   6.9363173957e+01   6.3886817542e+00    0.2273511    0.1999718 -74.35  0.001028527    1.637    0.389
        18  -8.5921    146.4721    239.5804   6.8760510673e+01   7.2656885982e+00     0.252428    0.1692426  67.97 0.0008896453    2.467    0.595
        19  -9.2913    120.2369    245.2733   7.4441944765e+01   1.0168939754e+01    0.2861015    0.1805957  66.04  0.001398967    2.120    0.528
        20  -8.0822    139.5992    244.7587   7.0677231205e+01   7.5209184058e+00    0.1303865    0.1116528 -86.56 0.0008511411    1.660    0.398
        21  -9.4460     78.2616    243.3473   8.2372248949e+01   1.6083606194e+01    0.3758892    0.1424786  56.31  0.001768853    2.829    0.647
        22  -8.4582     67.4220    244.7532   8.4548164908e+01   1.7202777061e+01    0.1253134    0.1022424 -66.49 0.0009425632    1.576    0.366
        23  -9.0035    201.9621    242.9298   5.8974586874e+01  -9.8601134277e-01    0.2373189     0.150472 -41.40  0.001055616    2.175    0.540
        24  -8.7733    169.1983    243.0883   6.4905838849e+01   3.5380739314e+00    0.2119964    0.1696921  48.51 0.0007200068    1.477    0.323
        25  -7.8441     58.3074    244.6238   8.6265295648e+01   1.8316766367e+01    0.1203202   0.05957159  59.14 0.0007029259    1.777    0.437
        26  -9.5863    183.2672    239.6855   6.1870840501e+01   1.9774555307e+00    0.3342323    0.3233095  79.92  0.002175674    1.635    0.388
        27  -9.4635    160.1400    240.2023   6.6233864659e+01   5.2095585052e+00    0.2810195     0.220991 -88.26  0.001261381    2.300    0.565
        28  -8.0553    153.5843    241.8350   6.7675808535e+01   5.9303004955e+00    0.1300231    0.1140167 -79.57 0.0009340253    1.702    0.413
        29  -8.0934     88.2597    242.0135   8.0331343454e+01   1.5009660969e+01    0.1512302    0.1226008  62.13 0.0005578815    1.188    0.159
        30  -8.2608    214.1840    241.1925   5.6614197050e+01  -2.4215285364e+00    0.1434267    0.1136334  28.51 0.0009265769    1.342    0.255
        31  -9.1961    241.8938    237.7469   5.1515896606e+01  -5.5857258899e+00    0.4817726    0.2096351  -4.75  0.002073523    4.220    0.763
        32  -8.9787    193.9950    239.3008   5.9879560048e+01   5.2423120046e-01    0.1649722    0.1162175  25.89 0.0005040058    1.078    0.072
        33  -8.9408    135.4615    238.4946   7.0761624975e+01   9.0104380659e+00    0.1918264    0.1310834  56.04 6.232083e-05    1.625    0.385
        34  -9.2761    231.3591    236.2889   5.3009260823e+01  -4.1232157170e+00     0.336856    0.2068895 -25.28  0.001860225    1.703    0.413
        35  -8.4580    209.0552    238.0692   5.7048934730e+01  -1.3924156305e+00    0.1490203    0.1304841  41.11  0.000641846    1.651    0.394
        36  -8.2678    129.2578    238.4502   7.1966103988e+01   9.9086744912e+00    0.1713432   0.08610788  43.87 0.0007119177    1.615    0.381
        37  -8.4602     26.0007    236.7252   9.1898213763e+01   2.3215871390e+01    0.2889083   0.07867763  56.52  0.001361564    2.950    0.661
        38  -7.9256     13.6637    237.7151   9.4198451910e+01   2.4259175581e+01    0.0824581   0.08056492  -6.60 0.0002726711    1.626    0.385
        39  -8.6597    217.3106    235.6771   5.5277210302e+01  -2.2300837554e+00    0.1901567    0.1542453  34.38  0.000567687    1.505    0.335
        40  -9.3828    213.6712    231.5253   5.5286345951e+01  -1.2742650943e+00    0.2443939    0.2151964  59.13  0.001279751    2.043    0.511
        41  -9.0906    203.1947    234.3216   5.7533780425e+01  -1.6104822373e-01    0.2736532    0.1879136 -47.27   0.00118627    2.283    0.562
        42  -9.7984    175.6643    233.1420   6.2383623116e+01   3.9002158103e+00     0.372871    0.2512489 -58.20  0.002218015    2.521    0.603
        43  -7.7950    170.2878    235.6398   6.3730508989e+01   4.3517304112e+00    0.1083416   0.08505899  55.67 0.0006081982    1.686    0.407
        44  -9.0058    109.3313    234.3958   7.5469736843e+01   1.3370166591e+01    0.4654778    0.1676902  50.19  0.002019934    2.853    0.649
        45 -10.0922    149.8156    226.3938   6.6455820296e+01   8.6816231882e+00    0.6110314    0.3876576 -82.93  0.002710692    4.288    0.767
        46  -8.1469    122.8102    233.9540   7.2737543509e+01   1.1520123553e+01    0.1815401    0.1225448  68.50 0.0008561665    1.974    0.493
        47  -8.2922     99.7266    234.1470   7.7363577222e+01   1.4746938579e+01    0.2016945   0.09788722  61.95 0.0009503149    2.793    0.642
        48  -8.5594     78.1430    233.8504   8.1645390234e+01   1.7678027431e+01    0.1838655    0.1283984  85.40 0.0009823937    1.612    0.380
        49  -9.5740     68.3102    232.0566   8.3461135526e+01   1.9234117972e+01    0.4565886    0.1747112  58.99   0.00207533    2.959    0.662
        50  -8.6022      8.0000    234.0117   9.5099268193e+01   2.5431649156e+01    0.1505811   0.05060505 -83.23 0.0008000111    2.926    0.658
        51  -8.5771    194.3169    232.4848   5.8856143396e+01   1.3025717630e+00    0.1868858    0.1431524  38.63 0.0004840842    1.395    0.283
        52  -9.5875    186.5369    230.5326   5.9996667017e+01   2.6608502545e+00    0.2835166    0.2390883 -88.24  0.001462694    2.323    0.570
        53  -8.2670    157.8230    231.7996   6.5598405597e+01   6.7031904752e+00    0.1576199    0.1230404  46.13 0.0004622249    1.324    0.244
        54  -8.4052    132.4028    232.2607   7.0638902248e+01   1.0386877449e+01    0.1371977    0.1153375 -86.06 0.0005669107    1.610    0.379
        55  -8.2612     92.2670    231.4001   7.8601880377e+01   1.6222772337e+01    0.1920981    0.1248752  73.32 0.0006476187    1.816    0.449
        56  -9.2405    236.0586    230.1455   5.1303420842e+01  -4.0783746578e+00     0.289542    0.1519285 -29.69   0.00115577    2.001    0.500
        57  -9.1021    139.9446    229.8297   6.8849479861e+01   9.6434899132e+00    0.2294707    0.1732055  61.01  0.001124095    1.599    0.375
        58  -8.3678      1.6245    230.3415   9.6143192126e+01   2.6649427479e+01    0.1708116   0.07481243  58.84  0.001082341    1.644    0.392
        59  -8.2615    229.9456    228.7205   5.2092886267e+01  -3.1353663917e+00    0.1693336    0.1384481 -28.06  0.001254806    1.638    0.390
        60  -8.9464    162.4122    227.8054   6.4178077236e+01   6.5843378560e+00    0.2881368    0.1731573  51.93  0.001585849    1.999    0.500
        61  -8.8310    127.8946    227.1472   7.0938133541e+01   1.1845374728e+01    0.3019998    0.1717413  57.46  0.001296663    2.145    0.534
        62  -8.1602    223.3699    226.8146   5.2904718527e+01  -2.0522726532e+00    0.1484033    0.0909545 -14.11 0.0003889638    1.626    0.385
        63  -7.9974    119.8690    227.5862   7.2614674280e+01   1.2955327823e+01    0.1773587   0.08879759  44.70 0.0006241859    1.647    0.393
        64  -8.2200     49.6375    226.6745   8.6805215525e+01   2.2432453996e+01    0.2221968    0.1035514  72.50  0.001160022    2.412    0.585
        65  -8.5933      8.3169    227.6742   9.4831265317e+01   2.6524165835e+01    0.1165054   0.05135787  58.22  0.000375327    1.673    0.402
        66  -8.8383    206.2076    225.7353   5.5722856799e+01   4.4150964454e-01    0.1919134    0.1804115 -50.12 0.0009813294    1.751    0.429
        67  -8.0550    199.9751    226.0084   5.6880329643e+01   1.2948227106e+00    0.1391975    0.1114478   8.13 0.0004207818    1.108    0.097
        68  -8.9924    216.3395    223.2951   5.3566099802e+01  -6.8721743451e-01    0.2120411    0.1878572 -24.22 0.0007867721    1.533    0.348
        69  -8.6006    180.2516    224.0741   6.0236975820e+01   4.4315144221e+00    0.2060966    0.1475135  39.89  0.000619347    1.333    0.250
        70  -7.9654    113.6529    223.7408   7.3451766275e+01   1.4494547515e+01    0.1441089    0.1133404 -84.19 0.0003666572    1.611    0.379
        71  -8.8030    104.9220    223.6294   7.5242224195e+01   1.5775355614e+01    0.2674583    0.1785196  78.90  0.001544263    1.992    0.498
        72  -8.6495     93.8135    223.7343   7.7552004235e+01   1.7322849353e+01    0.2170382    0.1300377  68.71 0.0008868524    2.020    0.505
        73  -7.7475     38.3502    224.6579   8.8925883904e+01   2.4065177457e+01    0.1267605   0.05862265  58.28 0.0007043373    1.803    0.445
        74  -7.8858     12.3127    224.6648   9.3974260890e+01   2.6698108038e+01    0.1183192   0.05312682  58.81 0.0004583075    1.685    0.407
        75  -8.4601    173.1413    222.7773   6.1403618440e+01   5.6766715655e+00    0.1751113     0.166406 -44.00 0.0006106723    1.440    0.305
        76  -9.3358    239.2238    221.3800   4.9408980245e+01  -3.5499019184e+00    0.2245999    0.2129505 -31.20   0.00125004    1.878    0.468
        77  -9.4243    225.6884    221.6285   5.1699353746e+01  -1.7783073658e+00    0.1999466    0.1866365  19.43  0.001048328    1.590    0.371
        78  -9.4245    192.3807    221.2223   5.7544276893e+01   3.0079323971e+00    0.2397131    0.2290027  86.53  0.001068751    1.688    0.408
        79  -8.2635    162.6781    222.3293   6.3370151194e+01   7.3284790783e+00    0.2019753    0.1034738  39.21 0.0006439146    1.604    0.376
        80  -8.4995    158.8904    220.3341   6.3836515534e+01   8.2007312769e+00    0.2726398    0.1680778  53.99   0.00108821    2.022    0.505
        81  -7.8092    140.5124    222.5193   6.7812273062e+01   1.0679931862e+01    0.1254006    0.0996147  39.67 0.0008088942    1.083    0.076
        82  -9.3240    120.7598    219.3701   7.1472177669e+01   1.4174847761e+01    0.4632186    0.2125817  57.48  0.001910963    3.271    0.694
        83  -8.1843     27.5026    220.5304   9.0852057199e+01   2.5972148798e+01    0.1781453   0.08553874 -65.48  0.001033676    2.349    0.574
        84  -8.1735    202.7818    220.1142   5.5472784171e+01   1.6255642707e+00    0.1657052    0.1423816  19.19 0.0006115831    1.224    0.183
        85  -8.3116     82.6711    220.3243   7.9543620705e+01   1.9449283473e+01    0.1991324    0.1105748  59.41  0.001087519    1.792    0.442
        86  -8.0055     72.9999    220.2233   8.1553811875e+01   2.0744024543e+01    0.1685727    0.1083176  71.87 0.0004633972    1.620    0.383
        87  -9.4109    210.9266    246.1802   5.7876145189e+01  -2.5344583269e+00    0.2011151    0.1501795 -39.33 0.0009533257    1.957    0.489
        88  -8.6807    246.8788    214.5588   4.7066520649e+01  -3.8035038602e+00    0.3809355    0.1257946 -23.33  0.001634287    3.706    0.730
        89  -8.3290    210.0555    219.0540   5.4004567070e+01   7.0821991990e-01    0.1548375     0.137304  41.59  0.000489747    1.581    0.367
        90  -9.2927    133.0900    215.8651   6.8468866483e+01   1.2882645631e+01    0.4801767    0.2743238  69.02  0.001996739    3.729    0.732
        91  -8.8233     51.7006    217.3280   8.5755462397e+01   2.3912746611e+01    0.2041593    0.1224497  77.26  0.001146672    1.673    0.402
        92  -8.7146    169.3127    215.9400   6.1147387275e+01   7.2374519673e+00    0.2519222    0.2039992 -84.17 0.0009996315    2.158    0.537
        93  -8.6061    143.0776    216.5522   6.6500261347e+01   1.1226342866e+01    0.2395567    0.1816517  71.11  0.001079245    1.849    0.459
        94  -8.3842     61.9208    216.9664   8.3600031805e+01   2.2748268910e+01    0.2024923    0.1070116  60.34 0.0008629772    1.773    0.436
        95  -8.4602     18.1581    214.8688   9.2436556816e+01   2.7962143546e+01    0.3021996   0.09335813  82.74  0.001242146    4.065    0.754
        96  -8.9790    232.1495    214.1762   4.9409183484e+01  -1.8046289379e+00     0.237263    0.1724627 -36.89 0.0009335715    1.824    0.452
        97  -8.1317    154.6068    214.8359   6.3915682773e+01   9.6974621602e+00    0.2215959    0.1577467 -87.30  0.001131255    2.829    0.647
        98  -7.8885     41.4942    214.9987   8.7709617255e+01   2.5519624777e+01    0.1677874   0.07284059  71.19 0.0008105058    2.557    0.609
        99  -8.4573    185.5817    213.9572   5.7702669043e+01   5.0074816299e+00     0.191955    0.1523232 -49.38 0.0008131926    1.762    0.432
       100  -8.9720     92.7689    213.6092   7.6739694862e+01   1.9274811715e+01    0.3026605    0.1437324  58.94  0.001235839    2.512    0.602
       101  -9.2534     73.3007    211.7633   8.0741776854e+01   2.2276163658e+01    0.5957172    0.2078972  58.02  0.002179957    4.019    0.751
       102  -9.3073    213.9773    211.9892   5.2175387490e+01   1.0167635279e+00    0.2982643    0.2101631  48.90  0.001671115    1.958    0.489
       103  -8.0127    106.5526    212.7446   7.3688716510e+01   1.7437393292e+01     0.153054    0.1167778  88.16 0.0009309206    1.599    0.375
       104  -8.0849    224.9962    212.2276   5.0298284294e+01  -5.8657489980e-01    0.1434424    0.1251918 -31.72 0.0007030924    1.614    0.380
       105  -9.0659    204.3622    210.7372   5.3695299986e+01   2.5932303521e+00    0.2133162    0.2078543 -60.73 0.0007764362    1.633    0.388
       106  -9.4346    175.5073    209.9030   5.9016044079e+01   7.1510240865e+00    0.3629601       0.2565  66.93  0.001567477    2.603    0.616
       107  -8.5800    161.5446    211.9825   6.2102694532e+01   9.0443875255e+00    0.1892755    0.1840429   4.28 0.0008256959    1.251    0.200
       108  -8.8821    147.8760    210.2582   6.4635888385e+01   1.1481493902e+01    0.2713385     0.202938  75.47  0.001064304    2.067    0.516
       109  -8.8490    116.3974    210.4018   7.1295971362e+01   1.6375892361e+01    0.3076695     0.163294  53.56  0.001023957    1.985    0.496
       110  -8.2166    192.2187    210.2551   5.5863330757e+01   4.4985452513e+00    0.1505508    0.1384576  38.39 0.0006290565    1.396    0.284
       111  -8.0544     32.0244    209.2472   8.9322834470e+01   2.7649349546e+01    0.2664157    0.0939181  78.02  0.001064466    3.938    0.746
       112  -9.1261    236.5623    208.0778   4.7661815574e+01  -1.7045306523e+00     0.230708    0.2104272 -58.52  0.001373248    2.110    0.526
       113  -8.0650    179.0000    216.9888   5.9424307550e+01   5.5940942927e+00    0.1713458   0.06971288 -41.33 0.0007511787    2.892    0.654
       114  -8.8760      5.8710    208.0158   9.4602307015e+01   3.0399830350e+01     0.270659   0.08446339  71.12  0.001223778    3.166    0.684
       115  -9.3353    246.4797    207.1383   4.5891482102e+01  -2.9347399640e+00    0.2291293    0.1698194 -21.82 0.0008026114    1.388    0.279
       116  -8.3559    138.9419    207.6022   6.6122896848e+01   1.3339526100e+01    0.2223924     0.169511 -84.10 0.0009841403    1.954    0.488
       117  -8.0692    126.6280    208.3651   6.8842383999e+01   1.5153023063e+01    0.1884697    0.1321543  59.93 0.0008306095    1.606    0.377
       118  -9.1565     99.4462    205.8090   7.4425696423e+01   1.9752724222e+01    0.3637957    0.2001214  65.99  0.001242586    2.465    0.594
       119  -8.4279     56.6229    205.5847   8.3819128433e+01   2.5581900793e+01    0.2533225    0.1248821  61.97 0.0009921341    2.017    0.504
       120  -8.2999     11.5266    206.4991   9.3403875640e+01   3.0190068140e+01    0.1115261   0.08398948  64.49 0.0001104229    1.017    0.016
       121  -9.1786    183.7743    203.8639   5.6441786370e+01   6.7225303176e+00    0.2931474    0.2301794  65.86  0.001247154    2.049    0.512
       122  -8.5963    131.2632    203.7785   6.7222212897e+01   1.5218871038e+01    0.2883117    0.1969648  72.27  0.001208802    2.169    0.539
       123  -7.9838    109.0371    205.0548   7.2227783937e+01   1.8458379263e+01    0.2033959    0.1356373  63.87 0.0007897019    1.702    0.413
       124  -9.1741    194.7830    203.4294   5.4265755793e+01   5.0449015155e+00    0.2810926    0.2395471  36.56  0.001214071    1.311    0.237
       125  -9.5350    192.5704    197.4048   5.3669458572e+01   6.2510369675e+00    0.3538779    0.2972077 -70.38  0.001595561    2.028    0.507
       126  -9.6783    163.8185    202.8674   6.0251022071e+01   1.0093774908e+01    0.4041271    0.2413864  53.37  0.001122506    2.086    0.521
       127  -9.2637    250.1855    201.8930   4.4407201210e+01  -2.8382082773e+00    0.3515444    0.1416228 -27.54   0.00143229    2.345    0.573
       128  -9.7027    245.9223    193.6593   4.3643716220e+01  -1.3094997042e+00    0.3841762    0.2632587 -54.10  0.001899258    3.316    0.698
       129  -8.9065    243.1742    200.5057   4.5286793073e+01  -1.7325088862e+00    0.2449087    0.1442203 -33.11  0.000938442    1.804    0.446
       130  -8.5904    211.0127    201.5802   5.0964860147e+01   2.7912788605e+00     0.202727    0.1663399 -40.84 0.0008441187    1.641    0.391
       131  -8.7467    140.7354    201.0596   6.4797785408e+01   1.4161468577e+01    0.3345933     0.206895  60.23  0.001343896    2.191    0.544
       132  -8.4212     80.1857    201.1844   7.8194182494e+01   2.3389246786e+01    0.2877269    0.1376234  62.65  0.001269854    2.617    0.618
       133  -8.2668     10.2136    202.3485   9.3496001848e+01   3.1122112563e+01    0.1611794   0.07407036  42.97 0.0009440938    1.712    0.416
       134  -9.2790    149.7019    198.5025   6.2502263314e+01   1.3124496687e+01    0.3771537     0.260666  76.89  0.001450038    2.668    0.625
       135  -8.8118    124.0990    199.0736   6.8124842677e+01   1.7202535133e+01    0.2993583    0.2078685  75.41  0.001070231    2.049    0.512
       136  -9.2258    112.8507    198.1304   7.0493585939e+01   1.9156775405e+01    0.4125943    0.2416759  67.24  0.001788222    2.489    0.598
       137  -8.2958    176.9666    198.9077   5.6964172033e+01   8.5601454580e+00    0.1813664    0.1541042  63.48 0.0005361526    1.635    0.388
       138  -8.9979     88.6160    198.0222   7.5946496103e+01   2.2823159716e+01    0.3666326     0.228243  87.08  0.001431724    2.088    0.521
       139  -8.4859    202.2606    197.7269   5.1901654255e+01   4.6645954608e+00    0.2004233    0.1916327 -55.38 0.0009928286    1.566    0.362
       140  -9.0358     61.3957    196.9718   8.2016478323e+01   2.6713203585e+01    0.4027535    0.1828359  64.86  0.001757175    2.650    0.623
       141  -9.2190    237.1580    198.4218   4.5906870103e+01  -6.4859015875e-01    0.2608217     0.150983 -34.60 0.0009135656    1.865    0.464
       142  -8.9372    216.0129    195.4398   4.9006306394e+01   2.8400080782e+00     0.237832    0.1936171 -52.81  0.001016262    1.963    0.491
       143  -9.1184    185.3284    194.8141   5.4625305697e+01   7.8087820500e+00    0.2339145    0.2130244 -89.35 0.0006950051    1.684    0.406
       144  -8.2143    132.9824    195.5110   6.5656091439e+01   1.6405771325e+01    0.2061967    0.1672658  83.58 0.0007498976    1.611    0.379
       145  -8.0173     53.3342    196.6339   8.3806922233e+01   2.7773772956e+01    0.1376029   0.07237782  61.74 9.222349e-05    1.826    0.452
       146  -7.7102    209.3034    195.6102   5.0241381618e+01   3.8527570311e+00    0.1094288    0.1020549  89.36  0.000701343    1.804    0.446
       147  -9.1001    160.7007    193.9970   5.9469987794e+01   1.2041553947e+01    0.2947012    0.2262354  70.56 0.0009815603    1.949    0.487
       148  -8.2369    231.0276    194.0385   4.6157793921e+01   7.7078290573e-01    0.1548172    0.1506318 -25.58 0.0006076578    1.618    0.382
       149  -8.4150    224.4639    193.7792   4.7232215795e+01   1.7766118704e+00    0.2038022    0.1097657 -35.91  0.001038557    1.980    0.495
       150  -8.7218     76.8130    193.7198   7.8168502150e+01   2.5344274887e+01    0.2270376    0.1612629  82.98 0.0005617916    1.507    0.336
       151  -8.9480     43.8414    193.1856   8.5671121412e+01   2.9589961424e+01    0.3771363    0.1720626  70.36  0.001770514    2.473    0.596
       152  -8.2446    198.9716    191.5128   5.1430507003e+01   6.0672349065e+00    0.1867882    0.1576788 -14.65 0.0005554032    1.199    0.166
       153  -8.2064    172.3167    191.4409   5.6645462944e+01   1.0498925499e+01    0.1924557    0.1635026 -72.26 0.0005602259    1.749    0.428
       154  -8.2827     85.2062    208.8232   7.7876874414e+01   2.1223599086e+01    0.2193381    0.1329139  89.70  0.001127763    2.126    0.530
       155  -7.8698    205.4398    191.5347   5.0229060357e+01   5.0240463121e+00    0.1253001    0.1062834  13.53 0.0002952873    1.078    0.073
       156  -8.1048    179.3494    191.2733   5.5197613352e+01   9.3421705769e+00    0.1603421    0.1224656 -46.33 0.0003704772    1.611    0.379
       157  -9.1932    139.3408    190.1916   6.3442359023e+01   1.6304999914e+01    0.3214823    0.2324535  73.54   0.00121602    2.023    0.506
       158 -10.1990     92.2785    188.6832   7.3982265226e+01   2.4152405379e+01    0.8824453    0.2347714  45.96  0.002864516    3.475    0.712
       159  -8.0881     90.3476    181.3380   7.3498042709e+01   2.5954064316e+01    0.2186715    0.1554604 -27.52  0.001110872    2.114    0.527
       160  -7.8064    210.3238    189.6560   4.8999197550e+01   4.5085746831e+00    0.1108907    0.1034807  78.30 0.0007050486    1.735    0.424
       161  -9.3312    156.0112    187.4776   5.9377551558e+01   1.3939672693e+01    0.3144496    0.2194058 -56.72 0.0009277555    1.850    0.460
       162  -8.1920    148.4857    188.9833   6.1248593605e+01   1.4967892633e+01    0.1807945    0.1355693 -50.28  0.001012782    1.565    0.361
       163  -8.9508    129.2446    188.4251   6.5418218702e+01   1.8324674692e+01    0.2819774    0.2163761  83.03 0.0009745206    1.764    0.433
       164  -8.9412     34.2235    187.9405   8.7467809639e+01   3.1736831285e+01    0.3040762    0.1399161  69.85  0.001482333    2.257    0.557
       165  -8.3483    237.2963    188.1022   4.4045999800e+01   5.9440557836e-01    0.1686215    0.1284755 -14.45  0.000644515    1.182    0.154
       166  -8.8261    216.3495    187.5612   4.7536903614e+01   3.8445355373e+00    0.2196441    0.2077002 -31.68  0.000806923    1.473    0.321
       167  -8.7869    191.5101    187.1830   5.2083537830e+01   7.9324160321e+00    0.2563673    0.2074088 -64.15  0.001011325    1.976    0.494
       168  -9.4381    120.6691    186.0286   6.7007130594e+01   2.0205038128e+01    0.4326534    0.2689187 -80.04  0.001960336    2.620    0.618
       169  -9.0728     54.8001    186.6170   8.2585162482e+01   2.9679895348e+01    0.4216314    0.1801423  66.96  0.001711284    3.119    0.679
       170  -8.2921    230.6175    187.3251   4.5019111070e+01   1.6826177993e+00    0.1567592    0.1498478 -48.84  0.000860604    1.668    0.401
       171  -8.7929    164.8645    186.3138   5.7304129259e+01   1.2610729777e+01    0.2546404    0.1945466 -63.79 0.0008099128    1.870    0.465
       172  -9.0612    109.7021    186.0665   6.9553632372e+01   2.1982104942e+01    0.3642365     0.219593  65.36  0.001346125    2.189    0.543
       173  -9.2530    249.2272    185.2682   4.1609321529e+01  -7.7264311864e-01    0.2449518    0.1625069 -33.71 0.0008732117    1.635    0.388
       174  -8.7345    183.1197    184.6476   5.3276016315e+01   9.7406797590e+00    0.2339297    0.2086614 -83.93 0.0009389991    1.696    0.410
       175  -8.9605     66.8331    184.5600   7.9529773406e+01   2.8590627539e+01    0.3364543    0.1645499  53.69 0.0009748437    1.947    0.486
       176  -8.9493    210.1377    183.8388   4.7973466772e+01   5.3517342022e+00    0.2294934    0.1677398 -19.54 0.0006452036    1.323    0.244
       177  -9.0379    174.3153    183.3828   5.4828794567e+01   1.1459743389e+01    0.2558587    0.2269076 -66.68 0.0008557877    1.550    0.355
       178  -8.5412    202.8028    184.4949   4.9447408037e+01   6.4561550037e+00    0.2155732    0.1694777 -52.33 0.0008959544    1.830    0.454
       179  -8.4636    223.9751    183.2190   4.5400702143e+01   3.2369866222e+00    0.1731966    0.1586369  -1.33 0.0005285299    1.288    0.223
       180  -8.1402    197.3783    183.2582   5.0243844266e+01   7.5392141273e+00    0.1676776    0.1199142 -43.22 0.0004734296    1.679    0.405
       181  -9.0911     44.5791    182.4752   8.4629531618e+01   3.1768275570e+01    0.3539008    0.1496983  55.20 0.0009872625    2.236    0.553
       182  -7.8708      1.7583    183.5729   9.4501804604e+01   3.5649346595e+01    0.1575117   0.07950161  45.18 0.0009407253    1.635    0.388
       183  -7.9242    235.4959    181.4406   4.3119354512e+01   1.7046679225e+00    0.1235174   0.09863123   3.37  0.000123681    1.012    0.012
       184  -9.0573    147.2819    180.2192   6.0043671407e+01   1.6745281784e+01    0.2872168    0.2325304 -84.22  0.001050207    1.737    0.424
       185  -9.3445     25.7337    178.8867   8.8803660231e+01   3.4532078524e+01    0.5791826    0.1969288  71.13  0.002121379    4.075    0.755
       186  -8.5568    137.8262    179.3150   6.2011925872e+01   1.8569847901e+01    0.3453221    0.2071788  61.16   0.00131494    2.347    0.574
       187  -9.3623    191.6222    178.2650   5.0427011177e+01   9.2777350123e+00    0.2843089    0.2315354  59.92 0.0006719725    1.691    0.409
       188  -8.8278     36.9513    177.9513   8.6072700454e+01   3.3589782908e+01    0.3235938    0.1385203  68.89  0.001409715    2.703    0.630
       189  -8.5857    250.5345    172.5176   3.9032318714e+01   5.9897001957e-01     0.213338    0.1234292 -23.93 0.0004888142    1.523    0.343
       190  -9.3223    248.9341    177.1555   4.0155621730e+01   2.5724418119e-01    0.2566748    0.2358027  65.52 0.0009940182    1.897    0.473
       191  -8.6641    247.2943    173.6774   3.9757108437e+01   9.3031777955e-01    0.1861892    0.1298207 -19.45 0.0004320489    1.245    0.197
       192  -8.5199    205.1296    177.6586   4.7740668260e+01   7.0692635394e+00    0.2106307    0.1692097 -33.79 0.0005930222    1.377    0.274
       193  -8.2478    169.1931    178.2104   5.4956414500e+01   1.3219661298e+01    0.1744199    0.1599298  65.86 0.0006469204    1.371    0.270
       194  -8.7394    129.4005    177.3663   6.3621959408e+01   2.0407797662e+01    0.2969471      0.19672  72.86 0.0009936903    2.345    0.574
       195  -8.6598    231.0478    176.6030   4.2953052850e+01   3.0176439193e+00    0.2164502    0.1580697 -37.25 0.0007217896    1.579    0.367
       196  -8.5394    217.3435    176.8591   4.5370002717e+01   5.1647191609e+00    0.2070991    0.1861493 -42.00 0.0007670176    1.499    0.333
       197  -7.6423     97.3599    177.2921   7.1248110889e+01   2.5726838797e+01    0.1316507    0.1060317  -2.98 0.0004197743    1.696    0.410
       198  -8.7390     88.9118    176.5033   7.3204298831e+01   2.7190348009e+01     0.245749    0.1760012  80.98 0.0008411917    1.593    0.372
       199  -9.3555     58.9733    175.4948   8.0476475146e+01   3.1563122341e+01    0.5035792    0.2012898  59.63  0.001920553    3.169    0.684
       200  -9.1249     55.7843    170.4033   8.0729860917e+01   3.3090406690e+01    0.4348195     0.202615  72.44  0.001740483    3.031    0.670
       201  -8.6673     13.0656    176.3427   9.1603240885e+01   3.6246351579e+01    0.2815983    0.1362938  69.12 0.0009398697    1.856    0.461
       202  -9.3232    183.1892    175.9293   5.1658315480e+01   1.1119543008e+01    0.2751106    0.2338394 -55.08 0.0006953775    1.547    0.354
       203  -9.1910    158.8996    174.8165   5.6534208463e+01   1.5650674725e+01    0.3812462    0.2589449  70.98   0.00145165    2.592    0.614
       204  -9.3487    104.2409    174.5033   6.9164715179e+01   2.5215398715e+01     0.533028    0.2589648  60.03  0.001943858    3.042    0.671
       205  -8.3909    224.3170    174.3937   4.3678663243e+01   4.3801058473e+00    0.1911443    0.1432809 -43.33 0.0005629246    1.703    0.413
       206 -10.5237     75.9570    169.0670   7.5455751210e+01   3.0706259316e+01     1.335546    0.4961138 -70.95  0.004909458    3.416    0.707
       207  -9.3633    175.9867    172.2118   5.2423708213e+01   1.3018328463e+01    0.2788206    0.2499245 -68.81 0.0008411247    1.505    0.336
       208  -8.0685    143.0009    172.3817   5.9633869180e+01   1.8963882342e+01    0.1993701     0.163845  38.32 0.0005041045    1.099    0.090
       209  -8.4475    134.8511    171.7113   6.1392929072e+01   2.0552046916e+01    0.2417519    0.1806456  83.15  0.001036072    1.938    0.484
       210  -9.0918     45.1977    171.1164   8.3458172522e+01   3.4188730287e+01    0.3523305    0.1833202  77.31  0.001398813    2.160    0.537
       211  -9.5383    121.3442    170.1447   6.4321878854e+01   2.3242308052e+01    0.3733302     0.274559  88.76  0.001067022    1.865    0.464
       212  -8.7806    230.3238    169.6381   4.1737393557e+01   4.0681789842e+00    0.2336096    0.1387444 -25.15  0.000632364    1.574    0.365
       213  -8.4800    205.7672    169.9432   4.6138271069e+01   8.1089363311e+00    0.2201556    0.1749883 -46.59 0.0007082184    1.596    0.373
       214  -8.6627    198.3221    169.8780   4.7528022858e+01   9.4135805305e+00     0.224918    0.2054126 -65.38 0.0008696044    1.556    0.357
       215  -8.2088    244.3754    169.1457   3.9350617583e+01   1.9435529399e+00    0.1677041    0.1005443 -37.05 0.0005708885    1.761    0.432
       216  -8.3562    236.9535    169.1734   4.0548956083e+01   3.0828646866e+00    0.1761002    0.1602558 -18.85 0.0009330433    1.331    0.248
       217  -9.1700    166.9618    168.3128   5.3577002481e+01   1.5335605583e+01    0.2921745    0.2330866  65.02 0.0009124472    1.647    0.393
       218  -8.5331    149.8346    169.1375   5.7495585751e+01   1.8334884014e+01    0.2155403    0.1845556  62.64 0.0008014599    1.346    0.257
       219  -8.4689    218.8374    168.1711   4.3426451714e+01   6.1503858383e+00    0.1801798    0.1657533  -7.32 0.0004540545    1.220    0.181
       220  -8.6046    111.8041    167.3456   6.6180864494e+01   2.5460678397e+01    0.2587467    0.1825451  82.64 0.0009546223    1.925    0.480
       221  -8.2656     88.6961    168.3920   7.2129462979e+01   2.8974616629e+01    0.2208117     0.143592  64.26  0.001084472    1.699    0.412
       222  -9.2381    191.8699    166.2425   4.8061692978e+01   1.1134883910e+01    0.3248935    0.1848122 -40.77   0.00074877    1.879    0.468
       223  -8.7249    184.9860    166.4187   4.9464193586e+01   1.2353365320e+01    0.2330372     0.191318 -51.76 0.0006241052    1.528    0.345
       224  -8.2875    234.1232    165.0711   4.0211308197e+01   4.0806887061e+00     0.216871    0.1483813 -31.22 0.0006836079    1.422    0.297
       225  -9.5544    137.2944    164.4451   5.9515043430e+01   2.1537255547e+01    0.6600061    0.2841616  53.85  0.002263628    3.274    0.695
       226  -9.8826     94.8689    162.0772   6.9604517649e+01   2.9396008612e+01    0.8860474    0.5123631  78.07  0.003308503    2.905    0.656
       227  -9.0082     20.6463    166.1754   8.9152645439e+01   3.7809512755e+01    0.3005975    0.1035248  45.20  0.001383726    2.412    0.585
       228  -8.6248    159.5085    164.0297   5.4368775876e+01   1.7490217587e+01    0.2622886    0.2271491 -89.90 0.0008683395    1.553    0.356
       229  -9.5192     33.6940    163.2925   8.5648610795e+01   3.7199885679e+01    0.5263559    0.1755797  51.89  0.002141763    2.900    0.655
       230  -8.8778    246.1394    162.9226   3.7863224281e+01   2.4791201961e+00    0.2707579    0.1527239 -28.16 0.0008232822    1.582    0.368
       231  -8.2263    240.0330    164.0072   3.9041487110e+01   3.2860334616e+00    0.1732347    0.1484499 -46.97 0.0004683119    1.642    0.391
       232  -8.7190    212.9479    163.4041   4.3528821863e+01   7.8466153017e+00    0.2207179    0.1749656 -41.51 0.0005116005    1.484    0.326
       233  -8.5652    204.8948    162.4760   4.4817225762e+01   9.3976648384e+00    0.2313596    0.1774383 -43.91 0.0006985015    1.538    0.350
       234  -8.1728     56.7672    163.3509   7.9694894233e+01   3.4561516017e+01    0.3171249    0.1330621  19.46  0.001108148    4.102    0.756
       235  -9.4047      3.1990    162.2333   9.3184421072e+01   4.0129925149e+01    0.3849582    0.1402673  51.83  0.001886007    2.323    0.570
       236  -9.1995    177.5078    160.5344   4.9817786807e+01   1.4732003199e+01    0.2864578     0.248323  82.75  0.001056551    1.632    0.387
       237  -8.6946    151.7044    160.7046   5.5467724137e+01   1.9579357257e+01    0.2616646    0.2003053  81.88 0.0007881128    1.974    0.493
       238  -8.7505     60.6420    160.1688   7.8299845057e+01   3.4798114686e+01    0.2913574    0.1575031  67.91  0.001304114    2.208    0.547
       239  -8.7169    227.4035    158.9993   4.0119566053e+01   6.0229306756e+00    0.2892842    0.1937135 -51.05  0.001012798    2.183    0.542
       240  -9.9410    249.6666    157.1404   3.6178537514e+01   2.6871084222e+00    0.3489926     0.276505 -48.41  0.001368443    1.777    0.437
       241  -8.8349    244.0377    158.9909   3.7414672957e+01   3.3217645592e+00    0.3634136    0.1823454  22.97  0.001697363    2.485    0.598
       242  -8.7318    237.0441    159.0198   3.8532258276e+01   4.4329896356e+00    0.1766064    0.1529163 -50.44 0.0006235992    1.636    0.389
       243  -8.4031    128.2490    158.9413   6.0661297768e+01   2.4306489005e+01    0.2933446    0.1644482  60.53 0.0009816206    2.544    0.607
       244  -9.6014    105.8287    157.7830   6.6076568217e+01   2.8527667057e+01    0.5080439    0.2822161  62.86  0.001293971    2.551    0.608
       245  -8.5987    196.5050    157.6651   4.5425711556e+01   1.1672121632e+01     0.239841    0.2175871 -44.89 0.0008003198    1.334    0.250
       246  -8.3950    188.2633    157.6013   4.7028632993e+01   1.3212456241e+01    0.2333194    0.1609425 -46.04 0.0006042103    1.662    0.398
       247  -9.1764    167.6984    157.1439   5.1207447440e+01   1.7194047444e+01    0.3408844    0.2644271  85.58  0.001273378    2.086    0.521
       248  -8.3649    218.0588    156.5353   4.1225219744e+01   7.9772837125e+00     0.240428    0.1690196 -44.32 0.0007578994    1.684    0.406
       249  -9.0810    157.7461    155.5215   5.3068514608e+01   1.9408088151e+01    0.3209165    0.1931367 -47.96  0.001048556    1.835    0.455
       250  -9.1859    119.4954    154.8411   6.2068004305e+01   2.6760254008e+01    0.4034983    0.2747224 -79.62  0.001363057    2.097    0.523
       251  -9.3909     81.7789    154.6698   7.1897444147e+01   3.3102458249e+01     0.480527    0.2656931  66.28  0.001364934    2.447    0.591
       252  -9.1573     50.0131    155.2025   8.0544890202e+01   3.7265983362e+01    0.4707807    0.1863931  54.54  0.001860445    2.802    0.643
       253  -8.0961    204.5540    155.0358   4.3356212634e+01   1.0615368724e+01    0.1981712    0.1263418 -34.24 0.0005092525    1.552    0.356
       254  -8.6097    144.4546    154.4110   5.5898049930e+01   2.2181025468e+01    0.2712063    0.2168912  59.51 0.0008320512    1.395    0.283
       255  -9.6700    241.3762    153.8681   3.6803622839e+01   4.4318361543e+00    0.3490221    0.2240703  62.61  0.001702571    2.909    0.656
       256  -9.6199    132.7804    152.7765   5.8372538656e+01   2.4734490702e+01    0.4458065    0.2982327  67.15  0.001238347    2.086    0.521
       257  -9.1549    133.5767    148.1871   5.7258480337e+01   2.5532217131e+01    0.3096312    0.2449809 -26.15  0.001040475    1.461    0.315
       258  -9.2693     68.0080    153.5047   7.5450867431e+01   3.5359312239e+01    0.4261273    0.2115534  60.61  0.001461316    2.484    0.597
       259  -8.1592    232.7899    153.6075   3.8127430182e+01   5.8803285102e+00    0.1578772      0.12102  47.40 0.0004266264    1.575    0.365
       260  -8.6942     20.3460    152.5530   8.8217900651e+01   4.0939174450e+01    0.2035105    0.1018466 -79.02   0.00062276    1.783    0.439
       261  -9.6913     29.5841    150.4220   8.5566979917e+01   4.0584851311e+01    0.5021145    0.1990149  65.28  0.001968711    3.164    0.684
       262  -8.8688    189.3622    149.9642   4.5208326039e+01   1.4285058668e+01    0.2617075    0.2039109 -54.14 0.0007370748    1.621    0.383
       263  -7.9249    182.4257    151.1451   4.6857853395e+01   1.5419303961e+01      0.18854    0.1325173 -50.10 0.0008653886    1.694    0.410
       264  -8.4527    162.4826    150.3146   5.0933086702e+01   1.9464094149e+01    0.2376367    0.2116285 -77.39 0.0005896289    1.421    0.296
       265  -8.7380     98.1988    150.5768   6.6824017730e+01   3.1417914629e+01     0.291703    0.2087163  82.64 0.0007529101    1.756    0.430
       266  -8.8595      3.0101    150.1866   9.2576185588e+01   4.2853060636e+01    0.2981465    0.1219354  77.96  0.001396134    2.355    0.575
       267  -9.4846    248.9304    149.1179   3.4677643118e+01   3.8565124038e+00    0.2877809    0.1568226 -28.93 0.0007231314    1.607    0.378
       268  -9.1599    243.1999    149.7423   3.5679248785e+01   4.6948629114e+00    0.2257285    0.1469732 -34.45  0.001286813    1.477    0.323
       269  -8.3681    212.9756    149.5519   4.0669814343e+01   9.9331239469e+00    0.2024539    0.1655211 -20.94 0.0004817801    1.144    0.126
       270  -8.3762    198.7060    148.8805   4.3159117302e+01   1.2684354445e+01    0.1893863     0.165706 -21.59 0.0004433929    1.125    0.111
       271  -9.8776     89.4042    146.2823   6.8458485993e+01   3.3843969668e+01       0.6447    0.3629626  85.07  0.002317278    3.354    0.702
       272  -9.6988     40.2212    147.8447   8.2391246200e+01   4.0106266249e+01    0.5729642    0.2144298  55.82  0.001955091    3.126    0.680
       273  -9.0391    233.5474    147.2798   3.6696512223e+01   6.6435582133e+00    0.2898029    0.1154857 -30.93 0.0009899386    2.337    0.572
       274 -10.3519     55.0153    144.5561   7.7836529403e+01   3.9174517707e+01     0.792152    0.3476465  66.31   0.00272398    3.782    0.736
       275  -8.2772    223.1530    146.6293   3.8280019740e+01   8.5457136245e+00    0.2115274    0.1630467 -33.43 0.0005574047    1.298    0.230
       276 -10.3885    148.8488    144.9838   5.2913285738e+01   2.3192203769e+01     0.569914    0.4053115  87.28  0.001534873    2.448    0.591
       277 -10.1743    106.6670    143.8022   6.3313423848e+01   3.1481827036e+01    0.7991639    0.5099488  84.29  0.002636174    2.608    0.617
       278  -9.1133     78.0819    146.7470   7.1667572548e+01   3.5494197822e+01    0.3085184    0.1956203  76.12 0.0009654125    2.009    0.502
       279  -9.3380     13.4137    146.0845   8.9568751972e+01   4.3021298565e+01    0.3272793    0.1677713  63.23  0.001302671    1.850    0.459
       280  -7.9745    206.4855    146.4650   4.1186448421e+01   1.1609297891e+01    0.1368056     0.123086   0.21 9.678501e-05    1.033    0.031
       281  -8.2926    175.6782    146.0818   4.7172193649e+01   1.7632186453e+01    0.2159431    0.1813913 -61.31 0.0006976044    1.499    0.333
       282  -9.7632    139.1683    144.9064   5.5210976580e+01   2.5122794447e+01    0.3885821    0.2840333 -86.32  0.001337504    2.109    0.526
       283  -9.3029    247.1214    143.6743   3.3833624313e+01   4.8764765200e+00    0.2381511    0.1562425 -20.99  0.000657737    1.338    0.253
       284  -8.8454    165.4845    143.8005   4.8870919907e+01   2.0086757904e+01    0.2605026    0.2284829  83.50 0.0007002327    1.468    0.319
       285 -10.7729     69.4285    140.9228   7.3187897214e+01   3.8130214267e+01    0.6274454    0.4222106  88.27  0.002695918    1.700    0.412
       286  -9.5639     69.9599    134.0140   7.1905280629e+01   3.9712420203e+01    0.4946322    0.2765075  10.88  0.001855919    3.292    0.696
       287  -7.9136    194.3173    143.6783   4.2876947324e+01   1.4382915012e+01    0.1330437    0.1147498 -79.28 0.0004001259    1.664    0.399
       288  -9.3505    242.8458    139.0138   3.3506437126e+01   6.2224695417e+00    0.3208495    0.2139612 -66.02  0.001428761    3.436    0.709
       289  -8.4111    181.9983    141.3144   4.4811275385e+01   1.7219919292e+01    0.2450311    0.2001715 -64.28 0.0006929978    1.622    0.384
       290  -9.1552      2.6270    141.4332   9.2154169767e+01   4.4892707841e+01    0.3586962    0.1646021  73.94    0.0017907    2.059    0.514
       291  -8.0678    250.4876    140.5294   3.2683657009e+01   4.7510317742e+00    0.1268115    0.1040966 -10.92 0.0001572098    1.001    0.001
       292 -10.0806    240.7813    144.4259   3.4956748214e+01   5.8212539547e+00    0.4480592    0.2566302   6.21  0.002044929    2.477    0.596
       293  -8.6243    172.4460    138.2524   4.6126656075e+01   1.9703283972e+01    0.2923584    0.2291595 -79.82 0.0007778935    1.933    0.483
       294  -9.8183     23.4151    137.7704   8.6087111035e+01   4.4153196291e+01    0.4669882    0.2149512  64.27  0.001669668    2.385    0.581
       295  -7.7661    218.5645    138.4959   3.7313916602e+01   1.0597976622e+01    0.1340711    0.1204554 -13.12 0.0003900034    1.074    0.069
       296  -8.4251    207.7811    137.7528   3.9048355042e+01   1.2747311640e+01    0.2421844    0.1712693 -56.14 0.0009203693    1.952    0.488
       297  -8.6541    197.5095    137.2415   4.0837843954e+01   1.4830137594e+01    0.2333543    0.1891795 -47.43 0.0004884157    1.403    0.287
       298  -8.3747    149.9591    136.4564   5.0781065368e+01   2.4666518256e+01     0.517146     0.299201   3.49   0.00137712    5.788    0.827
       299  -8.8783    248.5835    134.8568   3.1776844720e+01   5.8298410101e+00    0.2555675    0.1683044 -35.99  0.001460462    1.438    0.305
       300  -8.9684    250.7748    129.8241   3.0397017552e+01   6.1466258363e+00     0.510446    0.1065915 -32.44  0.001657983    4.138    0.758
       301  -8.2634    162.6143    136.1626   4.7804866248e+01   2.2115771241e+01    0.2233188    0.1822968 -59.82 0.0006736505    1.460    0.315
       302  -9.1652     39.2408    135.7470   8.1266163167e+01   4.3113034144e+01    0.2901655    0.1785196  66.22 0.0009837135    1.693    0.410
       303  -7.8777    188.2872    135.6440   4.2268376038e+01   1.6943543968e+01    0.1392795    0.1152146 -71.03 0.0007023618    1.675    0.403
       304 -10.4127     83.5660    132.8239   6.7691890229e+01   3.7936805571e+01    0.5630124    0.3466253 -80.23  0.001459209    2.093    0.522
       305  -8.4624    179.4386    133.7688   4.3633297195e+01   1.9080718929e+01    0.2653894    0.1924774 -57.01 0.0007427518    1.746    0.427
       306  -9.0597    112.8377    132.9774   5.9450604954e+01   3.2783960746e+01    0.3658988    0.2638765  76.52  0.001001272    1.865    0.464
       307  -9.7055    125.1883    142.5927   5.8215731024e+01   2.8322733157e+01     0.521991    0.3499987 -86.24  0.001453757    2.514    0.602
       308  -7.6314    231.4623    133.5526   3.4105144587e+01   8.9798239708e+00      0.13328    0.1139687  -7.91 4.041736e-05    1.023    0.022
       309 -10.2725    132.4917    130.9367   5.3817844739e+01   2.9375966310e+01    0.6103776     0.456558 -89.46  0.001822549    1.932    0.482
       310  -9.0093    143.1474    131.6392   5.1320241831e+01   2.7045615961e+01    0.2958676    0.2516577 -87.32  0.000777943    1.463    0.317
       311 -10.6150     60.4347    125.5995   7.3365795874e+01   4.3073712450e+01    0.8415809    0.4514191  77.13  0.003184171    3.012    0.668
       312  -9.8883     12.8311    128.7899   8.8337674571e+01   4.7161558436e+01      0.52306     0.226197  74.96  0.002007601    2.601    0.616
       313  -8.4087    246.8861    130.0620   3.1006669330e+01   6.7718054990e+00    0.1915243    0.1539371 -38.02  0.000572546    1.307    0.235
       314  -8.0656    204.5180    130.0215   3.7899084947e+01   1.4628884306e+01    0.2111003    0.1308222 -35.84 0.0005289068    1.553    0.356
       315  -7.8213    192.6269    130.2288   4.0176268215e+01   1.6991065702e+01    0.1911638    0.1306395 -24.58 0.0002871254    1.501    0.334
       316  -9.1462    168.3780    129.4516   4.4978199361e+01   2.2181754023e+01    0.2977952    0.2472253 -75.81 0.0007998031    1.596    0.374
       317  -9.1492    161.9984    129.7667   4.6464472904e+01   2.3469386004e+01    0.2776369    0.1898059 -25.28 0.0009467988    1.664    0.399
       318  -9.6512    152.9350    128.7687   4.8309871148e+01   2.5579191555e+01     0.444065    0.2297537 -49.97  0.001245806    2.161    0.537
       319  -9.9241     73.1217    128.8097   7.0049978315e+01   4.0508295569e+01    0.4533469    0.2903675 -88.63  0.001462538    1.977    0.494
       320  -7.8000      1.6790    130.3086   9.1693212338e+01   4.7557242687e+01    0.1285585   0.07298946  62.79  0.000703454    1.643    0.391
       321  -8.2056    220.5118    129.5545   3.5006225071e+01   1.1596565301e+01     0.136024    0.1210525  -8.85 0.0001364413    1.012    0.011
       322  -8.2008    211.6597    129.2896   3.6459019426e+01   1.3339852599e+01    0.1999397    0.1618967 -66.38 0.0007250487    1.735    0.424
       323 -10.7651     45.2227    123.7239   7.7819634302e+01   4.5402053775e+01     1.124651    0.5026584  69.63  0.003723674    4.134    0.758
       324  -9.9173    117.9307    125.0947   5.6317586952e+01   3.3563234138e+01     0.569309    0.3838972  77.44  0.001463754    2.336    0.572
       325  -7.8755    228.3341    125.3172   3.2784755328e+01   1.0762824951e+01    0.1398892    0.0968862   7.28 0.0003284308    1.693    0.409
       326  -8.9187    179.3067    124.5442   4.1495086366e+01   2.0766064836e+01    0.2826321     0.241863 -71.30 0.0008026398    1.484    0.326
       327 -10.6988    131.9918    119.4346   5.1231200579e+01   3.1929447790e+01     0.820341    0.5236651  85.75  0.002775682    3.485    0.713
       328 -10.1050     28.4988    122.2261   8.2876383218e+01   4.7472062669e+01    0.7450868    0.3312717  78.45  0.002859654    3.172    0.685
       329  -9.1249     97.9520    127.5031   6.2454286753e+01   3.6764825711e+01    0.4919946    0.2172343 -57.37  0.001846721    2.391    0.582
       330  -7.8456    188.5127    123.5477   3.9407413980e+01   1.8993749125e+01    0.1435599    0.1375507  -5.21 0.0001093781    1.048    0.046
       331  -8.6626     84.3905    122.6740   6.5453764448e+01   4.0224807259e+01    0.3342094    0.2149434  20.00  0.001463416    2.019    0.505
       332  -8.5498    171.9130    121.3463   4.2271465040e+01   2.2937043270e+01    0.2370584    0.2018903 -47.35 0.0004352134    1.247    0.198
       333  -9.2828    158.4859    121.0885   4.5175040969e+01   2.5901219000e+01    0.3414042    0.2519415 -71.28 0.0008220163    1.921    0.479
       334  -7.6528    202.7508    121.6645   3.6278791015e+01   1.6351139161e+01     0.142306    0.1050712  -0.89 0.0002933122    1.559    0.359
       335  -7.7884    194.8002    121.5789   3.7728021136e+01   1.8012234099e+01    0.1811152    0.1401488  61.80 0.0003902513    1.552    0.355
       336  -8.7758     99.0386    120.3249   6.0575357296e+01   3.8241462822e+01    0.3332908    0.2226272  -8.78   0.00129055    2.718    0.632
       337  -9.8011     71.4027    119.4960   6.8824484087e+01   4.3024446226e+01    0.4974088    0.2921089 -86.67  0.001513704    2.467    0.595
       338  -9.9367    141.6868    118.2896   4.8486788347e+01   3.0104826810e+01    0.5499614    0.3468073 -61.69  0.001377267    2.108    0.526
       339  -8.0531     15.3115    119.3452   8.6690619067e+01   4.9262702884e+01    0.1312988   0.08244325 -48.33 0.0007045989    1.707    0.414
       340  -9.3977      3.0190    117.1942   9.0319336760e+01   5.0599526051e+01    0.4662325    0.1891481  62.59  0.002061423    2.708    0.631
       341  -8.1351    185.6268    115.8258   3.8101689691e+01   2.0957759373e+01    0.2087564    0.1315503 -45.67 0.0004990863    1.671    0.401
       342 -10.2322    109.2791    112.9826   5.5862910956e+01   3.7989016840e+01    0.8258204    0.3662747 -53.59  0.002715686    2.404    0.584
       343  -8.2674    192.9012    115.0895   3.6518737469e+01   1.9516771826e+01    0.2152723    0.1906179 -55.45 0.0004571748    1.274    0.215
       344  -7.3898    153.2899    115.6366   4.5018771833e+01   2.8109103254e+01    0.1549449     0.122688 -78.92 0.0007025896    1.699    0.411
       345 -10.2267     92.7465    112.2064   6.0598955005e+01   4.1278120246e+01    0.5900319    0.3401245 -69.74  0.001426655    2.303    0.566
       346  -8.9110     93.7878    104.3917   5.8375914015e+01   4.2918773218e+01     0.336276    0.2308243  -0.65  0.001359168    2.417    0.586
       347  -9.9782     79.1225    112.3832   6.4902211221e+01   4.3554136340e+01    0.6372195    0.3996412  87.76  0.001941263    2.511    0.602
       348  -8.8862     78.5299    104.7751   6.3364720822e+01   4.5480406014e+01    0.3306991    0.2137639   9.73  0.001316678    2.399    0.583
       349  -8.2035    167.1416    114.2993   4.1548572708e+01   2.5298129123e+01    0.2109639    0.1948431  43.39 0.0005925436    1.090    0.082
       350  -9.1076     60.0182    114.5064   7.1515272801e+01   4.5856034257e+01    0.3074882    0.1484387  21.87  0.001202806    2.729    0.634
       351  -9.8688    133.7213    109.7725   4.8340178227e+01   3.3605781689e+01    0.6592465    0.3468004 -52.92  0.002098254    2.163    0.538
       352  -9.6644    121.9424    112.4276   5.2163950805e+01   3.5546470974e+01    0.3487579    0.2888483  75.96 0.0006416534    1.428    0.300
       353  -8.6567    174.7877    111.5333   3.9219927446e+01   2.4108421384e+01    0.2859382    0.1862903 -53.20 0.0006260738    1.805    0.446
       354  -8.6038    159.1039    111.6511   4.2659238625e+01   2.7595531105e+01    0.2605306    0.2029669 -50.18 0.0005809683    1.367    0.268
       355  -9.8120     66.6622    110.4860   6.8538409914e+01   4.5919699156e+01     0.426651    0.2759468  72.20  0.001223373    2.069    0.517
       356  -9.6646     14.4253    111.0620   8.6097688086e+01   5.1349428435e+01    0.3649854    0.1859467  78.08  0.001270918    2.147    0.534
       357  -7.7028    182.7817    109.0139   3.6958581685e+01   2.2779676151e+01    0.2026396    0.1183326 -36.14 0.0007006609    1.675    0.403
       358  -7.7526    149.6739    109.7059   4.4349856467e+01   3.0090276955e+01    0.1569457    0.1211816  10.16 0.0003309976    1.623    0.384
       359  -8.9920     42.9281    109.0229   7.6234568096e+01   4.9297017835e+01    0.3541984    0.1540201  15.71  0.001313946    3.487    0.713
       360  -7.5831    231.4856    117.4831   3.0530496025e+01   1.1327655403e+01    0.1338256    0.1185213 -29.40 0.0008078986    1.111    0.100
       361 -11.2592    248.8020    105.2048   2.5306266265e+01   9.8645585303e+00    0.7164962    0.2991672 -29.49  0.003173489    2.118    0.528
       362  -9.0014    107.3186     92.3253   5.0953899225e+01   4.3004419240e+01    0.5040549    0.3336537  27.94  0.002163632    1.792    0.442
       363 -10.6656     46.0473    102.3466   7.3957191917e+01   5.0603028703e+01    0.8376094    0.4108425  64.92  0.003025405    3.466    0.712
       364 -10.7289     22.8848    102.5772   8.2164256447e+01   5.2800461427e+01    0.7020242    0.3441936  66.16  0.002381766    2.661    0.624
       365  -9.2402    139.6966    104.3115   4.5364092146e+01   3.3416827561e+01    0.3491114    0.2766047 -84.80 0.0006858838    1.675    0.403
       366  -8.4995    166.7841    103.9640   3.8950161341e+01   2.7309900817e+01    0.2733005    0.2025359 -57.17 0.0007497178    1.571    0.363
       367  -9.5640    150.4622    102.8050   4.2327495723e+01   3.1276622021e+01    0.4310528    0.2814295 -57.61  0.001172033    1.875    0.467
       368 -10.4282    128.6758    101.5250   4.7466430057e+01   3.6446428091e+01      0.51876    0.3519528 -45.71  0.001738187    1.494    0.331
       369  -8.6009      6.8642    102.7993   8.7740129440e+01   5.3858315393e+01    0.2494583    0.1298163  72.11  0.001030519    2.076    0.518
       370  -7.8756    175.4475    102.1897   3.6665731538e+01   2.5647937768e+01    0.2085645    0.1388029 -47.87 0.0005381231    1.592    0.372
       371  -8.2858    159.8014    101.0095   3.9691819208e+01   2.9471969870e+01    0.2344803    0.2056029 -67.17 0.0005343755    1.291    0.226
       372  -9.2324     82.1601     99.8905   6.0982455910e+01   4.6039255478e+01    0.3500911    0.2624769  82.94 0.0008948908    1.733    0.423
       373  -9.3325     95.0015     96.8731   5.6034436332e+01   4.4429084268e+01     0.311162    0.2361999 -65.27 0.0006293351    1.450    0.310
       374 -10.2005     63.7950     95.5258   6.6210808897e+01   4.9981773880e+01    0.6126489    0.3797942  85.37  0.001543116    2.620    0.618
       375  -9.1272     64.2041     87.7970   6.4156587186e+01   5.1781387169e+01    0.6364414    0.3306196  11.41   0.00211901    3.943    0.746
       376  -8.9859    192.6015     95.1465   3.1529465948e+01   2.2945050256e+01     0.237838    0.2037306  67.80 0.0005348912    1.303    0.233
       377  -8.3562    164.8293     94.0524   3.6686851312e+01   2.9590926427e+01    0.2332823    0.2012364 -60.15 0.0005126568    1.270    0.213
       378  -9.3201    139.1919     92.2587   4.2130812519e+01   3.5962103131e+01    0.4264494    0.3111342 -82.49  0.001266567    2.033    0.508
       379  -8.7191    126.5771     84.2842   4.3055657170e+01   4.0474959883e+01     0.466894    0.2447592  22.78  0.001266431    4.751    0.790
       380  -9.7905    119.6854     91.6286   4.7144010751e+01   4.0512422651e+01    0.5392563    0.3308914 -62.89  0.001985369    2.232    0.552
       381  -9.8862    124.6694     90.7084   4.5490386533e+01   3.9597722482e+01     0.458197    0.3506672 -79.32  0.001099826    1.765    0.433
       382  -8.3464    189.1575    107.6584   3.5379903267e+01   2.1602417159e+01    0.2567822    0.1879246 -43.48 0.0007331573    1.382    0.276
       383  -7.8254    188.6549     93.3133   3.1763495864e+01   2.4152500735e+01    0.1522813    0.1156944 -71.00 0.0007046923    1.711    0.416
       384  -8.2518    176.2051     92.8943   3.4024057518e+01   2.7119045674e+01    0.2341256    0.1989622 -64.76  0.000704742    1.333    0.250
       385  -9.2612     46.3211     92.0978   7.1798829639e+01   5.3100006760e+01    0.3747268    0.2243702   2.27  0.001631894    2.544    0.607
       386  -9.5833     34.9697     89.8559   7.5621823090e+01   5.4870714319e+01    0.4637884    0.2562408  87.23  0.001489756    2.511    0.602
       387  -9.6400      5.0350     91.5068   8.7139805826e+01   5.6711063537e+01    0.3517441    0.1807535  55.43  0.001328894    2.202    0.546
       388  -8.2982    157.6363     91.2555   3.7475555191e+01   3.1810087445e+01    0.2154531    0.1463896 -27.48 0.0005031981    1.596    0.373
       389  -9.0386     22.6245     90.1293   8.0371454906e+01   5.5893552034e+01    0.3079589    0.2239323 -21.52  0.001355637    1.657    0.397
       390  -8.0949    150.9683     88.9972   3.8345762689e+01   3.3820142800e+01    0.2439732    0.1886813 -71.01 0.0005555566    1.635    0.389
       391 -10.2533     86.5502     85.7965   5.5709781532e+01   4.8535036750e+01    0.6614501    0.4280994 -62.24  0.001294712    1.766    0.434
       392  -7.9582    163.9861     86.9410   3.4870153039e+01   3.1078918929e+01    0.1873082    0.1740212 -32.61 0.0004732219    1.070    0.065
       393  -9.8269     48.4972     83.9720   6.9133384427e+01   5.4820817530e+01    0.5430216    0.3267196  71.69  0.001970296    2.675    0.626
       394  -7.5007    179.2850     85.6144   3.1428560361e+01   2.7644034988e+01    0.1589993    0.1135711 -63.31 0.0007008981    1.742    0.426
       395  -8.6050    157.9744     83.8005   3.5258168248e+01   3.3095580549e+01    0.2651961    0.2180112 -38.27 0.0004464636    1.213    0.175
       396  -9.9193    104.7358     82.8717   4.8942054367e+01   4.5590264903e+01    0.4298753    0.3063133 -71.04 0.0008737002    1.904    0.475
       397  -9.2035    140.9450     82.5034   3.8816291189e+01   3.7446181634e+01    0.3349673    0.2195273 -44.77 0.0008044599    1.556    0.357
       398  -8.6322     36.2957     82.2754   7.3549934670e+01   5.6594825068e+01    0.3464714    0.1458435 -32.51  0.001157319    4.053    0.753
       399 -10.9716    109.2386     98.8896   5.2217357381e+01   4.1161064339e+01    0.8817574    0.4735198  63.76   0.00180975    3.251    0.692
       400  -8.2483     64.1905     82.2879   6.2701772029e+01   5.3089127341e+01    0.1964632    0.1649048 -89.74 0.0008015599    1.387    0.279
       401  -9.5646     24.6226     80.3010   7.7845664519e+01   5.8142155207e+01    0.4847614    0.2565004  89.09  0.001721238    2.508    0.601
       402  -8.9039    119.3080     79.9294   4.3719483670e+01   4.3013187835e+01    0.3158697    0.2277145 -60.16 0.0008181664    1.641    0.391
       403  -8.7531     74.5651     80.2051   5.8280788329e+01   5.1922113589e+01    0.3355863    0.2285433 -74.70   0.00105867    1.980    0.495
       404  -9.0059      9.5892     80.4529   8.3938822141e+01   5.9147244215e+01    0.2683046    0.1598268  59.25 0.0009741035    1.970    0.492
       405  -8.3646    150.0995     80.0820   3.5918013867e+01   3.5685590106e+01    0.2434259    0.1883625 -71.49 0.0007306947    1.617    0.382
       406  -8.2170    166.8965     79.3268   3.2076026705e+01   3.1711092455e+01    0.2051609    0.1976622  27.67  0.000448713    1.057    0.054
       407  -8.0249    184.2080     77.9698   2.8398958619e+01   2.7732057238e+01    0.2053107    0.1160416 -34.07 0.0007260605    1.713    0.416
       408  -7.8137    157.3420     76.1755   3.3137394277e+01   3.4607449521e+01     0.218986    0.1359061 -45.13 0.0003985706    1.652    0.395
       409  -9.2990    128.1590     75.2025   3.9803401359e+01   4.1888752825e+01     0.362474    0.2508719 -57.74 0.0006508741    1.713    0.416
       410  -8.1690     90.9864     76.0438   5.1246506449e+01   4.9852346418e+01    0.1763141    0.1727073 -15.00 0.0003226558    1.007    0.007
       411 -10.0065     63.2627     73.6593   6.0595135042e+01   5.5233653100e+01    0.4745932    0.3112735 -75.60  0.001108977    2.119    0.528
       412  -8.3780    140.4967     75.1566   3.6666603449e+01   3.8929682094e+01    0.2437303    0.2133259 -83.58 0.0005327127    1.306    0.234
       413  -9.7276     82.7353     72.7710   5.3053717331e+01   5.2136862343e+01    0.4673088    0.3226354 -79.36  0.001237205    2.323    0.570
       414  -8.4170    163.4910     73.0646   3.0920754324e+01   3.3619775988e+01    0.2357018    0.1489569 -35.99 0.0007418726    1.567    0.362
       415  -8.5234    115.7775     72.8565   4.2459766032e+01   4.5226476644e+01    0.2766583    0.2069196 -60.01 0.0004522361    1.566    0.361
       416  -8.3335     42.7249     72.5694   6.8603724139e+01   5.8233817446e+01    0.2284466    0.1643675 -86.73 0.0007389272    1.731    0.422
       417  -7.4562    175.3296     72.3077   2.8401847395e+01   3.0813230860e+01    0.1553618    0.1164966  21.48  0.000703926    1.661    0.398
       418  -9.2615    105.9283     71.5299   4.4952324153e+01   4.7691970525e+01    0.2880155    0.2100055 -59.31 0.0006508154    1.605    0.377
       419  -9.1667     95.2229     71.1154   4.8228391339e+01   5.0046534383e+01    0.3700606    0.2497273 -60.96  0.001130771    1.824    0.452
       420  -9.4266     51.4132     69.3741   6.4095863693e+01   5.7906844705e+01    0.4354796    0.2474873 -72.59  0.001249264    2.419    0.587
       421  -8.9290     16.7643     69.6843   7.9086477210e+01   6.1298172810e+01    0.2949571    0.1962514  83.74  0.001077152    1.751    0.429
       422  -8.7444    147.0221     67.8653   3.2840262362e+01   3.8619778003e+01    0.3378805     0.215318 -47.15 0.0006687955    1.653    0.395
       423  -8.7274    138.6299     65.8760   3.4147162049e+01   4.1057137692e+01    0.3015231    0.2215429 -62.75 0.0006814519    1.652    0.395
       424  -8.6912    121.6354     65.7939   3.8461837732e+01   4.5209928686e+01    0.2922743    0.2232261 -67.46 0.0006610397    1.648    0.393
       425  -8.6047     83.6514     65.1100   5.0169315623e+01   5.3595128888e+01    0.4112601    0.2421757   8.61   0.00134162    3.817    0.738
       426  -8.7644     37.5520     64.3633   6.8619328217e+01   6.0735020934e+01    0.2805097    0.2022191  79.17  0.001142609    1.926    0.481
       427  -9.0591    110.1614     63.4350   4.0912431596e+01   4.8327475135e+01    0.3380415    0.2448234 -64.91 0.0009279889    1.803    0.445
       428  -7.8559    250.6705     63.3479   1.5564906258e+01   1.5113483796e+01    0.1381012   0.08284094 -55.35 0.0004340526    1.761    0.432
       429  -8.6103     65.0827     62.7007   5.6391696584e+01   5.7395225994e+01    0.2970772    0.1790373   5.02  0.001137504    2.931    0.659
       430  -7.8202    158.3998     61.5476   2.8419642700e+01   3.6800941160e+01    0.1492778    0.1463456 -60.67  0.000102829    1.021    0.020
       431  -9.3680     97.6684     60.4430   4.3728140464e+01   5.1673488696e+01     0.320885    0.2367816  56.90  0.001004371    1.492    0.330
       432  -9.6934     73.3675     59.3572   5.1963965732e+01   5.6696454383e+01    0.4584193    0.2560464 -55.46  0.001323588    2.056    0.514
       433  -8.1504     88.9765     59.2920   4.6227379096e+01   5.3720640095e+01    0.2024811    0.1956615  15.57 0.0004967568    1.033    0.032
       434  -8.5075    130.8404     57.5553   3.3245996173e+01   4.4428022278e+01    0.3001388    0.1877498 -50.95 0.0007210745    1.815    0.449
       435  -9.8466     23.4264     56.0893   7.2893786025e+01   6.3999451613e+01    0.4467024    0.2748549  83.11   0.00198261    2.534    0.605
       436  -9.4447      7.6821     57.0948   8.0712290166e+01   6.4831216599e+01    0.2965905    0.1937852  68.06  0.001193182    1.952    0.488
       437  -7.9772    139.8804     55.7827   3.0495643557e+01   4.2448595484e+01     0.205224    0.1776184 -70.37 0.0003893355    1.282    0.220
       438  -8.9584    119.3021     55.6997   3.5577675801e+01   4.7577529319e+01    0.3030882    0.2364044 -70.03 0.0007428036    1.623    0.384
       439  -8.6726     44.2050     55.2483   6.2842724598e+01   6.2027688325e+01     0.266127    0.2101692 -77.19  0.001065972    1.568    0.362
       440  -9.1502     62.8322     54.3470   5.4368230721e+01   5.9535243790e+01    0.3251069    0.1941213 -52.99  0.000654554    1.740    0.425
       441  -9.0513     54.2290     53.9102   5.7888262212e+01   6.0956462668e+01    0.3885868    0.2348239 -68.29  0.001367853    2.441    0.590
       442  -8.3819    105.7918     53.0569   3.8466721978e+01   5.1230244641e+01    0.2307267    0.2012395 -61.18 0.0006618011    1.303    0.232
       443  -9.4811     92.4739     50.2764   4.1637989909e+01   5.4694745033e+01    0.4229053    0.2537009 -50.59  0.001201845    1.929    0.482
       444  -8.3083    144.6820     48.8001   2.7073070071e+01   4.2313494165e+01    0.2186905    0.1313605 -40.44 0.0004489683    1.688    0.408
       445  -8.6026    129.8309     48.8272   3.0422807144e+01   4.6108544425e+01    0.2097664    0.1799927 -68.67 0.0005649751    1.315    0.240
       446  -8.4482      8.3538     49.3143   7.8678691608e+01   6.6596758397e+01    0.1368586   0.07268054 -39.11 0.0007045586    1.736    0.424
       447  -8.4217    120.7943     47.3049   3.2120827653e+01   4.8609944318e+01    0.2084628    0.1837403 -38.36 0.0006278158    1.170    0.145
       448  -8.3782    112.3498     46.8570   3.4221245986e+01   5.0742799758e+01    0.2335528    0.1778888 -50.18   0.00058956    1.452    0.311
       449  -8.9539     82.1717     46.1872   4.3614452946e+01   5.7587942744e+01     0.285733    0.2231106 -48.64  0.000566023    1.390    0.280
       450  -8.6381     45.0372     44.5288   5.8626922733e+01   6.4213432216e+01    0.2460307    0.1820564 -62.66 0.0006854796    1.580    0.367
       451  -8.7572     16.9548     44.5238   7.2925798379e+01   6.7129034932e+01    0.2236567    0.1674742 -79.10 0.0006866706    1.519    0.342
       452  -8.3075    132.5969     42.8226   2.7615020814e+01   4.6320836164e+01    0.2142903    0.1349905 -43.65 0.0003804627    1.672    0.402
       453  -8.2396     92.5324     42.9450   3.8695743749e+01   5.5966525418e+01    0.2099815    0.1281235  -8.31 0.0006860775    2.538    0.606
       454  -9.5015     69.6457     41.3068   4.6399122317e+01   6.0904753812e+01     0.431742    0.2832133 -60.98  0.001392478    2.233    0.552
       455  -8.7858     58.2975     42.3965   5.1659189623e+01   6.2673190187e+01    0.3145024    0.2243971 -71.28  0.001041204    2.240    0.554
       456  -9.5914      5.4525     42.0958   7.8455138498e+01   6.8387752508e+01    0.2877395    0.1945613  85.62  0.001185418    1.855    0.461
       457  -8.2138    140.3761     41.2594   2.5363734498e+01   4.4537256465e+01    0.2129405    0.1333651 -41.99 0.0004828935    1.650    0.394
       458  -8.7209    105.8914     41.0970   3.3811150858e+01   5.3210461116e+01    0.2248099    0.1996666 -64.26 0.0005429922    1.300    0.231
       459  -8.8616     36.9180     40.4936   6.1086806189e+01   6.6076353157e+01    0.2350215    0.1789362 -64.82 0.0005719376    1.544    0.352
       460  -7.7168    160.6375     39.8130   2.1033731294e+01   3.9435811443e+01    0.2185029     0.126246 -41.17 0.0004421025    1.731    0.422
       461  -8.8685     95.7672     37.9355   3.5579907086e+01   5.6062233254e+01    0.2611074    0.1957785 -51.12 0.0006290803    1.549    0.355
       462  -8.5756     80.8638     36.7233   4.0114099422e+01   5.9502045111e+01    0.2599185    0.1821053 -60.25 0.0008254988    2.021    0.505
       463  -9.2641     26.1698     35.2203   6.4771484736e+01   6.8344427758e+01    0.2769389    0.2066412 -72.29 0.0008168822    1.695    0.410
       464  -8.0126    125.9976     35.5063   2.6414632235e+01   4.9060687625e+01    0.2175491    0.1416253  57.85 0.0003370744    1.462    0.316
       465  -9.4984    233.3413    245.9704   5.4106932627e+01  -5.3534644878e+00    0.4209569    0.2083149 -14.52  0.001999966    2.251    0.556
       466  -8.4146    119.2265     33.1772   2.7118902599e+01   5.1105016927e+01    0.2039684    0.1721791 -63.80 0.0004491083    1.357    0.263
       467  -8.8868     60.6350     32.2577   4.6194198166e+01   6.4142317316e+01    0.2348699    0.2168176 -78.98 0.0007146726    1.453    0.312
       468  -8.9636     72.2430     31.1296   4.0856650403e+01   6.2163612393e+01    0.2402878    0.1851524 -51.79 0.0007247815    1.574    0.365
       469  -8.8472     13.1473     30.3877   7.0499014120e+01   7.0472644685e+01    0.2434759    0.1804993 -71.42 0.0008399673    1.532    0.347
       470  -8.6908    101.6515     29.1395   3.0086448682e+01   5.5992050243e+01    0.2247723    0.1767951 -50.67 0.0006791792    1.467    0.318
       471  -8.8413     81.6721     27.3413   3.5602386636e+01   6.0800857346e+01    0.2739639    0.2261006 -73.59   0.00103286    1.694    0.410
       472  -8.9960      3.8724     27.6721   7.5267313663e+01   7.1626456929e+01    0.2248372    0.1574327 -66.49 0.0008032366    1.381    0.276
       473  -8.8800     48.6427     33.1721   5.2156302079e+01   6.5936032484e+01    0.2332933     0.204043  70.44  0.000699366    1.631    0.387
       474  -8.7716     91.8930     26.2754   3.1735019844e+01   5.8677046192e+01     0.303268    0.1872473 -45.07  0.000874762    1.870    0.465
       475  -8.9025     63.5971     20.8752   3.9381371931e+01   6.5433317831e+01    0.2672407    0.2055999 -43.20 0.0008225854    1.482    0.325
       476  -8.8760     48.2755     21.2726   4.6591397314e+01   6.8077476362e+01    0.2613237    0.1901789 -41.52 0.0009087963    1.439    0.305
       477  -7.9188     34.3337     22.6498   5.4682415876e+01   6.9867518555e+01    0.1185568    0.1045371  87.07 0.0007047275    1.779    0.438
       478  -7.8786     19.5266     21.4818   6.2962153138e+01   7.1745145881e+01    0.1237461    0.1042797 -29.07 6.938785e-05    1.045    0.043
       479  -8.8978     74.3103     19.5590   3.4501129820e+01   6.3468999724e+01    0.2676063    0.2145345 -61.42 0.0007514256    1.723    0.420
       480  -8.3937     38.8918     18.1576   4.9844870963e+01   7.0026817558e+01    0.1805725    0.1729552 -24.08 0.0005132931    1.291    0.225
       481  -8.0341    112.6101     16.7979   2.2006750615e+01   5.4817705048e+01    0.1878044    0.1307953 -36.58 0.0003051028    1.534    0.348
       482  -8.2532     87.7248     17.1893   2.8810778011e+01   6.0818770782e+01    0.2142067    0.1663775 -42.81 0.0005297501    1.465    0.317
       483  -8.1078    191.7960    249.5972   6.1664210868e+01  -3.7407757309e-01    0.1567805   0.08226313  40.14 0.0005734951    1.693    0.409
       484  -7.7752      7.7066     15.3507   6.8039348772e+01   7.3914696903e+01    0.1065322   0.09293387  80.65 0.0007030814    1.677    0.404
       485  -9.2415    175.4976    247.3931   6.4298474722e+01   2.1156334301e+00    0.2562503    0.2087786  68.67  0.001380921    2.079    0.519
       486  -8.7914    132.4020    247.8412   7.2384699445e+01   8.1006056317e+00    0.2765712    0.1605697  57.11 0.0009785262    2.106    0.525
       487  -8.0544    113.0114    248.5212   7.6146393221e+01   1.0683671666e+01    0.1803084    0.1307032  68.70   0.00122308    1.640    0.390
       488  -8.0744     97.1557     15.0982   2.5102433431e+01   5.8839706331e+01    0.1882997    0.1668335 -56.34 0.0004881923    1.320    0.243
       489  -8.2097     93.8456    248.7989   7.9825629658e+01   1.3207945229e+01    0.2076573    0.1178615  66.94  0.001068995    2.146    0.534
       490  -9.2916    242.9984    246.2344   5.2594290250e+01  -6.5442255732e+00    0.3271631    0.1534046 -16.86  0.001976329    2.266    0.559
       491  -8.9182    218.5463    247.0272   5.6703151540e+01  -3.6082000594e+00    0.2753577   0.09903331 -32.40  0.001448215    3.162    0.684
       492  -8.4437    156.2506    248.0886   6.7926249833e+01   4.7181062249e+00    0.2070644    0.1202336  51.24 0.0007407446    1.986    0.496
       493  -9.1107    103.7058    246.4811   7.7737495892e+01   1.2252747836e+01    0.3423471    0.1960166 -86.91  0.001889186    2.917    0.657
