#   1 NUMBER                 Running object number                                     
#   2 MAG_AUTO               Kron-like elliptical aperture magnitude                    [mag]
#   3 X_IMAGE                Object position along x                                    [pixel]
#   4 Y_IMAGE                Object position along y                                    [pixel]
#   5 X_WORLD                Barycenter position along world x axis                     [deg]
#   6 Y_WORLD                Barycenter position along world y axis                     [deg]
#   7 A_WORLD                Profile RMS along major axis (world units)                 [deg]
#   8 B_WORLD                Profile RMS along minor axis (world units)                 [deg]
#   9 THETA_WORLD            Position angle (CCW/world-x)                               [deg]
#  10 FWHM_WORLD             FWHM assuming a gaussian core                              [deg]
#  11 ELONGATION             A_IMAGE/B_IMAGE                                           
#  12 ELLIPTICITY            1 - B_IMAGE/A_IMAGE                                       
         1 -12.8347    191.3353     46.8125   2.9051446977e+01   3.1413338738e+01     1.125443    0.9585802  17.15  0.004032678    1.431    0.301
         2 -12.3958    215.8606     21.2590   2.0135960969e+01   2.8981211121e+01    0.9106795    0.4567966 -52.52  0.004758678    1.772    0.436
         3 -12.0995    220.6812     16.1996   1.8584811926e+01   2.8489876389e+01    0.9622863    0.4184497 -53.38  0.004792694    2.046    0.511
         4  -9.4616    188.6415     14.4974   2.0323185311e+01   3.5647627228e+01    0.2514466     0.208214 -50.45 0.0007692442    1.056    0.053
         5 -10.5638    119.3545      9.9898   2.6399778067e+01   5.3638907937e+01    0.6166041    0.4105581  48.63  0.002910426    1.521    0.343
         6 -10.9609      3.9031      4.5068   7.8356684215e+01   7.9259974023e+01    0.3613409    0.3408086  38.47  0.002482697    1.316    0.240
         7 -10.0490    221.5537      2.3920   1.5209035494e+01   2.9592434937e+01    0.2670047   0.09683163  73.02  0.001262125    2.861    0.651
         8  -8.4725     21.6570      2.3023   5.8641153239e+01   7.7478262875e+01     0.117672     0.105056  79.14 0.0003015558    1.679    0.405
         9 -10.6366     62.3129    237.6643   9.4609882782e+01   1.9028852811e+01    0.2461237    0.1464089  70.09  0.001085904    2.012    0.503
        10 -12.6611    246.8374    240.6216   6.0197597644e+01  -2.0656361803e+00     1.489799    0.4819563 -28.57  0.008612686    2.823    0.646
        11  -9.2847    247.9670    202.5046   5.4356854021e+01   1.6432480493e+00    0.1472329   0.08706354  25.14  0.001031211    1.585    0.369
        12 -10.2058     61.2505    199.6768   9.1960904802e+01   2.6194311819e+01    0.2042374    0.1966906 -32.73 0.0002239944    1.258    0.205
        13  -9.3067    192.3813    194.1738   6.2015891250e+01   9.3771784691e+00    0.4957082    0.2915205 -59.05  0.001995929    5.226    0.809
        14  -9.0210     52.8019    197.2806   9.3872856201e+01   2.7633215970e+01     0.288219    0.1358314  37.35  0.001214079    1.691    0.409
        15 -14.0735     11.0123    207.4595   1.0463861034e+02   2.9539380952e+01    0.5894184    0.3631865  30.50  0.001734325    1.397    0.284
        16  -9.8632    237.3157    249.9239   6.2873248117e+01  -2.0423524480e+00    0.2368922    0.1264439  14.63 0.0009767953    1.409    0.290
        17  -8.6466     14.5597    197.8750   1.0344281839e+02   3.1200648800e+01    0.1077249   0.07202956  11.88 0.0006264979    1.718    0.418
        18  -8.5405     81.8962    196.0603   8.6469228956e+01   2.4415935857e+01    0.1948664    0.1559142  39.02 0.0005053791    1.065    0.061
        19  -9.0776     43.2345    194.1958   9.6058746795e+01   2.9298667476e+01    0.1632946     0.111347  49.35 0.0002788416    1.246    0.197
        20 -10.0695      7.7098    193.8711   1.0497994552e+02   3.2586800292e+01    0.3486224    0.1187904  26.79  0.001261625    2.409    0.585
        21 -11.6972     58.0727    188.7575   9.1788607636e+01   2.8824565361e+01    0.3956936    0.3434496  86.20  0.001445334    1.226    0.184
        22  -8.5019    166.9912    223.9839   7.1288362474e+01   8.5817802156e+00    0.1636519    0.1330744  46.73 0.0007306885    1.709    0.415
        23  -8.4914     59.0842    217.9293   9.3949120558e+01   2.2886861426e+01    0.1573518    0.1205535  52.10 0.0002995448    1.168    0.144
        24  -8.5977     86.7598    187.8659   8.4301450051e+01   2.5428920784e+01    0.1874531    0.1748287   8.38  0.001167087    1.152    0.132
        25 -10.9797    145.2936    184.4778   6.9843681516e+01   1.7614041632e+01    0.4276468    0.2450681 -48.04  0.001616437    1.991    0.498
        26 -10.1528    147.0210    176.7545   6.8170996453e+01   1.8691463702e+01    0.2531089    0.1940625 -35.44 0.0002736441    1.374    0.272
        27  -8.6154     22.2917    184.7190   1.0087474579e+02   3.3351318571e+01    0.2135046   0.09219927  50.70   0.00081617    1.953    0.488
        28  -8.2989     19.0472    184.5568   1.0171535006e+02   3.3667692689e+01    0.1947936    0.1174539  31.31 8.623896e-05    1.460    0.315
        29 -11.5405     75.5176    249.9250   9.2662955745e+01   1.5626687661e+01    0.2418351     0.155121  29.62  0.000889224    1.191    0.160
        30  -8.4909     13.2618    184.5768   1.0322245834e+02   3.4142677973e+01    0.1604517    0.1062799  28.66  0.000894929    1.401    0.286
        31 -10.2706     89.9434    181.3090   8.2658780296e+01   2.6342635918e+01      0.29435    0.2611929 -69.06 0.0007358883    1.277    0.217
        32  -9.4944     92.6500    179.3355   8.1696541601e+01   2.6374346513e+01    0.2587757    0.1821749  72.21 0.0009886501    1.840    0.457
        33  -9.8644     57.5562    211.9568   9.3859761183e+01   2.4186097621e+01    0.3611575    0.2364505 -82.58  0.001878797    1.794    0.443
        34  -9.3599    180.2225    175.6614   6.1104226078e+01   1.3789929826e+01    0.2763303    0.1670523 -51.53  0.001401556    2.349    0.574
        35 -10.1635     53.9891    206.0416   9.4265649751e+01   2.5731401607e+01    0.2392688    0.1743841  51.58 0.0006833177    1.200    0.167
        36  -8.4837    152.9822    174.4874   6.6472091507e+01   1.8157258305e+01    0.1963081     0.118343  32.86 -1.892696e-06    1.515    0.340
        37 -10.3801    144.9569    168.7713   6.7231236453e+01   2.0439024450e+01    0.3564965    0.2559592 -33.99  0.001535084    1.454    0.312
        38 -18.2572     17.5590    234.5402   1.0406328006e+02   2.3887862395e+01     6.296993     5.614278 -54.63   0.03408592    1.536    0.349
        39  -8.5911    177.8485    167.1599   6.0007105606e+01   1.5477150194e+01    0.1789083    0.1339235  -0.23            0    1.306    0.234
        40  99.0000     48.4914    209.5205   9.5843081326e+01   2.5633164085e+01    0.4478221    0.1815768  35.05  0.002215624    1.867    0.464
        41 -10.1557    120.3727    166.1144   7.2597153180e+01   2.4899373527e+01    0.3538159    0.2750746  76.96  0.001096717    1.817    0.450
        42  -9.4133    125.7035    159.3663   7.0078694884e+01   2.5378885551e+01    0.2399017    0.1760687 -65.10 0.0008002733    1.738    0.425
        43  -9.8783    136.7902    155.7187   6.6701393727e+01   2.4231336576e+01    0.4680949    0.3252211 -71.71  0.001381859    2.291    0.563
        44 -10.6568    133.7894    146.1734   6.5540005598e+01   2.6623418627e+01     1.057996    0.3211167 -54.14  0.002951983    5.203    0.808
        45  -7.9379    232.5044    150.3952   4.7482525307e+01   9.7170406989e+00    0.1164983    0.0940721 -11.28 0.0008008081    1.045    0.043
        46  -9.8900    144.5252    146.9918   6.3149118068e+01   2.4560732881e+01    0.3997795     0.274367 -77.85    0.0016885    2.858    0.650
        47  -9.6968    140.3258    147.2998   6.4196315892e+01   2.5245049232e+01    0.3394983    0.2519486 -89.75  0.001563943    2.358    0.576
        48  -9.5757    114.1113    144.3517   7.0217165372e+01   3.0455909195e+01    0.2358043    0.1790645  15.73  0.001177239    1.455    0.313
        49  -9.6150    124.9240    141.1487   6.6731224339e+01   2.9225464216e+01    0.2188521    0.1899578  56.75 0.0004384959    1.268    0.212
        50  -9.4526    158.8846    131.0984   5.6501126925e+01   2.4896553418e+01    0.4437279    0.3084473  -3.42   0.00149364    1.869    0.465
        51 -10.9608     40.6384    207.7807   9.7612749908e+01   2.6783734341e+01    0.3671916    0.2180512 -43.36  0.002002857    2.362    0.577
        52 -10.3592    115.1288    128.0540   6.6522448843e+01   3.3803191238e+01    0.3371824     0.288042  10.63 0.0008589117    1.269    0.212
        53 -10.5994     88.0428    122.3104   7.3280876846e+01   3.9979190363e+01    0.4851005    0.2919618  58.96  0.001463722    2.112    0.527
        54  -8.3410    234.4695    123.9421   4.1937810484e+01   1.2880655452e+01    0.1744245   0.08351215 -46.96 0.0008092396    2.640    0.621
        55  -9.6404     92.4871    125.4852   7.2568583255e+01   3.8463865541e+01    0.2896063    0.2045884  47.05 0.0006132912    1.411    0.291
        56  -9.3637    135.4546    117.8064   5.8792239709e+01   3.2011614010e+01    0.4137741    0.2400347 -34.90  0.001425444    1.853    0.460
        57  -8.2902    110.0995    118.0936   6.5641231162e+01   3.6945938659e+01    0.2198604    0.1978093   2.89 0.0003322451    1.200    0.167
        58 -13.9207      9.7302    215.0158   1.0517115263e+02   2.8159545713e+01    0.7296895    0.3016352  11.30  0.003298283    3.386    0.705
        59  -8.6945     92.3613    114.1711   7.0080678174e+01   4.1153994524e+01     0.314452     0.219395  67.49 0.0008652926    1.868    0.465
        60 -10.8900    117.6270    109.9014   6.1488034884e+01   3.7255835653e+01    0.5593007    0.4255994  65.94  0.002416234    1.598    0.374
        61  -9.2373     87.2618    206.5897   8.6302273890e+01   2.1702098465e+01    0.2988214    0.2502726   1.55 0.0001100821    1.336    0.252
        62  -8.5156     90.4591    202.0136   8.5040254561e+01   2.2159199770e+01    0.2073713    0.1729503 -33.24 0.0008231599    1.428    0.300
        63  -8.3372     80.4526    206.6215   8.7928032336e+01   2.2542938190e+01    0.1945717    0.1169735  88.64 0.0009600411    2.416    0.586
        64  -9.1857     73.3115    205.9801   8.9580480478e+01   2.3532069466e+01    0.1958317    0.1487016  72.29 0.0008674525    1.475    0.322
        65  -8.0767    134.1383     73.2149   4.6650798505e+01   4.0916296823e+01    0.1959536    0.1701544 -70.71 0.0003241963    1.257    0.205
        66 -11.9107    174.1908     61.0560   3.5340329040e+01   3.3404706482e+01    0.8827788    0.6402224  19.33  0.001597241    1.858    0.462
        67  -8.7572    104.0021     61.9688   5.0813759348e+01   5.0135274658e+01    0.2237671    0.2202885  59.13 0.0003365215    1.005    0.005
        68  -9.7587     68.3502    247.6955   9.3996449182e+01   1.6741471494e+01    0.1096423    0.1052822 -73.56 0.0008151196    1.369    0.270
        69  -9.6087    173.2743     52.8869   3.3108292721e+01   3.4765158555e+01     0.241605    0.1896903  89.22 0.0008368318    1.392    0.282
        70  -9.0436    141.6035     42.2779   3.4826874955e+01   4.4009390135e+01    0.2562891    0.1626068  44.63 0.0006263423    1.726    0.421
        71  -8.0262    152.1380     36.8791   3.1256567786e+01   4.2055659280e+01    0.1822655     0.164624  28.93  0.000352252    1.259    0.206
        72  -9.1421     43.5804    247.9671   9.9154713274e+01   1.9207369059e+01    0.1768902    0.1177409  12.21 0.0005695162    1.705    0.413
        73  -8.3887     64.3215    205.7409   9.1733262610e+01   2.4633662642e+01    0.1523933   0.08604793  66.61  0.000631668    2.117    0.528
        74  -8.9445     13.3150     17.3301   7.6606687351e+01   7.5747155763e+01    0.1403099   0.08665599 -26.40  0.000704536    1.679    0.404
        75 -11.1127     37.6295    201.7172   9.7967474836e+01   2.8306518540e+01    0.3359353    0.2534807   0.85  0.002070444    1.673    0.402
        76  -9.0395     79.7201    242.6325   9.1250144426e+01   1.6321606776e+01    0.1343418   0.09865465  36.27 0.0003119549    1.046    0.044
        77 -11.5712    196.9167     40.9578   2.6850327548e+01   3.0887334427e+01    0.5068392    0.4389262 -11.04  0.001417246    1.288    0.223
        78 -11.0392     45.8873    242.2117   9.8385156899e+01   1.9940187815e+01    0.1626808     0.138148  80.31  0.000656594    1.357    0.263
        79  -8.0195     67.5228    240.6831   9.3697133705e+01   1.7968345203e+01    0.1365309   0.09738659  67.40  0.000926642    1.565    0.361
