#   1 NUMBER                 Running object number                                     
#   2 MAG_AUTO               Kron-like elliptical aperture magnitude                    [mag]
#   3 X_IMAGE                Object position along x                                    [pixel]
#   4 Y_IMAGE                Object position along y                                    [pixel]
#   5 X_WORLD                Barycenter position along world x axis                     [deg]
#   6 Y_WORLD                Barycenter position along world y axis                     [deg]
#   7 A_WORLD                Profile RMS along major axis (world units)                 [deg]
#   8 B_WORLD                Profile RMS along minor axis (world units)                 [deg]
#   9 THETA_WORLD            Position angle (CCW/world-x)                               [deg]
#  10 FWHM_WORLD             FWHM assuming a gaussian core                              [deg]
#  11 ELONGATION             A_IMAGE/B_IMAGE                                           
#  12 ELLIPTICITY            1 - B_IMAGE/A_IMAGE                                       
         1 -15.2787    195.7141     13.4372   3.7872932036e+01   3.4412067858e+01     15.62588     4.710776 -52.02   0.05231712    4.196    0.762
         2 -12.2021    236.3723      6.0221   3.2539537274e+01   2.5868881644e+01    0.7076513    0.5501782 -36.71  0.001194414    1.399    0.285
         3 -13.0280    249.9805     34.5322   3.7425122188e+01   1.9672073364e+01     1.052081     0.449596 -45.52  0.003481258    1.956    0.489
         4 -13.2655    247.9011     16.3152   3.3813633697e+01   2.2294653208e+01     1.355392    0.6190983 -47.73  0.007150696    1.832    0.454
         5 -13.1612    248.1767     43.1413   3.9419921767e+01   1.8934010692e+01    0.9447823    0.5681735 -43.65  0.003532382    1.439    0.305
         6 -14.2325    191.7444     85.9444   5.7526109074e+01   2.5187487933e+01     5.083948     2.364271  52.56   0.01987162    2.158    0.537
         7 -10.1393    128.4261     25.8602   5.2080036432e+01   4.9772331185e+01    0.3318726    0.2422562 -40.79  0.001207815    1.545    0.353
         8 -11.1796    156.4357     12.0853   4.2490100215e+01   4.4263446697e+01    0.5053948    0.3850036 -16.65  0.001283113    1.559    0.358
         9  -9.4564    219.1274     12.4706   3.5343048594e+01   2.9008207922e+01    0.2807893    0.1966505 -63.79 0.0004656157    1.287    0.223
        10  -9.3013      3.1514     10.1615   9.4760339071e+01   7.2948520005e+01     0.138971     0.121976 -13.84  0.001083677    1.351    0.260
        11 -10.2542    214.4405      4.3985   3.3909106946e+01   3.0921484568e+01    0.4290258    0.2607318  63.42  0.001407143    1.594    0.373
        12  -7.5584    188.3190    155.6809   7.5351739949e+01   1.2662230484e+01    0.1452252     0.122576 -87.52 0.0005351054    1.662    0.398
        13  -7.9504    192.1592    153.3848   7.4022326979e+01   1.2333111151e+01    0.2005019    0.1405008  52.58 0.0004133055    1.619    0.382
        14  -9.2620    232.5242    151.2563   6.5723512243e+01   4.9432374015e+00    0.2447628    0.2189054  -8.11 0.0003519861    1.039    0.038
        15 -11.1293     68.7484    142.7963   1.0354181978e+02   3.7837002241e+01    0.9510102    0.7330405 -54.94  0.005094073    1.239    0.193
        16 -11.5299     49.4388    147.3129   1.0971736513e+02   3.9129476336e+01    0.8650801    0.6932057 -60.87  0.003419982    1.170    0.145
        17 -11.0419     56.5996    145.0871   1.0737921380e+02   3.8836818136e+01    0.6816568    0.4070133 -72.29  0.001858632    1.623    0.384
        18  -8.7785    133.4383    148.3814   8.6761782702e+01   2.5426878662e+01    0.4297556    0.2622499 -50.88  0.001646966    1.685    0.407
        19  -8.5722    132.0656    141.3079   8.5542187138e+01   2.7319661951e+01    0.4969456    0.2613127 -60.46   0.00179828    2.463    0.594
        20  -9.9816    249.4800    144.2942   6.1373281577e+01   3.1017224070e+00    0.3430134    0.2655706  10.74  0.001974132    1.410    0.291
        21  -9.5480    235.4824    146.9288   6.4270204748e+01   5.1405322551e+00     0.302473    0.1969823  38.60   0.00154746    1.648    0.393
        22  -9.8853    240.7480    143.2065   6.2569346309e+01   4.8156904662e+00    0.3425402    0.2268404 -17.61  0.001471433    1.604    0.376
        23  -8.6234    228.0550    144.3488   6.5008896078e+01   6.9536114076e+00    0.2746527    0.1234123  38.34  0.001105857    2.485    0.598
        24  -8.3544    240.4375    248.1954   8.2636888838e+01  -1.0524103165e+01    0.1679891    0.1311515  22.83 0.0005629198    1.316    0.240
        25  -9.7719    202.3505    129.2274   6.6356580012e+01   1.4843162733e+01    0.3543718    0.2131601 -45.99  0.001551294    1.685    0.407
        26  -9.2662    198.3545    128.1878   6.6901136098e+01   1.5892153143e+01    0.2593659    0.2129573  10.66 0.0008382521    1.366    0.268
        27  -8.9636    181.7155    125.5062   6.9714977958e+01   2.0047125166e+01    0.4154181    0.1260543 -45.32  0.001214202    3.453    0.710
        28  -8.1719    166.3020    127.6592   7.3717127303e+01   2.3025791241e+01    0.1582904    0.1269961 -81.85 0.0004314744    1.673    0.402
        29  -7.9698    189.3044    124.6464   6.7891337179e+01   1.8540983974e+01    0.1557488    0.1218907 -73.82 0.0003764851    1.710    0.415
        30  -8.7720    212.9987    123.4616   6.2966661606e+01   1.3664536411e+01     0.217887    0.1456873  48.21 0.0007988946    1.592    0.372
        31  -8.0918    141.0207    122.8112   7.8740455642e+01   2.9624997384e+01    0.2557869    0.1842848  72.96 0.0007516477    1.963    0.491
        32  -7.6109    170.3236    122.6861   7.1546056263e+01   2.3158368564e+01    0.1575636    0.1268718 -84.56 0.0007041255    1.661    0.398
        33 -10.6379    217.0568    117.0317   6.0715831811e+01   1.3970126965e+01    0.5344723    0.3171256  54.20  0.002420377    1.876    0.467
        34 -10.4393    210.5280    113.5314   6.1046401848e+01   1.5988978397e+01    0.3698483    0.3347658 -42.38  0.001723117    1.068    0.063
        35 -11.5733    205.1521    110.4261   6.1274572357e+01   1.7725733942e+01     0.849485    0.3639926  42.17  0.003102841    2.651    0.623
        36  -7.8108    162.7583    119.0140   7.2369393161e+01   2.5619691569e+01    0.2301362    0.1780698  70.04 0.0009967919    1.604    0.376
        37  -9.8356    205.0441    105.5083   6.0081485873e+01   1.8641080457e+01    0.2756071    0.2086385 -39.46 0.0008677724    1.254    0.203
        38  -9.2173    125.8486    114.3568   8.0645951163e+01   3.4745111064e+01     0.249102    0.2016571  60.71 0.0006194008    1.392    0.282
        39  -9.6385    184.1792    110.9524   6.5531580569e+01   2.2350436695e+01    0.4026468    0.3126303 -85.69  0.001226603    1.755    0.430
        40 -10.5860    134.3633    108.6872   7.6804730796e+01   3.4171835593e+01    0.6764258    0.3094571 -42.45   0.00203431    2.197    0.545
        41 -10.6794    190.2897    108.6290   6.3688873388e+01   2.1397353756e+01    0.3863325    0.3686325 -68.68  0.002095649    1.104    0.094
        42  -7.4092    151.4996    110.4361   7.2847517463e+01   2.9965317593e+01    0.1576182    0.1533891  13.77  0.000164363    1.017    0.017
        43 -11.2288    220.8946    105.4285   5.7302036972e+01   1.5196613124e+01       0.6489    0.2771082  51.66  0.002559777    2.501    0.600
        44  -9.7264    125.4028    104.6749   7.8169751931e+01   3.6984139099e+01    0.3976457    0.2239018 -32.04  0.001131191    2.089    0.521
        45  -8.4335    118.9698    105.9876   8.0357935486e+01   3.8047690106e+01    0.2514662    0.1998834 -88.31  0.001134328    1.716    0.417
        46  -8.7557    147.1962    105.1558   7.2496460168e+01   3.2049149139e+01    0.2414881    0.2157321  -1.45 0.0005218904    1.210    0.174
        47  -7.7892    249.6084    232.2180   7.8363904181e+01  -9.7778424565e+00    0.1553501   0.09234821 -17.14 0.0003101344    1.534    0.348
        48  -8.5692    210.4880    220.5650   8.3572911892e+01  -2.5823912827e+00    0.2192724     0.186571  12.83 0.0005321257    1.097    0.089
        49  -9.9682    229.8081    213.7912   7.8689330595e+01  -4.5430392686e+00    0.2297199    0.1867951   1.65 0.0004135122    1.037    0.035
        50  -8.6365    156.1156    101.2895   6.9241705341e+01   3.0779511674e+01    0.2795644    0.2149031 -27.34 0.0008397594    1.392    0.282
        51  -8.9409    159.9449    100.5211   6.8124032741e+01   3.0036383449e+01    0.4115098    0.3392792 -77.09   0.00168196    1.491    0.329
        52  -9.6078    121.1698    100.1007   7.8094878045e+01   3.8878668532e+01    0.4017514    0.2489624 -61.38  0.001578242    2.146    0.534
        53  -9.9502    196.6953     98.0033   5.9735415945e+01   2.1888854715e+01    0.3856977    0.2535289 -74.44  0.001554011    2.389    0.581
        54  -9.1304    114.6312    108.3597   8.2257712257e+01   3.8401778490e+01    0.5636228    0.2807997 -65.04  0.001641441    4.065    0.754
        55  -8.9129    108.8267     99.5978   8.1586067326e+01   4.1522182816e+01    0.2244461    0.1442639  51.67  0.000950044    1.746    0.427
        56  -9.8712    113.3258     96.5030   7.9361688880e+01   4.1292757615e+01    0.3213422     0.274602 -77.36  0.001022142    1.439    0.305
        57 -10.6167    173.3756     93.8142   6.3286330094e+01   2.8147392498e+01    0.6559508    0.4119714  43.94  0.002256417    1.632    0.387
        58  -9.0885    169.3268     91.6542   6.3564865618e+01   2.9520777850e+01    0.3203338    0.2279361 -58.86  0.001421022    1.641    0.391
        59  -8.0224    140.3418     95.0659   7.1425695879e+01   3.5695687021e+01    0.2227006    0.1990612 -41.07 0.0005305483    1.131    0.116
        60  -9.8018    155.3051     92.0066   6.6842870045e+01   3.2803734277e+01    0.3257899    0.2814843 -28.50 0.0004411839    1.190    0.160
        61  -9.1854    116.1625     91.0798   7.6947449246e+01   4.1861097106e+01    0.2829676    0.2088375  74.95  0.000957699    1.987    0.497
        62  -9.1333    164.6160     94.9001   6.5503283126e+01   3.0030200175e+01    0.3108005    0.2139943  72.22  0.001054169    1.901    0.474
        63  -9.8680    129.8342     88.6657   7.2355323540e+01   3.9379093829e+01     0.342402    0.2823676  62.54  0.001657795    1.355    0.262
        64  -9.3088    122.5170     88.6259   7.4382338306e+01   4.1007877222e+01    0.2687235    0.2427505  88.54  0.001363272    1.316    0.240
        65  -8.8591    134.1029     84.2410   6.9884526672e+01   3.9285692318e+01    0.3002581    0.2063035 -66.45   0.00123264    2.081    0.520
        66 -10.0039    100.8865     84.4854   7.9638240169e+01   4.6345365977e+01    0.2619018    0.2311374 -32.31 0.0001394776    1.104    0.094
        67  -7.5446    115.6968     84.3139   7.5054047891e+01   4.3357339231e+01    0.1506954    0.1251347 -86.42 0.0004063231    1.616    0.381
        68  -9.3170    143.6665     82.1108   6.6789253808e+01   3.7460545866e+01    0.3094726    0.2255674  41.57 0.0009324123    1.364    0.267
        69  -9.0521    137.9550     81.4099   6.8024716317e+01   3.8937440410e+01    0.2878525    0.2173839 -57.15 0.0007570551    1.535    0.349
        70  -9.3651    127.0568     76.1995   6.9312608979e+01   4.2439285976e+01    0.5030296    0.3384141  84.86  0.001889996    2.801    0.643
        71  -7.5721    226.7497    201.9552   7.7076385834e+01  -2.3231791879e+00    0.1632876    0.1020786 -30.18 0.0003611273    1.537    0.349
        72 -12.7722    248.8609     60.7462   4.3160469424e+01   1.6374264272e+01    0.6716736    0.3560448 -35.56 0.0005084146    1.727    0.421
        73  -8.1383    132.5201     70.4955   6.6058330863e+01   4.2223941668e+01    0.2755864    0.1375113 -47.70 1.075632e-06    2.299    0.565
        74 -13.7866    246.8852     56.3245   4.2408752442e+01   1.7406707964e+01     2.020308    0.5356341  53.22  0.007152575    4.274    0.766
        75  -9.0475    145.8931     68.4345   6.2097672752e+01   3.9390737295e+01    0.3104571    0.2058776 -60.37  0.001313282    1.978    0.495
        76  -8.0025    139.4965     68.9088   6.3789110863e+01   4.0851400684e+01    0.2267474    0.1518016 -34.98 0.0008066777    1.543    0.352
        77  -7.7041    128.6134     69.2889   6.6703641108e+01   4.3349469104e+01    0.1549549    0.1221918 -89.48 0.0007011245    1.755    0.430
        78  -8.0938    167.6981     68.3332   5.7305890683e+01   3.4042798087e+01    0.1558367    0.1159532 -71.16  0.000279903    1.656    0.396
        79  -8.0188    151.4901     67.4737   6.0511838474e+01   3.8187883602e+01    0.1510893    0.1462348  53.31 7.030439e-05    1.012    0.012
        80  -8.8124    163.9328     65.0811   5.7122198829e+01   3.5509380829e+01    0.2290501    0.1999841 -73.39 0.0005400875    1.245    0.197
        81  -8.5075    136.7038     63.6021   6.2802472330e+01   4.2428259829e+01    0.2562401    0.1797585 -55.80 0.0006543561    1.728    0.421
        82  -8.5420    158.4385     61.6196   5.7229603379e+01   3.7431921030e+01    0.3680866    0.1840906 -59.14  0.001204478    3.426    0.708
        83  -9.3261    148.0937     58.3251   5.8454679372e+01   4.0516966544e+01    0.3472003     0.244969 -75.21  0.001522026    2.007    0.502
        84  -9.0049    128.7227     57.3806   6.2791723010e+01   4.5351754371e+01    0.2266304    0.2179332  81.16  0.001020151    1.145    0.127
        85 -10.8700    145.2371     48.8836   5.6100841542e+01   4.2654888756e+01    0.6386647    0.3695202 -72.56  0.002193466    3.564    0.719
        86  -9.4503    140.3998     57.9761   6.0108736167e+01   4.2456882686e+01    0.3349937    0.2359255  89.85  0.001444999    2.094    0.522
        87  -7.4932    189.4398    185.4953   8.1355295005e+01   6.7970101572e+00    0.1421387    0.1292194  10.13 9.415984e-05    1.034    0.033
        88  -9.5097    192.2967     48.8431   4.7547206722e+01   3.0917658802e+01    0.3905886    0.2889956 -19.50  0.001764545    1.612    0.380
        89  -9.1077    150.5740     47.7697   5.4615085287e+01   4.1489650194e+01    0.2634338    0.1487066 -25.76  0.001122937    2.015    0.504
        90  -8.2287    141.6711     49.3012   5.7023079558e+01   4.3473408954e+01    0.1481067    0.1149813 -77.64 0.0006013594    1.645    0.392
        91  -9.0140    192.4023     41.5011   4.5576324464e+01   3.1894288979e+01    0.2306511    0.2195002 -44.98 0.0007470716    1.136    0.119
        92  -9.5217    192.2359     38.0277   4.4677854501e+01   3.2390093893e+01     0.454987    0.2564931 -59.90  0.002035247    2.044    0.511
        93  -8.0600    187.3618    140.2851   7.2049047375e+01   1.5886901008e+01     0.209156    0.1393181 -47.81 0.0003733085    1.576    0.366
        94  -9.9279    130.0115     37.6935   5.5818519292e+01   4.7935401242e+01    0.3537184    0.2157872  78.62  0.001039296    2.363    0.577
        95  -9.6085    167.2822     37.3453   4.8308603432e+01   3.8703307747e+01    0.4714742    0.1900381 -32.52  0.001843224    2.556    0.609
        96 -10.2138     41.7626    151.1480   1.1234135138e+02   3.9028833794e+01    0.3494416    0.2873636   5.14 0.0009876766    1.566    0.361
        97 -10.1240    136.2523     36.2875   5.3937075872e+01   4.6598348344e+01    0.2428067    0.1830488 -20.07 0.0007590094    1.474    0.322
        98 -10.4421    223.2398    130.2866   6.2706171157e+01   1.0350212334e+01    0.4916351    0.3582028 -88.54  0.002241902    2.348    0.574
        99  -9.4358    193.3450    131.4314   6.8695417201e+01   1.6344514841e+01    0.2733526    0.2597312 -19.14 0.0005415013    1.014    0.014
       100 -11.0052    160.1552     30.9529   4.7611059101e+01   4.1293132020e+01    0.5189829    0.3393949  -3.29  0.001024731    2.153    0.535
       101 -10.1302    133.3290     31.6545   5.3008983203e+01   4.7895304211e+01    0.2928208     0.227856  11.40  0.001545787    1.482    0.325
       102  -9.8267    153.4642     31.9721   4.9104297790e+01   4.2853886145e+01    0.2701135     0.167787  44.84  0.001281528    1.598    0.374
       103  -9.8617    139.1287     29.8816   5.1193233343e+01   4.6682666410e+01    0.2181435    0.1918993 -81.96  0.001234359    1.267    0.210
       104 -10.8995    148.0255     26.2066   4.8279146632e+01   4.4895257015e+01     0.344259    0.2663887   7.11  0.001610952    1.579    0.367
       105 -10.7282    143.7684     25.0068   4.8682389948e+01   4.6093294243e+01    0.3467615    0.2506655  24.44  0.001786587    1.621    0.383
       106  -8.2049    176.5566    171.0582   8.1235514221e+01   1.1974914388e+01    0.2164732    0.1448025 -43.10  0.000725662    1.550    0.355
       107  -8.9917    160.2809    130.9705   7.5958879133e+01   2.3653002255e+01     0.350435    0.3021727 -61.54  0.001389148    1.291    0.225
       108  -9.5181    233.7566    133.4954   6.1612190385e+01   7.7476036694e+00    0.3489005    0.1709699 -50.65  0.001397067    2.508    0.601
       109  -7.4960    224.5160    170.5502   7.1276764114e+01   3.1004361046e+00    0.1396232    0.1206274  -5.19 0.0001052919    1.013    0.013
       110 -11.1895      9.7246    164.2378   1.2181190503e+02   3.8810119412e+01    0.8304049    0.4571405 -87.62  0.004656177    1.561    0.359
       111 -10.3297     15.2956    162.6866   1.2035332998e+02   3.8727809145e+01    0.6672111     0.268996 -83.08  0.003031481    2.319    0.569
