#   1 NUMBER                 Running object number                                     
#   2 MAG_AUTO               Kron-like elliptical aperture magnitude                    [mag]
#   3 X_IMAGE                Object position along x                                    [pixel]
#   4 Y_IMAGE                Object position along y                                    [pixel]
#   5 X_WORLD                Barycenter position along world x axis                     [deg]
#   6 Y_WORLD                Barycenter position along world y axis                     [deg]
#   7 A_WORLD                Profile RMS along major axis (world units)                 [deg]
#   8 B_WORLD                Profile RMS along minor axis (world units)                 [deg]
#   9 THETA_WORLD            Position angle (CCW/world-x)                               [deg]
#  10 FWHM_WORLD             FWHM assuming a gaussian core                              [deg]
#  11 ELONGATION             A_IMAGE/B_IMAGE                                           
#  12 ELLIPTICITY            1 - B_IMAGE/A_IMAGE                                       
         1 -12.4094     80.5784     26.6351   8.3998283917e+01   5.7607478613e+01    0.9556959    0.5559095  -3.53  0.004983653    2.079    0.519
         2 -11.1915    243.0310     17.5802   5.5470261887e+01   2.3786335580e+01     1.432773    0.1917694  61.50  0.004980577    5.355    0.813
         3 -10.0964    248.7117      3.6175   5.2544798742e+01   2.4185622409e+01    0.3962039    0.2477387 -43.29  0.002386494    1.577    0.366
         4  -8.3688     46.6566      6.3292   8.6997621668e+01   6.5253240670e+01   0.09265836   0.09248706   7.85 -3.223984e-05    1.748    0.428
         5  -8.4231     40.0276      3.3876   8.8144546699e+01   6.6489906783e+01    0.2568457      0.11272  10.51  0.001086693    3.791    0.736
         6 -10.4005      6.2138    237.1666   1.4595006451e+02   2.3755386812e+01    0.3260387    0.1844982 -77.67  0.002126039    1.500    0.334
         7  -9.5884     12.2831    249.2501   1.4569784475e+02   2.0801842771e+01    0.3035063    0.1470655  64.73  0.001807755    1.838    0.456
         8  -8.9549      1.6361    237.2853   1.4673999731e+02   2.4168363516e+01    0.1947443    0.1227123 -78.08 0.0007891323    1.357    0.263
         9  -9.4350    212.6945    242.6540   1.0587129418e+02  -7.0236653562e+00    0.2087675    0.1346316   1.60  0.001121471    1.721    0.419
        10  -8.8547     18.7907    249.1649   1.4459220630e+02   2.0139877902e+01    0.2225778   0.08815677  50.29  0.001217471    2.128    0.530
        11 -10.2778      5.0353    229.4158   1.4564263060e+02   2.5415709569e+01    0.3778621    0.1911719 -88.89  0.001900436    1.731    0.422
        12 -10.1725    100.3082    234.4424   1.2758830802e+02   1.2464456964e+01    0.5127058    0.1934336  56.14  0.001686679    4.287    0.767
        13 -10.3954    107.2367    232.6017   1.2589705841e+02   1.1758742882e+01      0.35695    0.2164517  69.91  0.001665544    2.274    0.560
        14  -9.4988     11.2053    227.1112   1.4437891367e+02   2.5291311484e+01    0.2074956    0.1254694 -85.21 0.0009645001    1.383    0.277
        15 -10.0121    113.3117    226.2555   1.2372127287e+02   1.2073765919e+01    0.2450855    0.1880191  43.15  0.001388492    1.203    0.169
        16  -9.4040    114.7028    231.1119   1.2411660828e+02   1.0872631639e+01     0.236044    0.1684786  50.17 0.0008771959    1.313    0.239
        17  -9.9664    149.6254    223.1484   1.1541587475e+02   6.6193090796e+00    0.2397301    0.2283095  34.23 0.0003331731    1.053    0.051
        18  -9.2142     12.0455    219.1676   1.4363125891e+02   2.6852168858e+01    0.2614537    0.1252558 -67.78  0.001482352    1.809    0.447
        19  -9.7827      2.3236    213.7831   1.4504008708e+02   2.8880225993e+01    0.3463376    0.1741486 -74.97  0.001433585    1.627    0.385
        20 -10.3242     12.7892    208.1014   1.4260355121e+02   2.9127768652e+01    0.3493157    0.2613613 -47.12   0.00232717    1.689    0.408
        21 -12.4675      7.7337    158.7325   1.3889857462e+02   4.0588715725e+01     1.567878    0.4419178 -58.09  0.006734893    2.617    0.618
        22  -8.2208     98.9249    164.1986   1.1672731803e+02   2.8263870616e+01    0.2021982    0.1872665  83.21 0.0002598003    1.130    0.115
        23  -8.5088    244.0289    159.0504   8.3994710614e+01   1.9294846750e+00    0.1970319    0.1734664 -26.38 0.0003235891    1.021    0.021
        24 -10.2726    212.0326    157.0365   8.9265588664e+01   8.0682624035e+00    0.2510875    0.2398688 -12.54 0.0003433811    1.057    0.054
        25  -8.8840    123.9975    206.0206   1.1821452472e+02   1.4523520703e+01    0.2003204    0.1947084  26.02  0.001189475    1.054    0.051
        26  -7.8839     97.9818    149.2026   1.1394792564e+02   3.1940963337e+01    0.1891303    0.1838618 -19.71            0    1.051    0.048
        27 -11.2738      2.0970    179.7229   1.4230624020e+02   3.6281561859e+01     1.144665    0.1920944 -66.84  0.004206545    3.742    0.733
        28  -8.9646    243.2589    168.9864   8.6154990004e+01   3.3112322564e-01    0.2399063    0.1900192  42.49 0.0003896781    1.454    0.312
        29 -12.8535      4.0058    193.8658   1.4315453219e+02   3.3002354453e+01     2.109603    0.4827732 -66.20  0.008737401    3.113    0.679
        30  -8.6352    231.3178    139.4535   8.2011512212e+01   7.6766112096e+00    0.2180064    0.1990248 -35.71 0.0001816649    1.024    0.024
        31  -7.3480    217.1769    138.4038   8.4239248080e+01   1.0577773925e+01    0.1890066    0.1381065  63.15  0.000936441    1.694    0.410
        32  -8.9699    243.9618    164.0188   8.5023578580e+01   1.0758329098e+00    0.1995192    0.1740737 -26.09 0.0003868347    1.020    0.019
        33  -7.5578    248.2547    113.6446   7.3937722566e+01   9.0203080902e+00    0.1347166   0.09074188 -60.32 0.0003412448    1.608    0.378
        34  -9.0120     47.8886    101.0591   1.1776946849e+02   5.0025628849e+01    0.4500279    0.1110729 -44.70  0.001490954    3.559    0.719
        35  -7.6094     59.6653     98.6973   1.1342570332e+02   4.9087715684e+01    0.1422628   0.09562057 -19.86 0.0007036803    1.661    0.398
        36  -7.8590     43.6049     93.4129   1.1730656368e+02   5.2121560562e+01    0.2552567    0.1207814 -66.39 0.0009622407    3.426    0.708
        37  -8.1109     65.8121     92.1587   1.0974935952e+02   4.9607274305e+01    0.3848547    0.2134789 -17.26  0.001551614    2.776    0.640
        38  -8.2792    172.6302     92.1228   8.1693982244e+01   2.8640596320e+01    0.2239662    0.1982306  70.37  0.000400425    1.173    0.148
        39  -8.7902     54.5306     90.6653   1.1300793171e+02   5.1408254282e+01     0.346252    0.1886583   9.88  0.001514184    2.587    0.614
        40  -8.2708     72.6449     88.3808   1.0653348481e+02   4.9368080449e+01    0.3416714     0.112119 -42.30    0.0012306    2.859    0.650
        41  -8.9135     38.4268     85.3077   1.1700097053e+02   5.4336424779e+01    0.2574111    0.1012879 -48.26  0.001142705    2.105    0.525
        42  -9.6287    228.5397     84.2053   7.0479096612e+01   1.7720857590e+01    0.2223078    0.2079823 -79.16 0.0003236972    1.070    0.065
        43  -7.6412     85.3519     83.8197   1.0127298839e+02   4.8215294439e+01     0.207039    0.1190342 -32.10 0.0009428877    1.770    0.435
        44  -7.9815    175.6565     81.6828   7.8452181603e+01   2.9732023236e+01    0.1467865    0.1113774  20.38 0.0001820373    1.717    0.418
        45  -8.6350    233.4874     80.0510   6.8921785181e+01   1.7359590855e+01    0.2259561     0.175388  44.98 0.0006567913    1.542    0.351
        46  -8.2997     79.0580     78.7328   1.0171972054e+02   5.0201422006e+01    0.3519888    0.1701901 -27.79  0.001403393    2.575    0.612
        47  -9.4158     60.5482     78.6117   1.0767639328e+02   5.2992288196e+01    0.3300101     0.175546 -41.07  0.001603802    1.708    0.415
        48  -7.7792    182.4959     77.4781   7.6144102994e+01   2.8859141401e+01    0.1415515    0.1312544 -82.24 -5.58724e-05    1.073    0.068
        49  -8.8816     65.5481     75.7284   1.0516985073e+02   5.2826951081e+01    0.2560506    0.1166203 -39.75  0.001131244    2.043    0.511
        50 -10.3561     53.5062     68.9749   1.0720851071e+02   5.5706886723e+01    0.5327376    0.1435593 -42.05  0.001928179    3.333    0.700
        51 -11.0836     56.3431     73.4283   1.0757152177e+02   5.4525235395e+01    0.7137889    0.3854545  -4.28  0.002853042    3.230    0.690
        52 -11.0156     61.6540     66.4671   1.0364407979e+02   5.5041530185e+01    0.5716004    0.2643371 -39.47  0.002657756    2.015    0.504
        53  -7.3097    231.3019     73.2780   6.7771444161e+01   1.8845255295e+01    0.1168723    0.1023751  21.41 0.0002940833    1.543    0.352
        54  -9.1511     67.4008     69.6852   1.0272399895e+02   5.3641896992e+01     0.349386    0.1745625 -28.20  0.001528948    2.225    0.551
        55  -8.2746     80.1873     69.3451   9.8506269683e+01   5.1680075557e+01    0.3389812    0.1692422 -25.91  0.001420325    2.422    0.587
        56  -8.3768    173.6233     66.0700   7.4840805322e+01   3.2654334789e+01    0.2786742    0.2301278  62.06  0.001562589    1.161    0.139
        57  -8.0665     90.5769     66.2521   9.4369177258e+01   5.0392171594e+01    0.3239967    0.1278996 -35.35  0.001279423    2.596    0.615
        58  -7.2051     99.4881     63.4679   9.0916895057e+01   4.9179297699e+01    0.1380755    0.1231765  12.25 0.0003432244    1.007    0.007
        59  -8.6310     74.7276     60.5230   9.7433000772e+01   5.4041182245e+01    0.2804478    0.1451608 -25.36  0.001267916    2.167    0.539
        60 -10.5244     53.2944     59.1392   1.0420217898e+02   5.7439577363e+01    0.3441453    0.2005548  35.10  0.001562643    1.806    0.446
        61  -7.5828     91.6958     57.6514   9.1302647057e+01   5.1539828405e+01    0.1414841    0.0967311   6.57 0.0007041052    1.697    0.411
        62  -8.5708     79.0115     54.2483   9.4018636558e+01   5.4303575281e+01    0.2936037    0.1731807 -18.17  0.001438721    1.922    0.480
        63 -11.1273     76.9439     40.8446   9.0105040094e+01   5.6544563460e+01    0.8489594       0.3677  23.27  0.002986782    4.092    0.756
        64 -12.4851     60.6061     48.6574   9.8159126570e+01   5.8070583010e+01    0.9135434    0.6306449   1.24  0.005307148    1.442    0.307
        65  -8.6250     90.1768     47.5049   8.8418810965e+01   5.3281076694e+01    0.4138431    0.2368043   0.92  0.001784454    2.709    0.631
        66 -11.1928     67.4415     43.6264   9.4113515159e+01   5.7745708431e+01    0.6088133    0.4177626  63.08  0.003020415    2.835    0.647
        67  -7.6019    226.4820     48.5495   6.3156684397e+01   2.3374017539e+01    0.1243105    0.1082613 -78.19 0.0001184837    1.018    0.018
        68  -9.1978     80.5610     47.2211   9.1182162196e+01   5.5053908082e+01    0.3572071    0.1729754 -21.45  0.001562837    2.538    0.606
        69  -8.2078    248.3272     53.6902   6.1820477137e+01   1.8238157359e+01    0.1286515   0.07868808 -68.60 0.0002611056    1.660    0.398
        70  -7.8148     37.6231     42.1720   1.0424934057e+02   6.2093748003e+01    0.1762173   0.09205427 -29.11 0.0009532013    1.734    0.423
        71  -8.2083     89.4448     38.2466   8.5511274961e+01   5.4622557077e+01    0.2319425    0.1219176 -23.11  0.001131017    2.080    0.519
        72  -9.4054    223.5389     35.6429   6.0809211010e+01   2.5650233837e+01    0.3167216     0.212131 -36.96  0.001382009    1.582    0.368
        73 -10.5617    249.1326    246.2800   9.9763788227e+01  -1.2622968344e+01    0.6665127    0.2592478 -43.79  0.002978912    3.314    0.698
        74  -8.6952    169.8067     19.1886   6.3577987998e+01   3.9364501111e+01    0.1709293    0.1336218  44.06 0.0006188997    1.353    0.261
        75 -12.0209    237.3906    246.2456   1.0186850573e+02  -1.1064493637e+01    0.2806423    0.2300106   3.67  0.000252237    1.089    0.081
        76  -7.8793    196.6995     28.8044   6.2384332458e+01   3.2290113531e+01    0.1669743    0.1528482  14.64 0.0004348721    1.425    0.298
        77 -10.6520     64.1177     27.7313   8.9470339030e+01   6.0310440828e+01    0.3375614    0.2069129  -8.86  0.001917846    1.708    0.415
        78  -9.7779      2.3863    221.9779   1.4560798455e+02   2.7175149534e+01    0.3536388     0.210369 -88.83  0.002170922    1.377    0.274
        79 -10.3652      3.4131    244.6112   1.4689002802e+02   2.2573824273e+01    0.4552875     0.231616 -81.85  0.002462253    1.660    0.398
