#   1 NUMBER                 Running object number                                     
#   2 MAG_AUTO               Kron-like elliptical aperture magnitude                    [mag]
#   3 X_IMAGE                Object position along x                                    [pixel]
#   4 Y_IMAGE                Object position along y                                    [pixel]
#   5 X_WORLD                Barycenter position along world x axis                     [deg]
#   6 Y_WORLD                Barycenter position along world y axis                     [deg]
#   7 A_WORLD                Profile RMS along major axis (world units)                 [deg]
#   8 B_WORLD                Profile RMS along minor axis (world units)                 [deg]
#   9 THETA_WORLD            Position angle (CCW/world-x)                               [deg]
#  10 FWHM_WORLD             FWHM assuming a gaussian core                              [deg]
#  11 ELONGATION             A_IMAGE/B_IMAGE                                           
#  12 ELLIPTICITY            1 - B_IMAGE/A_IMAGE                                       
         1 -15.0016     68.6300    144.2953   1.0493168765e+02   3.7393279336e+01     5.071691     2.591756  68.84   0.00978197    3.620    0.724
         2 -14.4632    200.9698     38.2353   4.5053836342e+01   3.0527502571e+01     1.998858     1.430354  28.26  0.007367942    1.930    0.482
         3 -14.3823    212.6394     26.3808   4.0674098718e+01   2.9236543836e+01     1.176966    0.9279514  24.75  0.005415215    1.758    0.431
         4 -12.7984      2.5485      7.0536   9.3926330053e+01   7.3407885518e+01     0.963272    0.3338225 -41.84  0.005094114    2.156    0.536
         5 -12.7342    237.5731      3.1393   3.3179053400e+01   2.6223418467e+01    0.7452943    0.3339815  76.87   0.00382677    2.095    0.523
         6 -10.1927     66.5036      3.0178   6.0884162655e+01   6.5535085825e+01    0.1750149    0.1123823 -16.29 0.0005688888    1.551    0.355
         7 -10.3657     60.9945      1.4956   6.2090439410e+01   6.6679733911e+01    0.1868277    0.1050766  44.69  0.001037657    1.604    0.377
         8 -11.9042    193.7611    195.7580   8.4193004156e+01   4.4812929426e+00     1.187553    0.6855314 -66.40  0.003771462    5.602    0.821
         9 -11.8746    139.6606    248.3458   1.0347954891e+02   4.5341050888e+00    0.4149264    0.2503971 -58.43  0.002365056    2.132    0.531
        10 -11.5407    116.9850    249.2214   1.0800780688e+02   7.7975116747e+00    0.4430777    0.2640289  74.66  0.002256756    2.574    0.611
        11 -13.0003     69.7870    173.4202   1.0905838316e+02   3.0199984817e+01     1.028144    0.4957804 -35.55  0.003229527    4.383    0.772
        12 -12.8767     27.9092    215.0834   1.2241758807e+02   2.5917704818e+01    0.6958706    0.3033814  82.71  0.001988682    2.444    0.591
        13 -12.8080     11.9658    188.8722   1.2385242168e+02   3.3018380055e+01     0.272149    0.2296135  81.07 0.0005822317    1.123    0.110
        14 -13.3371     25.0290    225.8455   1.2365341068e+02   2.4051489934e+01    0.8519499    0.3073209  51.84  0.004418807    2.242    0.554
        15 -14.5215     42.5240    201.8808   1.1843878928e+02   2.7115551733e+01     2.787364     1.219264  73.14  0.006126728    2.933    0.659
        16 -14.1832     52.4833    191.2409   1.1525987753e+02   2.8299846113e+01     1.952254     1.066748  86.61  0.009621312    2.021    0.505
        17 -14.8545      9.7759    206.6686   1.2539856498e+02   2.9419247608e+01    0.8261026    0.7364269  17.91  0.003272476    1.631    0.387
        18 -15.8436      3.3949    187.6781   1.2554409518e+02   3.3997909360e+01     8.606997          nan -71.00   0.02493403    6.833    0.854
        19 -11.9436    203.8662    199.6593   8.2895679008e+01   2.0917317993e+00    0.4389933    0.2987798  24.94  0.002363972    1.384    0.278
        20 -11.1078    109.6433    201.4977   1.0356733332e+02   1.7945358405e+01    0.2824273    0.2240752 -27.72  0.001138122    1.652    0.395
        21  -9.6800     31.4214    202.6927   1.2082172995e+02   2.8150166183e+01    0.2000203    0.1423437  49.08 0.0007115491    1.317    0.241
        22 -10.3613     62.8682    201.1259   1.1398387093e+02   2.4821187136e+01       0.1966    0.1606884  87.64 0.0002987008    1.109    0.099
        23 -10.2785     63.7661    197.5738   1.1340698280e+02   2.5483128584e+01    0.2489519     0.202429  64.91 0.0008002536    1.084    0.078
        24 -10.3564     66.4954    195.5023   1.1256743351e+02   2.5584761402e+01    0.3067946     0.205888  63.88  0.001445612    1.432    0.301
        25 -10.8811    112.1376    197.1665   1.0237021781e+02   1.8455550685e+01    0.3075566    0.2149418 -33.63  0.001542815    1.884    0.469
        26 -16.5953      8.3817    241.7370   1.2741830569e+02   2.2682460932e+01     4.967394     4.201522  87.61   0.04155807    1.332    0.249
        27 -13.8603     68.4310    243.1586   1.1675820678e+02   1.5648115416e+01    0.9954525    0.5185833  75.39  0.005277394    2.264    0.558
        28  -8.9852     82.2832    194.9778   1.0891790664e+02   2.3526314483e+01    0.1641015     0.113295 -69.65 0.0008842576    1.454    0.312
        29  -9.7718     23.9571    193.4652   1.2167147309e+02   3.0905174026e+01    0.1753625    0.1296856  88.86 -2.664153e-05    1.112    0.101
        30  -9.0899     92.0029    183.9619   1.0514173369e+02   2.4549570823e+01    0.1650264    0.1504852  67.08 0.0005056772    1.017    0.016
        31 -16.0688     42.6281    249.3616   1.2192408675e+02   1.7670831427e+01     11.07907     3.446819  26.59    0.0244957   15.900    0.937
        32 -10.7047    150.4690    178.9393   9.0397037824e+01   1.5568903896e+01    0.3808066    0.2538158 -71.28  0.001381955    2.228    0.551
        33 -11.1262    144.8589    180.2984   9.1951381911e+01   1.6325768092e+01    0.3552509     0.309738  65.32  0.001235533    1.268    0.211
        34 -10.4778     99.3968    180.6975   1.0286908977e+02   2.4134628543e+01    0.2404652    0.2344295  49.52 0.0005369996    1.105    0.095
        35 -10.5587     42.3497    179.6007   1.1637532885e+02   3.2116901756e+01    0.2278772    0.1937934  85.85 0.0004205954    1.024    0.023
        36 -10.5269     45.6346    176.6896   1.1529950745e+02   3.2424582091e+01    0.2622974    0.2112091 -49.75   0.00161072    1.444    0.308
        37  -9.7126    204.5296    176.2778   7.8175187827e+01   5.9785032173e+00    0.2650764    0.1323324 -43.74  0.001133405    2.092    0.522
        38 -10.0022    197.2188    175.8821   7.9572144011e+01   7.3881508022e+00    0.2715249    0.2286332   5.89  0.001507824    1.143    0.125
        39  -9.6187    188.5026    174.9726   8.1194472790e+01   9.1793483994e+00    0.2180562    0.1392168 -40.84  0.000759595    1.588    0.370
        40 -13.1549     87.9056    154.6873   1.0148612383e+02   3.2058868002e+01     2.188185     1.086552 -75.77  0.003526253    3.019    0.669
        41 -13.3289     54.5802    146.4313   1.0914870782e+02   3.8648739827e+01     2.159624    0.9373452 -50.17  0.009089419    2.287    0.563
        42 -11.6157    124.7718    243.6104   1.0583850779e+02   7.5791844069e+00    0.3120079    0.1793195 -59.91  0.001722918    2.134    0.532
        43  -9.7949     34.4972    171.2614   1.1736672587e+02   3.4884596958e+01    0.2079893    0.1629416  49.33 0.0008935939    1.300    0.231
        44  -8.9636     28.7120    164.2716   1.1804600783e+02   3.7092384548e+01    0.1252634   0.08108238  69.36 0.0006916156    1.507    0.337
        45 -10.1864    157.7764    160.2847   8.4934680732e+01   1.8077096473e+01    0.3198605    0.2503085  74.50  0.001506393    1.721    0.419
        46 -12.7369     80.9265    161.5653   1.0448003939e+02   3.1453708589e+01    0.8812963    0.4752109  59.98 0.0004015502    2.353    0.575
        47  -9.5949    187.3005    151.6344   7.6430011898e+01   1.3899125856e+01    0.1489642    0.1210634 -77.68 0.0007034088    1.731    0.422
        48 -11.2589    133.6911    144.2459   8.7316700532e+01   2.6395825184e+01     1.170141    0.3182557 -54.90  0.002766082    5.641    0.823
        49 -10.3781    174.3683    148.5945   7.8557824090e+01   1.7151324953e+01    0.3609198    0.2719894 -75.49  0.001403068    1.952    0.488
        50 -10.9578     38.5331    146.0252   1.1344210922e+02   4.0508657895e+01    0.3392608    0.2507233  59.60  0.001140058    1.405    0.288
        51 -10.2031     35.3412    139.8786   1.1349771257e+02   4.2321609686e+01    0.2064042    0.1877104  60.47 0.0005673167    1.192    0.161
        52 -10.8112     33.0043    143.9848   1.1466535612e+02   4.1544743236e+01    0.2872575    0.1796494 -52.21  0.001555805    1.561    0.359
        53 -11.6213     28.4192    143.5423   1.1583865464e+02   4.2073817630e+01    0.3858385    0.2884939 -28.86  0.001955594    1.730    0.422
        54 -10.4393     82.9226    142.6853   1.0066139635e+02   3.5742466932e+01     0.366161    0.2313067  61.18 0.0005813066    1.952    0.488
        55 -10.9038    101.8469    140.0667   9.4883492839e+01   3.3308732551e+01     0.574835    0.3624724 -25.46  0.002309864    2.379    0.580
        56 -12.3589     89.2085    139.8941   9.8364648007e+01   3.5448351831e+01    0.2952034    0.2576588 -42.54 0.0004447909    1.177    0.150
        57 -11.4903     25.7474    137.3091   1.1580157715e+02   4.3816426710e+01    0.3764204    0.2276179  46.23   0.00116886    1.794    0.443
        58 -11.3552    135.8099    128.6158   8.3117292683e+01   2.9512502358e+01    0.5723453    0.2009222 -49.16  0.001801577    2.923    0.658
        59 -10.4887    106.0525    130.6876   9.1668981948e+01   3.4814493561e+01    0.3500589    0.3109907 -77.25  0.001448225    1.194    0.163
        60 -10.2807    111.2879    130.3488   9.0128875391e+01   3.3937499182e+01    0.3268201    0.2508182   1.03 0.0008667074    1.733    0.423
        61 -11.1888    138.9297    170.6497   9.1516084718e+01   1.9488054317e+01    0.3876061    0.2938149  54.98  0.001899978    1.405    0.288
        62 -11.8703     39.6979    126.9860   1.1038763908e+02   4.5054963923e+01    0.3156762    0.2335361 -76.31  0.001792939    1.229    0.186
        63 -10.2752    160.7590    127.5356   7.6669649065e+01   2.4435180897e+01    0.3471498    0.1889871 -55.17  0.001292741    2.240    0.553
        64 -10.8516     98.4585    126.4861   9.2876788167e+01   3.7161657552e+01     0.294518    0.2427777 -18.66 0.0008507479    1.418    0.295
        65 -11.1713    121.2439    120.8692   8.5091652623e+01   3.4234086231e+01    0.4755225     0.277146 -17.87   0.00151434    3.560    0.719
        66  -9.5248     92.0908    124.8223   9.4353121450e+01   3.8642342847e+01    0.2238119    0.1952633  76.14 0.0006028645    1.281    0.219
        67 -11.8586     33.6161    118.7750   1.1091207881e+02   4.7641959610e+01    0.4083112    0.1975194 -37.42  0.001781922    2.543    0.607
        68  -9.9350    107.7575    119.1226   8.8451556558e+01   3.7239255580e+01    0.2114422    0.1989359 -67.17  0.000309822    1.090    0.083
        69 -13.7139     68.7892    157.1890   1.0696933898e+02   3.4219172627e+01     0.597643    0.4635118 -45.40  0.001438829    1.403    0.287
        70  -9.4780    168.0517    113.0433   7.1284632582e+01   2.5821000968e+01    0.2568419     0.197244 -79.00  0.001133211    1.790    0.441
        71 -10.0810    205.5433    110.0482   6.2862940621e+01   1.7977639706e+01    0.2720747    0.2281176  49.27 0.0006117957    1.269    0.212
        72 -10.1300    114.8445    109.7563   8.4024680063e+01   3.8040881120e+01    0.3152653    0.1742297 -34.82  0.001215742    2.053    0.513
        73 -11.5758     34.4618    109.2445   1.0904278609e+02   4.9882310238e+01    0.3160132     0.244874  88.96  0.001835498    1.390    0.281
        74  -9.3811    140.2609    107.0558   7.6385613166e+01   3.3305909589e+01    0.2657841    0.1860868 -71.52  0.001078243    2.065    0.516
        75 -10.3369    134.5741    105.2622   7.7376634513e+01   3.4932923169e+01    0.3961585    0.1512559 -41.44  0.001299063    2.618    0.618
        76 -11.7367     41.2991    103.8989   1.0580617387e+02   5.0523232050e+01    0.4189683    0.2676103  51.31  0.002136935    1.940    0.485
        77 -10.8784    119.4379    103.6867   8.1078399585e+01   3.8474168133e+01    0.3046831    0.1491739 -49.82  0.001133587    2.094    0.523
        78 -10.3597    246.6669    102.6724   5.4464796651e+01   1.0701696643e+01      0.13583    0.1032523   2.30 0.0005571428    1.717    0.418
        79 -10.4223     33.1765    100.0302   1.0776615221e+02   5.2212698803e+01    0.2618279     0.190231  42.11  0.001050113    1.620    0.383
        80 -10.7573    241.0320     98.9982   5.4430391828e+01   1.2408178435e+01    0.1667551    0.1501423 -40.25 0.0004782496    1.025    0.024
        81  -9.7430    128.4747     95.5056   7.6261700843e+01   3.8327964379e+01    0.2505166    0.1512194  55.75 0.0005686811    1.925    0.480
        82 -10.1840     41.8021     91.8423   1.0308453135e+02   5.3337193462e+01    0.2048213    0.1596403 -39.57 0.0005717707    1.178    0.151
        83 -10.1187     52.9650     90.7166   9.8883527249e+01   5.2379478182e+01    0.1921219    0.1736105 -35.86 0.0004704004    1.054    0.051
        84  -9.7763    158.5201     81.5333   6.4713120681e+01   3.4169631145e+01    0.1512513    0.1508319 -38.37 0.0001149788    1.011    0.011
        85  -8.9905    184.5131     77.4439   5.8240882721e+01   2.8630685364e+01    0.1468194    0.1447954   6.93 0.0002161747    1.064    0.060
        86  -9.9265     54.2889     65.3256   9.1292544344e+01   5.7814472000e+01    0.2149293    0.2061384  76.02 0.0005543759    1.361    0.265
        87 -10.5290     13.4786     59.9325   1.0643777956e+02   6.2790383169e+01     0.213835     0.182215 -52.77  0.000452264    1.140    0.123
        88 -13.3044    191.4823     45.1070   4.8195920044e+01   3.1909709277e+01    0.9584588    0.6059603  50.79 0.0009853232    1.632    0.387
        89 -10.7686     44.6246    229.9923   1.2024981984e+02   2.1081073716e+01     0.285419    0.1976462  59.99  0.001491043    1.162    0.139
        90 -10.4905     33.7492    227.3266   1.2212049268e+02   2.2831052272e+01    0.1799163    0.1543552 -79.40 0.0003244557    1.328    0.247
        91  -9.4358     73.0142    226.4971   1.1438592024e+02   1.8218637480e+01    0.1844784    0.1055442  40.14  0.001024156    1.564    0.360
        92 -11.0430    141.8213     47.0509   5.7746163703e+01   4.3903338484e+01    0.4002838    0.2821551 -82.27 0.0007092029    2.039    0.510
        93  -9.4037    189.5202     15.0198   4.0354226779e+01   3.6025213695e+01    0.1848226    0.1283427 -31.64  0.000597226    1.539    0.350
        94 -10.4085    144.9944     41.8427   5.5365980307e+01   4.3859865795e+01    0.2263609    0.2098652 -37.66 0.0003985967    1.138    0.122
        95 -13.8411     58.2464    241.9609   1.1857521095e+02   1.7159510473e+01    0.6900082     0.364601  63.05  0.003986516    1.736    0.424
        96 -10.2444    106.9487    210.4743   1.0540074389e+02   1.6517633900e+01    0.2041016    0.1184154  39.58 0.0005228448    1.556    0.357
