#   1 NUMBER                 Running object number                                     
#   2 MAG_AUTO               Kron-like elliptical aperture magnitude                    [mag]
#   3 X_IMAGE                Object position along x                                    [pixel]
#   4 Y_IMAGE                Object position along y                                    [pixel]
#   5 X_WORLD                Barycenter position along world x axis                     [deg]
#   6 Y_WORLD                Barycenter position along world y axis                     [deg]
#   7 A_WORLD                Profile RMS along major axis (world units)                 [deg]
#   8 B_WORLD                Profile RMS along minor axis (world units)                 [deg]
#   9 THETA_WORLD            Position angle (CCW/world-x)                               [deg]
#  10 FWHM_WORLD             FWHM assuming a gaussian core                              [deg]
#  11 ELONGATION             A_IMAGE/B_IMAGE                                           
#  12 ELLIPTICITY            1 - B_IMAGE/A_IMAGE                                       
         1 -11.7345    234.9198     29.4028   2.3396491520e+01   2.3784934882e+01    0.7331111    0.6698786 -43.01  0.004750876    1.160    0.138
         2 -12.1403    217.0398     43.7928   2.8342409987e+01   2.5795751677e+01    0.9172481    0.7324923 -56.32  0.004065711    1.158    0.137
         3 -10.5589      1.8797     17.8917   9.1758336550e+01   7.6941759546e+01    0.6904567    0.1448786 -70.15   0.00218866    4.453    0.775
         4  -8.9927     79.0122    239.2096   9.3527754756e+01   1.6874783793e+01    0.2215246    0.1638239 -16.95  0.001456536    1.978    0.494
         5  -9.0129     59.4066    249.6966   9.8238802677e+01   1.7366264846e+01    0.2953386    0.2395714  33.52  0.002308211    1.173    0.148
         6 -11.8845     23.9902    195.7054   1.0329713461e+02   3.0889710667e+01    0.5598392    0.5010863 -28.35  0.001246361    1.532    0.347
         7 -14.5614     33.0952    185.8801   1.0047922785e+02   3.2097381779e+01      9.17917     3.246584  62.80   0.03668136    3.116    0.679
         8  -9.8693    108.4867    228.0141   8.6345240063e+01   1.5107629488e+01    0.2381665    0.1436461  19.56  0.001384069    1.633    0.388
         9 -12.4801     54.5585    232.6478   9.8268014590e+01   2.0700413263e+01    0.8846763    0.6411726  53.65  0.001798067    1.182    0.154
        10  -9.4398     32.5606    221.2696   1.0247387690e+02   2.5017558933e+01     0.255456    0.1086016 -81.55  0.001348943    2.663    0.625
        11  -9.0658     29.6440    218.6741   1.0300827648e+02   2.5788176316e+01    0.1740874    0.1339559  18.63  0.001189051    1.461    0.315
        12 -10.0060     26.4260    216.2396   1.0362701704e+02   2.6558610929e+01    0.3172586    0.1573741  67.85   0.00162002    1.906    0.475
        13 -11.7289      1.9668    209.1340   1.0891730438e+02   3.0074189904e+01     1.063541    0.2858963  82.01  0.002583216    3.866    0.741
        14 -12.8269     10.1712    206.7375   1.0699245868e+02   2.9873484244e+01     1.052612    0.6873007  61.25  0.006997094    1.231    0.188
        15 -14.1788      7.3129    242.4092   1.0846161585e+02   2.3560321826e+01     2.553435     1.430708  17.62  0.007433801    1.995    0.499
        16 -11.3607     15.8425    248.8299   1.0691792838e+02   2.1751581858e+01    0.2859599    0.1889647  67.57 0.0007943836    1.388    0.279
        17 -10.3829     54.0201    171.7369   9.3783607283e+01   3.2940009865e+01    0.3832943    0.2895725 -14.88  0.001304814    1.879    0.468
        18 -10.3607     60.0987    166.4846   9.1554001174e+01   3.3391188452e+01    0.3737245    0.3068703 -10.98  0.001042183    1.601    0.375
        19  -8.1042    110.5603    167.7424   7.8197121298e+01   2.5800410600e+01    0.1762412    0.1353986 -77.16 0.0009370599    1.622    0.383
        20 -12.4159     67.8185    144.3828   8.6483046915e+01   3.7601705252e+01     2.697832     1.213564  72.24  0.007348768    5.611    0.822
        21 -11.1750     78.6066    152.4105   8.4460119029e+01   3.4123672265e+01     0.778792    0.5537845 -22.46  0.001717324    2.033    0.508
        22  -8.1713    134.3284    229.3343   8.1164274970e+01   1.1614701415e+01    0.1174484   0.07900818   2.64 0.0007051887    1.722    0.419
        23 -11.8247     57.5833    153.3257   9.0770463108e+01   3.6809151978e+01     0.493042    0.3633707 -33.14  0.001172153    1.792    0.442
        24 -10.4946     82.3689    137.6036   8.0952483028e+01   3.7059671514e+01    0.3123723    0.2853352 -57.84 0.0006145059    1.162    0.140
        25  -9.1074     95.8725    138.6775   7.7148510450e+01   3.4582596789e+01    0.5555191    0.3527246 -12.00    0.0020797    3.116    0.679
        26  -9.4616    106.7701    130.0983   7.2318911325e+01   3.4625164116e+01    0.4179888    0.3345695   9.52  0.001305299    1.530    0.346
        27 -10.3485     71.1090    158.0223   8.7407832500e+01   3.3889812575e+01    0.3524646    0.3159151 -57.87 0.0004416292    1.240    0.194
        28  -8.0485    104.8095    118.2576   7.0266875305e+01   3.7703589604e+01    0.1952476    0.1739813   6.01 0.0002428486    1.288    0.223
        29  -8.1951    231.1523    114.0940   4.3366729278e+01   1.3944360087e+01     0.187666    0.1493626  -5.09  0.001052099    1.216    0.178
        30  -8.0882    205.2659    110.5834   4.6295084821e+01   1.8979560346e+01    0.1757176    0.1214736  35.43 0.0009330409    1.599    0.375
        31  -8.3383     40.9514     88.0138   8.6437678550e+01   5.5764575838e+01    0.2413138    0.1622908  64.12 0.0004563055    1.667    0.400
        32 -10.0741      2.1826     63.9304   1.0151618386e+02   6.5355625066e+01    0.5960739    0.1557688 -82.36  0.001936983    3.667    0.727
        33  -9.3625     13.3376     60.2256   9.4594282720e+01   6.5742778924e+01    0.2577037    0.2107256 -62.04 0.0007091628    1.100    0.091
        34 -10.4846    114.8638    228.3575   8.5043731927e+01   1.4245949193e+01    0.4131183     0.198772 -50.46  0.002279598    2.573    0.611
        35 -11.9986    208.5168     49.3463   3.0607246472e+01   2.6928691686e+01    0.8516934    0.5891792 -27.72  0.003684436    1.334    0.250
        36  -9.2440     49.9354    240.8748   9.9702172695e+01   1.9792124915e+01    0.1988641    0.1418963  79.03 0.0008339482    1.550    0.355
        37 -10.7824    225.1434     37.1815   2.5993253408e+01   2.4888217213e+01    0.4502725    0.3506993  44.96  0.001256099    1.626    0.385
        38  -9.6058      2.1340     52.2590   9.9936431227e+01   6.8407892987e+01    0.3600879    0.1515374  87.64  0.001446104    2.596    0.615
        39  -9.9142      1.8775     41.1987   9.8170951944e+01   7.1251857164e+01    0.4945918    0.1589094 -83.80  0.001728464    3.459    0.711
