#   1 NUMBER                 Running object number                                     
#   2 MAG_AUTO               Kron-like elliptical aperture magnitude                    [mag]
#   3 X_IMAGE                Object position along x                                    [pixel]
#   4 Y_IMAGE                Object position along y                                    [pixel]
#   5 X_WORLD                Barycenter position along world x axis                     [deg]
#   6 Y_WORLD                Barycenter position along world y axis                     [deg]
#   7 A_WORLD                Profile RMS along major axis (world units)                 [deg]
#   8 B_WORLD                Profile RMS along minor axis (world units)                 [deg]
#   9 THETA_WORLD            Position angle (CCW/world-x)                               [deg]
#  10 FWHM_WORLD             FWHM assuming a gaussian core                              [deg]
#  11 ELONGATION             A_IMAGE/B_IMAGE                                           
#  12 ELLIPTICITY            1 - B_IMAGE/A_IMAGE                                       
         1 -14.6595    205.5799     75.9638   6.2599774687e+01   2.3275987213e+01     13.12207     7.194918 -81.90   0.03750614    5.026    0.801
         2 -13.6398    219.8607     75.7055   6.0304405514e+01   1.9905553366e+01     4.863543     1.011128 -44.20    0.0112366    6.175    0.838
         3 -13.7277    217.7216     34.4044   4.9109928687e+01   2.6208072293e+01     3.423895     1.170962 -28.94   0.01240568    2.633    0.620
         4 -15.2612    244.5446    139.2908   7.2166483658e+01   5.1074334077e+00     15.02105     2.265093 -34.33     0.040858    5.481    0.818
         5 -13.5602    240.5418     23.0340   4.3793402562e+01   2.2091358045e+01     1.016857    0.7002658 -50.03   0.00368741    1.290    0.225
         6 -13.5315    231.8499     35.3263   4.7832038730e+01   2.2664296529e+01     1.591989    0.7489484 -24.38  0.006721465    2.108    0.526
         7 -13.7455    248.5352     15.1889   4.1183608887e+01   2.1144286171e+01     2.071986    0.5786734 -52.69  0.006894959    3.953    0.747
         8 -15.1825    243.9903     48.0009   4.9878162331e+01   1.8240814502e+01     2.126469     1.127191  48.65  0.007981051    2.216    0.549
         9 -13.8242    249.8528     33.2584   4.5564250295e+01   1.8773739340e+01     1.002733    0.4664817 -30.08  0.004572427    1.863    0.463
        10  -8.7890     79.1624     14.6753   6.8809248454e+01   6.3175015807e+01     0.309354    0.1684153 -24.64  0.001468012    1.752    0.429
        11 -10.9348    203.1383     11.4776   4.4080896780e+01   3.2523891735e+01    0.3589645    0.2435403   1.85 0.0008376304    1.901    0.474
        12  -8.8043    219.6243     11.4881   4.2548608564e+01   2.8370077701e+01    0.2153458    0.1933639 -57.91 0.0001614052    1.014    0.014
        13  -9.1198    164.0148     10.9048   4.8477039727e+01   4.2882632617e+01    0.2442438     0.200957 -20.22 0.0004861643    1.272    0.214
        14  -9.4578    157.3559      7.6761   4.8263783101e+01   4.4966648181e+01    0.4497238     0.263485   2.15  0.001370847    2.183    0.542
        15  -8.0368    208.4067      7.6985   4.2488373319e+01   3.1564420577e+01    0.1740188    0.1311838  -1.97 0.0006662995    1.603    0.376
        16 -10.7874    223.5283    190.7191   8.6167248338e+01   1.7196920914e+00    0.3919629    0.3130331  70.03  0.001291939    2.198    0.545
        17  -8.8426     78.0002    161.1095   1.1138333341e+02   3.2228806906e+01    0.1917371    0.1670474  81.80 0.0003601219    1.023    0.022
        18 -12.0637     68.6025    144.4394   1.1132503083e+02   3.7319997529e+01     1.293327    0.9901121  81.43  0.005395791    1.234    0.189
        19 -10.8192     44.7333    155.1521   1.1851606194e+02   3.7815754142e+01    0.3275075     0.297183   8.16  0.001110112    1.575    0.365
        20 -11.9899     52.5710    151.0616   1.1617672288e+02   3.7837808559e+01    0.8364278    0.6394423 -83.50  0.003400817    1.126    0.112
        21  -7.4326    140.5618    155.5594   9.5909290576e+01   2.2838107330e+01     0.139803    0.1330953  50.27 9.139351e-05    1.017    0.017
        22 -12.8800    230.4964     75.3754   5.8686753331e+01   1.7497849030e+01     1.622638    0.5475601 -48.43  0.004884915    3.999    0.750
        23  -8.1064    145.4829    151.0823   9.3918716404e+01   2.2788265290e+01    0.2163197    0.1422219 -46.78 0.0008436848    1.586    0.369
        24  -9.0980    133.6257    144.7948   9.5364711496e+01   2.6388975150e+01    0.2975274    0.1333326 -56.32 0.0006369276    2.577    0.612
        25 -11.2327     59.2601    147.6877   1.1411270454e+02   3.7791557977e+01    0.6203246    0.3743192 -82.84  0.001609657    1.605    0.377
        26  -8.1252    171.9296    144.4605   8.6743789102e+01   1.8741823745e+01    0.2085013    0.1279035  67.69  0.000808535    2.630    0.620
        27  -9.4976    237.2156    213.4492   8.7833854051e+01  -3.1710209699e+00    0.1904228    0.1516687  10.65 0.0003783227    1.070    0.065
        28  -9.7206    210.8846    135.4852   7.7025257631e+01   1.2243975816e+01    0.3360167    0.2230141  32.24  0.001631798    1.568    0.362
        29  -9.5946    222.0330    137.0152   7.5391337975e+01   9.7508755109e+00    0.3015482    0.2127113 -55.32  0.001471162    1.939    0.484
        30 -10.1562    221.1051    133.1643   7.4666115408e+01   1.0539357002e+01    0.3498281    0.2260018 -45.67  0.001683779    1.735    0.424
        31 -10.6766    223.4789    128.8998   7.3260628832e+01   1.0729546672e+01    0.4499678    0.3460773  15.67  0.002393811    1.366    0.268
        32 -11.1251    198.0075    134.6526   7.9242936394e+01   1.5056447679e+01    0.5344741    0.4396683  41.11  0.002867101    1.220    0.180
        33 -10.6479    197.1052    129.8488   7.8282538091e+01   1.6078578736e+01    0.3903007    0.3376444  71.91  0.001504697    1.428    0.300
        34  -9.0789    178.5773    137.2086   8.3719949650e+01   1.8701659388e+01    0.2080882    0.1389387 -25.91 0.0006785435    1.670    0.401
        35  -7.6708    169.6867    134.2729   8.4916290615e+01   2.1140659033e+01    0.1432762    0.1189941  87.55 0.0003604586    1.556    0.357
        36  -9.4535    160.4269    128.7306   8.5638034376e+01   2.4204636711e+01    0.2936051    0.2450809  89.51 0.0009988344    1.495    0.331
        37  -9.6376    135.9693    127.2263   9.0980100479e+01   2.9663060447e+01    0.4978096    0.1732936 -53.59  0.001525761    3.486    0.713
        38  -9.2147    203.8947    127.8595   7.6518256464e+01   1.4973154499e+01    0.2317508    0.1958047   6.23  0.001235464    1.206    0.171
        39 -10.0088    210.9745    126.5047   7.4892187566e+01   1.3701187801e+01    0.3102881    0.2599168  79.98  0.001032315    1.622    0.383
        40  -9.0693    212.2481    121.7726   7.3519284164e+01   1.4212608486e+01    0.3610467     0.276125  76.21  0.001757219    1.865    0.464
        41 -10.3788    185.7330    124.5106   7.9233808107e+01   1.9492850377e+01     0.462781    0.2409425 -48.03  0.001835375    2.145    0.534
        42  -9.8969    186.6873    119.7198   7.7853793183e+01   2.0154871255e+01    0.4013043    0.2889265 -62.19  0.001792995    1.822    0.451
        43  -9.4507    191.9415    125.4943   7.8237401090e+01   1.7958158052e+01    0.2241454    0.1459701  48.10 0.0008631614    1.566    0.362
        44  -9.7385    163.0110    121.1513   8.3216930509e+01   2.5146685093e+01    0.2926617    0.2760042 -81.89 0.0005487411    1.157    0.136
        45 -10.0793    135.1276    112.9884   8.7722606014e+01   3.2901498259e+01     0.744511    0.2394807 -44.52  0.002331485    3.067    0.674
        46 -12.4562    238.4096     70.5915   5.6376551302e+01   1.6409528903e+01    0.5933518    0.4270783 -42.69 0.0006209189    1.276    0.216
        47  -9.3630    167.9262    114.5781   8.0468138121e+01   2.5339833758e+01      0.32181    0.3015085   9.42  0.001710058    1.094    0.086
        48 -10.9165    206.1971    110.3213   7.1748193296e+01   1.7447371260e+01    0.8850061    0.3662687  49.58  0.003305708    2.483    0.597
        49 -10.2641    204.6300    104.0482   7.0408588360e+01   1.8862813556e+01    0.6741401    0.3551683  51.67  0.002797182    1.989    0.497
        50 -10.0733    213.4814    106.2262   6.9414914452e+01   1.6507626948e+01    0.3354843     0.287481 -10.68 0.0003770919    1.145    0.127
        51  -9.9992    217.9504    103.4844   6.7953954126e+01   1.5962804825e+01    0.3692856    0.2508959  35.01 0.0009668834    1.625    0.384
        52 -11.1494    188.0014    100.8975   7.2683228497e+01   2.3261913905e+01    0.8859934    0.4635882 -47.36  0.003449675    2.066    0.516
        53  -9.9669    185.9026     92.9643   7.0908246674e+01   2.5176422808e+01    0.4664053    0.2999092 -30.66  0.001944693    1.535    0.348
        54  -8.7846    146.9101    103.7050   8.2381147838e+01   3.2279330142e+01    0.2668873    0.2175318 -24.37 0.0007972321    1.330    0.248
        55 -10.1727    156.5011     98.9817   7.8823311378e+01   3.1035714719e+01    0.6634614    0.3074208  38.89    0.0023102    2.561    0.610
        56  -9.3627    133.4816     99.4246   8.4520620495e+01   3.6162213351e+01    0.2969274    0.2116632 -51.03 0.0006018089    1.404    0.288
        57 -10.5999    170.5580     92.7277   7.3951619011e+01   2.8909988424e+01    0.8156676    0.5854885 -11.35  0.003552628    1.745    0.427
        58  -8.8661    157.0126    110.9639   8.1962157223e+01   2.8520513990e+01    0.2240743    0.2151266 -31.06  0.001188755    1.028    0.028
        59  -9.1708    209.6744     96.0383   6.7410855458e+01   1.9046777073e+01    0.3877651    0.2567253 -64.03  0.001645914    2.147    0.534
        60 -10.9242    122.5844    102.1075   8.8097117913e+01   3.7906909741e+01    0.7882669    0.4922295  83.63  0.002674457    3.398    0.706
        61  -9.3566    140.3600     94.2107   8.1310622807e+01   3.5720266388e+01    0.3329603    0.2695627 -65.90 0.0008028595    1.397    0.284
        62 -10.4500    154.2052     90.2693   7.6849231633e+01   3.3293092854e+01    0.3446496    0.2775296 -37.41 0.0002938342    1.211    0.174
        63  -9.3450    101.4541     88.4207   9.0210948593e+01   4.5166291780e+01    0.2710777    0.2500233 -82.14 0.0007453008    1.148    0.129
        64  -9.9036    126.1278    239.4740   1.1087706470e+02   1.0520712562e+01    0.1822407    0.1558781  55.84 0.0002600946    1.127    0.113
        65  -8.2523    159.0025     84.4785   7.4040261086e+01   3.3255545399e+01    0.2336805    0.1566161  51.45 0.0004804602    1.530    0.346
        66 -11.3348    169.2516     79.1814   7.0238170653e+01   3.1715064567e+01    0.4975021    0.3696918  -8.21  0.002212554    1.646    0.393
        67  -7.8983    157.0100    192.4840   9.8914987626e+01   1.2984604198e+01    0.1857582    0.1012736  59.39 0.0008091027    2.481    0.597
        68 -10.1549    126.3305     77.2156   7.9748169121e+01   4.2373651352e+01     0.319788    0.2235021  60.55  0.001176535    1.641    0.391
        69 -10.3167    144.5529     72.9672   7.3779602641e+01   3.8934687860e+01    0.3712466    0.2394833  51.83  0.001227941    1.591    0.371
        70 -11.6237    137.1203     71.6366   7.5155181623e+01   4.0969467241e+01    0.6421893    0.4829481 -58.33  0.002948188    1.503    0.335
        71 -10.7683    132.6303     72.7257   7.6645948912e+01   4.1817681921e+01    0.4204017    0.3100727 -86.72 0.0007462021    1.970    0.492
        72 -10.2534    152.1822     65.6316   6.9625808674e+01   3.8390198173e+01    0.4863345    0.1851312  41.99  0.001491991    3.228    0.690
        73 -10.4305    136.2948     59.9429   7.1402710155e+01   4.3319156758e+01    0.5966719    0.1927203 -39.69  0.001867031    2.935    0.659
        74 -10.1724    116.3854     67.3968   7.9221725009e+01   4.6546785354e+01    0.2760882    0.2673786  -8.72  0.000302564    1.036    0.035
        75  -9.2579    122.9540     58.3041   7.4229812714e+01   4.6785547411e+01    0.2722673    0.2014996 -44.41 0.0009356705    1.348    0.258
        76 -10.4272    143.4699     56.2787   6.8426905967e+01   4.2184286333e+01     0.442027    0.2927336  -1.74  0.001768075    2.165    0.538
        77 -13.3618    249.4658     58.5435   5.1967272223e+01   1.5635429552e+01    0.7775979    0.3956309 -37.80  0.001212842    1.656    0.396
        78 -10.7167    135.5910     51.2789   6.8495587004e+01   4.4978226761e+01    0.4476788    0.3551945  48.93  0.001826251    1.273    0.214
        79 -10.6750    188.8736     45.1298   5.6115013231e+01   3.2149351378e+01    0.9019201    0.4885659 -23.39  0.003679197    1.938    0.484
        80  -9.4166    193.4970     48.5154   5.6451734421e+01   3.0473434884e+01    0.5882576    0.2113789 -40.24  0.001814282    2.575    0.612
        81 -10.1758    224.2754    185.6411   8.5099308693e+01   2.2647990268e+00    0.3025164    0.2277202  27.10 0.0002848287    1.165    0.142
        82 -10.6396    162.4621     39.1337   5.8554081646e+01   3.9928743803e+01    0.6229415    0.3428484 -39.12  0.002589073    1.779    0.438
        83  -8.6434    189.9277     36.0748   5.3137134996e+01   3.3097360923e+01    0.2709912    0.2114231 -14.71  0.001349071    1.382    0.277
        84  -7.1944    128.6738    225.2800   1.0886549638e+02   1.2289628442e+01     0.119282   0.07660982  60.83 0.0002052088    1.595    0.373
        85  -9.0933      4.9493    181.2696   1.2906217888e+02   3.6073532089e+01    0.1509061    0.1111301  70.46 0.0004347736    1.083    0.077
        86  -8.9726    204.9930     36.9990   5.1389068252e+01   2.9081210542e+01    0.4898968    0.2989626 -19.01   0.00218998    1.774    0.436
        87  -8.3728    144.9755    178.9367   9.9157387483e+01   1.7505152005e+01    0.1942206    0.1794515  46.86 0.0004122996    1.023    0.023
        88  -9.0091    191.9948    193.0164   9.2251325534e+01   6.7696305077e+00    0.3163309    0.1846275 -58.56   0.00142087    3.136    0.681
        89  -8.0420     92.4415     26.0368   6.9978587412e+01   5.8887067993e+01    0.2139061    0.1311529 -28.84 0.0006487903    1.556    0.357
        90  -9.5036    203.4364     19.1739   4.6312070691e+01   3.1622247240e+01    0.2977173    0.2447665 -45.47  0.000696408    1.146    0.127
        91 -10.0673    118.2199     17.4434   5.9219773698e+01   5.4063803305e+01    0.2672515    0.1962331 -17.36 0.0008520066    1.375    0.273
        92 -10.1418    192.3589    177.4057   8.9356899365e+01   9.0799708047e+00     0.236031    0.2187919  28.65 0.0002215888    1.114    0.103
        93  -8.9860     78.0251    176.9688   1.1339268715e+02   2.8803472995e+01    0.1835184    0.1563195  76.90 0.0003008076    1.029    0.028
        94 -12.1154     15.7924    168.7745   1.2615395563e+02   3.7726796917e+01    0.7696356    0.5670671  82.77  0.004180552    1.031    0.030
        95  -7.8803    186.7870     12.3469   4.6090754885e+01   3.6689957431e+01    0.1456652   0.09454402 -49.49 0.0004763766    1.534    0.348
        96  -8.2523    213.4652    167.3649   8.3462646608e+01   6.7420987989e+00    0.1978863    0.1566844  59.42 0.0004816952    1.662    0.398
        97  -8.6221    212.8885    160.9489   8.2252997156e+01   7.8170604194e+00    0.1969915    0.1752207  12.74 0.0004659802    1.034    0.033
        98  -8.5868    198.5851    160.0356   8.4727181565e+01   1.0683479048e+01    0.2710808    0.1242117 -45.56  0.001101764    2.548    0.608
