#   1 NUMBER                 Running object number                                     
#   2 MAG_AUTO               Kron-like elliptical aperture magnitude                    [mag]
#   3 X_IMAGE                Object position along x                                    [pixel]
#   4 Y_IMAGE                Object position along y                                    [pixel]
#   5 X_WORLD                Barycenter position along world x axis                     [deg]
#   6 Y_WORLD                Barycenter position along world y axis                     [deg]
#   7 A_WORLD                Profile RMS along major axis (world units)                 [deg]
#   8 B_WORLD                Profile RMS along minor axis (world units)                 [deg]
#   9 THETA_WORLD            Position angle (CCW/world-x)                               [deg]
#  10 FWHM_WORLD             FWHM assuming a gaussian core                              [deg]
#  11 ELONGATION             A_IMAGE/B_IMAGE                                           
#  12 ELLIPTICITY            1 - B_IMAGE/A_IMAGE                                       
         1 -14.5849    218.2915      5.0563   4.1092662972e+01   2.9397339190e+01     2.971209     1.580782  47.32   0.01121743    2.209    0.547
         2 -13.8675    178.3197     47.9382   5.8637301960e+01   3.4429747829e+01     1.431988     1.036099  28.51 0.0008275019    1.637    0.389
         3 -14.0113    191.0486     36.7238   5.3148731292e+01   3.2669506347e+01     1.077642    0.9759638 -57.74  0.003613925    1.097    0.089
         4 -13.9940    197.2540     29.1425   5.0040572497e+01   3.2025563255e+01     1.040148    0.9312866  19.53  0.001380028    1.277    0.217
         5 -11.4190    162.6828     55.7309   6.4089104833e+01   3.7279933796e+01    0.2898268    0.2713211  25.45 0.0003151163    1.083    0.076
         6 -17.1307     70.3084    146.8028   1.1153689925e+02   3.6338214076e+01     16.08419     7.614755  81.67   0.04323972    5.953    0.832
         7 -11.9856     71.4444    207.3019   1.1874085950e+02   2.3135107931e+01    0.6100764      0.33265  27.50  0.003046319    2.742    0.635
         8 -11.0775     57.9211    213.7637   1.2186920496e+02   2.3651223660e+01     0.324194    0.2239688 -88.48  0.001052775    1.293    0.227
         9 -13.5720     57.5358    202.5516   1.2096783155e+02   2.5886169624e+01    0.5149578    0.3800261  83.68  0.002136939    1.137    0.121
        10 -10.2304     52.6336    209.6368   1.2250269487e+02   2.5100875730e+01    0.3081318    0.1468413  69.14 0.0007640907    2.129    0.530
        11  -9.3812     49.4344    205.5595   1.2276320416e+02   2.6284668174e+01    0.1718606    0.1432042  88.24 0.0001236587    1.187    0.157
        12 -11.9601     38.9396    211.6388   1.2515082660e+02   2.6324638923e+01    0.3488948    0.1609843  78.87  0.001877993    2.201    0.546
        13  99.0000     43.4611    210.8994   1.2428225182e+02   2.5949081106e+01     0.479854    0.1914573  84.68  0.002142633    3.261    0.693
        14  -9.7723     44.2166    205.8752   1.2375987161e+02   2.6838570694e+01    0.1525617   0.09236546 -83.89 0.0009617167    1.455    0.313
        15 -11.3106     32.8947    206.0728   1.2584712529e+02   2.8071560885e+01      0.18209    0.1411614 -73.01  0.001340088    1.412    0.292
        16 -17.8108     22.0762    242.4960   1.2976989705e+02   2.2587065540e+01     5.887857     3.203791  42.89   0.04207915    1.732    0.423
        17 -12.2169    195.3513    197.0518   9.2573396374e+01   4.2137117505e+00     1.259362    0.9125422 -87.67  0.005812473    2.976    0.664
        18 -11.7468     96.7754    200.4738   1.1298588553e+02   2.0822456445e+01    0.3461289    0.2949068 -25.14  0.001133659    1.769    0.435
        19  -9.0654     45.4155    199.1261   1.2299108252e+02   2.8039983360e+01    0.1447907    0.0893551  85.78 0.0005038042    1.416    0.294
        20  -9.8487     44.8685    195.5038   1.2279213437e+02   2.8836408205e+01    0.1598678    0.1134236  63.10 0.0004077866    1.184    0.156
        21 -12.3169     33.0961    198.3930   1.2525937247e+02   2.9568549217e+01    0.2759632    0.1713898  36.78  0.001484703    1.816    0.449
        22 -10.7129    207.6289    195.2100   8.9895575606e+01   2.2731435216e+00    0.1807406    0.1191888 -21.92 0.0009386213    1.670    0.401
        23 -10.1327     59.0947    228.1396   1.2280790815e+02   2.0837368153e+01    0.1438966   0.09439509  68.07 0.0002721367    1.214    0.176
        24 -10.3692     80.4197    194.3633   1.1559107960e+02   2.4470898476e+01    0.4254736    0.1618591  51.46  0.001038959    2.488    0.598
        25  -9.8594     43.8871    219.9491   1.2486320122e+02   2.4184771752e+01    0.1722362    0.1411218 -73.33  0.001227786    1.452    0.311
        26 -12.8318     67.1493    188.8782   1.1770309372e+02   2.7434261096e+01    0.7224538    0.6320006 -81.30  0.004965536    1.203    0.168
        27  -9.8195     38.8037    192.6963   1.2373156048e+02   3.0098257300e+01    0.1557462    0.1334354  82.41  0.001146822    1.193    0.162
        28 -12.5476    149.2066    186.7749   1.0006715927e+02   1.4546907984e+01    0.4570076    0.3272833  85.45  0.002244862    2.027    0.507
        29 -11.9079     99.0724    180.8690   1.0991937161e+02   2.4459979316e+01    0.3450525    0.2815417  30.64  0.001850469    1.449    0.310
        30  -9.9708     73.7682    189.6400   1.1642150924e+02   2.6378423965e+01    0.1738062     0.131286  64.82  0.001082706    1.149    0.130
        31  -9.6908     87.4789    202.8316   1.1513009773e+02   2.1752319351e+01    0.1984206    0.1605175 -11.66  0.001155259    2.197    0.545
        32 -12.4684    141.7783    172.5340   9.9154356276e+01   1.8711709934e+01    0.6762297    0.3910788  48.56  0.003123501    1.652    0.395
        33  -9.7565     50.4791    172.8340   1.1948876509e+02   3.2966733262e+01    0.2034694    0.1430931  55.15 0.0006742836    1.338    0.253
        34 -10.8928     43.8704    171.9311   1.2081245153e+02   3.3926883334e+01    0.4380253    0.1646148  41.54  0.002100772    2.503    0.600
        35 -19.1795      8.7696    107.1884   1.2206331286e+02   5.1759791061e+01     15.96051    0.7150148 -71.31   0.02836044   15.155    0.934
        36  -9.8827    162.9354    168.3580   9.3749266242e+01   1.5423514111e+01    0.2252847    0.1982272 -64.97 0.0003819594    1.286    0.222
        37  -9.1767     48.0392    217.2321   1.2393260195e+02   2.4203845015e+01    0.2431064    0.1320942  49.01  0.001407174    1.549    0.354
        38  -8.9523    200.6903    168.3289   8.5941038021e+01   7.8903326343e+00    0.1346471    0.1157581 -86.86 0.0007040701    1.663    0.399
        39 -10.2461    229.7030    166.3479   8.0036804607e+01   2.6110311627e+00    0.1277146    0.1107097 -64.99 0.0004589423    1.678    0.404
        40  -9.8841    192.4739    164.9396   8.6872013172e+01   1.0118289392e+01    0.2161007    0.1891534  29.36 0.0005607307    1.070    0.065
        41 -10.7166    158.1352    161.6067   9.3441132364e+01   1.7704969311e+01    0.2733132    0.1820019  37.48  0.001287744    1.484    0.326
        42 -12.6955     95.4045    153.7161   1.0652936726e+02   3.1006895778e+01    0.6598272    0.4952076 -28.68  0.003366164    1.876    0.467
        43 -10.5081    188.4551    154.9119   8.5537133042e+01   1.2750383732e+01    0.5541462    0.1836224  42.41   0.00184069    2.970    0.663
        44 -11.5830    133.8425    145.5203   9.5674358580e+01   2.5923635208e+01     1.200001     0.308874 -54.55  0.002972307    5.570    0.820
        45 -10.2101    113.3190    151.3236   1.0177171253e+02   2.8500739147e+01    0.2975123    0.1985137  81.80  0.001314946    2.078    0.519
        46 -10.4764    174.4118    148.8351   8.7154724693e+01   1.6855221844e+01    0.3108173    0.2679797  85.78 0.0009442582    1.443    0.307
        47 -11.0338    144.0683    146.6565   9.3502408925e+01   2.3632104782e+01    0.4464283    0.2123026 -58.82  0.001582655    2.799    0.643
        48 -10.0307    107.6018    145.7794   1.0210933418e+02   3.0761457291e+01    0.1950355    0.1327031 -68.72 0.0002745457    1.558    0.358
        49  -9.4656    113.6778    143.2902   1.0011862837e+02   3.0243398266e+01      0.14842    0.1105691  77.87 0.0003744936    1.607    0.378
        50 -11.9211    107.2955    139.3659   1.0092389629e+02   3.2279243221e+01     0.551155    0.3704205 -31.38   0.00249755    2.001    0.500
        51 -12.5092     95.0376    139.3745   1.0403418297e+02   3.4362386763e+01     0.296905    0.2877232  -9.05 0.0004261247    1.222    0.182
        52 -11.2437    105.8978    131.0241   9.9553732707e+01   3.4445813442e+01    0.4155192    0.3040287 -57.03  0.001719703    1.311    0.237
        53 -11.1231    114.4300    130.0419   9.7135104386e+01   3.3118645022e+01    0.3338633    0.2641285 -39.01 0.0006986507    1.344    0.256
        54 -11.2319    135.7668    127.5943   9.1181979560e+01   2.9462864797e+01    0.5647799    0.1930226 -51.45   0.00174983    3.206    0.688
        55 -11.0223    119.9065    123.6901   9.4271175585e+01   3.3519532370e+01    0.4232953    0.2870444 -14.53  0.001699202    2.474    0.596
        56 -10.1488    160.4482    127.6573   8.5302373453e+01   2.4149235840e+01    0.2912037    0.2294257 -63.16  0.001371929    1.466    0.318
        57  -9.2890    152.2932    119.5985   8.5192083152e+01   2.7638711174e+01    0.1640152    0.1235639 -77.88 0.0006995514    1.807    0.447
        58 -10.2230    109.9221    119.0131   9.5795372021e+01   3.6482192121e+01    0.2182945      0.20667 -64.89 0.0003298885    1.008    0.008
        59 -10.1323    167.7342    112.5639   7.9784312352e+01   2.5577491696e+01    0.3221098     0.234478 -68.56  0.001378222    1.836    0.455
        60 -11.1497    102.1044    125.9708   9.9459834632e+01   3.6283221390e+01    0.3077456      0.24864 -25.20 0.0008357812    1.518    0.341
        61 -11.5245    118.9494    110.8423   9.1366764224e+01   3.6602939928e+01    0.5153953    0.3396102  64.30  0.002186694    1.998    0.499
        62 -10.1702    205.4823    110.1627   7.1344642078e+01   1.7212076361e+01    0.3240118    0.2165968  41.27 0.0008464855    1.564    0.361
        63  -8.8907    166.2650     93.6364   7.4894176516e+01   2.9661396652e+01    0.1624121    0.1227646 -66.04 0.0006987352    1.645    0.392
        64  -9.4027     51.4176    215.4773   1.2319251726e+02   2.4128895473e+01    0.1838067    0.1235516 -86.71 0.0007064574    1.323    0.244
        65  -9.5029     73.4956    218.5524   1.1941855032e+02   2.0712230909e+01    0.1178977    0.0922294  67.47 0.0001545934    1.008    0.008
        66  -9.7001    185.3018     85.0549   6.8422635267e+01   2.6582390246e+01    0.2278378    0.2068934 -36.34  0.001159226    1.075    0.070
        67 -11.6184    161.4390     62.7559   6.6598183690e+01   3.6454239295e+01    0.4137127    0.3069382 -87.21 0.0006654968    1.817    0.450
        68 -11.2293     62.1829    236.0602   1.2287331579e+02   1.9044975204e+01    0.1701279    0.1275115  74.10 0.0005808585    1.085    0.078
        69 -10.9063     51.4404    226.3023   1.2400147056e+02   2.2116412398e+01       0.2484    0.1197906  71.30  0.001282142    2.011    0.503
        70 -12.1227     49.4445    233.7223   1.2486068657e+02   2.1029639174e+01     0.248128    0.1347626  67.63  0.000720853    1.530    0.347
        71 -11.1308     53.5935    231.3001   1.2399020121e+02   2.0955217939e+01    0.1881201    0.1353265  73.57 0.0009626216    1.079    0.073
        72 -10.4142     45.3258     13.3229   8.2117340066e+01   6.7717368705e+01    0.1291643   0.08004062  -3.89 0.0007048144    1.687    0.407
