#   1 NUMBER                 Running object number                                     
#   2 MAG_AUTO               Kron-like elliptical aperture magnitude                    [mag]
#   3 X_IMAGE                Object position along x                                    [pixel]
#   4 Y_IMAGE                Object position along y                                    [pixel]
#   5 X_WORLD                Barycenter position along world x axis                     [deg]
#   6 Y_WORLD                Barycenter position along world y axis                     [deg]
#   7 A_WORLD                Profile RMS along major axis (world units)                 [deg]
#   8 B_WORLD                Profile RMS along minor axis (world units)                 [deg]
#   9 THETA_WORLD            Position angle (CCW/world-x)                               [deg]
#  10 FWHM_WORLD             FWHM assuming a gaussian core                              [deg]
#  11 ELONGATION             A_IMAGE/B_IMAGE                                           
#  12 ELLIPTICITY            1 - B_IMAGE/A_IMAGE                                       
         1 -11.8214    211.3025     31.9822   5.9815553794e+01   2.8150923349e+01    0.8562527    0.4997531 -28.25  0.004011138    1.646    0.392
         2 -11.8928     76.6351     31.8668   9.0846748705e+01   6.0795825997e+01    0.9910111    0.5701592 -14.74  0.004238565    2.249    0.555
         3 -11.8004     71.1819     29.8048   9.2107847079e+01   6.2103330759e+01     0.729643    0.3712689 -22.83  0.002019186    2.371    0.578
         4 -12.2704     43.8522     15.9396   9.8041645088e+01   6.8603557461e+01     1.016327    0.5598351  45.56  0.004934657    2.609    0.617
         5 -10.7276     30.5426     14.6505   1.0455128848e+02   7.0382720137e+01    0.7985188    0.2425397 -38.18  0.001488473    2.980    0.664
         6 -10.6006    122.8568     10.0510   6.6918929761e+01   5.3532357468e+01    0.4534718    0.2858393  55.31  0.001893817    1.452    0.311
         7 -11.6329    136.5195     30.5536   7.2050857908e+01   4.7690834851e+01    0.9379193    0.3965027 -21.44  0.003344859    2.667    0.625
         8 -12.0119    130.1987     19.8464   6.9299347224e+01   5.0615417515e+01     1.360801    0.3405927  59.10  0.004072946    3.608    0.723
         9 -11.6861    117.0490     15.2672   7.0523212046e+01   5.4419439771e+01    0.4345759    0.3142341  79.60 0.0002971741    1.806    0.446
        10 -12.6392    112.3338     22.2902   7.4779054024e+01   5.4711539724e+01    0.9419287    0.6349542 -34.74   0.00456817    1.566    0.361
        11 -12.2419     93.0593      8.2008   7.3924528274e+01   6.0830069580e+01    0.5006577    0.4169059  39.44  0.001242131    1.143    0.125
        12 -12.0673    111.9972      7.6573   6.8438357956e+01   5.6464282867e+01     1.066839    0.3964119  55.54  0.004087867    2.341    0.573
        13 -11.4054    150.0732     16.1151   6.3828284167e+01   4.5863468624e+01    0.7575167    0.3996083  25.77  0.002937725    2.452    0.592
        14 -10.5045    146.9342     12.3621   6.2997188639e+01   4.7073775686e+01    0.3405531    0.2297638 -52.15 0.0008755429    1.773    0.436
        15 -11.6975    148.5101     25.2961   6.7511581048e+01   4.5251978829e+01     0.963331     0.498062  38.30  0.003038826    2.058    0.514
        16 -13.7328    100.6218      6.4518   7.0867537627e+01   5.9296607763e+01    0.8026395    0.6031515 -35.92  0.002454816    1.510    0.338
        17 -11.0295     72.9414     17.2086   8.5479431488e+01   6.3792212959e+01    0.4793707    0.2629196  40.05  0.001809128    1.795    0.443
        18 -11.2354    201.9330     18.4325   5.7034465634e+01   3.1985043585e+01    0.9409928    0.4009568  62.25   0.00385654    2.179    0.541
        19 -11.1239    210.6908     13.8711   5.4758362208e+01   3.0235373657e+01    0.4928243    0.3192346 -33.22  0.002049179    1.486    0.327
        20 -11.6214    221.1080     12.2108   5.3274363452e+01   2.7835671992e+01     1.575617    0.4376193  74.80  0.005091907    4.121    0.757
        21 -11.1044    233.4468     10.5233   5.1739671443e+01   2.5068266410e+01    0.3965786    0.2744627 -10.86  0.001432218    1.616    0.381
        22 -10.9344    230.0652      9.0000   5.1632070535e+01   2.6005585932e+01    0.3567903    0.2253238  63.44 0.0009832965    1.597    0.374
        23 -11.3833      9.5213     19.1993   1.1852458253e+02   7.1138963108e+01    0.6793366    0.3025763   4.42   0.00346074    2.739    0.635
        24 -11.9368     18.8646     13.4357   1.1075616512e+02   7.1665210439e+01     0.571883     0.433775 -12.47  0.003839848    1.239    0.193
        25 -11.3331     25.7521      4.9368   1.0243942927e+02   7.2586159193e+01    0.6379324    0.2669043 -37.24  0.003143808    1.982    0.496
        26 -11.1103     18.7008      3.4242   1.0604335122e+02   7.3516005182e+01     0.403834    0.3463008 -51.63  0.002506156    1.503    0.335
        27 -12.1577     13.2661      8.7916   1.1212704468e+02   7.2960613130e+01    0.4778335    0.3712706 -48.14 0.0007935042    1.248    0.199
        28 -11.8983      3.0506     17.4266   1.2170459463e+02   7.1812295487e+01    0.2624254    0.1642415 -44.63 0.0003744393    1.192    0.161
        29 -13.2187      4.1538     10.0294   1.1842250220e+02   7.3255727614e+01    0.8858012    0.3561299 -61.61 0.0007434497    2.220    0.550
        30 -10.4915    224.4691      8.4787   5.1975532080e+01   2.7383985773e+01     0.451092    0.2032246  46.09  0.001906963    2.609    0.617
        31 -11.4932    129.3157     14.2072   6.7213632502e+01   5.1465316656e+01     1.434746    0.2004716  50.27  0.003789017    4.588    0.782
        32 -11.4093    247.9585     13.0018   5.1188503877e+01   2.1537407568e+01    0.5653906    0.2834375  -9.56  0.002051147    2.623    0.619
        33 -10.4292    163.6557      5.6341   5.7890459332e+01   4.3257307058e+01     0.473063     0.265723 -27.91  0.001370695    1.831    0.454
        34 -10.2282    167.8761      7.7821   5.8031321554e+01   4.1940541652e+01    0.2379647    0.1990511 -22.42 0.0006590318    1.262    0.208
        35 -10.5967    167.9444      3.3222   5.6511371935e+01   4.2315163429e+01    0.5502293    0.2905556 -67.82  0.002162499    2.650    0.623
        36 -10.8718    170.2322     14.0992   5.9828040919e+01   4.0712849856e+01     0.458646    0.2435154 -45.19  0.001456802    2.080    0.519
        37 -11.3710    165.4242     11.7086   5.9727643497e+01   4.2226027835e+01    0.4374889    0.3198467 -61.02  0.001716902    1.574    0.365
        38 -11.1242    200.0691      5.6360   5.3493859362e+01   3.3697396509e+01    0.6965274     0.327811 -35.98  0.002767204    2.027    0.507
        39  -9.9825    193.1993      6.5688   5.4499696336e+01   3.5380301091e+01    0.3398774    0.1532944  52.79 0.0008691844    2.121    0.529
        40  -9.4224    187.5073     14.4678   5.7591951284e+01   3.6113685647e+01    0.4196384    0.2137587  68.10  0.001806336    1.880    0.468
        41 -10.6640    188.0264      9.8162   5.6084417572e+01   3.6426732867e+01    0.5719558    0.4873217  -2.29  0.003214217    1.280    0.219
        42 -10.3794     67.5834     13.0729   8.5560489653e+01   6.5364002350e+01    0.2411995    0.1966694  15.33 0.0004438379    1.107    0.096
        43 -10.6241    140.9508     10.4058   6.3348975801e+01   4.8839198521e+01    0.4459969    0.2512042 -56.57 0.0009427522    2.504    0.601
        44 -12.5544    132.8357      4.0286   6.2357655633e+01   5.1545336033e+01     0.852192     0.380202  54.87  0.002843194    1.906    0.475
        45 -10.5388    123.7688      2.8071   6.3650530217e+01   5.3983163033e+01    0.3463255    0.2540286  31.17  0.001109478    1.294    0.227
        46 -11.5939     50.3689      9.9131   9.1650333594e+01   6.8668481228e+01    0.4487918    0.3260364  14.80  0.002261344    1.310    0.237
        47 -11.7348     68.0993      4.3069   8.0665783066e+01   6.6428534883e+01    0.9868777    0.3456834  37.65  0.003799368    2.910    0.656
        48 -10.8287     60.4049      3.2384   8.3282201352e+01   6.7965224678e+01    0.2710895    0.2162725 -19.78 0.0008128619    1.217    0.178
        49 -12.4007     55.3121      2.5676   8.5180547461e+01   6.8927122361e+01    0.3029796    0.2593076   3.49 0.0001796554    1.114    0.103
        50 -11.3217     82.5452      6.0218   7.6235438421e+01   6.3347410455e+01    0.6378698     0.299102 -29.86  0.001975488    2.110    0.526
        51 -10.6037     77.2024      8.8362   7.9592495159e+01   6.4104935758e+01    0.3417403    0.2492741 -15.47   0.00081712    1.286    0.223
        52  -9.7704     77.4490      4.5115   7.7228642060e+01   6.4571874782e+01    0.2091763    0.1370012  21.48 0.0005525807    1.480    0.324
        53  -9.3459    151.4884      9.4914   6.1141397533e+01   4.6145550857e+01    0.1497684    0.1304506  41.28 0.0003387322    1.080    0.074
        54 -10.7838    157.6762      4.6573   5.8416493651e+01   4.4936361999e+01    0.4722785    0.2588533 -13.60  0.001890886    2.023    0.506
        55  -9.5535    154.3502      4.6978   5.8933808407e+01   4.5818528987e+01    0.3816444    0.2799524 -69.94  0.001899977    1.614    0.380
        56 -11.1986    208.6779      3.3952   5.2013708495e+01   3.1721106616e+01    0.4827544    0.3367815 -80.82  0.001550435    1.486    0.327
        57 -10.6447    176.8752      4.2434   5.5674191759e+01   3.9865011354e+01    0.5658747    0.2217476  78.59   0.00140124    2.917    0.657
        58 -10.3399     46.9615      1.6522   8.8677290759e+01   7.0386122367e+01    0.3505181    0.2170708  45.63  0.001481249    2.012    0.503
        59  -9.4014     44.8226      4.8251   9.1615907692e+01   7.0248783602e+01    0.1969956    0.1454471  19.06 0.0006099606    1.291    0.225
        60  -9.7409     41.7911      2.9819   9.2145040489e+01   7.0951800358e+01    0.2319311    0.1584666 -28.91 0.0006099311    1.301    0.231
        61  -9.6678    145.4471      4.2985   6.0213481155e+01   4.8215635685e+01    0.2436395    0.1740919 -80.59  0.001173646    1.708    0.414
        62 -10.5285    224.2637      1.9708   5.0282351977e+01   2.8031579878e+01    0.2934474    0.1666888  61.58  0.001483239    1.743    0.426
        63 -10.2137    217.3844      1.5886   5.0747453643e+01   2.9728603730e+01    0.2558674    0.1539644  72.45  0.001303248    1.610    0.379
        64 -10.7491    191.9231      1.8265   5.3208182990e+01   3.6128638210e+01    0.2320905     0.185335  83.41 0.0003957786    1.211    0.174
        65 -11.9434    246.9637      2.5853   4.8753299438e+01   2.2747172396e+01    0.4618307    0.2177292  57.60 0.0008879938    2.251    0.556
        66  -9.6320    229.6976      1.3751   4.9702461868e+01   2.6796124988e+01    0.1668207    0.1142158  67.39 0.0006416278    1.462    0.316
        67  -9.5487    183.2662      1.3519   5.4000335310e+01   3.8427182824e+01    0.1818089    0.1247092  85.01 0.0002999901    1.471    0.320
        68  -9.2445     59.5429    113.4664   1.2057271053e+02   4.5532992238e+01    0.1314386    0.1197759 -73.36 0.0001550776    1.005    0.005
        69  -9.4726     91.9752    250.4998   1.2856855461e+02   1.4843536578e+01    0.1602554    0.0781481  39.92 0.0004553908    1.523    0.344
        70 -11.6566    231.5273    111.6670   7.7984020105e+01   1.2758853044e+01     0.378737    0.3042949  46.70  0.001539464    1.368    0.269
        71 -10.6447    133.0746    111.7033   9.9000513261e+01   3.3934942725e+01    0.3113529    0.2286219 -34.24  0.001486148    1.418    0.295
        72 -10.0403    245.1646     92.9537   7.1326579660e+01   1.2587407741e+01    0.2088331    0.1870383 -15.91 0.0005553397    1.061    0.057
        73 -11.2698    234.1952     99.4095   7.4562019046e+01   1.3950197283e+01    0.4592041    0.3367854  87.01  0.002197268    2.311    0.567
        74 -12.4273    242.1689    101.3535   7.3806949724e+01   1.2053063221e+01     1.558836    0.6088318 -46.45   0.00525703    3.880    0.742
        75 -11.5604    245.4220     97.2274   7.2325784685e+01   1.1960714943e+01    0.6822397    0.4083912  75.89  0.002830371    3.259    0.693
        76 -10.7579     37.0740    109.6737   1.2677891870e+02   4.8739229709e+01    0.3959778    0.1948819  51.97 0.0007932379    2.337    0.572
        77 -10.7514     67.7647    107.1069   1.1689694937e+02   4.6009438135e+01     0.515434    0.2291457 -36.21   0.00181871    3.581    0.721
        78 -11.0730     16.7780     98.0987   1.3154014816e+02   5.2985570773e+01    0.3995106    0.2262096 -33.26  0.002044668    2.199    0.545
        79 -11.0729    201.4861    107.5109   8.2310001961e+01   1.9764936347e+01    0.3082693    0.1412084 -32.54  0.001071804    2.131    0.531
        80  -9.6189     74.2464    107.6142   1.1499779506e+02   4.5027265668e+01    0.1830939    0.1343093  18.04 0.0009454512    1.621    0.383
        81 -10.6667    230.3588    105.0741   7.6572002792e+01   1.3941522258e+01    0.3600887    0.2492853  39.73  0.001571542    1.463    0.317
        82 -10.9758    133.8837    103.3843   9.6643230510e+01   3.5480672829e+01    0.4848523    0.2108582 -43.79  0.001773659    2.329    0.571
        83  -9.8315     46.2119     98.5638   1.2215563229e+02   5.0491318842e+01     0.211302    0.1808015  11.26 0.0009660595    1.377    0.274
        84 -11.2344     47.9462    102.7895   1.2233155143e+02   4.9318620782e+01    0.5228884    0.1869906 -43.60  0.001915649    3.422    0.708
        85  -9.3638    105.9180    102.5091   1.0425379811e+02   4.1139416419e+01    0.2069157    0.1450768  35.63 0.0004572243    1.457    0.314
        86  -9.5811     80.9990    102.0117   1.1170526604e+02   4.5359997025e+01    0.2212005    0.1689034  71.14  0.001124674    1.623    0.384
        87  -9.7815     75.8035    101.8416   1.1329685006e+02   4.6151270667e+01    0.1962384    0.1641165  78.59   0.00108019    1.363    0.266
        88 -10.2663     28.0392    101.3421   1.2841384973e+02   5.1441630838e+01    0.3342086    0.1938472  59.59   0.00176704    1.995    0.499
        89 -11.1764      4.0643     99.8989   1.3564363596e+02   5.3283889132e+01    0.3288252    0.2065711 -67.98   0.00141046    1.289    0.224
        90 -11.7519    175.3229     97.2366   8.4934483015e+01   2.7422706881e+01     0.594918    0.4777854 -83.53  0.002358156    1.812    0.448
        91 -10.0469     34.3440     98.8784   1.2605067473e+02   5.1512126678e+01    0.1906604    0.1654516  61.31 0.0003530181    1.240    0.193
        92 -11.4269    158.3725     96.2311   8.8512028505e+01   3.1506493517e+01    0.4436267    0.3822548  80.77  0.002193562    1.481    0.325
        93  -9.7962     63.1528     97.8772   1.1650406302e+02   4.8754693292e+01    0.2128556     0.184657  82.11  0.001248619    1.248    0.199
        94 -10.5809    226.8603     96.3780   7.4976812953e+01   1.5927552849e+01    0.3793589    0.2261164 -17.96  0.001731459    1.720    0.419
        95 -10.1422    188.4779     93.8534   8.1254736846e+01   2.4945321831e+01    0.2773741     0.216025  45.86 0.0008082489    1.285    0.222
        96 -10.9137    220.8872     92.1875   7.4886395964e+01   1.7832267396e+01    0.3828475    0.2613769 -62.66  0.001481368    2.237    0.553
        97 -10.5982    193.6097     91.7610   7.9669237787e+01   2.4093801526e+01    0.4279561    0.3016321 -27.66  0.002026523    1.388    0.279
        98 -10.2580     33.1234     92.1578   1.2539052497e+02   5.3197080185e+01    0.2766759    0.1950232  56.70   0.00112465    1.614    0.380
        99 -10.8471     37.0030     91.4196   1.2396188390e+02   5.3041838275e+01    0.4235677    0.2511401  41.61  0.002266321    1.884    0.469
       100 -10.8253    213.5279     90.1481   7.5595601412e+01   1.9773408767e+01    0.4705926    0.2961082  17.18  0.001623635    2.062    0.515
       101 -11.4397    200.4047     89.6049   7.7792816924e+01   2.2858790447e+01    0.5022611    0.3257332  62.49  0.001893905    1.849    0.459
       102 -10.4667     87.7924     89.8562   1.0659790379e+02   4.7078807126e+01    0.3628377    0.2314755 -50.25  0.001424687    1.491    0.329
       103  -9.6438    187.1425     89.8332   8.0414811098e+01   2.5922115118e+01    0.2267432    0.2085451 -55.67 0.0007169685    1.253    0.202
       104 -10.9352     51.6789     87.4685   1.1817820946e+02   5.2534874782e+01    0.5452481    0.3595877   9.59  0.002819726    1.946    0.486
       105 -10.9544     57.8112     84.6159   1.1541458521e+02   5.2504916869e+01    0.5202065    0.3047565 -22.41  0.002277717    2.521    0.603
       106 -11.3674     14.4779     88.2792   1.3106309503e+02   5.5410299906e+01     0.329785    0.3194258  89.61  0.002452269    1.194    0.162
       107 -10.5134      2.3109     89.4412   1.3517783341e+02   5.5762367663e+01     0.416157    0.1880666 -35.38  0.002102478    2.714    0.632
       108 -10.6729      2.4923     83.9645   1.3454411204e+02   5.7012469550e+01    0.2580127    0.1986683  76.28 0.0009361823    1.306    0.234
       109 -11.5749      5.1894     78.5733   1.3299977443e+02   5.8136346811e+01    0.6967859    0.2529157 -81.18  0.002276857    2.575    0.612
       110 -11.0297    154.3570     87.6305   8.7017539615e+01   3.4027540174e+01    0.4880119     0.259701  56.51  0.001854132    2.175    0.540
       111 -11.2752    106.6816     86.0858   9.9617222917e+01   4.4571596336e+01    0.5669618    0.4665028  13.34  0.002891613    1.336    0.251
       112 -11.0867    102.6609     80.9503   9.9364826435e+01   4.6427442151e+01     0.434165    0.2794952 -33.28  0.001437498    1.628    0.386
       113 -11.1051     98.2361     77.3320   9.9689542456e+01   4.8019672037e+01    0.3269863       0.2696  61.89  0.001163776    1.476    0.323
       114 -11.2478     17.8351     81.5154   1.2897233016e+02   5.6788647488e+01    0.2263804    0.2139803 -44.40 0.0004702591    1.192    0.161
       115 -10.2398     28.7810     77.1587   1.2430666226e+02   5.7063679028e+01    0.1965348    0.1822738 -33.35 0.0006622733    1.176    0.150
       116 -12.1528     24.3630     83.0557   1.2691747358e+02   5.6002586034e+01     0.706273    0.3774076  85.57  0.003357097    2.379    0.580
       117 -11.3690     29.3804     81.7969   1.2492837925e+02   5.5931435438e+01    0.3479784    0.2992313 -58.10  0.001009804    1.051    0.049
       118 -10.8783    248.7360     84.0332   6.8651260075e+01   1.3045714560e+01    0.4843167    0.3308731  88.86   0.00107526    2.476    0.596
       119 -10.6162    242.1936     85.3958   6.9894027739e+01   1.4212666757e+01    0.3242359     0.295783   3.20  0.001296193    1.068    0.064
       120 -11.3591    238.6588     82.4855   6.9670920602e+01   1.5347927135e+01    0.6750062     0.287104 -26.53  0.002738842    2.197    0.545
       121 -11.4128    217.3466     82.6906   7.2982209481e+01   2.0008598599e+01    0.6150475    0.3325087 -36.07  0.002305465    1.761    0.432
       122 -10.6760    219.7749     74.4591   7.0400178043e+01   2.0630195760e+01    0.4367651    0.3042159 -17.04  0.001756333    1.436    0.304
       123  -9.3263    223.2975     74.6683   6.9915759117e+01   1.9796803903e+01    0.2204357     0.133733 -33.60 0.0005463066    1.536    0.349
       124 -10.5850    146.3495     86.4801   8.8655651993e+01   3.6089644885e+01    0.2931878    0.2240898  21.78  0.001101149    1.432    0.302
       125  -9.9769     42.7101     86.5233   1.2110404828e+02   5.3673598333e+01    0.2974348    0.1154465 -51.97  0.001276062    2.179    0.541
       126  -9.7210    205.1842     85.9090   7.5921208624e+01   2.2322730850e+01    0.2282333    0.1959332 -43.58 0.0008158423    1.253    0.202
       127  -9.8825    166.0547     86.0218   8.3817465141e+01   3.1568605299e+01    0.2426667    0.1953866 -75.68 0.0006107722    1.715    0.417
       128 -10.8905    140.3872     84.5253   8.9602102066e+01   3.7818511616e+01    0.3532794    0.2335382 -59.43  0.001227825    2.069    0.517
       129 -10.7101    118.9722     86.1543   9.5978356367e+01   4.2124970715e+01    0.4665323    0.2122484  37.96  0.001221371    2.322    0.569
       130 -10.3822    192.4814     73.1154   7.4642084718e+01   2.7303622675e+01    0.4556394     0.406377  23.59  0.002418074    1.108    0.097
       131  -9.9245    186.5138     84.4926   7.9042132509e+01   2.6946195609e+01    0.2640426    0.2504769 -50.61  0.001054709    1.177    0.151
       132 -11.0169    188.7802     80.7110   7.7522375468e+01   2.7012710489e+01    0.4806913    0.4064736 -60.58  0.002423675    1.420    0.296
       133 -10.4631    188.6623     75.3280   7.5997472807e+01   2.7891297651e+01     0.349039    0.2074333 -57.47   0.00112068    2.482    0.597
       134 -10.0649     75.5589     83.2455   1.0892773168e+02   5.0466477578e+01    0.4519053    0.1906786 -40.53   0.00126432    2.591    0.614
       135  -9.9026    229.5165     83.2611   7.1215347611e+01   1.7212759150e+01    0.2259358    0.2049774 -11.91  0.001306576    1.010    0.010
       136  -9.5454    182.0179     83.4814   7.9658737750e+01   2.8187396881e+01    0.2236884    0.1509673  51.80 0.0004486737    1.502    0.334
       137 -10.2912    160.5569     81.0480   8.3603632034e+01   3.3755573397e+01    0.4099194    0.2596625  53.96  0.001754773    1.644    0.392
       138 -10.6611    135.2195     80.4221   8.9722925194e+01   3.9771814908e+01    0.2997345    0.2196774 -34.23 0.0008309147    1.362    0.266
       139 -10.1296     63.0320     79.1961   1.1225921140e+02   5.3114800559e+01    0.4435355    0.2855576  79.38  0.001892343    2.753    0.637
       140 -10.7398    202.0960     77.6922   7.4208388944e+01   2.4294912294e+01    0.3259203    0.1986056  63.10  0.001405616    1.910    0.476
       141 -11.0040    176.9794     77.9691   7.9091536526e+01   3.0313009402e+01    0.4824498    0.3380944 -71.31  0.001989079    2.252    0.556
       142 -10.8806    174.0159     72.7416   7.8147036812e+01   3.1893762895e+01     0.483672    0.3138715 -64.42  0.001892161    2.423    0.587
       143 -10.8208    167.9236     76.6051   8.0611891243e+01   3.2745567895e+01    0.6317117    0.3872121  75.99  0.002293015    2.805    0.644
       144 -11.5188     68.2673     75.9685   1.0953736739e+02   5.3154100068e+01     0.443824     0.313411 -54.55  0.001469937    1.324    0.245
       145 -11.2743     31.7067     43.1115   1.1489842043e+02   6.4558826557e+01    0.3253405    0.3160566  80.77  0.001343571    1.301    0.231
       146 -11.9063     58.9961     69.7133   1.1123951681e+02   5.5785808014e+01    0.5934778    0.4207608  23.57  0.002812862    1.572    0.364
       147 -10.6424     51.8175     71.1926   1.1434796092e+02   5.6299687370e+01     0.299663     0.224343  20.15  0.001085156    1.509    0.337
       148 -10.4132     47.1633     68.5022   1.1544631360e+02   5.7421445251e+01    0.3067676     0.231607 -54.74  0.001606065    1.157    0.136
       149 -11.9138     42.8137     49.7623   1.1196495316e+02   6.2062456790e+01    0.6164873    0.3180802  21.12  0.001954658    2.255    0.557
       150 -10.9211     38.4276     44.1112   1.1212254498e+02   6.3724150456e+01    0.4059575      0.29851 -83.55  0.001940489    1.973    0.493
       151 -10.8934     42.2107     68.9916   1.1748749664e+02   5.7809515654e+01    0.4291838    0.2540987  35.33  0.002242707    1.918    0.479
       152 -12.2690     35.3032     62.6545   1.1869326546e+02   5.9896616599e+01    0.8442441    0.6543698 -73.41  0.004496302    1.325    0.245
       153  -9.2880    247.1162     77.6535   6.7301641849e+01   1.4212182150e+01    0.1890499    0.1152036  42.42 0.0009314382    1.775    0.437
       154 -11.1343    222.8249     85.4651   7.2827691766e+01   1.8377289464e+01     0.499873    0.3759753  74.75  0.002501845    1.763    0.433
       155 -10.5132    234.1669     73.3677   6.7988557537e+01   1.7545511218e+01    0.4845122    0.2252214 -31.40  0.002067961    1.926    0.481
       156 -10.5831    138.4762     77.0294   8.7810336544e+01   3.9676886786e+01    0.2364879    0.2078748  36.95 0.0003527722    1.118    0.106
       157 -12.5837    124.5576     68.8419   8.8976256541e+01   4.4366031056e+01    0.7300085    0.5540144 -68.85  0.003291605    1.870    0.465
       158 -11.7179     82.0962     74.8682   1.0434901925e+02   5.1335075789e+01    0.2604381    0.2329286 -41.21 0.0002967294    1.053    0.051
       159  -9.8071     24.4347     74.4957   1.2542660330e+02   5.7999730884e+01    0.2679488    0.1585988  -3.02   0.00116734    2.260    0.558
       160  -9.9865     15.1211     75.1764   1.2897970044e+02   5.8424270027e+01    0.1874816    0.1332585 -52.84 0.0002550729    1.223    0.182
       161 -10.9947     21.7167     71.5144   1.2590830090e+02   5.8876179341e+01    0.5966427    0.3083417 -27.10  0.001979615    2.438    0.590
       162 -10.2673     25.6205     66.1913   1.2336808110e+02   5.9845021491e+01    0.3269431    0.1165719 -52.24  0.001067605    2.162    0.537
       163  -9.7272     28.7817     63.3338   1.2149205826e+02   6.0271274882e+01    0.1869999    0.1510302   3.25 0.0006975988    1.439    0.305
       164  -9.8739    144.5138     75.4932   8.5776154384e+01   3.8559600572e+01    0.1580622    0.1476743   9.51 1.352534e-05    1.025    0.024
       165 -11.7371    224.2132     45.2867   6.1892588185e+01   2.3440959077e+01    0.8614372    0.6682224 -44.91  0.002997556    1.268    0.211
       166 -10.3190    233.6839     45.6840   6.0845946947e+01   2.1188211791e+01    0.6665922    0.2566976 -38.73  0.002340457    2.339    0.573
       167 -10.3952    250.1545     73.8356   6.5966353433e+01   1.4075582707e+01    0.2094906    0.1830411 -17.59 0.0003908114    1.017    0.016
       168 -11.6686    250.2656     67.1120   6.4297545763e+01   1.4905134934e+01    0.8110315       0.1944 -24.98  0.002369858    4.536    0.780
       169 -12.2298    246.5099     56.6379   6.2143917790e+01   1.7003858339e+01    0.7682648    0.4888247 -64.23  0.002208811    2.080    0.519
       170 -11.5537    235.5091     56.3936   6.3416755808e+01   1.9454982324e+01    0.5749104    0.3625995  56.52  0.002378194    1.677    0.404
       171 -11.2664    237.9932     51.9543   6.1962802595e+01   1.9449753640e+01    0.4028137    0.3184652  22.99  0.002239781    1.427    0.299
       172 -10.6496    214.7488     71.8276   7.0476156444e+01   2.2165836504e+01    0.3900382    0.2703238  17.44  0.001561391    1.731    0.422
       173 -11.5977    116.1139     69.6002   9.1680072640e+01   4.6054198131e+01    0.5391155    0.3339441 -32.63  0.002268288    1.642    0.391
       174 -10.6708    149.9070     71.7216   8.3252020497e+01   3.7954443964e+01      0.22758    0.2069364  40.10 0.0006525856    1.091    0.083
       175  -9.1101     98.3010     72.2719   9.8104711482e+01   4.9073798006e+01    0.1468602    0.1131187  -3.95 0.0003926604    1.531    0.347
       176 -10.8061    205.3594     65.8775   7.0333718305e+01   2.5243566645e+01    0.4620696    0.2737851 -42.83  0.001608277    1.746    0.427
       177  -9.9841    206.9937     61.2857   6.8771080177e+01   2.5492331688e+01    0.3065954    0.1972098 -27.04  0.001339993    1.501    0.334
       178 -10.5201    202.5769     70.3936   7.2075433188e+01   2.5263684788e+01    0.3326489    0.2583722 -38.10  0.001457513    1.286    0.222
       179 -10.5573    198.3913     70.5421   7.2840652299e+01   2.6254174454e+01    0.2592853    0.2351511  18.14 0.0001550657    1.088    0.081
       180 -10.9774    102.4814     70.4689   9.6178323645e+01   4.8650643954e+01    0.3648285     0.212403 -54.90   0.00150199    2.066    0.516
       181 -10.6794     32.7167     69.8193   1.2135635862e+02   5.8464861054e+01    0.4286581    0.1837771 -50.22   0.00200355    1.926    0.481
       182 -10.2249    226.2251     68.4512   6.7835021059e+01   1.9983408219e+01    0.4342023     0.157653 -32.62  0.001619254    2.439    0.590
       183 -10.3426    178.8342     68.8868   7.6003583180e+01   3.1318021848e+01    0.3443885    0.2405212  42.07 0.0008675038    1.424    0.298
       184 -10.7292     78.1066     69.6234   1.0418136375e+02   5.3114327220e+01    0.5221943    0.2356673  27.83  0.001994176    2.759    0.638
       185 -10.5507    153.0014     44.7169   7.3533599285e+01   4.1530399012e+01    0.4657955    0.3365169  10.10  0.001533089    1.625    0.385
       186 -11.3148    162.7069     66.9218   7.8770057593e+01   3.5641462410e+01    0.6167551    0.4229979 -41.25  0.002504977    1.518    0.341
       187 -11.9119    159.9564     49.9036   7.3821272929e+01   3.8992650833e+01    0.9581339    0.4933915 -35.18  0.003827504    1.934    0.483
       188 -10.7005    165.7004     62.4324   7.6699856328e+01   3.5617844756e+01    0.4279467    0.2920532  56.16   0.00139494    1.490    0.329
       189 -11.8156    166.5819     56.3155   7.4553987379e+01   3.6342861048e+01    0.7374712    0.6849604  49.33  0.003917374    1.085    0.079
       190 -10.9980    133.0454     67.7502   8.6273116677e+01   4.2645779035e+01    0.3938155    0.3400751  39.76  0.001662591    1.144    0.126
       191 -11.5097    151.6765     66.6633   8.1208823739e+01   3.8401034359e+01    0.5428174    0.2526557  40.69  0.001958669    2.271    0.560
       192 -11.4277    148.5820     64.7298   8.1319841735e+01   3.9484611967e+01    0.4603401    0.2865627 -34.64  0.001291099    1.606    0.377
       193 -10.6005    145.6252     62.3013   8.1235860532e+01   4.0616548673e+01    0.3044553    0.2511868  72.64 0.0007814083    1.459    0.314
       194 -10.8929      7.1317     71.8571   1.3141857461e+02   5.9598661138e+01    0.2963743    0.2194119 -85.21  0.001945535    1.245    0.197
       195 -12.1705     25.8115     52.7132   1.2022920546e+02   6.2905946954e+01    0.3754773    0.2071499 -33.70  0.001971096    1.825    0.452
       196 -11.1169     10.9303     63.4396   1.2866544432e+02   6.1358179220e+01    0.3861501    0.2130284 -78.35  0.001488272    1.670    0.401
       197 -12.7273     19.5661     58.4547   1.2421141039e+02   6.2023357325e+01    0.5257087    0.3008207 -37.88  0.002920947    1.677    0.404
       198 -10.4189    185.8141     64.1902   7.3248029600e+01   3.0300075415e+01    0.2979574    0.1912293 -37.54 0.0007796272    1.555    0.357
       199 -10.0016     54.1178     62.9381   1.1121953561e+02   5.7901127527e+01    0.3391261    0.1721691 -66.26  0.001417932    2.451    0.592
       200 -10.6795     57.2228     59.8148   1.0906419625e+02   5.8212827731e+01    0.3148927    0.2478699  23.41  0.001800479    1.389    0.280
       201  -9.6152    234.3000     63.2232   6.5346707764e+01   1.8853509079e+01    0.2128195    0.1635553  -0.81 0.0005472625    1.398    0.285
       202 -11.3927     67.1747     61.8749   1.0581988622e+02   5.6430997989e+01    0.2945605    0.2580777 -22.40 0.0007425685    1.084    0.077
       203  -9.7871    189.9759     65.0161   7.2731388221e+01   2.9140994812e+01     0.249148    0.1756084  22.45  0.001113932    1.651    0.394
       204  -9.4839     98.0000     61.9721   9.4810668632e+01   5.1229760293e+01     0.245203   0.08156066 -42.40 0.0007968388    2.904    0.656
       205 -11.4412    221.3664     56.3309   6.5267512170e+01   2.2718247070e+01     0.566025    0.4463303 -79.11  0.001793933    1.553    0.356
       206 -10.7776    216.0424     60.0340   6.7042341577e+01   2.3488479515e+01     0.458203    0.2347655  60.36  0.001944068    2.058    0.514
       207 -10.9021    212.3754     54.9240   6.6158701035e+01   2.5049223842e+01    0.7269601    0.3209522 -54.66  0.002342319    3.767    0.735
       208 -11.0229    200.0034     58.6294   6.9130520448e+01   2.7574125086e+01    0.6229136    0.3813238 -74.90   0.00236469    2.845    0.649
       209 -10.0587    202.4466     53.6995   6.7308248257e+01   2.7644788198e+01    0.5371261    0.2391396 -30.04    0.0020965    2.129    0.530
       210 -10.3508    200.7865     45.7972   6.5252238409e+01   2.9100085715e+01    0.5038066    0.1843185 -32.04  0.001762177    2.505    0.601
       211 -11.8571    206.3353     43.3782   6.3740025497e+01   2.8019760762e+01    0.5663068    0.5255666  -2.01  0.003228208    1.090    0.083
       212 -10.9437    178.0835     60.1330   7.3472468041e+01   3.2850237859e+01    0.3858486    0.2925829   0.45 0.0009760432    1.491    0.329
       213 -12.3721    185.3600     47.9157   6.8360562956e+01   3.2739819093e+01    0.8901559    0.6621059  16.97  0.004238201    1.547    0.354
       214 -10.9639    171.4381     49.8164   7.1485534282e+01   3.6056095291e+01      0.57671    0.1925956 -34.64  0.001901169    2.830    0.647
       215 -11.7755    180.6321     38.6160   6.6235320101e+01   3.5183260114e+01    0.6765162    0.3798685 -62.12  0.002542222    2.682    0.627
       216 -10.0728    186.9673     38.2731   6.5100207326e+01   3.3582316272e+01    0.2943658    0.2140316  55.45  0.001439008    1.340    0.254
       217 -10.6293    174.1500     57.2708   7.3341031926e+01   3.4274981083e+01    0.4795547    0.2755949 -16.60  0.001586454    2.040    0.510
       218 -10.8591    175.4165     52.7708   7.1673344076e+01   3.4611331242e+01    0.3245153    0.2601557  31.55 0.0007973712    1.277    0.217
       219 -10.4838    175.5411     49.4517   7.0593154263e+01   3.5051567008e+01    0.2699878    0.2503116 -38.89 0.0005204764    1.119    0.106
       220 -10.0672     85.0397     59.6924   9.8486910312e+01   5.4065540895e+01    0.2976973    0.2111898  -9.39  0.001408405    1.725    0.420
       221 -10.6028     88.3105     55.6977   9.5927377733e+01   5.4286474359e+01    0.5204639    0.3303645  68.13  0.001974597    3.253    0.693
       222 -11.6258     85.9475     52.0356   9.5441589711e+01   5.5431458262e+01    0.5591633    0.3667184  13.83  0.002526804    1.947    0.487
       223  -9.9105     78.5324     60.4477   1.0109749754e+02   5.5003961944e+01     0.314267    0.1755367  45.30  0.001167385    2.064    0.515
       224 -10.0639    191.7664     58.6648   7.0526252642e+01   2.9619328860e+01    0.3128757    0.2672415  75.49  0.001614857    1.308    0.236
       225  -9.5803    138.9871     58.7855   8.1703103590e+01   4.2819639650e+01    0.2710035     0.218311 -27.97 0.0009544907    1.239    0.193
       226  -9.6494     43.7456     78.1829   1.1901391513e+02   5.5529024653e+01    0.1847366    0.1358762 -38.63  0.001051147    1.333    0.250
       227 -10.3927      3.3323     57.4636   1.3072597294e+02   6.3054376523e+01    0.3585919    0.1867894  82.10  0.001818353    2.395    0.583
       228 -10.6768    115.4992     50.8267   8.5303133378e+01   4.9655880047e+01    0.4464573    0.3431171  17.89  0.002171142    1.391    0.281
       229 -10.9923    123.2332     54.6559   8.4467745062e+01   4.7240305049e+01    0.2735946    0.2298448  37.75 0.0005841178    1.164    0.141
       230 -11.3633    119.5165     53.9843   8.5285282633e+01   4.8203926340e+01     0.371997    0.2635588 -41.03  0.001169922    1.461    0.316
       231 -10.5962     12.3247     56.2862   1.2679801066e+02   6.2924886961e+01    0.3213648    0.1764837  29.73  0.001808034    2.183    0.542
       232 -10.3087    134.5614     52.0720   8.0491828561e+01   4.5003583668e+01    0.4469855    0.2662192  28.70  0.001787475    2.023    0.506
       233 -11.4943    141.1022     51.1144   7.8512652675e+01   4.3559604384e+01    0.5707333    0.4544708  50.84  0.002807074    1.247    0.198
       234 -10.7389    146.1134     48.1609   7.6280887731e+01   4.2769028446e+01    0.5170749    0.3323449  68.11  0.001918161    1.886    0.470
       235 -11.0186     99.3295     54.4218   9.1696643694e+01   5.2431273536e+01    0.3510683    0.2296028  27.74 0.0008187193    1.677    0.404
       236 -10.7861     76.6339     52.4004   9.9013582583e+01   5.6963853093e+01    0.3986379    0.2474658 -57.72  0.001798307    2.021    0.505
       237 -10.3209     71.0754     53.9693   1.0169805296e+02   5.7527139419e+01    0.3053291    0.1820228 -41.45  0.001068711    1.530    0.346
       238 -11.0214     60.8985     52.6819   1.0529357405e+02   5.9268152797e+01    0.4336567    0.2412514 -55.12  0.002013927    1.840    0.457
       239 -11.6661    150.4958     51.9729   7.6593903207e+01   4.1082621003e+01     0.670173    0.4343807  -1.53  0.002748085    2.033    0.508
       240 -10.1064    105.0978     53.5234   8.9494225929e+01   5.1421949320e+01    0.3075827    0.2318947   0.05  0.001474613    1.513    0.339
       241  -9.8390     55.1874     49.9782   1.0673635435e+02   6.0588752944e+01    0.2586957     0.216271 -80.96  0.001072942    1.617    0.382
       242 -10.4074     56.0454     46.0660   1.0501339669e+02   6.1295173922e+01    0.4559619     0.232187  26.51  0.002081453    2.213    0.548
       243  -9.8887    195.5844     47.3228   6.6503678448e+01   3.0213309878e+01    0.4437426    0.1996431 -17.11  0.001569185    2.766    0.638
       244  -9.9246      6.9983     48.4405   1.2755146653e+02   6.4947216263e+01    0.2011978     0.127402 -50.72 0.0007242843    1.254    0.202
       245 -10.0124     93.9430     48.1398   9.1166372853e+01   5.4664704510e+01    0.3223766    0.1901157  41.79   0.00144921    1.730    0.422
       246  -9.6430    129.5415     46.4924   7.9776325912e+01   4.7111394796e+01    0.1541132    0.1433958  13.25 2.026713e-05    1.004    0.004
       247 -10.6351    141.8888     43.5475   7.5626621171e+01   4.4522157292e+01    0.3998354    0.3329184  47.70  0.001604373    1.165    0.141
       248 -10.3226     97.6721     42.5406   8.7718220392e+01   5.4914726107e+01    0.3843302    0.2392903 -38.00  0.001191544    1.588    0.370
       249 -10.3818    100.0286     37.9577   8.5091104825e+01   5.5193784238e+01    0.3435828    0.2629019   3.99  0.001359166    1.381    0.276
       250 -10.6864     21.8585     44.2337   1.1980430135e+02   6.5070583469e+01     0.323192    0.2958273   7.32  0.001545737    1.289    0.224
       251 -11.0971     15.7848     40.0563   1.2155590236e+02   6.6370149004e+01    0.6745083     0.448432 -11.42  0.003645654    1.682    0.405
       252 -10.1892    249.8945     43.3426   5.8459574841e+01   1.7858741838e+01    0.2630658    0.2287655 -13.16  0.001623274    1.147    0.128
       253  -9.6578    250.1658     39.4384   5.7467721686e+01   1.8247372594e+01     0.201441    0.1502273 -74.10  0.001133116    1.540    0.351
       254 -10.7103    118.0995     41.9512   8.1186547916e+01   5.0535261641e+01    0.5136741    0.2816579 -39.52  0.002147873    1.896    0.473
       255  -9.8605    106.8470     43.9170   8.5302125144e+01   5.2742242282e+01     0.273358    0.2121479 -89.42  0.001247887    2.098    0.523
       256  -9.9690     67.1442     43.6274   9.9479482678e+01   6.0211225922e+01    0.2277046    0.1743574 -48.04 0.0007191541    1.348    0.258
       257  -9.9342    213.8670     42.8027   6.2544241305e+01   2.6233579646e+01    0.2198193    0.1847161  25.28 0.0006408182    1.287    0.223
       258 -10.7694     87.2666     41.2219   9.0794783997e+01   5.7202817831e+01    0.3545994    0.3062643 -52.20  0.001944993    1.393    0.282
       259  -9.8732    191.9049     26.4087   6.0701708738e+01   3.3708121455e+01    0.3208694    0.1973081  -7.71  0.001376864    1.932    0.482
       260 -10.9611    194.5224     38.6919   6.4069239173e+01   3.1585920587e+01     0.694161    0.3664551 -39.18  0.002946808    1.878    0.467
       261 -11.0213    194.7611     30.7965   6.1643609038e+01   3.2471052720e+01    0.4372446    0.3624373  61.72  0.001523609    1.191    0.161
       262 -10.1846    161.8027     41.1359   7.0482706964e+01   3.9760032617e+01    0.2992278    0.2759549  -8.80 0.0007968654    1.089    0.082
       263  -9.9958    161.7295     37.5553   6.9274733087e+01   4.0258240037e+01    0.2523467    0.2187406  81.26 0.0008160702    1.280    0.219
       264  -9.5629    242.6693     40.5020   5.8505423111e+01   1.9769996477e+01    0.1651292    0.1260692 -82.13 0.0009107373    1.517    0.341
       265  -9.7717    130.2970     40.0617   7.7178397900e+01   4.7915186667e+01    0.2053802    0.1885812  -5.35 0.0004301792    1.067    0.062
       266  -9.8112    173.2866     38.8158   6.7560792604e+01   3.7073298919e+01    0.2518817    0.1986782  74.48 0.0005613888    1.373    0.272
       267  -9.5195    142.5621     38.5172   7.3642877265e+01   4.5076556204e+01    0.2517822    0.1445854 -27.06  0.000522773    1.773    0.436
       268 -11.5496    147.5386     34.9418   7.1239339701e+01   4.4291044768e+01    0.7846491    0.3203602  61.10  0.002767361    2.518    0.603
       269 -10.4538     45.9931     36.8844   1.0609993140e+02   6.4414410798e+01    0.4434004    0.1526796 -49.17  0.001779792    2.505    0.601
       270 -11.4417     54.4815     36.6903   1.0216602436e+02   6.3387220745e+01    0.7981288    0.4060465  40.64  0.003706908    2.325    0.570
       271  -9.9425     51.2003     30.7401   1.0122509260e+02   6.4968606115e+01    0.2977196    0.1782618 -33.05 0.0007405622    1.501    0.334
       272 -10.8318     55.0242     29.9223   9.9120495132e+01   6.4601165090e+01    0.2418238    0.2109424   8.59 0.0003132686    1.165    0.142
       273 -10.4293    202.6797     37.6856   6.2594824151e+01   2.9636581930e+01    0.2831747    0.2457356  19.03 0.0009599886    1.230    0.187
       274 -10.2814    200.8062     35.3831   6.2176341370e+01   3.0387075599e+01     0.332937    0.2421976  48.04  0.001309942    1.387    0.279
       275 -10.5982    123.9152     36.3116   7.7395287455e+01   5.0017696699e+01    0.5263175    0.3239837 -23.45  0.002330872    1.675    0.403
       276 -10.4802    119.8848     33.2012   7.7243465240e+01   5.1434421553e+01    0.3088346    0.1940109 -42.76 0.0009380588    1.789    0.441
       277 -10.3563    109.8151     37.0904   8.1680820035e+01   5.3192385724e+01    0.4408634     0.188864 -37.35  0.001249819    2.343    0.573
       278 -10.5651    222.2820     36.5232   5.9747497689e+01   2.4947580638e+01    0.3411138    0.2546368  66.12  0.001218062    1.391    0.281
       279  -9.6188    218.4299     22.2121   5.6263255976e+01   2.7471665094e+01    0.2583067    0.1779916 -44.55  0.001068454    1.404    0.288
       280  -9.6277    201.2282     25.2440   5.9124084582e+01   3.1440694940e+01    0.2363294    0.1766585 -45.68 0.0006111813    1.348    0.258
       281  -9.6926    204.0517     29.1002   5.9897790558e+01   3.0294850689e+01    0.3716611    0.2226714  59.74  0.001621996    1.629    0.386
       282 -10.0236     38.3462    240.6829   1.3714995245e+02   2.2419470164e+01    0.1095837   0.04946515  58.19 0.0007048438    1.723    0.420
       283 -11.1251    217.5032     29.1932   5.8292307549e+01   2.6939908859e+01    0.4343159    0.3283966 -62.80   0.00154027    1.412    0.292
       284  -9.2645    114.3276     36.3322   8.0050721605e+01   5.2279163620e+01    0.1610611    0.1091907  17.04 0.0007051535    1.714    0.417
       285 -10.3976     16.2165    240.1863   1.4076354390e+02   2.4620295339e+01    0.1400686   0.07485367  58.91 0.0007786734    1.326    0.246
       286 -10.8249     80.9170     33.1588   8.9767478553e+01   5.9795570477e+01    0.3180878    0.2492713  65.88 0.0002974069    1.900    0.474
       287 -10.4710     53.7216    237.7785   1.3437701826e+02   2.1255628745e+01    0.1710972   0.04751019  43.38 0.0008029699    2.386    0.581
       288 -10.9201     61.7648     31.3776   9.6755294990e+01   6.3348428108e+01    0.2623787    0.2133617  21.03 0.0006061339    1.251    0.201
       289 -11.8213     65.9966     30.4897   9.4557899216e+01   6.2845055827e+01    0.4978494    0.3373282 -45.70   0.00220548    1.578    0.366
       290 -10.4428     88.7670     33.6765   8.7122076730e+01   5.8203713577e+01    0.3408235    0.2652772  23.31  0.001810126    1.255    0.203
       291 -10.3454     40.7755     21.4180   1.0221945335e+02   6.8012902991e+01     0.315135    0.1485974 -43.83 0.0002387785    1.842    0.457
       292 -10.2891     37.9976     26.7988   1.0596981972e+02   6.7310890394e+01    0.5356652    0.1887948  29.91  0.002116999    3.083    0.676
       293  -9.7755    110.1856    224.8584   1.2299963967e+02   1.6288981687e+01    0.1509586    0.1278744  21.06  0.001087365    1.362    0.266
       294 -10.4834     55.1804     17.6064   9.3336714536e+01   6.6727438143e+01    0.2541336    0.1840405 -23.41 0.0007631563    1.206    0.171
       295 -10.8987     24.6565     33.9479   1.1538009977e+02   6.7088965872e+01    0.4956594    0.2512745 -73.22  0.002158983    2.998    0.666
       296 -10.0219    126.6552    216.5387   1.1888661782e+02   1.5235075797e+01    0.1817411    0.1359578  76.68 0.0008289559    1.723    0.420
       297 -11.2116     28.3663     29.0056   1.1176263797e+02   6.7810544088e+01    0.4432414    0.3441841  -1.08  0.002848826    1.343    0.256
       298 -11.5250     30.1326     23.5917   1.0872381824e+02   6.8732045139e+01    0.4339243    0.2329927 -38.25  0.001201024    1.544    0.352
       299  -9.1922    245.8214     33.3664   5.6389751170e+01   1.9878337769e+01    0.4473032    0.2389504  83.05  0.002008362    2.396    0.583
       300 -11.1678    236.4341     32.1559   5.7022808215e+01   2.2125605505e+01    0.5604313     0.269319  62.88  0.002560624    2.130    0.531
       301 -11.5718    229.5766     29.0486   5.6924527004e+01   2.4061599449e+01    0.6238425    0.4666741 -77.41  0.003409688    1.480    0.324
       302 -10.6134     26.6790    212.6440   1.3785051942e+02   2.8216276812e+01    0.2362957    0.2086861  14.05  0.001951302    1.667    0.400
       303  -9.6151    240.3284    205.6751   9.5899629476e+01  -9.4899064488e-01    0.1005239   0.09283884  33.14 0.0005589948    1.698    0.411
       304  -9.5287    245.3233    187.3213   9.1777608900e+01   3.5446952122e-01    0.1312405   0.07642495  10.07 0.0007046124    1.677    0.404
       305  -9.8276     37.6741    179.6054   1.3370990002e+02   3.3339669599e+01    0.2478082    0.1427882  25.23  0.001466668    2.051    0.512
       306 -12.2441    109.4077     29.7148   7.8762950000e+01   5.4387239980e+01    0.6689821    0.3278196  61.92  0.001726726    2.682    0.627
       307 -11.3370    245.6937    177.4144   8.9844080577e+01   1.4554340703e+00    0.2739951    0.1960967  25.41  0.001361089    1.216    0.178
       308  -9.4155      1.5907    177.8040   1.4105121512e+02   3.6778347315e+01    0.1532798   0.07392909  79.87 0.0009439118    1.733    0.423
       309  -9.3892     80.3131    176.3503   1.2397770279e+02   2.9065627532e+01    0.1175943   0.09565329 -25.09  0.000704614    1.724    0.420
       310 -10.8860     15.0880     32.1621   1.1967826529e+02   6.8117783945e+01    0.4454499    0.2078422 -28.92  0.001892048    2.241    0.554
       311 -10.2804    178.5017     30.9181   6.4110690268e+01   3.6687636731e+01    0.5161847    0.1553833  55.57  0.001711306    2.860    0.650
       312 -11.1002    182.6180     27.7277   6.2448639333e+01   3.5980112523e+01    0.7207848    0.3390526 -46.28  0.002781012    2.402    0.584
       313  -9.6574    177.3203     27.3086   6.3125965604e+01   3.7420179216e+01    0.2326301    0.2059513  34.84  0.000754034    1.130    0.115
       314  -9.8899    160.7422     32.8312   6.7835608536e+01   4.1124240443e+01    0.2272992    0.1922316  29.59 0.0006121525    1.180    0.153
       315 -11.5193    170.4718     30.5833   6.5325708782e+01   3.8840182025e+01    0.6702034    0.3164553  75.20   0.00237392    2.785    0.641
       316 -10.3017     94.1357     31.2407   8.4219629443e+01   5.7504087663e+01     0.424951     0.206737  61.70  0.001448392    3.662    0.727
       317  -9.8711    250.3102     29.3384   5.4971507650e+01   1.9334960552e+01    0.2128961    0.1643865 -22.62  0.000763568    1.243    0.195
       318 -10.1366    247.4730     29.4556   5.5260913595e+01   1.9942866815e+01    0.2422175     0.201384 -41.19 0.0009236017    1.085    0.078
       319  -9.9554    161.4504     19.2112   6.2961380390e+01   4.2521476308e+01    0.3799652    0.2124462  -4.80  0.001163577    2.243    0.554
       320  -9.8123    159.5900     24.1788   6.5025664701e+01   4.2465586254e+01    0.6226785     0.368298  83.46  0.002498828    2.234    0.552
       321 -11.3054    246.9658    172.3447   8.8646087489e+01   1.8595871509e+00    0.2351799    0.1982854 -13.43  0.001560797    1.300    0.231
       322 -11.0652     13.8803    164.9646   1.3787204363e+02   3.8409481711e+01    0.2223733    0.1377052  42.77  0.001222662    1.522    0.343
       323 -10.0447    155.6348     16.2060   6.2881124244e+01   4.4381487604e+01    0.2742508    0.2218412  -4.47 0.0009037839    1.315    0.239
       324  -9.9776    158.9892     15.4463   6.2044879548e+01   4.3568650328e+01    0.3027008    0.1989086  69.28 0.0006250985    1.506    0.336
       325 -10.6768    153.1792     28.3992   6.7721431240e+01   4.3656708456e+01    0.3421413    0.2407562 -19.14 0.0006956905    1.482    0.325
       326 -10.9501    249.4657    161.6691   8.6099984161e+01   2.7541507190e+00    0.2114371    0.1731714 -27.31  0.001047983    1.430    0.301
       327  -8.9404     45.2570     29.2564   1.0341174359e+02   6.6003901378e+01    0.1261138   0.08580494 -20.11 0.0006783731    1.434    0.302
       328 -10.0249      2.4872    161.4766   1.4014481009e+02   3.9958381982e+01    0.1851059    0.1255342 -56.41  0.001290278    1.726    0.421
       329 -10.2933    244.8619     25.8339   5.4602442001e+01   2.0909807365e+01    0.3508053    0.1908552  71.21   0.00173766    1.977    0.494
       330 -11.2810      5.0836     26.6539   1.2333793653e+02   6.9797972414e+01    0.4641711    0.2790399   0.12  0.002854739    1.924    0.480
       331  -9.7541     15.3832     21.2812   1.1592085084e+02   7.0366505389e+01    0.2252815    0.1058208 -45.44 0.0006900777    1.606    0.377
       332 -11.0647     11.8509     25.5103   1.1932784347e+02   6.9707901188e+01    0.4296368    0.1656752 -42.18  0.001630057    2.030    0.507
       333 -10.8010    168.7037     23.9250   6.3382226972e+01   4.0080928255e+01    0.5494357    0.2699282  48.62   0.00223604    1.936    0.484
       334 -10.8220     51.0861     24.9743   9.8761655050e+01   6.6050157080e+01    0.4543891    0.1773861  29.13  0.001335643    2.946    0.661
       335 -11.6642     98.3452     21.8110   7.8679053909e+01   5.7977511177e+01     0.337441    0.2611147  28.84 0.0008304385    1.206    0.171
       336 -10.6861     89.7243     21.4889   8.1355006501e+01   5.9871818883e+01    0.3934061    0.2419162  10.81  0.001744778    2.027    0.507
       337 -10.5858    249.7885    155.6475   8.4811644575e+01   3.4476193120e+00    0.2689065    0.1540322 -26.01 0.0008289443    1.611    0.379
       338 -11.1215     67.2189     21.7477   9.0030417560e+01   6.4116292045e+01     0.315839    0.2669488  29.47 0.0009305228    1.250    0.200
       339  -9.6870     66.5013     17.5444   8.8280891639e+01   6.4896326138e+01    0.2119946    0.1281698  40.72 0.0007073796    1.711    0.415
       340 -10.2084    244.4778     20.5359   5.3320417619e+01   2.1550861433e+01    0.2525816    0.1954498 -66.22 0.0008302812    1.304    0.233
       341  -9.7376    240.5027     19.5001   5.3408646277e+01   2.2552080243e+01    0.2895654    0.1780007 -39.83   0.00105933    1.463    0.317
       342  -9.1906    228.3991     21.5063   5.5051566008e+01   2.5149168072e+01    0.1292631    0.1245271  -2.87  7.91139e-05    1.112    0.100
       343  -8.9221     98.7411    157.3198   1.1706405594e+02   3.0349862519e+01    0.1312442   0.09700468  73.12 0.0001875396    1.545    0.353
       344 -10.3670     77.0055    155.7651   1.2219900029e+02   3.3779918889e+01    0.2401685    0.1197449  73.29 0.0008926922    3.630    0.725
       345 -10.3742     33.2621    155.8237   1.3283584482e+02   3.8677059425e+01    0.1804255    0.1408647 -28.73 0.0006113799    1.825    0.452
       346 -10.9614    229.5122    153.9083   8.7905177849e+01   7.1891596634e+00     0.263135    0.2238599 -21.77 0.0008588388    1.273    0.214
       347 -12.5884     19.4751    148.1848   1.3550276339e+02   4.1494817308e+01    0.6112056    0.3629916 -50.08  0.003660555    1.982    0.495
       348  -9.5764    177.0069     20.7340   6.1029012377e+01   3.8232193612e+01    0.2104005     0.191477  68.51   0.00116496    1.074    0.069
       349 -11.8475    236.1955    134.9912   8.2626303305e+01   8.5669611499e+00    0.5432301    0.3007782   8.98  0.002165116    2.519    0.603
       350 -12.1493    241.9506    147.3177   8.4356097922e+01   5.8614874274e+00    0.5057454    0.3643333 -52.05  0.002648355    2.249    0.555
       351 -12.0681    236.4397    145.0964   8.4811626453e+01   7.1410780920e+00    0.3946544    0.3823944  32.32   0.00229055    1.417    0.294
       352 -11.0076    233.3241    141.6710   8.4600318881e+01   8.1776991758e+00    0.2504596    0.2139938   6.15 0.0006561668    1.057    0.054
       353 -11.0270     39.1353    147.0798   1.3061346028e+02   4.0019911645e+01    0.3202229    0.2568929 -77.76  0.001268086    1.141    0.124
       354 -10.4884     38.4824    143.4404   1.3041358929e+02   4.0885358123e+01    0.1837564      0.17137  63.97 3.340413e-05    1.157    0.136
       355  -9.1889     61.3090    147.2949   1.2504288241e+02   3.7597802079e+01    0.1193549   0.09526929 -34.51 0.0002750601    1.589    0.371
       356 -10.2180      4.9952    147.3037   1.3884497993e+02   4.2731836845e+01    0.1519322    0.1244212  76.12  0.000620999    1.072    0.067
       357 -10.1201    184.9691     18.1527   5.9077609794e+01   3.6405896658e+01    0.3201319    0.2112354 -69.96  0.001360369    1.832    0.454
       358 -11.1066    247.8966    144.8899   8.2852483674e+01   5.1372777187e+00    0.2905282    0.2203954  18.31  0.001570832    1.178    0.151
       359  -9.5679    232.5768     18.0597   5.3753702211e+01   2.4523276609e+01    0.1967824    0.1204301 -27.51 0.0006128812    1.544    0.352
       360  -9.4364     80.0086     19.0000   8.3640117136e+01   6.2188576640e+01    0.1833675    0.1242932  41.35 0.0009388509    1.462    0.316
       361  -9.9145     79.4965     15.9678   8.2352732570e+01   6.2715430404e+01    0.2768501     0.184118 -57.11  0.001169139    2.619    0.618
       362 -11.7375    246.1667    140.3730   8.2157897335e+01   6.0289792311e+00    0.3810215    0.2525794  38.75  0.001902981    1.519    0.341
       363 -11.0844      6.6941    142.8616   1.3818301180e+02   4.3565780774e+01    0.2967985    0.1697911  50.41  0.001884604    1.635    0.388
       364 -11.5695    212.5985    138.1560   8.7561844499e+01   1.2637909224e+01    0.5192643    0.3634821   1.86  0.002427747    1.517    0.341
       365 -10.0391     54.4244    137.2027   1.2555333446e+02   4.0642647372e+01    0.1814296    0.1114295 -84.87 0.0005283888    1.686    0.407
       366 -10.2070     34.7994    150.8385   1.3203336143e+02   3.9608845194e+01    0.2903004    0.1041567  46.05   0.00135479    2.558    0.609
       367 -10.2522      4.4465    135.6400   1.3827339801e+02   4.5269131498e+01    0.1954706     0.140711  24.36  0.001358909    1.685    0.406
       368 -10.2713     92.5818     15.8337   7.7753389187e+01   6.0023251092e+01    0.2277657    0.1838826  38.93 4.522012e-05    1.186    0.157
       369  -9.7344      9.0268    134.5771   1.3707047625e+02   4.5207945246e+01    0.1533204    0.1296683  72.33 0.0003401593    1.119    0.107
       370 -12.3905     12.9780    129.7809   1.3571019163e+02   4.6002857472e+01    0.5653312    0.3318469 -89.38  0.003416863    1.462    0.316
       371 -11.2931    249.4590    132.1652   7.9822559128e+01   6.5183226893e+00    0.4267594    0.2655665  -3.66  0.002181149    1.674    0.403
       372 -11.0383    242.5046    129.2796   8.0292951039e+01   8.1730559059e+00    0.3266614    0.1717059  39.87  0.001562715    1.893    0.472
       373  -9.4564    178.4967     14.5685   5.8810541887e+01   3.8474369177e+01    0.1424768    0.1351225  64.99 0.0001022327    1.010    0.010
       374  -9.9574     72.5239    128.9814   1.1941127996e+02   4.0321767492e+01    0.1974411    0.1243356 -62.85 0.0005636699    1.519    0.342
       375  -9.9698    242.4187     13.0769   5.1644844709e+01   2.2764785091e+01    0.2114081    0.1680235  66.83  0.001282813    1.325    0.245
       376 -10.8546     25.4960    128.0134   1.3225456053e+02   4.5479414523e+01    0.2227423     0.171688 -56.45  0.001373244    1.335    0.251
       377  -9.8263     55.3300    128.2951   1.2410338139e+02   4.2572501751e+01    0.2106282    0.1172877 -61.76 0.0004600388    1.639    0.390
       378 -10.3919     56.4867    125.4907   1.2337368250e+02   4.3088351796e+01    0.2874586    0.1718375  45.83  0.001049901    1.709    0.415
       379 -11.8455    226.1091    126.6022   8.2448871815e+01   1.1689443228e+01    0.5323093      0.36496  -3.32  0.001689055    1.518    0.341
       380 -10.6242     67.0266    123.5346   1.2006813555e+02   4.2281019000e+01    0.4998381    0.2154317 -38.10  0.001746045    3.928    0.745
       381 -10.4868     19.7797    119.4502   1.3297101040e+02   4.7857759937e+01    0.2544042     0.151997 -41.66 0.0008980075    1.995    0.499
       382 -10.1676    246.7257    121.9551   7.7951708198e+01   8.3737599890e+00    0.1968205    0.1543343 -16.88 0.0008563691    1.120    0.108
       383 -10.5011    217.0989    120.0119   8.2496194980e+01   1.4482634145e+01    0.3068719     0.202917 -18.87  0.001218659    1.493    0.330
       384 -10.1368     10.2695     99.4607   1.3371450322e+02   5.3056822296e+01    0.2456431    0.1816726  62.70  0.001288386    1.408    0.290
       385 -10.6292     23.0062    107.8322   1.3078438384e+02   5.0301942663e+01    0.3173457    0.1623706  31.55  0.001711705    2.131    0.531
       386 -11.8958     22.1776     95.7442   1.2952270658e+02   5.3179612451e+01    0.5098836    0.2885768 -43.10  0.002440943    1.855    0.461
       387 -11.1690      5.9725    119.9898   1.3679163032e+02   4.8630214717e+01    0.2917203    0.2402309 -66.61  0.002124692    1.204    0.169
       388 -10.7264      5.5077    116.0135   1.3660766232e+02   4.9549412807e+01     0.293682    0.1741088 -78.69  0.001714664    1.354    0.261
       389 -11.3038      8.7007    109.6802   1.3517576033e+02   5.0802013015e+01    0.4014263    0.1887581 -44.75  0.002083623    2.401    0.583
       390 -11.2589     12.1381    104.8345   1.3370478087e+02   5.1710784289e+01    0.2560816     0.223483 -51.42 0.0005060668    1.249    0.199
       391 -11.6399     18.3287    104.1301   1.3176575792e+02   5.1484701250e+01    0.3968198    0.2603596  55.83  0.001603307    1.630    0.387
       392  -9.7400     28.0246    119.8056   1.3069765285e+02   4.7150765244e+01    0.1897873    0.1393384  74.92 0.0006403468    1.313    0.238
       393 -10.1100     13.1683    117.1379   1.3458992063e+02   4.8832936390e+01    0.1774413     0.138928 -63.39  0.001033355    1.220    0.180
       394  -9.8938    104.6575    116.3151   1.0787688799e+02   3.8303617311e+01    0.1489754     0.112968  74.81  0.000594709    1.709    0.415
       395 -11.6200    237.8184    113.4400   7.7382181984e+01   1.1249968788e+01    0.3423002    0.2861527 -29.28  0.001006776    1.216    0.178
       396 -11.9735    226.4506    112.6853   7.9082363652e+01   1.3647190159e+01    0.5828824    0.4132746  60.86  0.002710594    1.823    0.451
       397 -11.9368    207.5656    112.5192   8.2420269408e+01   1.7645250038e+01    0.5598455    0.3198631 -41.65  0.001692354    1.885    0.470
       398 -11.7831    194.9265    112.8314   8.4949983106e+01   2.0338885528e+01    0.3963519    0.3656066  25.91  0.002029549    1.090    0.082
       399  -9.9828     97.9874    114.7476   1.0943458859e+02   3.9783063662e+01    0.1914609    0.1218599  36.79 0.0008933443    1.594    0.373
