#   1 NUMBER                 Running object number                                     
#   2 MAG_AUTO               Kron-like elliptical aperture magnitude                    [mag]
#   3 X_IMAGE                Object position along x                                    [pixel]
#   4 Y_IMAGE                Object position along y                                    [pixel]
#   5 X_WORLD                Barycenter position along world x axis                     [deg]
#   6 Y_WORLD                Barycenter position along world y axis                     [deg]
#   7 A_WORLD                Profile RMS along major axis (world units)                 [deg]
#   8 B_WORLD                Profile RMS along minor axis (world units)                 [deg]
#   9 THETA_WORLD            Position angle (CCW/world-x)                               [deg]
#  10 FWHM_WORLD             FWHM assuming a gaussian core                              [deg]
#  11 ELONGATION             A_IMAGE/B_IMAGE                                           
#  12 ELLIPTICITY            1 - B_IMAGE/A_IMAGE                                       
         1  -8.6294    234.3200      6.6624   5.5273683631e+01   2.6588386762e+01    0.1308286   0.07007545 -68.94 0.0003480513    1.709    0.415
         2  -8.7825    191.9759    248.5904   1.1326223468e+02  -6.0678685874e+00    0.2778329      0.18918   8.73  0.001187415    1.713    0.416
         3 -10.0149    199.1784    243.7540   1.1104752426e+02  -6.4984303304e+00    0.8567583    0.4264554 -16.44  0.002946159    4.824    0.793
         4 -10.0487    248.7091    203.2455   9.4226058647e+01  -8.0414718261e+00      1.15877    0.4066422 -26.39    0.0034142    5.477    0.817
         5 -12.1549    242.8596    181.4489   9.0978485427e+01  -3.4692771589e+00     1.686713     0.904117 -14.75  0.006448578    3.218    0.689
         6 -10.4427    233.5678    234.4300   1.0279001208e+02  -1.0508687223e+01     1.116273    0.3120191  35.09  0.004162523    3.492    0.714
         7 -10.0399    236.6571    226.7919   1.0084253178e+02  -9.8428395380e+00    0.6955296    0.3808203  13.05   0.00323855    2.394    0.582
         8 -10.4870    248.5421    215.1642   9.6516034175e+01  -9.8722214348e+00    0.7678652    0.3600144 -28.16  0.003605477    2.188    0.543
         9 -10.8205    245.4715    226.8819   9.9232661179e+01  -1.1167731196e+01    0.8488258    0.5070593   8.83  0.004452955    1.928    0.481
        10 -11.1125    230.1555    245.1344   1.0529242732e+02  -1.1534670252e+01     1.254137    0.6124726  16.20  0.005462293    2.871    0.652
        11 -12.1297    245.7913    242.3626   1.0192489032e+02  -1.3395403626e+01     1.205925    0.6757566 -29.51   0.00125681    1.733    0.423
        12 -10.3748    236.7217    247.3526   1.0444695887e+02  -1.2794054993e+01    0.7250887    0.3906457  -4.75  0.003419313    2.678    0.627
        13  -8.6711    184.9113    250.6633   1.1499471399e+02  -5.2261077738e+00    0.2928582    0.1034942  38.98  0.001204597    2.398    0.583
        14  -9.5847    167.6553    250.0169   1.1836035667e+02  -2.2262130140e+00    0.3950288    0.1838619  38.16  0.001732885    1.824    0.452
        15  -9.0820     66.2286    249.2480   1.3843621469e+02   1.4365190390e+01    0.3447946    0.1694623  54.28   0.00158071    1.699    0.411
        16  -9.1798     52.2447    250.0396   1.4109180425e+02   1.6129728262e+01    0.3665993    0.1401839  43.08  0.001814562    2.198    0.545
        17  -9.3742     45.2762    245.0237   1.4196189626e+02   1.8032361240e+01    0.7769226    0.1868656  50.79  0.003085036    3.392    0.705
        18  -9.8185     34.7257    248.8699   1.4413865933e+02   1.8592328464e+01    0.5469813    0.2604385  47.90  0.002978503    1.740    0.425
        19 -10.2450     13.2713    216.8441   1.4576916358e+02   2.7572455053e+01     0.515177     0.272569  48.52  0.003105557    1.725    0.420
        20 -12.3394      8.3866    206.4292   1.4595395179e+02   3.0290296714e+01     1.167113    0.7452274 -84.47  0.007602777    1.233    0.189
        21 -11.4902     20.9844    224.8695   1.4490637365e+02   2.5063186087e+01     1.333561    0.4528927  53.47  0.006343546    2.575    0.612
        22 -10.4263     27.4944    219.7480   1.4329138755e+02   2.5428015305e+01     1.058559    0.2537497  55.19  0.003629368    4.750    0.789
        23  -9.5453     26.0622    249.3580   1.4567603571e+02   1.9529550875e+01    0.3752719    0.1676294  48.15  0.001553538    1.830    0.454
        24 -12.1533     23.8783    241.0814   1.4551010597e+02   2.1415200628e+01     1.390829     0.889375  61.69  0.009334989    1.241    0.194
        25  -9.8470     11.0657    226.5333   1.4682603329e+02   2.5765194522e+01    0.5144478    0.2091909  65.23  0.002630961    2.297    0.565
        26 -11.8481      4.0138    225.2870   1.4800072416e+02   2.6726656005e+01     1.349942    0.5367091 -85.16  0.007111807    2.155    0.536
        27 -10.4147     15.3256    241.3129   1.4701039351e+02   2.2319958230e+01    0.6019084    0.2487647  82.56  0.003063515    2.399    0.583
        28 -11.9366      5.5942    244.9234   1.4885629168e+02   2.2638840757e+01    0.9917601    0.5388687  66.17    0.0065583    1.411    0.291
        29 -10.4050      6.7578    236.1960   1.4817095493e+02   2.4240511186e+01    0.5695389    0.1901659  51.70  0.002981176    2.384    0.581
        30  -9.2516    151.8748    249.1802   1.2143831894e+02   6.0917658298e-01    0.2069231    0.1595491  52.41 0.0009943377    1.221    0.181
        31  -9.4424    144.7118    249.5383   1.2294502062e+02   1.7727796260e+00    0.3406804     0.109139  41.39    0.0013142    2.585    0.613
        32  -8.4935    187.4981    245.8044   1.1371074992e+02  -4.8888377415e+00    0.2360062    0.1620572  33.07 0.0008566232    1.246    0.197
        33  -9.6300    177.7749    243.7518   1.1534743833e+02  -2.9132244124e+00    0.5122123    0.2797622  22.00  0.002284085    2.334    0.572
        34  -9.4157    157.4461    245.4843   1.1976477609e+02   2.9089460017e-01    0.2843834    0.1960388  18.68  0.001169156    1.740    0.425
        35  -8.7890    164.0887    244.1463   1.1820277086e+02  -6.2654008015e-01    0.2543177    0.1940984  24.26  0.001364286    1.302    0.232
        36  -9.1632    140.3302    245.5863   1.2329218025e+02   3.2291405860e+00    0.2769856    0.1065183  44.11  0.001148056    2.192    0.544
        37  -9.1810    133.0557    245.5230   1.2477594151e+02   4.4893617314e+00      0.20927    0.1132318  41.33 0.0007733331    1.571    0.363
        38  -7.7124    124.6788    245.6783   1.2651076036e+02   5.8858611022e+00    0.1241129     0.102407   7.08 0.0007045207    1.674    0.402
        39  -8.0358    152.5117    244.4510   1.2062622588e+02   1.3261119086e+00    0.1342102    0.1140229  35.94 0.0002481339    1.065    0.061
        40  -8.8818    193.2312    242.4558   1.1201908525e+02  -5.3121100998e+00    0.3704063    0.1921048  28.78  0.001752937    1.903    0.474
        41  -7.9587    143.7759    241.9991   1.2207531607e+02   3.2846070356e+00    0.1981713    0.1344137  26.43 0.0009268773    1.619    0.382
        42  -8.9657     54.4861    240.1092   1.3983964497e+02   1.7812585833e+01    0.3625426     0.179437  73.24  0.001789503    2.182    0.542
        43  -8.5339    205.8144    240.5424   1.0919889229e+02  -7.0825000191e+00    0.2217121    0.1751158 -23.77  0.001358237    1.326    0.246
        44  -8.7500    170.3061    240.1958   1.1631463836e+02  -1.0257810790e+00    0.2894439    0.1913052  16.47  0.001446767    1.867    0.464
        45  -8.7485    126.4278    240.5519   1.2547289899e+02   6.5552779308e+00    0.2485956     0.119144  31.24  0.001033437    2.449    0.592
        46  -9.1008     44.9604    236.8840   1.4136293166e+02   1.9720491102e+01    0.3524321    0.1688266  64.72  0.001650159    1.978    0.494
        47  -9.0325    196.4712    236.3426   1.1034972145e+02  -4.8719560050e+00    0.4367402    0.2013206  26.29  0.001781566    2.620    0.618
        48  -8.9616    184.3100    236.3053   1.1281092874e+02  -2.7915596544e+00    0.2859278    0.2221827  19.17  0.001650727    1.250    0.200
        49  -8.1087    176.4472    237.0210   1.1454243171e+02  -1.5493425763e+00    0.2351436    0.1589969  20.24  0.001157511    1.618    0.382
        50  -8.3314    149.7625    237.6154   1.2018579672e+02   3.0387019602e+00    0.2023372     0.110407  47.27 0.0009538402    1.649    0.394
        51  -9.1097    207.1388    235.1927   1.0802370557e+02  -6.4624796457e+00    0.3171406    0.2235533  13.97  0.001523377    1.432    0.302
        52  -8.6730    207.9661    230.0640   1.0696520203e+02  -5.7800271960e+00    0.2698216    0.1712276   4.19  0.001306495    2.053    0.513
        53  -8.3036    190.2186    234.9799   1.1138447387e+02  -3.5858098974e+00    0.2135994    0.1515901   3.64 0.0007655933    1.690    0.408
        54  -9.0489    195.3513    230.4526   1.0956837437e+02  -3.7102996590e+00    0.4230393     0.223459  13.14  0.001509412    3.770    0.735
        55  -8.7881    161.5331    234.8165   1.1728964534e+02   1.4650220273e+00    0.2881325    0.1669532  25.34  0.001310953    2.027    0.507
        56  -8.3730     39.2145    235.3866   1.4231668908e+02   2.0750644239e+01    0.1713329   0.08498032  52.04 0.0009389138    1.697    0.411
        57  -8.1017    140.5089    234.4883   1.2166776264e+02   5.2580252425e+00    0.1382789    0.1188911  49.94 0.0008103522    1.028    0.027
        58  -8.4991     63.2648    231.3455   1.3731894265e+02   1.8420034285e+01    0.2975137     0.144149  72.91  0.001321616    2.532    0.605
        59  -8.8547     48.6342    230.2511   1.4009256156e+02   2.0626379074e+01    0.3190346    0.1578565  70.68  0.001571656    2.108    0.526
        60  -8.3723    188.0013    230.0267   1.1099702679e+02  -2.3652688481e+00    0.2241553    0.1544671   7.28  0.001124691    1.803    0.445
        61  -8.4664     40.3358    229.3386   1.4161208425e+02   2.1870532456e+01    0.2547309     0.124806  67.17  0.001208753    1.976    0.494
        62  -8.1354    174.7904    227.3707   1.1329114632e+02   4.4178463514e-01    0.2046084    0.1168693  29.96 0.0006005328    1.771    0.435
        63  -8.8197    212.4584    225.5343   1.0526828845e+02  -5.7936455419e+00    0.2847954    0.1926953  -8.79    0.0011455    1.726    0.421
        64  -8.6392    199.4954    225.1680   1.0780042945e+02  -3.5340643062e+00    0.2672145    0.1926716   9.94  0.001310769    1.516    0.340
        65  -8.0736    185.0253    226.4929   1.1100388871e+02  -1.2281825596e+00    0.1967882    0.1105113  19.21 0.0008094615    2.472    0.595
        66  -7.8810    191.5016    225.4617   1.0948598020e+02  -2.1915161334e+00    0.1377588     0.119791  19.53 0.0001273049    1.035    0.034
        67  -8.6757    206.3451    223.1207   1.0605136951e+02  -4.3654841630e+00    0.2575555    0.1854693  -6.08 0.0009422619    1.568    0.362
        68  -9.0556    217.2456    220.6933   1.0344565898e+02  -5.8003627502e+00    0.3259507    0.2121074 -17.17  0.001460026    1.735    0.424
        69  -8.1480     54.1400    221.9451   1.3822622294e+02   2.1675727799e+01    0.2236069    0.1182834  76.96  0.001081744    2.062    0.515
        70  -7.6818    195.6646    221.7182   1.0796688762e+02  -2.2740693154e+00    0.1395205   0.09950823   8.31 0.0007007975    1.618    0.382
        71  -8.3797     45.1273    220.7052   1.3991997322e+02   2.3114355339e+01    0.2115694    0.1245136  60.40    0.0011859    1.502    0.334
        72  -9.9975     34.2675    217.5124   1.4178987958e+02   2.5130747214e+01    0.5248771     0.213305  87.91  0.002166064    3.118    0.679
        73 -10.2873     28.1619    213.5728   1.4266020254e+02   2.6688722797e+01    0.4998181    0.2073637  66.33  0.002206009    2.669    0.625
        74  -7.8638    185.5106    220.4736   1.0984897876e+02  -2.4397701091e-01    0.1403516    0.1234541  19.52 0.0005443285    1.053    0.051
        75  -7.9404    202.4739    219.4578   1.0616883475e+02  -3.0763384248e+00    0.1386338    0.1189809  11.68 0.0001666908    1.070    0.066
        76  -9.5327    157.9798    217.2422   1.1517425736e+02   5.4268120958e+00    0.2381937     0.219331  41.03 0.0003112378    1.018    0.018
        77  -8.4454    211.0562    216.5419   1.0390525186e+02  -4.0633821567e+00     0.257662    0.1761797 -20.60 0.0008422916    1.589    0.371
        78  -8.1498    194.0404    215.9594   1.0725981318e+02  -9.6928284540e-01    0.2293738     0.161985   0.39  0.001129271    1.774    0.436
        79  -8.8426    221.6982    213.4079   1.0122125131e+02  -5.3413434744e+00     0.340755    0.1965756   7.91  0.001434649    2.678    0.627
        80  -9.1023     22.2554    211.0449   1.4361429646e+02   2.7886536820e+01    0.2841043    0.1477173  55.60  0.001241005    1.730    0.422
        81  -9.4847    216.3725    207.9646   1.0123409212e+02  -3.5125551798e+00    0.3311972    0.2187835 -18.78  0.001659585    1.701    0.412
        82  -8.3801     36.2498    208.3464   1.4057578283e+02   2.6914311215e+01    0.2832856    0.1333756  72.77  0.001245464    2.409    0.585
        83  -9.7488    229.2485    204.9605   9.8155662066e+01  -5.1923387806e+00    0.3970926    0.2447792  21.85  0.001971976    1.780    0.438
        84  -8.5103     17.9790    206.4762   1.4409122395e+02   2.9333842024e+01    0.2316141     0.131036  81.52  0.000911608    1.553    0.356
        85  -8.1534    206.9403    206.0627   1.0275912617e+02  -1.5156003006e+00    0.2271565    0.1603775   0.71  0.001120012    1.716    0.417
        86  -9.1778    235.5582    201.9859   9.6388879076e+01  -5.7404167401e+00    0.3628305     0.222948 -17.57  0.001298274    1.855    0.461
        87  -9.7009    238.0915    196.0579   9.4759965753e+01  -5.1660517152e+00    0.4679827    0.2692854  10.80  0.001994464    2.680    0.627
        88  -8.0634    197.3179    202.3651   1.0402525165e+02   9.1632845821e-01    0.1503485    0.1071222  -1.46 0.0007039735    1.776    0.437
        89  -9.5515    230.2347    198.6440   9.6739307786e+01  -4.2884486212e+00    0.4232884    0.2349631   4.18   0.00153266    3.679    0.728
        90 -11.0407    226.8055    229.2677   1.0315003784e+02  -8.6995841051e+00     2.017853     1.009481   6.40  0.006397489    5.384    0.814
        91  -7.9440     23.6520    198.2958   1.4226051351e+02   3.0565852961e+01    0.1306177   0.07367691  68.27 0.0003611053    1.676    0.403
        92  -8.5695     14.1430    196.7315   1.4407590512e+02   3.1872056852e+01    0.2114903    0.1315499  87.45 0.0007421579    1.325    0.245
        93  -8.0243    216.4449    196.4887   9.8988177423e+01  -1.5046172063e+00     0.140322    0.1252414  -1.53 0.0003318332    1.032    0.031
        94  -7.8303    202.6868    195.6498   1.0160103354e+02   1.1711904815e+00    0.1498024    0.1078767  -1.74  0.000704622    1.724    0.420
        95  -8.2874     19.4928    194.9994   1.4283269829e+02   3.1734420653e+01    0.1867068   0.09901113 -79.08  0.001020491    1.569    0.363
        96  -9.0428    232.1868    191.5539   9.4968188591e+01  -3.3994578122e+00    0.3307956    0.2162874  -9.33  0.001115694    1.904    0.475
        97  -7.6421     52.6573    193.3231   1.3547630831e+02   2.8328389801e+01    0.1433286   0.08606802  70.18 0.0007050585    1.730    0.422
        98 -11.4295      3.9872    197.5152   1.4616360009e+02   3.2639112801e+01     1.203865    0.3590332 -80.95  0.005025155    3.078    0.675
        99 -10.0481     11.1849    190.9227   1.4420484499e+02   3.3450864660e+01    0.2787112    0.1645596 -89.29 0.0009914634    1.400    0.285
       100  -9.3813      9.0133    186.9778   1.4432872506e+02   3.4534681923e+01    0.1911222    0.1316868  76.23 0.0008328988    1.244    0.196
       101  -8.4543    224.6807    190.3112   9.6147583609e+01  -1.8689102897e+00    0.2820014    0.1538738 -21.49  0.001157362    2.449    0.592
       102  -9.0256     16.9665    190.7315   1.4298704206e+02   3.2947566351e+01    0.2156367    0.1373034  81.89  0.001125467    1.357    0.263
       103  -8.0765     33.5339    189.4855   1.3931058732e+02   3.1514622745e+01    0.1279423    0.1035436  89.78 6.801256e-05    1.014    0.013
       104  -8.9012     23.5694    187.8755   1.4132168991e+02   3.2943831638e+01    0.2404134    0.1170216  66.67   0.00116159    2.217    0.549
       105 -11.4134    236.6027    208.9260   9.7528741005e+01  -7.0479479429e+00     2.062424     1.077027  -4.59  0.006968571    4.550    0.780
       106  -9.5169      5.0325    183.0231   1.4483403558e+02   3.5770654920e+01     0.232728    0.1307144  81.02  0.001338345    1.598    0.374
       107  -9.4096      7.5055    180.4971   1.4410092494e+02   3.6131113984e+01    0.1216627   0.09238008 -89.99 4.454655e-05    1.024    0.023
       108 -11.3219    245.7583    195.2540   9.3204778631e+01  -6.2817181089e+00       1.8455    0.5987529 -29.79  0.005675004    4.687    0.787
       109  -9.9203    216.1413    229.9429   1.0533212438e+02  -7.1041468391e+00     1.114079    0.5729575  10.46  0.004003664    3.978    0.749
       110  -8.4729     16.5163    180.5108   1.4215764765e+02   3.5323051141e+01    0.1244967      0.09663 -89.87 0.0008102612    1.023    0.022
       111  -9.7279      1.6929    176.6732   1.4501722584e+02   3.7475953904e+01    0.3219343    0.1779926  88.66  0.001865017    1.542    0.352
       112 -10.2846      4.7665    174.5699   1.4417915770e+02   3.7705704233e+01    0.2863447    0.1876631  56.64  0.001313338    1.527    0.345
       113 -10.3561    240.6233    218.7812   9.8635676722e+01  -9.2300703713e+00    0.6203552    0.4425588 -20.43   0.00367851    1.305    0.234
       114  -8.0198    233.2922    173.3684   9.1062772973e+01  -3.6189743477e-01    0.1457323    0.1031841  -7.83 0.0007026418    1.717    0.418
       115 -10.4689    218.2155    246.8456   1.0784826957e+02  -9.9815161013e+00     1.028187    0.4159727 -27.90  0.004209113    3.410    0.707
       116 -11.0693    207.5424    247.9468   1.1009448241e+02  -8.4802941675e+00     1.210217    0.6695505  17.87  0.005856127    2.154    0.536
       117  -9.9130    245.9738    167.0047   8.7481577885e+01  -1.4768019210e+00    0.2366641     0.187397  26.25 0.0005457349    1.372    0.271
       118  -9.5545     15.0341    170.6827   1.4153866136e+02   3.7728725557e+01    0.1691428    0.1390142  84.44 0.0007216108    1.092    0.084
       119  -9.8572      8.3907    166.9734   1.4268416733e+02   3.9150765620e+01    0.4087848    0.1427887  66.09   0.00133274    5.466    0.817
       120  -9.6599      6.1004    169.8524   1.4346683793e+02   3.8674622941e+01    0.2337548    0.1347492  80.40  0.001248143    1.636    0.389
       121 -10.3148      4.2342    165.0757   1.4344554397e+02   3.9916141322e+01    0.4525455    0.1414533 -59.92  0.002045153    2.543    0.607
       122  -9.5791     12.3838    166.1449   1.4169137157e+02   3.9011203128e+01    0.2588443    0.1001567 -76.71  0.001174904    2.216    0.549
       123  -9.9292     11.1786    161.8228   1.4153298981e+02   4.0115130538e+01     0.194872    0.1634875 -55.23  0.001336377    1.316    0.240
       124  -9.4867    249.9655    150.6765   8.3419642354e+01   7.1906892447e-01      0.39329    0.1903808 -32.01  0.001675499    2.128    0.530
       125  -9.6824    248.1877    161.4967   8.5964973895e+01  -8.8972405707e-01    0.3205025    0.2184516  20.90  0.001622429    1.856    0.461
       126  -9.2722    250.4937    156.4482   8.4532479537e+01  -4.0114210800e-01    0.3554209    0.1659807 -42.93  0.001272796    1.926    0.481
       127  -8.0905    241.4928    162.5053   8.7328415748e+01   1.2176080855e-01    0.1394386    0.1237142 -23.02 -8.691423e-05    1.034    0.033
       128  -9.4711    245.8171    156.7626   8.5383342382e+01   3.7580630299e-01     0.260169    0.2022598  -1.01  0.001317793    1.525    0.344
       129  -8.8711    237.9611    157.0625   8.6804182549e+01   1.7583423297e+00    0.2244179    0.1654169  -7.38 0.0008728934    1.675    0.403
       130 -10.0212    225.8989    241.0533   1.0539613939e+02  -1.0315818099e+01    0.5235718    0.3130284  14.30  0.002144661    1.815    0.449
       131  -9.5175      3.3363    153.6125   1.4254679808e+02   4.2617421335e+01    0.2799734    0.1430896  80.48  0.001432737    2.117    0.528
       132  -8.2237    243.2901    152.3392   8.4884319387e+01   1.6340624559e+00     0.140028    0.1040669  -9.08 0.0004413984    1.643    0.391
       133  -7.9451    233.2879    152.3610   8.6629116618e+01   3.5106632270e+00    0.1454899    0.1077429  -8.70  0.000702413    1.689    0.408
       134  -8.1166    238.5301    149.4743   8.5092190476e+01   3.0468006961e+00    0.1411064    0.1270524 -29.46 0.0004891785    1.035    0.034
       135  -9.8411    243.7835    147.4474   8.3767002029e+01   2.4314388255e+00    0.2726411    0.1792002 -40.86  0.001338974    1.363    0.266
       136  -8.7557    234.8586    144.4716   8.4653416498e+01   4.6791549029e+00    0.2949105    0.1829482 -23.15  0.001309461    1.989    0.497
       137  -7.6976    104.9984    144.2655   1.1412131124e+02   3.2141894888e+01    0.1797252    0.1336605  40.96 0.0002416061    1.378    0.275
       138  -8.3006    247.3345    143.3211   8.2306858434e+01   2.5192440280e+00    0.1389052    0.1052885  -3.92 0.0003089347    1.704    0.413
       139  -8.8812      2.3862    143.1711   1.4168806614e+02   4.5086810122e+01    0.1783685   0.09283254 -83.63 0.0009507316    1.715    0.417
       140  -8.4870    250.1596    139.8506   8.1119860626e+01   2.6207552029e+00    0.2085752    0.1739024 -53.45 0.0007394099    1.182    0.154
       141  -9.1595    243.6913    138.6329   8.1907562358e+01   4.0543957438e+00    0.2599771    0.1616574 -31.05 0.0009377525    1.629    0.386
       142  -9.4950      4.5254    136.5237   1.4039646240e+02   4.6473886221e+01    0.2272996   0.09792526 -83.80  0.001033882    2.402    0.584
       143  -8.3920    248.4530    134.2819   8.0215305820e+01   3.9398321810e+00    0.2722275     0.123726 -36.61  0.001133526    2.073    0.518
       144  -8.5468    242.2772    132.3570   8.0793174474e+01   5.4725516357e+00    0.2698073     0.160826 -31.36  0.001247574    1.741    0.426
       145  -8.6524    232.0749    131.0185   8.2195521139e+01   7.7500194099e+00    0.4027206    0.2261924 -21.20  0.001525011    2.861    0.650
       146  -7.8208    225.3260    132.3372   8.3656761028e+01   8.8871533064e+00    0.1473528    0.1149488  -0.67 0.0005845881    1.723    0.420
       147  -8.8610    247.8023    128.2717   7.9041403138e+01   5.1454458436e+00    0.2890609    0.1809716 -31.58  0.001406979    1.627    0.385
       148  -9.2023    238.5243    121.6107   7.9068689345e+01   8.1834333919e+00    0.4830689    0.2200357 -34.21  0.001913233    2.326    0.570
       149  -8.0189    249.2917    123.3408   7.7764499185e+01   5.7429042335e+00    0.1344002    0.1058906  -9.60 0.0004138124    1.651    0.394
       150  -8.4107    247.1066    117.3220   7.6812648978e+01   7.2435732196e+00    0.2531592    0.1758728 -33.96  0.001092883    1.421    0.296
       151  -8.2720    177.7950     85.7829   8.1322738885e+01   2.8642080156e+01    0.2154278    0.1996083  39.24 0.0005636851    1.176    0.150
       152  -8.6229    233.3550     76.1337   6.9841096538e+01   1.7242269689e+01    0.1962281    0.1780974  76.90 0.0003669874    1.170    0.145
       153  -8.7865    222.6872     14.6707   5.7889248676e+01   2.8256281011e+01    0.1155407   0.08995171  49.21 0.0007043461    1.672    0.402
