#   1 NUMBER                 Running object number                                     
#   2 MAG_AUTO               Kron-like elliptical aperture magnitude                    [mag]
#   3 X_IMAGE                Object position along x                                    [pixel]
#   4 Y_IMAGE                Object position along y                                    [pixel]
#   5 X_WORLD                Barycenter position along world x axis                     [deg]
#   6 Y_WORLD                Barycenter position along world y axis                     [deg]
#   7 A_WORLD                Profile RMS along major axis (world units)                 [deg]
#   8 B_WORLD                Profile RMS along minor axis (world units)                 [deg]
#   9 THETA_WORLD            Position angle (CCW/world-x)                               [deg]
#  10 FWHM_WORLD             FWHM assuming a gaussian core                              [deg]
#  11 ELONGATION             A_IMAGE/B_IMAGE                                           
#  12 ELLIPTICITY            1 - B_IMAGE/A_IMAGE                                       
         1 -11.3335      5.3716     38.6115   9.0504703290e+01   7.2551344098e+01    0.8607349    0.2037027 -68.79  0.002942261    3.335    0.700
         2 -10.7449     40.8879     13.9359   5.0863206095e+01   7.3307752433e+01    0.2353865     0.214696  20.26 0.0002946971    1.073    0.068
         3  -8.5573    247.6939    247.3864   5.9481630163e+01  -4.2004027132e+00    0.0776405   0.06759179  -5.10  0.000701787    1.802    0.445
         4  -9.0418     13.5241    250.5070   1.0332095754e+02   2.0167823208e+01    0.1131045   0.07638854  46.54 9.005082e-05    1.021    0.020
         5  -8.9191    160.0404    232.2115   7.1798332952e+01   6.6460053724e+00    0.1552657    0.1279822  41.26 0.0005904029    1.450    0.310
         6 -10.9621    162.3109    225.2111   7.0473432029e+01   7.3449626240e+00    0.4026915    0.2603424  -0.61  0.002484063    1.699    0.411
         7  -9.8004    237.9605    229.6893   5.8466842942e+01  -1.5722225697e+00     0.216726    0.1082867 -22.39  0.001028595    1.739    0.425
         8 -10.8994     85.1817    227.3979   8.6690197322e+01   1.6668436959e+01    0.2542024     0.116077  38.33  0.001320556    1.678    0.404
         9 -10.4059     99.2019    225.3127   8.3414104523e+01   1.5302642118e+01    0.2822836    0.1970852  27.84  0.001010985    1.212    0.175
        10  -9.8934    114.6783    222.0653   7.9719754013e+01   1.3889306905e+01    0.2036552    0.1177369 -67.83  0.001098626    2.454    0.593
        11 -10.1092     60.1841    223.1914   9.1980697930e+01   2.0399233531e+01     0.320916   0.05218568  45.13  0.001063179    4.217    0.763
        12 -11.0798    126.3305    220.7041   7.7088714178e+01   1.2607091273e+01    0.2536468    0.2014158  51.07  0.000755661    1.392    0.282
        13  -9.6073     75.2221    219.2467   8.8228817660e+01   1.9371924364e+01    0.1810384    0.1167678  49.87  0.001062566    1.357    0.263
        14  -9.6087     22.1864    218.3866   1.0047767403e+02   2.5351011572e+01    0.2234267    0.1098503  38.48 0.0008462355    1.499    0.333
        15  -9.5580    143.7132    216.9826   7.3036220168e+01   1.0934352159e+01    0.1614548    0.1462815   4.03  0.001156133    1.135    0.119
        16  -9.4186     95.8568    217.1232   8.3331476577e+01   1.7182298725e+01    0.1911627    0.1221299  66.05 0.0007613898    1.979    0.495
        17 -10.4082     14.5316    216.6050   1.0218371829e+02   2.6423519246e+01    0.2588181    0.1650408  46.05  0.000677663    1.160    0.138
        18  -9.5461    170.9193    215.6911   6.7562024194e+01   7.6208657302e+00    0.1942118    0.1446987 -14.62  0.001313155    1.318    0.241
        19  -9.3269     99.4428    216.2074   8.2429438675e+01   1.6885756135e+01    0.1558882    0.1179414  86.65 0.0009472084    1.706    0.414
        20  -9.8757    131.2656    214.3592   7.5271684962e+01   1.3003054955e+01    0.2031767     0.141847 -32.45 0.0007576513    1.667    0.400
        21 -10.0269     77.5096    211.5828   8.7018962131e+01   2.0560074463e+01    0.3101326     0.223729  26.70  0.001864241    1.286    0.223
        22  -9.7509    214.2580    207.6290   5.8849876288e+01   3.4340588256e+00     0.153395   0.08539341  20.14 0.0009504654    1.685    0.406
        23  -9.3067     56.9594    205.4892   9.1438557316e+01   2.4290501104e+01    0.1972827   0.06623019  46.83 0.0007924602    2.448    0.592
        24 -11.4060    165.6561    203.3303   6.6771859943e+01   1.0135090371e+01    0.3050142    0.2144389  52.39  0.001669057    1.955    0.489
        25 -11.6138    172.7939    190.9034   6.3470035509e+01   1.1078293630e+01    0.3203724    0.2800894 -71.43  0.001614382    1.721    0.419
        26 -13.1284    177.4511    196.4179   6.3469400995e+01   9.5895680127e+00    0.6909956    0.4273691 -18.76  0.002959705    1.797    0.443
        27 -12.4837    172.9746    195.9462   6.4237952107e+01   1.0271948989e+01     0.379941    0.2913936 -18.54  0.001677128    1.266    0.210
        28 -10.6968    149.2388    198.4738   6.9331962033e+01   1.3179976891e+01    0.2739751    0.2176963  78.70  0.001602432    2.028    0.507
        29  -9.9388     88.6698    198.5175   8.3022513922e+01   2.1704634511e+01    0.2209549    0.1497284  74.21  0.001176367    1.813    0.448
        30 -11.7211    125.7718    197.2319   7.4196197008e+01   1.6746390833e+01    0.3811192    0.2218194  34.42  0.001821907    1.494    0.331
        31 -11.4562    112.8412    195.5148   7.6907644801e+01   1.8923265012e+01    0.4544733    0.2454575 -59.01  0.001314401    2.169    0.539
        32  -9.9137    105.3410    197.9703   7.8975571654e+01   1.9513228081e+01     0.173793    0.1664657  34.53 0.0006509763    1.107    0.096
        33 -12.4146    164.2665    194.3204   6.5667083479e+01   1.1737554674e+01    0.5476086    0.2505314  41.90  0.002635573    2.236    0.553
        34 -11.0416    135.1966    193.0715   7.1518958322e+01   1.6135056291e+01    0.2156568    0.1835044  87.30 0.0007868413    1.591    0.371
        35  -9.8511     78.6057    193.3269   8.4938512060e+01   2.4130301600e+01    0.2145128     0.133434  59.18 0.0007577714    1.661    0.398
        36  -9.6322     43.7319    192.7986   9.3823060063e+01   2.8543584735e+01    0.2727881    0.1237272  70.30   0.00117504    2.523    0.604
        37 -11.8116    139.2745    189.1863   7.0046704110e+01   1.6232921551e+01    0.3934712    0.2446862 -55.52  0.002067676    1.917    0.478
        38 -10.4485     87.3416    189.2981   8.2289191513e+01   2.3792895712e+01    0.2789936    0.1608182  60.39  0.001015292    2.011    0.503
        39 -11.7413    156.1929    187.2120   6.6161776816e+01   1.4072107576e+01     0.326896    0.2704582 -31.18  0.001651753    1.246    0.198
        40 -10.8781    129.5096    188.4651   7.2099054936e+01   1.7819227135e+01    0.2834634    0.1853025  65.23  0.001314275    2.342    0.573
        41 -11.4599    203.9499    187.0401   5.7247793611e+01   7.4099426378e+00    0.3009956    0.2167732 -29.38   0.00193402    1.300    0.231
        42 -11.8097    148.7354    186.6119   6.7617396717e+01   1.5281520099e+01    0.3540902    0.2777304  84.69  0.001968218    2.064    0.515
        43 -12.5392     95.2845    184.4643   7.9693553715e+01   2.3686567618e+01    0.7542058    0.4810641  71.47  0.003628015    2.081    0.519
        44 -11.3707    110.0109    185.4586   7.6206688897e+01   2.1315734156e+01    0.3916476    0.2927619  58.92  0.001608553    1.462    0.316
        45  -9.8129     55.4658    186.9755   9.0283877426e+01   2.8479537200e+01    0.3043187    0.0949581  53.07  0.001035721    3.477    0.712
        46 -11.4107    183.3723    184.8626   6.0493067065e+01   1.0524709551e+01    0.2441667    0.2110337 -65.66  0.001160716    1.739    0.425
        47 -11.2417    120.3986    184.4606   7.3595965036e+01   1.9955034516e+01    0.3832119    0.2324235 -76.31  0.001728236    2.678    0.627
        48 -10.8891    210.4706    184.3738   5.5723632499e+01   6.9292599613e+00    0.3427744    0.1811997  -2.65  0.001599451    2.997    0.666
        49 -11.6802    197.2996    182.6544   5.7638771650e+01   8.9227654811e+00    0.3064971    0.2252191  57.64  0.001593888    2.259    0.557
        50  -9.8405     74.5735    183.7598   8.4925148932e+01   2.6745910862e+01     0.277245    0.1765729  62.71  0.001128612    1.650    0.394
        51  -9.2158     66.3310    184.6641   8.7190760754e+01   2.7635110349e+01    0.1495219    0.0859236  58.04 0.0007052138    1.733    0.423
        52 -10.2235      3.4729    182.4754   1.0389366927e+02   3.4785846728e+01     0.232184    0.2208769 -73.87  0.001227943    1.339    0.253
        53  -9.4627     44.4094    182.2283   9.2846289372e+01   3.0871523212e+01    0.1850821    0.1147212  80.45 0.0009447528    1.649    0.394
        54  -9.5557     27.0000    182.0264   9.7560891446e+01   3.2781903006e+01    0.2029629   0.07012636 -79.93 0.0008019059    2.939    0.660
        55 -11.9842    148.3280    179.8545   6.6608165530e+01   1.6542894646e+01    0.3775901    0.2828692  47.27  0.001651566    1.437    0.304
        56 -12.1082    148.5405    174.2710   6.5622562927e+01   1.7523289411e+01    0.3950026     0.298218 -65.94  0.002173759    1.761    0.432
        57 -11.2911    138.6331    179.4873   6.8660453724e+01   1.8109403138e+01    0.3224584    0.1979978  57.48  0.001174623    2.260    0.558
        58  -9.5834    213.9259    178.6704   5.4192764011e+01   7.2606192221e+00     0.153482     0.127505   9.81   0.00048366    1.150    0.130
        59 -11.1225    175.0584    183.8167   6.1872104743e+01   1.1873631997e+01    0.2807002    0.1900184  55.89  0.001310556    2.228    0.551
        60 -10.8124    129.5105    176.7220   7.0279448407e+01   2.0063928137e+01    0.3306793    0.1851026 -65.77  0.001453549    2.580    0.612
        61 -10.6935    165.9671    186.7704   6.4124222184e+01   1.2714842901e+01    0.2940291    0.1849292  47.07  0.001297255    1.855    0.461
        62 -11.3684     78.1692    175.8394   8.3040511381e+01   2.8030730456e+01    0.4927382    0.2417697  59.23  0.001995944    2.484    0.597
        63  -9.5076     59.8888    176.7417   8.8114686260e+01   3.0279533243e+01    0.2776666    0.1495006  67.15 0.0009495271    2.105    0.525
        64  -9.2428     13.6643    176.8548   1.0094444667e+02   3.5252995149e+01    0.3030538   0.09838836  65.92  0.001148721    2.996    0.666
        65 -10.9208    183.8280    175.7192   5.8838607110e+01   1.1878434733e+01    0.2137642     0.167394 -67.37  0.001232425    2.066    0.516
        66 -11.4101    159.6511    175.2534   6.3456775562e+01   1.5608517326e+01    0.2846343    0.2675464 -76.63  0.001218896    1.364    0.267
        67  -9.7283    205.4975    175.4921   5.5010786855e+01   8.8363316208e+00    0.1200009   0.09818827  -7.43 0.0008105653    1.019    0.019
        68 -10.7034    106.0386    175.0163   7.5674482530e+01   2.4081541502e+01    0.2966081    0.1968949  61.89  0.001200211    1.796    0.443
        69 -12.2689    135.4491    170.8718   6.7945113924e+01   2.0259014025e+01    0.4466955     0.352378  79.81  0.002402133    1.765    0.434
        70 -11.8304    177.7544    170.1784   5.8985631844e+01   1.3678487388e+01    0.3315531    0.2981611 -41.03  0.001746724    1.265    0.210
        71 -12.4256    122.0118    167.9711   7.0615967992e+01   2.3023766430e+01    0.6526297     0.387809 -63.30  0.003029493    2.061    0.515
        72 -10.6157    207.0121    169.6920   5.3729434579e+01   9.4634870830e+00    0.1701483    0.1421445   8.14  0.001094473    1.122    0.108
        73 -11.4631    168.3974    168.8427   6.0557486287e+01   1.5353027524e+01    0.3269638    0.2405089 -70.84  0.001345859    2.226    0.551
        74 -12.2779    151.5292    160.3632   6.2485929310e+01   1.9623558616e+01    0.4442743    0.3156344 -72.33  0.002174289    2.150    0.535
        75 -11.2426    150.0188    169.9736   6.4557608024e+01   1.8077934404e+01     0.258871    0.2324292 -74.17    0.0012318    1.392    0.282
        76 -12.1219    148.0833    163.6906   6.3850105303e+01   1.9569697447e+01    0.3782133     0.325461  78.76  0.001131596    1.515    0.340
        77 -11.3868    144.4593    159.6482   6.3905384473e+01   2.0953907957e+01    0.2743593     0.241281  47.33 0.0002843495    1.187    0.157
        78  -9.9975     55.1267    169.2716   8.8679371729e+01   3.2659378593e+01    0.2819461    0.1507359  68.40  0.001223486    2.104    0.525
        79 -10.0734     88.7451    168.3842   7.9206008021e+01   2.8188859405e+01    0.2515236    0.1757758 -85.70 0.0009318466    1.699    0.412
        80  -9.5426    112.1989    167.4418   7.2949779486e+01   2.4726058205e+01     0.206811    0.1186198  46.11 0.0009434725    1.691    0.409
        81 -10.3233     24.1608    163.6801   9.7241444555e+01   3.7499955277e+01     0.382915    0.2263913  -4.33  0.001316658    2.708    0.631
        82  -9.9939     13.5114    166.5435   1.0052187325e+02   3.7761537505e+01    0.2705629    0.1742108  59.09 0.0007887489    1.286    0.222
        83 -10.4659     17.1738    165.6197   9.9410620129e+01   3.7667988969e+01    0.3683707     0.220631   9.65  0.001441562    2.119    0.528
        84 -12.5648    139.6170    164.0745   6.5806217441e+01   2.0903737907e+01    0.6001271    0.3894462 -67.40  0.002607873    2.185    0.542
        85 -10.9212     99.3652    165.8878   7.6006281420e+01   2.7114527917e+01    0.4838303    0.2033513  47.84  0.001846845    2.456    0.593
        86 -10.7723    218.1183    165.1720   5.1140948106e+01   8.5707704086e+00    0.2178461      0.14621  12.57 0.0008502703    1.590    0.371
        87 -10.8700     79.8841    163.5928   8.0965761444e+01   3.0626596055e+01     0.540317    0.2838829  74.60  0.001977436    3.124    0.680
        88 -11.3095    159.9863    164.0643   6.1386787181e+01   1.7540629353e+01    0.1985284    0.1882954  75.02 0.0009814451    1.297    0.229
        89 -12.3802    157.9939    156.4741   6.0370794122e+01   1.9259689517e+01     0.464914     0.275656 -46.31  0.002285462    1.721    0.419
        90  -9.3383     37.8388    164.0285   9.3214577932e+01   3.5996132648e+01    0.2472278    0.1246565  65.95  0.001075698    2.014    0.503
        91  -9.7994     69.8907    162.7888   8.3693329161e+01   3.2260959542e+01    0.2880719    0.1672469  72.07  0.001238788    2.112    0.527
        92 -11.3931    177.9047    160.3113   5.7131801130e+01   1.5297256366e+01    0.3133453    0.2599721 -58.22   0.00148731    1.518    0.341
        93 -10.9946    178.3824    155.3247   5.6083834063e+01   1.6064671899e+01    0.2596067    0.1888792  -9.48 0.0008293679    1.537    0.349
        94  -9.2660     62.1572    160.1960   8.5616840937e+01   3.3960793089e+01     0.214776    0.1493146  60.59 0.0009578593    1.377    0.274
        95 -10.8832    128.6546    158.8574   6.7422645876e+01   2.3804005251e+01    0.2743654    0.2145148  77.20  0.001141708    1.675    0.403
        96 -11.2280    105.8036    157.5486   7.2954193073e+01   2.7945168005e+01    0.4722751    0.3115116 -76.10  0.002179487    1.925    0.481
        97 -11.5045    196.9444    156.7790   5.3022495262e+01   1.2884931803e+01    0.3261079     0.199006 -43.49  0.001783304    1.659    0.397
        98 -11.7149    188.8055    156.7372   5.4440020945e+01   1.4157342846e+01    0.3810843     0.247205 -39.92  0.001680377    1.480    0.324
        99 -12.4463    189.6872    149.8072   5.2928821841e+01   1.5145669341e+01    0.5597917    0.3188265 -51.58  0.002715297    2.157    0.536
       100 -12.2906    168.1148    156.5404   5.8313047416e+01   1.7546881200e+01    0.4888921    0.2961247 -48.09   0.00238255    1.748    0.428
       101 -12.1898    205.2506    152.7384   5.0855532690e+01   1.2240633127e+01    0.6036498    0.2281034 -32.81  0.002593684    2.566    0.610
       102 -11.3957    119.8010    155.2880   6.8947739217e+01   2.6076326916e+01    0.4183953    0.2832155 -87.59  0.001837271    2.305    0.566
       103 -10.5373    120.4129    150.2244   6.7853397215e+01   2.7069825198e+01    0.2754925    0.1990696  38.67 0.0008953207    1.333    0.250
       104 -10.3139     49.6204    154.1998   8.8690872612e+01   3.7094221675e+01    0.5313313      0.26649  78.27  0.002104992    2.461    0.594
       105 -11.6405    144.9110    154.1004   6.2752101013e+01   2.1961930467e+01    0.3841321    0.2937642 -70.08  0.001991289    1.694    0.410
       106 -11.2156    142.8383    148.9995   6.2221331652e+01   2.3340955720e+01    0.3973154    0.1974541 -55.65  0.001618213    2.392    0.582
       107 -10.9163     81.7842    153.3638   7.8925545081e+01   3.2793614516e+01    0.5209996    0.3189775 -80.59  0.001801012    1.959    0.490
       108 -10.9470     68.4071    153.4805   8.2885481418e+01   3.4759016105e+01    0.5001698    0.2627557  59.58   0.00171031    2.152    0.535
       109 -12.0348    133.4517    152.1368   6.5019705523e+01   2.4365272982e+01    0.5241675    0.3722632 -75.85  0.002372076    1.978    0.495
       110  -9.4967      9.0194    160.2108   1.0155252520e+02   3.9707558968e+01    0.3979286   0.09195098  68.05  0.001102083    5.304    0.811
       111 -10.9506     92.8390    159.6828   7.6793967084e+01   2.9560436961e+01    0.4080441    0.2832439  79.52  0.001352867    1.796    0.443
       112 -11.0249    162.8922    150.3105   5.8145293383e+01   1.9559084730e+01    0.2975476    0.1957239 -58.40  0.001362276    1.922    0.480
       113  -9.7914     98.6521    150.5137   7.3674410217e+01   3.0754005253e+01     0.257318    0.1804506  89.97  0.001182692    1.819    0.450
       114  -9.9930     28.3339    149.0254   9.4880697240e+01   4.0831285508e+01     0.422436    0.1591717  72.71  0.001431297    3.322    0.699
       115 -11.2992    200.4507    148.6809   5.0854804730e+01   1.3607803410e+01    0.2307775    0.2025704  86.16  0.001445912    1.709    0.415
       116 -11.6820    108.1650    145.6416   7.0188164668e+01   3.0253044649e+01     0.732209    0.3925977  64.09  0.002577367    3.116    0.679
       117 -10.3320     39.6575    147.3091   9.1084478188e+01   4.0064226422e+01    0.4173652    0.1886062  58.77  0.001647232    2.293    0.564
       118 -11.4484     56.0709    144.3179   8.5455249850e+01   3.8808345709e+01    0.8080336    0.4220608 -85.91  0.003267322    2.236    0.553
       119 -10.7853    175.8618    145.7988   5.4665582188e+01   1.8132860661e+01    0.2528138    0.1766306 -64.73  0.001248247    2.105    0.525
       120 -10.2157     77.9870    145.5035   7.8807371592e+01   3.5320585600e+01    0.3418148    0.1933587 -73.02  0.001444211    1.970    0.492
       121 -11.3314    166.0527    143.9086   5.6201644841e+01   2.0182732553e+01    0.3420086    0.2696045 -86.08   0.00177483    1.918    0.479
       122 -12.0851    125.3468    142.3141   6.5059493385e+01   2.7908846332e+01    0.7452816     0.435317 -71.32  0.002895838    2.693    0.629
       123 -13.2349    150.0030    144.4048   5.9686686046e+01   2.2966012535e+01    0.9027845    0.6132997 -72.03  0.004082968    2.269    0.559
       124 -11.1502    138.6288    143.8375   6.2151909864e+01   2.5151429398e+01    0.2833513    0.2341569 -60.53  0.001418378    1.313    0.238
       125 -11.0282     88.1921    142.9948   7.5339899983e+01   3.4301484952e+01    0.4748397    0.2695171 -74.07  0.001941734    2.146    0.534
       126 -10.7427    182.4249    141.1001   5.2470184433e+01   1.7819388620e+01    0.3385757    0.2164506 -60.28  0.001602149    2.267    0.559
       127 -10.1382      2.3917    139.9397   1.0276480792e+02   4.5396368471e+01    0.5329409    0.1254301  81.04  0.001519435    4.813    0.792
       128 -10.9241     69.0385    138.1596   8.0397322578e+01   3.8560467482e+01    0.6993407    0.2851527 -77.61  0.002166098    3.696    0.729
       129 -10.8983    172.3080    137.4281   5.3604227554e+01   2.0245885789e+01    0.4042794     0.220236 -58.70  0.001638338    2.786    0.641
       130  -9.6185     81.3943    139.1860   7.6709192496e+01   3.6362451443e+01    0.2163022    0.1409999 -79.89 0.0009479089    1.758    0.431
       131 -10.6402     23.0467    135.4466   9.5493895679e+01   4.4942546880e+01    0.9008489    0.3360134 -84.38  0.003331617    2.674    0.626
       132 -11.3123    197.7347    136.8674   4.8913689379e+01   1.5925785872e+01    0.3073478    0.2078091 -45.23  0.001306792    1.478    0.324
       133 -10.6879    188.2873    135.4435   5.0231107922e+01   1.7767955807e+01    0.3536727    0.1005391 -44.31  0.001198438    3.521    0.716
       134 -10.7360    179.7746    133.1014   5.1263181105e+01   1.9672968142e+01    0.3401902    0.1995604 -51.57  0.001413829    1.909    0.476
       135 -10.9970    113.3778    133.2638   6.6303968522e+01   3.2159698702e+01     0.420926    0.2830452  80.95  0.001739386    2.243    0.554
       136 -11.6712    132.3643    130.8489   6.0886467443e+01   2.9069114901e+01    0.6383207    0.3352965 -62.50  0.002387356    2.640    0.621
       137 -11.2937     83.5210    131.4308   7.4633308298e+01   3.7966677450e+01    0.5579584    0.3679145  88.77  0.001937155    1.925    0.480
       138  -9.8669     83.6741    123.1474   7.2938933490e+01   4.0045856856e+01    0.4987534    0.1845902 -44.01  0.001489742    3.688    0.729
       139 -11.3450    143.3069    130.6431   5.8245133031e+01   2.6990841018e+01    0.5101321    0.2499396 -50.16  0.002066718    2.093    0.522
       140 -10.8572     38.9285    135.0322   8.9973756227e+01   4.3405810546e+01    0.4105026    0.1961867 -85.23   0.00159482    2.221    0.550
       141 -10.2103    192.5691    129.7259   4.8269858354e+01   1.7978105701e+01    0.2624316    0.1179753 -34.57  0.001139106    2.086    0.521
       142 -11.1678    168.7836    128.9895   5.2453571245e+01   2.2433707328e+01    0.4360885    0.2757558 -57.82   0.00187904    1.948    0.487
       143 -11.0425    153.0219    128.1453   5.5516352706e+01   2.5609967545e+01    0.5942044    0.2426392 -51.45  0.002136003    2.776    0.640
       144 -10.3456     73.1584    128.4899   7.7395756106e+01   4.0429225568e+01    0.5065626    0.2686828 -81.69  0.001795258    2.561    0.610
       145 -10.9797     12.7319    126.2954   9.8420290531e+01   4.8296306913e+01    0.9788911    0.2920523 -82.08  0.003353067    3.104    0.678
       146 -10.9341    162.8588    135.5219   5.5077077961e+01   2.2320875735e+01    0.2960402    0.1817854 -57.45  0.001341458    2.010    0.502
       147 -11.8905     99.3240    125.8394   6.8690459351e+01   3.6547715441e+01    0.8617579     0.423743 -62.80  0.003218864    2.313    0.568
       148 -11.5823    118.3451    124.8605   6.3125475476e+01   3.3133829512e+01    0.6378593    0.4280527  88.41  0.002307327    2.357    0.576
       149 -11.0097     59.2479    123.4527   8.1216169025e+01   4.3890884172e+01    0.6907346    0.3382634  80.22  0.002170176    3.587    0.721
       150 -11.0568    180.2265    123.4198   4.9043019288e+01   2.1290935788e+01    0.4703271    0.1867727 -36.79  0.001845927    2.406    0.584
       151 -11.6818     43.2872    120.5085   8.6501399354e+01   4.6837405117e+01     1.165961    0.4822675  86.59  0.003442291    4.042    0.753
       152 -11.3592     28.1024    121.3594   9.2281030912e+01   4.8294300890e+01    0.9099612    0.3304148  69.47  0.002670267    4.196    0.762
       153  -9.7374    188.5967    122.8150   4.7431660039e+01   1.9848771864e+01    0.2003826    0.1144868 -46.37 0.0008692659    1.712    0.416
       154 -10.2292    194.8744    121.7428   4.6139795604e+01   1.8891622262e+01    0.2630236    0.1583852 -56.60  0.001233005    2.149    0.535
       155 -10.0245    172.8564    121.1425   4.9889491520e+01   2.3096465556e+01    0.2177117    0.1883224 -62.68 0.0008905117    1.278    0.218
       156 -11.3751    141.8810    118.5526   5.5775129372e+01   2.9775920446e+01    0.6902131    0.3380095 -57.90   0.00250807    2.660    0.624
       157 -10.8977    130.8930    118.0485   5.8290701442e+01   3.2132124818e+01    0.4542518    0.2948181 -76.71  0.001800572    2.404    0.584
       158 -11.2936    109.5077    113.9562   6.2996473376e+01   3.7421796883e+01    0.9942343    0.3951427 -61.31  0.002915791    3.717    0.731
       159 -11.0242      2.7716    114.5895   1.0139005019e+02   5.2165399684e+01    0.9345167    0.2687295  88.93  0.003078512    3.385    0.705
       160 -10.5071    158.7034    120.8645   5.2633256582e+01   2.5918425827e+01     0.411354    0.1909624 -54.49  0.001511768    2.723    0.633
       161 -10.1466    185.9983    115.2160   4.6151484270e+01   2.1629280738e+01    0.2094643    0.1404376 -53.59  0.001050241    1.616    0.381
       162 -10.6465    122.1840    111.7061   5.8959139353e+01   3.5333971807e+01    0.5185372    0.2019489 -49.07  0.001776715    2.546    0.607
       163 -10.9136     92.4493    110.2466   6.7236611026e+01   4.1691687778e+01    0.9723776    0.3506738 -58.43  0.003048768    3.032    0.670
       164  -9.4231    159.4687    111.9573   5.0339523765e+01   2.7481526535e+01    0.2076558    0.1188963 -61.48 0.0006019545    2.436    0.590
       165 -11.5468     14.4981    108.4167   9.6245784386e+01   5.3076866449e+01    0.7010654    0.3370021 -70.14  0.003038293    1.858    0.462
       166  -9.5447    174.6652    110.5639   4.7061017113e+01   2.4655298235e+01    0.2690358    0.1217977 -40.26  0.001098804    2.018    0.504
       167 -11.1549     66.3813    109.0625   7.5879776416e+01   4.6650391279e+01     0.712828    0.3288933 -69.75  0.002537512    2.439    0.590
       168 -10.6001     71.0803    118.9446   7.6263799964e+01   4.3265681466e+01    0.4790827    0.2734662 -80.86  0.001858427    2.189    0.543
       169 -10.2499     59.3893    108.3061   7.8314822560e+01   4.7953727658e+01    0.3076635     0.135444 -59.90  0.001139609    2.141    0.533
       170 -10.8602     78.8712    111.5422   7.2018260003e+01   4.3875493105e+01    0.7175508    0.3952447 -83.52  0.002442289    2.934    0.659
       171 -11.8748     45.5341    101.9416   8.2491455675e+01   5.1664209192e+01    0.9496343    0.4469648  69.36   0.00301648    3.475    0.712
       172 -11.0112     44.2272     92.3186   8.1088832593e+01   5.4480763772e+01    0.4537355    0.3060199 -22.26  0.001383745    2.133    0.531
       173 -12.6172     22.1955     98.9936   9.1909665911e+01   5.5067921196e+01     1.388386    0.5545142 -87.15  0.004905031    2.757    0.637
       174 -10.0930    150.3152    102.8807   4.9962399376e+01   3.1183676059e+01    0.3099551    0.1227778 -48.16  0.001079246    2.546    0.607
       175 -11.0880      6.4433    101.7723   9.9019949416e+01   5.5470073267e+01    0.3558468    0.1986902  89.37  0.001609015    1.613    0.380
       176 -10.5288    128.7386    101.1552   5.4520162185e+01   3.6252266191e+01    0.4942658     0.208175 -48.95  0.001746184    2.361    0.576
       177 -10.6040    108.7983     98.3272   5.9144527417e+01   4.1225324760e+01    0.6320282    0.4026703  81.20  0.002283789    2.572    0.611
       178  -9.9707    107.3976     92.7629   5.7986224690e+01   4.2811935140e+01    0.3422332    0.2088913 -33.36  0.001339533    2.088    0.521
       179 -10.1449     81.9233     98.6039   6.7815959088e+01   4.6635423759e+01    0.6579055    0.2692607 -61.86  0.002133497    2.811    0.644
       180 -12.1912    242.3564     96.8043   3.4273974870e+01   1.4517720199e+01    0.3766344     0.163229 -47.14  0.001820379    2.255    0.557
       181 -11.0755     63.3108     94.6133   7.3707034302e+01   5.0998271965e+01    0.7511233    0.4167252 -85.73   0.00262287    2.773    0.639
       182 -10.2723     57.9907     92.0018   7.5198308359e+01   5.2556771841e+01    0.2296126    0.2113357  84.99            0    1.028    0.027
       183 -10.3541     64.8368     86.8806   7.1078555216e+01   5.2768096038e+01      0.32809    0.2353172 -28.56  0.000897833    1.873    0.466
       184  -9.0496    164.7448     93.0004   4.4462742923e+01   2.9921713322e+01     0.204225    0.1182763 -39.63 0.0008979008    1.597    0.374
       185 -10.8732      8.6750     80.3667   9.5847369787e+01   6.1259151666e+01    0.4288178    0.2162815  72.69  0.001813228    2.117    0.528
       186 -11.5044      4.4805     89.5399   9.8856679390e+01   5.8965097449e+01     0.622642     0.285918 -86.84  0.002639716    1.978    0.494
       187 -11.2762      7.6756     84.6483   9.6842325549e+01   6.0136973098e+01     0.324568    0.2574053 -48.13  0.001110112    1.318    0.242
       188  -8.8975    139.0096     91.5260   4.9391202644e+01   3.5966899613e+01    0.2117044     0.134691  80.66 0.0005796825    2.414    0.586
       189 -10.5760    124.4247     89.8905   5.2460012721e+01   3.9634933580e+01    0.5291185     0.244966 -54.72  0.001845919    2.464    0.594
       190 -10.9233     35.1175     86.5144   8.3959907879e+01   5.7212302653e+01      1.07937    0.3177693 -62.48  0.003569908    2.851    0.649
       191 -10.4445     86.3430     86.2328   6.2810262767e+01   4.8837172163e+01    0.4310694    0.3016773  86.79  0.001789357    1.914    0.478
       192 -10.2168     86.2853     80.8627   6.1182914240e+01   5.0140946038e+01    0.3949325    0.3026472  -2.80  0.001687953    2.045    0.511
       193  -9.8862    139.8748    104.1376   5.2622520556e+01   3.3191694755e+01    0.3408492    0.2124526 -62.29  0.001341386    1.950    0.487
       194 -11.2721     47.9286     83.3441   7.7356423733e+01   5.6400844415e+01    0.6478239    0.3754148 -89.12  0.002489068    2.332    0.571
       195 -10.6251     49.2163     77.1826   7.5132418972e+01   5.7847552145e+01     0.406496    0.2835088   2.79  0.001763777    2.076    0.518
       196 -10.4088     94.9713     96.5152   6.2876435805e+01   4.4566799435e+01    0.4058796    0.2231176 -62.47  0.001470343    2.058    0.514
       197 -10.0594    231.6544     82.9745   3.2416643876e+01   1.8200466918e+01    0.2231588    0.0554718 -46.60 0.0007049438    4.407    0.773
       198  -8.8997    116.5798     83.4682   5.2612970672e+01   4.2813155679e+01    0.1564118    0.1490855 -68.43 6.526226e-05    1.038    0.036
       199 -11.4565     23.9700     79.4817   8.7961200513e+01   6.0324389399e+01    0.5424917    0.2792049 -82.74  0.001824791    2.002    0.501
       200 -11.8114     26.0178     72.7592   8.5534131013e+01   6.1961699871e+01     1.150753    0.4648063 -30.19   0.00308574    5.720    0.825
       201  -9.9822     74.6475     80.1010   6.5223333623e+01   5.2680533305e+01    0.3531725     0.191919 -65.02  0.001315962    2.138    0.532
       202 -10.6433    104.2571     81.1828   5.5430322865e+01   4.6136853171e+01     0.717196    0.2733635 -48.96  0.002360547    2.610    0.617
       203 -10.8445     62.3430     70.4701   6.7169522506e+01   5.7380499865e+01     1.057925    0.1324476 -50.40  0.002214192    6.788    0.853
       204  -9.8793    127.9235     73.1604   4.6470344360e+01   4.2245904101e+01    0.6446219    0.2235521 -37.13  0.002004938    3.084    0.676
       205 -10.8438     10.8732     74.4565   9.3910961094e+01   6.2746703275e+01    0.4167779    0.2421301  13.79  0.001479518    1.945    0.486
       206 -10.4582     82.3925     72.0629   5.9691459645e+01   5.3033454993e+01     0.485828    0.2662728 -64.87  0.001353055    2.365    0.577
       207 -10.6980     82.6544     65.7664   5.7376163526e+01   5.4414314434e+01    0.4628106    0.2987738 -16.47   0.00163137    3.066    0.674
       208 -10.1237     94.9613     69.6173   5.4503380294e+01   5.0811564209e+01    0.7151512    0.2036069 -50.24  0.001952217    3.864    0.741
       209 -10.0610     42.6242     70.8592   7.6503748234e+01   6.0467642039e+01    0.4780296    0.1544422 -57.01  0.001601767    2.730    0.634
       210 -10.8674     51.0814     68.0711   7.1523953555e+01   5.9912462352e+01    0.7601513    0.2919379 -67.65  0.002238224    3.799    0.737
       211 -10.7225      5.8587     69.5487   9.5955977879e+01   6.4381218071e+01    0.4276515    0.1468832 -67.05  0.001648581    2.368    0.578
       212 -10.3553      9.7805     64.4868   9.2946957233e+01   6.5527452600e+01    0.4086829    0.1838154 -57.63  0.001754801    1.944    0.486
       213 -10.7772     16.3627     69.0457   9.0010742944e+01   6.3832221611e+01     0.441626    0.2267973 -78.72  0.001911396    1.861    0.463
       214 -10.7455     17.9466     62.8504   8.7835575378e+01   6.5373593444e+01    0.4230885    0.2062553 -56.71  0.001350534    1.822    0.451
       215 -10.8500     37.7812     61.4508   7.6183938866e+01   6.3572146083e+01    0.7462271    0.2596851 -53.31  0.002637953    2.583    0.613
       216  -9.8367    109.9005     61.1899   4.7018404012e+01   4.9003606291e+01    0.5528876     0.211891 -32.69  0.001648027    3.527    0.716
       217 -10.8174     73.4699     56.4340   5.7339687485e+01   5.8459849786e+01     1.020535    0.2962775 -43.59  0.002983758    3.592    0.722
       218 -10.5571     25.1339     56.8068   8.2017580069e+01   6.6291108426e+01    0.4401708    0.1975993 -54.07   0.00181519    1.998    0.500
       219 -11.8681      7.7422     53.6691   9.2221117547e+01   6.8534141543e+01     1.006302    0.2221898 -63.85  0.003400075    3.175    0.685
       220  -9.4141    100.4267     54.7433   4.7309775925e+01   5.2582233090e+01    0.2168507    0.1516881 -28.83 0.0009473926    1.674    0.403
       221  -9.7267     63.8612     47.3480   5.7593899078e+01   6.2424627589e+01    0.4231736    0.2761091  -7.33  0.001526246    3.213    0.689
       222  -9.9877     62.5893     53.3694   6.0735487550e+01   6.1370955916e+01    0.4935469    0.1389808 -47.99  0.001471202    3.474    0.712
       223  -9.9371     21.7130     47.8531   8.1448458659e+01   6.8933761543e+01    0.5328926    0.2566184 -25.29  0.001906569    3.399    0.706
       224  -9.9297     92.1357     49.1521   4.7624562785e+01   5.5673439648e+01    0.5243621    0.1807932 -47.77  0.001637216    3.122    0.680
       225 -10.4617     53.8524     50.7603   6.3803544534e+01   6.3616874710e+01    0.8525827    0.2134665 -53.02  0.002369138    4.192    0.761
       226 -10.5869     17.0023     41.6176   8.2648582885e+01   7.0946223089e+01    0.6416482    0.1341196 -54.04  0.002075151    3.495    0.714
       227 -10.5660     30.8888     50.6264   7.6537751176e+01   6.7200848568e+01     0.351582    0.1920077 -67.47  0.001375978    1.886    0.470
       228  -9.9467     58.0161     42.0236   5.7873990671e+01   6.4723125299e+01    0.3451889    0.2046774 -68.61  0.001319983    2.644    0.622
       229 -10.3438      4.1332    248.4308   1.0517815479e+02   2.1351021366e+01     0.197816    0.1540361  62.97  0.001012703    1.223    0.182
       230 -11.6608     45.1300     49.7689   6.7947178985e+01   6.5351812692e+01    0.5843682    0.2742846 -45.96 0.0006220003    2.133    0.531
       231  -9.0514    123.6639     40.6581   3.6034651394e+01   4.9095595446e+01    0.1549528    0.1177663  28.02 -0.0002126331    1.762    0.433
       232  -9.5569     84.0423     39.9759   4.6305247881e+01   5.9322855222e+01    0.2423537    0.1869144  20.20   0.00108413    1.729    0.422
       233  -9.1839    106.3241     37.3235   3.8633238018e+01   5.4152598838e+01    0.1536315    0.1180222  27.70 0.0003679039    1.685    0.406
       234 -10.5350     27.6232     29.0751   6.9451630646e+01   7.2674036078e+01    0.6082758    0.1712398 -42.68  0.001848868    4.244    0.764
       235 -10.0992     37.1097     38.3084   6.7617529241e+01   6.9249678618e+01    0.5598376    0.1966453 -45.87  0.001988767    2.829    0.646
       236  -9.6535     60.3353     31.8471   5.1661019467e+01   6.6226647966e+01    0.2926082    0.1246536 -47.88  0.001081002    2.534    0.605
       237  -9.4312    113.8880     41.4668   3.8500436500e+01   5.1522265968e+01    0.2273375    0.2104481  17.78 0.0002968718    1.295    0.228
       238  -9.5147     51.5083     26.9709   5.3275814409e+01   6.8959715551e+01    0.2044314    0.1246845 -16.74 0.0008102587    2.635    0.620
       239 -10.2025      3.1875     25.8546   8.8585129622e+01   7.5811775282e+01    0.5341063     0.140674 -56.17  0.002048925    2.771    0.639
       240  -9.1136     44.2716     25.5440   5.6433147843e+01   7.0643805520e+01    0.1887506    0.1311546  31.51 0.0009330629    1.554    0.356
       241  -8.7414    110.5120     24.5083   3.2201399133e+01   5.4904401353e+01    0.1483539      0.13793 -87.56 0.0008104182    1.022    0.021
       242 -10.0325     12.9833     21.6105   7.7615953080e+01   7.6055223998e+01     0.281616    0.1858238 -72.27 0.0009523183    1.714    0.417
       243  -8.9811     40.8674     21.1934   5.5792314926e+01   7.2080767779e+01    0.1846328    0.1548152   7.13 0.0003269769    1.320    0.242
       244  -9.7161     49.8969     16.3753   4.7530404226e+01   7.1070714162e+01    0.2759328    0.1791682  11.26  0.001198603    2.409    0.585
