#   1 NUMBER                 Running object number                                     
#   2 MAG_AUTO               Kron-like elliptical aperture magnitude                    [mag]
#   3 X_IMAGE                Object position along x                                    [pixel]
#   4 Y_IMAGE                Object position along y                                    [pixel]
#   5 X_WORLD                Barycenter position along world x axis                     [deg]
#   6 Y_WORLD                Barycenter position along world y axis                     [deg]
#   7 A_WORLD                Profile RMS along major axis (world units)                 [deg]
#   8 B_WORLD                Profile RMS along minor axis (world units)                 [deg]
#   9 THETA_WORLD            Position angle (CCW/world-x)                               [deg]
#  10 FWHM_WORLD             FWHM assuming a gaussian core                              [deg]
#  11 ELONGATION             A_IMAGE/B_IMAGE                                           
#  12 ELLIPTICITY            1 - B_IMAGE/A_IMAGE                                       
         1 -16.7561      8.2374    111.7482   1.3115837820e+02   5.1950669285e+01     3.317639     1.919511 -62.06   0.01530458    1.365    0.267
         2 -17.1774     22.8430    164.7584   1.3462323019e+02   3.8059560072e+01     3.866745     1.980835 -59.73   0.01941557    1.642    0.391
         3 -16.5177    152.6738     54.7726   7.3417713119e+01   3.9737162117e+01      2.69155     1.790275  -6.61   0.01229631    2.466    0.594
         4 -14.9411    163.4521     23.6825   6.3433162498e+01   4.1177806777e+01     1.204536    0.5258919 -48.73  0.005498798    2.588    0.614
         5 -15.6156    182.9955     24.3024   6.0942252179e+01   3.6650290559e+01     2.436673     1.511295 -55.12   0.01373136    1.643    0.391
         6 -14.3142    109.8590     30.1837   7.5262222440e+01   5.2432260899e+01    0.9946089    0.7211436  71.89  0.005452471    1.597    0.374
         7 -14.6298      5.5353      7.7616   1.0326513644e+02   7.1189128937e+01     1.118117    0.5458179 -23.46  0.007120982    1.782    0.439
         8 -14.2929    140.9037     13.9443   6.4324413913e+01   4.7282970744e+01      0.89037    0.4874786 -88.42   0.00412672    2.614    0.617
         9 -14.3055    181.0838      7.5662   5.7338169902e+01   3.8847589271e+01    0.8488443    0.6140549  77.85  0.004564105    1.128    0.114
        10 -12.0532    108.4380      5.6696   6.7736574664e+01   5.5060655674e+01    0.3893049    0.1376903  50.42  0.001823428    2.174    0.540
        11 -14.0354    109.4856    220.0501   1.2142302524e+02   1.2758773080e+01    0.7054256     0.657685 -37.58  0.002502209    1.248    0.199
        12 -15.8945     40.6552    244.9126   1.3878779949e+02   1.7375160893e+01     1.085472    0.7078998 -84.38  0.004124595    1.377    0.274
        13 -14.1517     45.5995    232.2804   1.3670749921e+02   1.9475488682e+01    0.6096764    0.3583701 -79.37  0.002331272    1.575    0.365
        14 -11.1520     89.5257    196.6553   1.2255966748e+02   2.1509613301e+01     0.289285    0.1759922  41.23  0.001341825    1.629    0.386
        15 -12.2771    103.8306    195.5553   1.1892047643e+02   1.9412456272e+01    0.4631055    0.3982506 -50.13  0.002473904    1.227    0.185
        16 -15.5237    127.9362    180.2937   1.1026175359e+02   1.8766160671e+01     2.560365     1.305429  51.97  0.007569276    2.231    0.552
        17 -15.7694    133.1780    160.2201   1.0484597392e+02   2.2588225435e+01     2.056427     1.813455 -62.31  0.007595133    1.125    0.111
        18 -12.8485     88.3233    158.7789   1.1631842484e+02   3.1149870518e+01    0.6123341    0.5171356 -76.88  0.002326233    1.176    0.150
        19 -16.9809      9.4081    185.5025   1.4001506906e+02   3.4264132299e+01     1.623133      1.18623  84.30  0.008036394    1.164    0.141
        20 -15.5010    105.6675    154.5457   1.1078587890e+02   2.9219377585e+01     2.116725     1.831759 -45.07  0.008261536    1.159    0.137
        21 -11.4628     48.4946    143.3623   1.2456387298e+02   4.0672503494e+01    0.3131312    0.2354807 -85.95  0.001270081    1.411    0.291
        22 -16.1036    132.8687    119.8405   9.5452292528e+01   3.2108640671e+01     3.253078     1.579616 -41.53   0.01207402    2.103    0.525
        23 -14.4331    105.9817    125.2934   1.0406304829e+02   3.6264674534e+01     1.465873     1.057413 -32.13  0.006752995    1.536    0.349
        24 -14.0586    117.8196    114.7060   9.8114118045e+01   3.6373647673e+01     1.130719    0.8279456 -61.20  0.005246063    1.506    0.336
        25 -12.8369     75.1068    132.0139   1.1457279082e+02   3.9905868422e+01    0.6906846    0.4742044  -9.97  0.003054019    2.152    0.535
        26 -13.4014     82.7163    125.2452   1.1079503080e+02   4.0353624671e+01    0.5684781    0.4239748 -28.51  0.002647117    1.504    0.335
        27 -11.5583     79.8294    119.8240   1.1038507409e+02   4.2102021456e+01    0.3333617    0.2572863 -88.64  0.001347366    1.705    0.413
        28 -10.7456     43.7352    131.5316   1.2381865446e+02   4.4137515643e+01    0.2286826    0.1417426  18.09  0.001117693    2.007    0.502
        29 -12.6836     90.1742    126.8295   1.0896820570e+02   3.8737346097e+01     0.759924    0.4114147 -43.13  0.003141283    1.837    0.456
        30 -13.3457    208.9968    121.0264   7.9346273416e+01   1.5252978922e+01    0.6654441    0.1809224 -45.83   0.00205146    3.387    0.705
        31 -15.2479      3.9563    174.7416   1.4023620854e+02   3.7285386603e+01     0.728387    0.4368113 -87.59   0.00415641    1.427    0.299
        32 -12.4163     85.2965     98.5106   1.0326342590e+02   4.5999332332e+01    0.5683547    0.3608415  29.65   0.00266193    1.701    0.412
        33 -13.7403     91.6537    111.2625   1.0470181993e+02   4.2102840553e+01    0.7504716    0.4320492 -59.31  0.003144525    1.966    0.491
        34 -13.2374     86.2677    111.2654   1.0632404505e+02   4.3027608859e+01    0.7101862    0.4850708  61.20  0.003205499    1.988    0.497
        35 -11.6850     44.8334    103.8093   1.1772075585e+02   5.0553587617e+01    0.2948632    0.2923874   5.40  0.001606786    1.171    0.146
        36 -13.6787    115.7898     85.9414   9.0819617364e+01   4.2748903668e+01    0.7974774    0.6540899 -72.44  0.004094498    1.512    0.339
        37 -12.8165    104.2515     71.2095   8.9658484560e+01   4.7769884595e+01     1.822816    0.6719755  36.15  0.006082656    3.434    0.709
        38 -14.1951    115.3908     75.0961   8.7771344960e+01   4.4815332223e+01     1.211221    0.7663561  25.62  0.005383115    2.018    0.505
        39 -14.8211    126.8814     63.3092   8.1385989712e+01   4.4303789561e+01     1.483849     0.635282  53.54  0.005936354    2.249    0.555
        40 -15.7023    140.7844     75.1227   8.1523462326e+01   3.9251759906e+01     2.019802     1.164441  56.70  0.009010478    1.728    0.421
        41 -14.3363     60.2511    236.2670   1.3411663244e+02   1.6665534597e+01    0.8654003     0.778043  56.74  0.003997608    1.214    0.176
        42 -14.2935    179.6215     62.8185   7.0686207478e+01   3.2264972644e+01     1.394814    0.5568196 -38.43  0.005574579    2.557    0.609
        43 -13.7247    172.6572     67.3656   7.3019101440e+01   3.3168050659e+01    0.4800871    0.4053916  66.05  0.002551288    1.125    0.111
        44 -16.1052     11.9957    133.7319   1.3341619930e+02   4.6528755989e+01     1.753361     1.304856  10.74   0.01081854    1.712    0.416
        45 -13.7431    133.5139     49.9583   7.5968634821e+01   4.4799381867e+01    0.4753019    0.3734638 -38.00  0.002696207    1.381    0.276
        46 -14.5846    100.2885    224.3932   1.2410815766e+02   1.3301240583e+01     1.586467     1.050614  62.46  0.006068261    1.580    0.367
        47 -11.9726     85.1029    209.1823   1.2544465284e+02   1.9204410853e+01    0.4067676    0.3084293  18.22  0.001998332    1.746    0.427
        48 -14.7549     30.9797    140.9868   1.2914426492e+02   4.3143563238e+01     1.005707    0.7329779 -70.77  0.004057741    1.197    0.164
        49 -13.9000    142.1157     31.9103   6.9099644677e+01   4.5136278036e+01    0.5237991    0.4002228  67.23  0.002716106    1.180    0.152
        50 -13.6534    123.7587     27.0032   7.1223721280e+01   4.9788203195e+01     0.705668     0.345037  57.60  0.003451363    1.758    0.431
        51 -13.1643    183.1514    246.7666   1.0969499619e+02  -4.8607989452e+00    0.5057215    0.2178924  42.25  0.002226218    2.249    0.555
        52 -12.7070    120.2515     18.0194   6.9211275008e+01   5.1464366778e+01    0.3015322    0.2232908   5.24  0.001823193    1.675    0.403
        53 -16.0693      8.5659    154.1300   1.3695791253e+02   4.1874673259e+01     1.324543    0.9684842 -63.27  0.008264129    1.161    0.138
        54 -10.4413      7.6662    245.1773   1.4485875550e+02   2.1092989927e+01    0.1530155    0.0833811 -71.84  0.000547256    1.675    0.403
