#   1 NUMBER                 Running object number                                     
#   2 MAG_AUTO               Kron-like elliptical aperture magnitude                    [mag]
#   3 X_IMAGE                Object position along x                                    [pixel]
#   4 Y_IMAGE                Object position along y                                    [pixel]
#   5 X_WORLD                Barycenter position along world x axis                     [deg]
#   6 Y_WORLD                Barycenter position along world y axis                     [deg]
#   7 A_WORLD                Profile RMS along major axis (world units)                 [deg]
#   8 B_WORLD                Profile RMS along minor axis (world units)                 [deg]
#   9 THETA_WORLD            Position angle (CCW/world-x)                               [deg]
#  10 FWHM_WORLD             FWHM assuming a gaussian core                              [deg]
#  11 ELONGATION             A_IMAGE/B_IMAGE                                           
#  12 ELLIPTICITY            1 - B_IMAGE/A_IMAGE                                       
         1 -14.3978     68.5318    144.3733   9.9594054907e+01   3.7409606452e+01     4.445284     2.362636  74.17   0.01412589    4.023    0.751
         2 -11.6921      1.9435     51.3690   1.0421692277e+02   6.5903898242e+01     1.249932    0.1193115 -61.97  0.003349668    7.000    0.857
         3 -12.9000      2.3653     26.0095   9.5970930716e+01   7.0784871184e+01     1.202195    0.4872042 -45.25  0.006110792    1.858    0.462
         4 -12.2996      2.3783      8.1115   8.8231261545e+01   7.3730599951e+01     1.059849    0.4169412 -41.62  0.005803001    2.098    0.523
         5 -13.4682    201.6796     41.5057   4.0260603470e+01   2.9856152182e+01     1.171067     1.129952  -7.58  0.004879863    1.294    0.227
         6 -13.5593    212.6327     31.1174   3.6560660246e+01   2.8692755736e+01    0.9282361     0.827912  22.89   0.00236692    1.557    0.358
         7 -12.2141    241.2197      6.2337   2.8916929030e+01   2.5465070859e+01    0.6184978    0.4658848 -40.12  0.004323078    1.412    0.292
         8 -11.9613    234.6625      5.6949   2.9244794235e+01   2.6856402361e+01    0.5786201    0.3247545 -38.83  0.003492627    1.696    0.410
         9  -9.0361     59.4576      7.4846   5.8889992697e+01   6.6208697533e+01    0.1244399    0.1002576  22.02 9.519691e-05    1.026    0.026
        10  -9.1660    194.6391    209.6731   8.0224940100e+01   1.1012098405e+00    0.1470865   0.09635216  -0.60 0.0007041752    1.790    0.441
        11  -9.9733    140.1223    249.6753   9.8110084627e+01   2.7466544396e+00    0.2031287    0.1847861 -89.15  0.001348163    1.401    0.286
        12 -10.8085    101.9949    248.4245   1.0592991529e+02   8.6377006100e+00    0.5338827    0.2231635 -67.78  0.002306847    3.311    0.698
        13 -13.3750     52.4381    187.2442   1.1027865675e+02   2.8700524556e+01     1.523746     1.045769  73.88  0.008113933    1.473    0.321
        14 -15.4349      6.4423    170.8128   1.1996888481e+02   3.7259449213e+01     8.390114     1.007878 -73.96   0.02350933    5.759    0.826
        15  -8.7779     82.4926    194.9349   1.0380265237e+02   2.2798619558e+01     0.208315    0.1348983 -65.17 0.0008626886    1.560    0.359
        16 -15.1055     41.0222    195.8346   1.1394162063e+02   2.7990603129e+01     7.033797     2.303688  61.62     0.019448    6.214    0.839
        17 -10.2335    121.4577    197.4753   9.4607697031e+01   1.5991335200e+01    0.4360853    0.2561383 -70.42  0.001676383    2.333    0.571
        18  -9.1256    147.3697    186.8536   8.6459346950e+01   1.3746328214e+01    0.2644655    0.1848846 -39.23  0.001257387    1.492    0.330
        19  -9.3867     79.8154    182.6680   1.0273697204e+02   2.6130744134e+01    0.2941591    0.1790642  83.01  0.001241764    2.237    0.553
        20  -9.6118     99.4058    180.6636   9.7347362275e+01   2.3573724270e+01    0.2549455    0.2467098  -9.96 0.0005827523    1.133    0.117
        21  -8.2572     88.6785    179.2698   9.9913704938e+01   2.5620652079e+01    0.1490738    0.1061177  65.01 0.0003690482    1.567    0.362
        22 -12.5703     80.2474    159.3008   9.8869915848e+01   3.1890882202e+01      1.42574    0.7141541  58.80  0.005101442    2.908    0.656
        23 -12.8579     68.4594    154.5428   1.0140034706e+02   3.4809683151e+01    0.6466517     0.444825 -52.16  0.001042121    1.404    0.288
        24 -14.8536      9.4068    207.5541   1.2185259993e+02   2.8511449392e+01     1.333336      1.11961 -17.31  0.006530477    1.826    0.452
        25  -9.8244    187.3095    175.6789   7.5112694133e+01   8.6941415493e+00    0.3338262    0.2714177 -39.76  0.001070925    1.233    0.189
        26  -8.5250    147.9727    174.2490   8.3839080897e+01   1.6393008997e+01    0.1923376    0.1270595  38.26 0.0002215664    1.482    0.325
        27 -10.4544    115.3210    173.1642   9.1875485946e+01   2.2662643658e+01    0.3236452    0.2187222  46.13  0.001479193    1.483    0.326
        28  -9.4220     34.9649    171.8805   1.1295408959e+02   3.4442947684e+01    0.2035059    0.1737362 -86.68 0.0004266595    1.013    0.013
        29  -8.3340    193.4675    170.5101   7.2718598041e+01   8.5758571306e+00     0.147003    0.1339125 -11.74 0.0001087494    1.015    0.015
        30 -11.6828     67.4619    172.4442   1.0448335605e+02   3.0409053738e+01    0.7263921    0.3397738 -42.79  0.002777805    2.752    0.637
        31 -10.1371    240.6323    169.1841   6.3476570550e+01   7.2002557107e-01    0.1744133    0.1579909 -14.30 0.0005374172    1.145    0.127
        32 -11.2894     71.8083    167.9323   1.0263190671e+02   3.0939069032e+01    0.4109125    0.2854769 -54.32 0.0009305223    1.412    0.292
        33  -8.9051    110.8192    167.7955   9.2046903842e+01   2.4748969734e+01    0.2111018    0.1764979  69.87 0.0004682443    1.330    0.248
        34  -8.2821    120.4756    165.5729   8.9055945314e+01   2.3548295694e+01     0.151774    0.1483173  51.52 0.0002497725    1.024    0.024
        35 -10.1598     32.8719    156.1087   1.1167822713e+02   3.8605781066e+01    0.4018756    0.2451228  21.12  0.001310662    1.978    0.494
        36 -11.6296     87.6368    152.7688   9.5577370464e+01   3.2399305614e+01    0.6710947    0.4746286 -16.75  0.002208964    2.006    0.502
        37 -10.5354    133.7343    144.7714   8.1065289361e+01   2.5950329915e+01     1.166691    0.3393195 -54.99  0.002811196    5.091    0.804
        38  -8.8844    111.6492    149.8459   8.8192224680e+01   2.8990933229e+01    0.3105103    0.1947416  61.54  0.001179905    2.162    0.537
        39 -10.8828     53.9245    146.4857   1.0429775547e+02   3.8767346350e+01    0.6674077    0.4224368 -62.56  0.003247575    1.421    0.296
        40  -9.1848    174.5100    149.0457   7.2090022739e+01   1.6639720773e+01    0.2362726    0.1479307 -44.29 0.0005461141    1.560    0.359
        41  -9.4087     30.4719    143.9987   1.1080904711e+02   4.1909000328e+01    0.4776875     0.288175  -7.50  0.002211991    2.555    0.609
        42  -9.6793    100.6703    139.6864   8.9107855518e+01   3.3495041973e+01    0.3243995    0.2866344  21.95 0.0008706138    1.203    0.169
        43  -9.2625    103.6569    136.6457   8.7554855902e+01   3.3714110998e+01    0.3253414    0.2344597 -15.95 0.0008266831    1.871    0.466
        44 -11.5604     88.9907    138.2320   9.2243709237e+01   3.5863232241e+01    0.3089743    0.2688801 -37.60 0.0003851533    1.167    0.143
        45  -9.9507     26.1641    137.8092   1.1124650470e+02   4.3868011827e+01    0.3215038    0.2009097  38.00  0.001252184    1.760    0.432
        46  -9.9742    105.9531    130.9121   8.5549555219e+01   3.4704290161e+01      0.41191    0.3210214 -55.53  0.001471964    1.279    0.218
        47  -9.6316    111.2865    129.4513   8.3642751929e+01   3.4050853750e+01    0.3716949    0.2660085   6.20 0.0009642155    1.933    0.483
        48 -10.1519    135.5159    128.9346   7.6781393143e+01   2.9276739754e+01    0.4102174    0.2279833 -43.66   0.00160668    1.776    0.437
        49 -10.3038     98.1846    125.3975   8.6549363129e+01   3.7481239905e+01    0.3167044    0.2706968  -0.48 0.0006836334    1.323    0.244
        50 -10.1482    116.9672    123.9914   8.0652573045e+01   3.4246705835e+01    0.2634102    0.1973053 -11.44  0.001134433    1.736    0.424
        51  -8.5537    163.4829    121.4619   6.7923718884e+01   2.4859503466e+01    0.1563447    0.1521979 -41.25 6.964288e-05    1.027    0.027
        52  -8.8282     85.4626    119.6709   8.9122712415e+01   4.1096330593e+01    0.3133242    0.1735749  48.44 0.0009447006    2.104    0.525
        53  -9.1226    107.5022    118.5972   8.2045491211e+01   3.7389534324e+01    0.2530521    0.2261498  22.41  0.001271222    1.162    0.139
        54  -9.4327     32.5195    118.9720   1.0638969829e+02   4.8086701526e+01    0.2087647   0.07994123 -46.70 0.0008089208    2.437    0.590
        55  -9.8595    231.2220    113.7105   5.3112334809e+01   1.2032703638e+01    0.2574742    0.2501829 -53.42 0.0007865993    1.121    0.108
        56 -10.0684     44.1447    129.8478   1.0450572864e+02   4.4164041080e+01    0.2197336    0.1865984  84.94  0.001237186    1.237    0.192
        57  -9.3698    205.3539    110.2503   5.6581324239e+01   1.7904786022e+01    0.2877827    0.2081774  44.56  0.001014278    1.516    0.341
        58  -9.7299    115.1135    109.0102   7.7246101667e+01   3.8109996186e+01    0.3817864    0.1758424 -40.23   0.00135189    2.244    0.554
        59 -10.3829     33.8876    108.7422   1.0406912628e+02   5.0525561927e+01    0.3819215    0.1981332 -74.01   0.00166277    2.088    0.521
        60 -11.4046    246.6987    107.6165   4.9531123818e+01   1.0164040304e+01    0.4489802    0.2759172 -63.37  0.002183532    2.084    0.520
        61  -9.0840     41.9868     98.9502   9.9129037913e+01   5.2134188967e+01    0.2176002    0.1670732  72.18  0.001133756    1.732    0.423
        62 -13.8319     19.8116    220.7465   1.2054910377e+02   2.4644635091e+01    0.8629054    0.6967121  59.96  0.002170906    1.132    0.116
        63  -8.0674    137.6931    104.3022   6.9687827234e+01   3.4288624148e+01    0.1573689    0.1276872 -85.86 0.0004626853    1.600    0.375
        64  -8.9478     52.5479     90.5323   9.3148287925e+01   5.2931148522e+01    0.1433245    0.1256234 -35.76 5.971322e-05    1.008    0.008
        65 -16.9782     15.7019    242.7914   1.2261798610e+02   2.0530151075e+01     5.842004     2.140072  26.15   0.02649246    3.678    0.728
        66  -8.6788     75.2525     85.2045   8.3285331424e+01   5.0876925292e+01    0.1899445    0.1760892  86.26 0.0006148478    1.352    0.260
        67  -8.9996    150.9807     82.9677   6.0332567214e+01   3.5472909529e+01    0.2311163     0.219381 -79.68 0.0005063327    1.096    0.088
        68  -9.3979    159.0204     82.5274   5.8413810910e+01   3.3639241896e+01    0.2507935    0.2021187 -38.47 0.0008842413    1.244    0.196
        69  -8.7384    110.0227     80.0425   7.0215104905e+01   4.5367084016e+01    0.2295783    0.1908523  85.66 0.0006047761    1.619    0.382
        70  -8.0473     58.2928     67.2757   8.4022055067e+01   5.7267223861e+01    0.1398937   0.09815995 -14.02 0.0001932656    1.523    0.343
        71 -10.4138    119.8247    244.9811   1.0178002983e+02   6.6360089656e+00    0.2725988    0.1850584 -58.56 0.0008980949    1.747    0.428
        72  -8.5132    168.8980    235.1965   8.9970775337e+01   7.8820682198e-01     0.175609    0.1380236  -4.04 0.0005367563    1.306    0.234
        73 -10.1029    193.2161    205.3981   7.9728918017e+01   2.0834099913e+00    0.1907341    0.1226748  42.35 0.0006250689    1.666    0.400
        74 -10.7525     13.3642     59.8672   1.0114898376e+02   6.3478054171e+01    0.2494677    0.2072125 -42.86 0.0004480484    1.092    0.084
        75 -10.4596    111.1807    203.6429   9.8067225164e+01   1.6336252834e+01    0.3065648    0.2278853  65.89  0.001245662    1.525    0.344
        76  -8.5945     37.4891     56.9528   8.9335928126e+01   6.1978878592e+01    0.1896595    0.1143896 -45.10 -5.689491e-05    1.475    0.322
        77 -10.7643    184.0178    212.2971   8.2922098185e+01   2.3589839656e+00    0.4758855    0.1861415 -42.63  0.001914982    2.652    0.623
        78  -9.1937    197.9345     23.6474   3.6354872200e+01   3.2932378179e+01    0.2023947     0.177602 -22.95 0.0006804164    1.405    0.288
        79  -8.8294    189.4103     15.2112   3.5208269921e+01   3.5847399910e+01    0.1733353    0.1054368 -47.11 0.0006633885    1.603    0.376
        80 -12.9646    191.7369     48.7572   4.3383249425e+01   3.1193962658e+01     1.070106     0.770164  34.55  0.001251915    1.845    0.458
        81  -9.3039     89.2250    211.2356   1.0434458487e+02   1.8078815483e+01    0.2353431    0.1859944 -78.99 0.0004834696    1.328    0.247
        82 -10.9712    192.2592    193.5300   7.7664053297e+01   4.3982225879e+00    0.7318625    0.4028983 -63.08  0.002414729    4.596    0.782
