#   1 NUMBER                 Running object number                                     
#   2 MAG_AUTO               Kron-like elliptical aperture magnitude                    [mag]
#   3 X_IMAGE                Object position along x                                    [pixel]
#   4 Y_IMAGE                Object position along y                                    [pixel]
#   5 X_WORLD                Barycenter position along world x axis                     [deg]
#   6 Y_WORLD                Barycenter position along world y axis                     [deg]
#   7 A_WORLD                Profile RMS along major axis (world units)                 [deg]
#   8 B_WORLD                Profile RMS along minor axis (world units)                 [deg]
#   9 THETA_WORLD            Position angle (CCW/world-x)                               [deg]
#  10 FWHM_WORLD             FWHM assuming a gaussian core                              [deg]
#  11 ELONGATION             A_IMAGE/B_IMAGE                                           
#  12 ELLIPTICITY            1 - B_IMAGE/A_IMAGE                                       
         1 -12.1707    226.4496     95.9560   2.8981248910e+02   5.2975312463e+00   0.07910562   0.05653013  31.34  0.008524038    1.355    0.262
         2 -10.2997    206.5313     37.3670   2.8968906871e+02   6.0908136944e+00   0.03815159   0.02099059 -51.16   0.00346347    1.811    0.448
         3 -11.1154    197.9157     38.2999   2.8979640734e+02   6.1330693850e+00   0.05160616   0.03065467 -86.18  0.004543876    2.445    0.591
         4 -13.4785    168.6166     11.6231   2.8997899823e+02   6.6183290035e+00   0.08658697   0.07423165  51.42  0.008875971    1.205    0.170
         5 -11.0475    186.8918      2.2111   2.8970561554e+02   6.6137888664e+00   0.04247506   0.01584976  21.02  0.003010437    3.294    0.696
         6  -8.6346    188.1491     16.6344   2.8977907556e+02   6.4410393040e+00   0.01599067  0.009425472 -49.45 0.0009431145    1.710    0.415
         7 -11.8850    199.6723      7.0461   2.8958438725e+02   6.4799345544e+00   0.05367476   0.04153961  45.53  0.005031849    1.311    0.237
         8  -7.7932    111.8787     10.9124   2.9064510066e+02   6.9742550250e+00   0.01036657   0.00867826 -19.99 0.0008039858    1.300    0.231
         9 -11.1162    123.5926      4.4162   2.9046688665e+02   6.9768932827e+00    0.0518892   0.03063514  33.84  0.005104988    1.619    0.382
        10  -8.1885    114.9036      6.3654   2.9058153508e+02   7.0077904280e+00     0.011758   0.01032314 -71.59  0.001386525    1.195    0.163
        11  -7.7526     71.8481      5.8382   2.9108760008e+02   7.2771017164e+00  0.009559533  0.008702251 -11.93   0.00046423    1.141    0.124
        12  -7.5445    189.4180    190.5240   2.9082563624e+02   4.4406945707e+00  0.006584356  0.006427798  50.86 0.0002030186    1.039    0.037
        13  -7.9624    180.9463    249.5006   2.9128406340e+02   3.8161936977e+00    0.0102199  0.009168519 -58.21 0.0008428587    1.134    0.118
        14  -7.8816    119.3584    250.3175   2.9201450774e+02   4.1831797819e+00  0.007203273  0.005001104 -23.04 0.0002676417    1.756    0.431
        15  -7.9415     17.1458    250.6058   2.9322115130e+02   4.8026108852e+00  0.009356666  0.006384719  10.93 0.0004814725    1.649    0.394
        16  -7.1618    100.9665    176.0008   2.9178027856e+02   5.1482743192e+00  0.007344831  0.007010184  23.89            0    1.026    0.025
        17 -10.7413    195.5372    139.0606   2.9043994070e+02   4.9932756321e+00    0.0652546   0.03830351  82.41  0.005408611    2.840    0.648
        18  -8.5846    184.6994    133.1799   2.9053184366e+02   5.1271354132e+00   0.01852889   0.01237038  -2.09  0.001613648    1.922    0.480
        19  -8.2893    139.0975    128.2467   2.9103970005e+02   5.4630155042e+00   0.01746599     0.011974  31.29   0.00183406    1.409    0.291
        20  -8.4186     13.8133    127.5887   2.9251549214e+02   6.2350195709e+00   0.01335154    0.0104372  48.58  0.001482739    1.323    0.244
        21  -8.3745      7.9964    124.9309   2.9256811070e+02   6.3008866791e+00   0.01377025   0.01081544  61.69  0.001516876    1.427    0.299
        22  -7.9066    244.0419    117.8299   2.8973888654e+02   4.9388984429e+00    0.0103359  0.008707538  53.84 0.0005275974    1.244    0.196
        23  -9.7985     40.2610    111.0537   2.9210243671e+02   6.2637716756e+00   0.02461792   0.02212311  25.78  0.002248899    1.090    0.083
        24  -8.2117     43.7923    177.2321   2.9246260043e+02   5.4828060499e+00   0.01164705  0.009298509 -79.90  0.001014584    1.390    0.281
        25  -7.4779    128.2044     90.9739   2.9094106948e+02   5.9570677104e+00  0.008501641  0.005360438 -62.67            0    1.629    0.386
        26  -8.2515     42.8526     90.9734   2.9194965967e+02   6.4783204824e+00   0.01185712  0.006967934 -34.39  0.001081142    2.055    0.513
        27  -7.6906    148.8385     89.8150   2.9069037198e+02   5.8440104443e+00  0.009299104  0.007443829  49.91 0.0005816581    1.297    0.229
        28  -9.1164    188.9035     87.2716   2.9020207602e+02   5.6275275893e+00   0.01152667   0.01099672 -38.91 0.0001898866    1.063    0.059
        29  -7.4505    136.2986     84.6524   2.9080692274e+02   5.9799845355e+00  0.007031298  0.005033012  64.38 0.0007036061    1.682    0.405
        30  -7.7830    209.4626     82.5442   2.8993075307e+02   5.5554899474e+00  0.006614993  0.006447856   4.51 0.0001004164    1.019    0.019
        31  -8.7672    174.3102     81.4386   2.9033861202e+02   5.7838831706e+00   0.01157716   0.01083223  64.63 0.0002417671    1.116    0.104
        32  -9.4574    212.3480     93.0192   2.8996074172e+02   5.4177755092e+00   0.02417667   0.01615695  78.80  0.002198526    2.059    0.514
        33  -8.5196     45.5302     79.1404   2.9184597471e+02   6.5977069646e+00   0.01760939   0.01087683  15.35  0.001695328    1.806    0.446
        34  -7.3231      7.6690     80.6734   2.9230310246e+02   6.8105991861e+00  0.007136452  0.004988331 -25.11 0.0007051126    1.709    0.415
        35  -8.7171     78.8347     78.5927   2.9144888210e+02   6.4008232800e+00   0.01314924  0.006585259  22.70  0.001142473    2.096    0.523
        36  -7.7292     37.0136     77.7351   2.9193813646e+02   6.6657113392e+00  0.009108692  0.008415183  20.04 0.0003753314    1.066    0.062
        37  -8.2175    216.1671     77.1478   2.8981873251e+02   5.5761233770e+00  0.009506295  0.007711662  57.70 0.0007921487    1.333    0.250
        38  -8.9779    184.5976     76.5124   2.9018714507e+02   5.7772183775e+00   0.01434869  0.009928558  -2.97  0.001427565    1.803    0.445
        39  -7.7180    168.9869     75.9970   2.9036819594e+02   5.8788795187e+00  0.009571873  0.009191366  22.91  0.001177343    1.019    0.019
        40  -9.6664      6.9741     67.3016   2.9222999463e+02   6.9681613300e+00   0.02424658   0.02294705  66.81  0.002715611    1.102    0.093
        41  -9.2937     11.7587     70.8459   2.9219494821e+02   6.8984260572e+00    0.0214769   0.01445619  10.23  0.001996864    1.693    0.409
        42 -10.3583     16.2182     66.7808   2.9211745286e+02   6.9179103845e+00   0.03380966   0.02343343  83.71  0.003371593    1.897    0.473
        43  -7.8617    183.7646     66.9986   2.9013884096e+02   5.8913180398e+00  0.008861757  0.005617229 -61.77  0.000876398    1.611    0.379
        44  -8.0174     61.3185     67.2981   2.9158714268e+02   6.6372188438e+00  0.006923631  0.005035926 -23.46 0.0003071396    1.615    0.381
        45  -7.1953     38.2726     67.3175   2.9185982087e+02   6.7774914518e+00  0.006824998  0.004964189 -29.00 0.0002149618    1.564    0.360
        46  -7.6171     13.8110    114.1314   2.9243380267e+02   6.3894492670e+00  0.008701961  0.007529695 -19.56 0.0004720238    1.234    0.189
        47  -8.6676    180.1341     64.8164   2.9016834279e+02   5.9385926306e+00  0.009279491  0.007654524 -26.66 0.0004722877    1.311    0.237
        48  -7.8782    213.0630     63.6975   2.8977309778e+02   5.7492263883e+00  0.009358992  0.008455914  11.88 0.0006290347    1.116    0.104
        49  -7.9400    135.6654     64.3206   2.9069029995e+02   6.2168798606e+00  0.007136207  0.004963154  60.33 0.0007049726    1.703    0.413
        50  -7.9319     39.7910     71.0662   2.9186468772e+02   6.7252601503e+00   0.01178941  0.009469172  20.73 0.0009246606    1.246    0.197
        51  -7.0259    108.7113     61.3200   2.9099043090e+02   6.4162368016e+00  0.006859428  0.005043252  63.48 0.0007006523    1.599    0.375
        52  -7.7626    220.0344     60.2902   2.8967007234e+02   5.7454053758e+00  0.009208137  0.008467064  36.24 0.0004266301    1.069    0.065
        53  -7.5650    170.7229     57.0027   2.9023165767e+02   6.0858360291e+00  0.009982161  0.006483265  47.15 0.0005454407    1.616    0.381
        54  -9.6736     91.9922     57.3023   2.9116352610e+02   6.5645012169e+00   0.03696471   0.01248933  25.08  0.002644947    3.127    0.680
        55  -9.4797     94.6577     51.6992   2.9109782718e+02   6.6124209605e+00   0.01532611   0.01366719   2.42  0.001050602    1.160    0.138
        56  -8.2044    195.3873     55.2834   2.8993010831e+02   5.9541471329e+00   0.02057118   0.01090117  67.47   0.00136063    3.504    0.715
        57  -7.9392    186.8189     55.8162   2.9003445366e+02   6.0006509885e+00  0.009271389  0.007766165  72.88 0.0006909958    1.344    0.256
        58  -8.8790    107.3988     55.5575   2.9097077261e+02   6.4903014793e+00   0.01200956   0.01166033 -43.34 0.0007386452    1.045    0.043
        59  -9.9480     97.3233     54.3098   2.9108224777e+02   6.5662101355e+00   0.02655672   0.01671617  20.73  0.001764614    1.649    0.394
        60  -7.3710    159.3187     55.7013   2.9035833089e+02   6.1706844557e+00  0.006956682  0.004980239  59.56 0.0004779321    1.617    0.382
        61  -8.3927    232.2648     68.9742   2.8957903039e+02   5.5708045428e+00  0.009021816  0.008841965 -55.22 0.0003195813    1.042    0.040
        62  -9.5487    206.8401     50.7764   2.8976745943e+02   5.9354080786e+00   0.02407729   0.01657717  22.16  0.002075533    1.471    0.320
        63  -7.5087    172.0474     49.9694   2.9017303458e+02   6.1582657097e+00  0.007828098  0.007493982  25.58 0.0003457843    1.022    0.022
        64  -7.1397     25.3281     50.3016   2.9190933187e+02   7.0513855956e+00  0.006984008  0.005028598 -23.22 0.0006492497    1.644    0.392
        65  -8.7859    125.6851     46.2654   2.9069794115e+02   6.4848615750e+00   0.01252129   0.01130655 -26.03 0.0005771049    1.150    0.130
        66  -9.4169    190.9623     43.1088   2.8990786146e+02   6.1207241747e+00   0.02649284    0.0139836  33.03  0.002464623    1.798    0.444
        67  -9.6593    250.0298    240.8443   2.9041842302e+02   3.4925356248e+00   0.04163259   0.01021091 -56.99  0.002789327    3.590    0.721
        68  -9.6968    199.8267     28.2761   2.8971252835e+02   6.2360635957e+00   0.02071651   0.02009003 -30.93   0.00188536    1.044    0.042
        69  -8.8771    248.9501    230.7673   2.9036978789e+02   3.6146292921e+00   0.01865667   0.01369432  89.83  0.001434423    1.671    0.401
        70 -10.2392    193.7760     30.3315   2.8979649628e+02   6.2497140311e+00   0.02704533   0.01810846 -58.16  0.002698079    1.502    0.334
        71  -7.9136    155.6550     42.8433   2.9032300941e+02   6.3404244034e+00  0.009078119  0.008485984 -79.56  0.000568203    1.121    0.108
        72  -8.0165    134.3233     39.7132   2.9055584833e+02   6.5070125939e+00  0.006933258  0.004955409  58.22 0.0001884944    1.602    0.376
        73  -7.8726    153.2575     37.9422   2.9032136447e+02   6.4112535417e+00  0.009950737  0.008798572  71.91  0.000498558    1.230    0.187
        74  -8.1910     69.8375     26.9150   2.9124009003e+02   7.0480053322e+00   0.01013485  0.008750847 -21.83 0.0005697016    1.234    0.190
        75  -8.3300     69.9771    245.4970   2.9256735274e+02   4.5397016257e+00   0.01028506  0.004667686  48.04  0.000810264    2.572    0.611
        76  -7.6874    131.3407    244.6901   2.9183918204e+02   4.1745770448e+00  0.007130316  0.004942857  59.23 0.0007044741    1.692    0.409
        77  -7.3948     46.6688    224.6958   2.9271627789e+02   4.9204452560e+00  0.007013657  0.005030319 -23.36 0.0005297753    1.656    0.396
        78  -7.2191     55.9937    219.9561   2.9257757969e+02   4.9180652285e+00  0.007907421  0.007576824 -58.14 0.0009656197    1.065    0.061
        79  -8.1508    245.6837    215.9995   2.9031829640e+02   3.8038888210e+00   0.01489618   0.01147284  84.72  0.001452026    1.558    0.358
        80  -9.1109    244.3225    212.3460   2.9031206166e+02   3.8541037918e+00   0.01635852   0.01216503 -35.31  0.001761723    1.457    0.314
        81  -8.7299    248.8362    204.0134   2.9020819492e+02   3.9219292842e+00   0.01520785  0.008639264 -28.09  0.001301528    2.446    0.591
