#   1 NUMBER                 Running object number                                     
#   2 MAG_AUTO               Kron-like elliptical aperture magnitude                    [mag]
#   3 X_IMAGE                Object position along x                                    [pixel]
#   4 Y_IMAGE                Object position along y                                    [pixel]
#   5 X_WORLD                Barycenter position along world x axis                     [deg]
#   6 Y_WORLD                Barycenter position along world y axis                     [deg]
#   7 A_WORLD                Profile RMS along major axis (world units)                 [deg]
#   8 B_WORLD                Profile RMS along minor axis (world units)                 [deg]
#   9 THETA_WORLD            Position angle (CCW/world-x)                               [deg]
#  10 FWHM_WORLD             FWHM assuming a gaussian core                              [deg]
#  11 ELONGATION             A_IMAGE/B_IMAGE                                           
#  12 ELLIPTICITY            1 - B_IMAGE/A_IMAGE                                       
         1 -14.9725     68.5156    144.1508   1.0384106883e+02   3.7533782845e+01      5.13869     2.174216  59.07  0.003906791    4.735    0.789
         2 -14.2841    198.3952     40.0441   4.4364626124e+01   3.0623418969e+01     1.431762     1.283383 -29.83  0.003853338    1.243    0.195
         3 -14.7403    208.5815     29.7386   4.0499970405e+01   2.9482502669e+01     1.864707        1.344  25.44  0.001847895    2.064    0.516
         4 -12.9659    235.9100      4.9940   3.2358004190e+01   2.6076612694e+01    0.5496473    0.4910184  41.33  0.003084405    1.543    0.352
         5 -12.8119    229.7325      4.3677   3.2682241987e+01   2.7486746074e+01    0.4898528    0.4042537 -50.06  0.003347883    1.218    0.179
         6 -10.4147     60.8361      7.7973   6.4280844001e+01   6.6149625576e+01    0.1533763    0.1427986  16.12 0.0004497218    1.320    0.243
         7 -11.8585     19.2024      6.4027   8.3465932852e+01   7.2182859114e+01    0.2691919    0.1438151  27.05  0.001618644    1.857    0.462
         8 -11.3685    206.0559    195.3991   7.9851867676e+01   2.1213736450e+00    0.4059462    0.1209589  37.02  0.001401619    3.273    0.695
         9 -12.0396    139.1603    249.9239   1.0236154885e+02   4.1002657108e+00    0.4646259    0.2474512  38.69  0.002500171    1.499    0.333
        10 -13.1434     72.0071    171.5998   1.0715539802e+02   3.0370788463e+01     1.131979    0.5462815 -35.36  0.003845175    4.177    0.761
        11 -15.3848     47.3322    200.8339   1.1638632418e+02   2.6808137772e+01     5.682772     1.820132  60.38   0.01770729    5.264    0.810
        12 -14.0565     55.8567    187.8729   1.1314870632e+02   2.8683801643e+01     1.487924    0.8789412  70.80  0.007519664    1.817    0.450
        13 -17.7868     18.2996    242.9844   1.2499421682e+02   2.1439878377e+01     7.384003     2.184662  28.35   0.02996742    4.921    0.797
        14  -9.4206     82.1856    195.0231   1.0779898356e+02   2.3512104883e+01    0.2135099     0.148969 -36.42  0.001082069    1.967    0.492
        15  -9.8247    120.0238    194.0125   9.8690904679e+01   1.7711780233e+01    0.2069832    0.1932281  48.46  0.000376049    1.020    0.020
        16  -9.6262     24.9924    193.9600   1.2067367265e+02   3.0735245007e+01     0.274324   0.09027015  51.80  0.001187785    2.830    0.647
        17  -9.0119    156.5490    189.9932   8.9475706155e+01   1.2012870702e+01    0.2007645    0.1435855 -45.14 0.0003713157    1.508    0.337
        18  -9.8366    150.4102    188.1794   9.0555343953e+01   1.3508612057e+01    0.1938439     0.141995 -63.26 0.0007193238    1.690    0.408
        19  -9.3118     81.5661    185.3018   1.0666669157e+02   2.5800704747e+01     0.385399    0.2147675  78.90  0.001571068    2.679    0.627
        20  -9.4517     70.6191    184.9489   1.0928102641e+02   2.7432383832e+01    0.1844886    0.1541666 -88.10 0.0003763734    1.128    0.113
        21  -9.5407     91.6307    183.4476   1.0393625565e+02   2.4708724674e+01      0.21019     0.158072 -41.69 0.0006765474    1.568    0.362
        22 -10.6269     99.4490    180.7897   1.0159673477e+02   2.4078083227e+01    0.2599299    0.2329144  44.20 0.0006000669    1.090    0.082
        23 -10.7392    143.8245    178.5538   9.0316758715e+01   1.6735931651e+01    0.2900097    0.2321691 -11.45 0.0008883047    1.506    0.336
        24 -13.2712     28.2541    215.8659   1.2156453029e+02   2.5725361790e+01    0.8495541     0.323702 -86.16  0.002424606    2.787    0.641
        25 -10.6687    188.2402    175.7473   7.9650814371e+01   8.8263069264e+00    0.7305965    0.3047678 -52.70  0.002432445    3.628    0.724
        26 -10.3217     39.4807    177.2050   1.1590459897e+02   3.3044744363e+01     0.249071    0.1675507  62.34 0.0006402261    1.412    0.292
        27  -9.8467    149.3453    177.0339   8.8711224402e+01   1.6013832526e+01    0.1994093    0.1893107 -44.55 0.0004015126    1.125    0.111
        28 -12.4179     55.0471    147.0571   1.0811633956e+02   3.8538257441e+01     2.288017    0.8116779 -46.90  0.008145304    3.247    0.692
        29 -10.7947    113.0091    206.0037   1.0212604494e+02   1.6360501420e+01    0.3239557    0.2283474  86.49  0.001452574    1.838    0.456
        30 -10.1850     47.2897    171.9656   1.1343761189e+02   3.3409576206e+01    0.2253255    0.1974422  26.93 0.0006604673    1.352    0.260
        31 -10.6188    137.6580    168.9697   8.9966503234e+01   1.9977447972e+01    0.3699141     0.290944  52.34  0.001821784    1.305    0.234
        32  -9.4451    110.8866    168.1147   9.6565340732e+01   2.5079111501e+01    0.2291598    0.1976579  75.83 0.0005321704    1.235    0.190
        33  -9.5410     36.7993    167.6164   1.1555946036e+02   3.5581200304e+01    0.2559729    0.1464453  61.66 0.0007075807    1.810    0.447
        34 -10.4858     32.7403    165.1256   1.1630541208e+02   3.6581834338e+01    0.3109883     0.197147  41.53  0.001062811    1.605    0.377
        35 -13.5991     48.5827    108.2771   1.0333375739e+02   4.8835580479e+01     1.671989     1.277554 -75.30  0.008628619    1.345    0.257
        36 -12.3839     89.6953    153.3688   9.9532465418e+01   3.2139248935e+01     0.675094    0.4916204 -20.27  0.003149886    1.919    0.479
        37 -10.0905    187.2475    151.5883   7.4668284576e+01   1.3681323016e+01    0.2127955     0.139278  31.76 0.0007926361    1.601    0.376
        38  -8.8270    112.5243    150.5300   9.2759037368e+01   2.8918961318e+01     0.150864    0.1460327  71.86 9.298832e-05    1.030    0.029
        39 -11.4544    133.6289    144.6002   8.5875135313e+01   2.6252132449e+01      1.23943    0.3312488 -54.46  0.002925941    5.592    0.821
        40 -10.6051    174.4011    148.7684   7.6869734164e+01   1.6903896093e+01    0.3559795    0.2859619 -67.97   0.00123107    1.591    0.371
        41 -10.5714     39.4961    146.5999   1.1236787626e+02   4.0374673440e+01     0.337356    0.2011372  40.13  0.001755283    1.756    0.430
        42 -11.1144    103.0507    139.0919   9.2994115961e+01   3.3359199928e+01     0.572747    0.3627181 -24.75  0.002275702    2.353    0.575
        43 -12.5901     90.5388    138.8191   9.6512424893e+01   3.5554304724e+01    0.2919961    0.2718426 -32.54 0.0005071136    1.134    0.118
        44 -12.0099     44.3719    130.4946   1.0864603414e+02   4.3833711190e+01    0.5633923    0.2815946 -79.30  0.002010538    2.300    0.565
        45  -9.9158     92.9794    250.0052   1.1155070393e+02   1.0962454003e+01    0.2620571    0.1567305  25.79  0.001425667    1.998    0.500
        46 -11.3298    135.7194    127.7200   8.1358987343e+01   2.9660122014e+01     0.671639    0.1951547 -48.84  0.001892534    3.626    0.724
        47 -10.7620     32.5035    130.8591   1.1221782836e+02   4.4906913788e+01    0.2495586    0.2395717  35.92 0.0008535074    1.212    0.175
        48 -10.5974    112.0884    129.6959   8.8332246544e+01   3.3948540141e+01    0.3454342    0.2713845   9.41 0.0009538314    1.561    0.359
        49 -10.2065    160.7979    127.7123   7.5031423063e+01   2.4231239475e+01    0.3366933    0.2238797 -52.82  0.001438596    1.648    0.393
        50 -11.1400     99.2286    125.7397   9.1143293681e+01   3.7252678992e+01    0.3079965    0.2539623 -11.11 0.0006087404    1.441    0.306
        51 -11.6788    119.1393    123.1819   8.4771642609e+01   3.4102585377e+01    0.6457996    0.4368551  -2.89   0.00248997    2.440    0.590
        52 -10.7236    105.8070    130.8135   9.0385928955e+01   3.4852662825e+01    0.3628459    0.3209233 -61.66  0.001219302    1.143    0.125
        53 -11.6189     39.0435    124.1289   1.0924557427e+02   4.5943721141e+01    0.2794234    0.2508516  52.57  0.001014037    1.227    0.185
        54 -10.8537    135.0000    112.9607   7.7778350612e+01   3.3100818595e+01    0.7855267   0.09014826 -44.73   0.00140837    8.724    0.885
        55 -10.2344    134.5554    105.3054   7.5830658791e+01   3.4858969065e+01    0.5373064    0.1538605 -43.55  0.001527063    3.500    0.714
        56 -10.0873    108.0685    118.8915   8.6897575985e+01   3.7258497816e+01    0.2201222     0.215633  -5.79 0.0002986317    1.022    0.022
        57 -13.1525     82.6503    160.5668   1.0268515876e+02   3.1483369989e+01     1.384624    0.6247236  58.86 0.0003129812    3.533    0.717
        58  -9.5040    167.9947    112.9760   6.9590956449e+01   2.5665848321e+01    0.2608073    0.1997956 -82.89  0.001136217    1.831    0.454
        59 -11.4603    119.3937    110.2253   8.1377327304e+01   3.7012964580e+01    0.3453871    0.2647159  62.27 0.0008463206    1.553    0.356
        60 -11.1622    115.4648    109.5294   8.2326557361e+01   3.7969540237e+01    0.5152799    0.3281274 -17.50   0.00194667    2.444    0.591
        61 -12.4816    108.9601    202.1389   1.0250667966e+02   1.7827732198e+01    0.7319461    0.4555716 -34.30  0.002853174    2.311    0.567
        62  -8.7494    141.4794    108.4132   7.4848106336e+01   3.2655124215e+01    0.1563882    0.1535015  33.86 0.0001275708    1.027    0.026
        63 -10.2421    205.2781    110.1246   6.1177209358e+01   1.7752828325e+01     0.332238    0.2195935  47.06  0.001013521    1.584    0.369
        64 -10.9492    241.8126    101.8073   5.3217003986e+01   1.1497001876e+01    0.1934931    0.1524411 -58.66 0.0006810964    1.331    0.248
        65 -11.0221     32.2399     99.7606   1.0721224313e+02   5.2488462433e+01    0.4010928    0.2413815  42.95  0.002071847    1.974    0.493
        66 -13.8762     71.2357    155.2376   1.0490879453e+02   3.4431952024e+01    0.6373177    0.5586672 -44.16   0.00272926    1.239    0.193
        67  -9.1505    129.1522     96.1974   7.4741565789e+01   3.7983086864e+01    0.2098246    0.1894946 -84.86 0.0008732001    1.294    0.227
        68 -11.2279     52.0680     92.5203   9.8651069709e+01   5.2197389733e+01    0.4108206    0.2064889 -43.65  0.001798792    1.837    0.455
        69  -9.1867    157.4805     89.5161   6.5625795138e+01   3.2763749379e+01    0.1569644    0.1497881 -82.44 -0.0001797287    1.112    0.100
        70 -10.1414     75.0754     84.9582   8.8434152036e+01   5.0784483977e+01    0.2101623    0.1979153 -24.55  0.000363426    1.044    0.042
        71 -10.2943    157.9968     82.0016   6.3350281621e+01   3.4043085396e+01    0.2392637    0.2297283  19.52 0.0004855552    1.063    0.059
        72  -9.3080    184.5960     77.1744   5.6506604166e+01   2.8411852687e+01    0.2053608    0.1449281 -21.66 0.0006062331    1.652    0.395
        73  -9.7381     58.4292     67.1810   8.9244127437e+01   5.7009057399e+01    0.2420494     0.169626  46.64  0.000648845    1.802    0.445
        74 -11.2172     13.3246     59.8616   1.0590236255e+02   6.2917287232e+01    0.2441902    0.2102113 -51.78 0.0004993647    1.146    0.127
        75 -13.9359    188.0478     47.8763   4.7933940766e+01   3.2098803683e+01     1.251845    0.9783185  31.20  0.001017695    1.566    0.361
        76 -12.0987    193.3413    195.3805   8.2447614366e+01   4.3327972266e+00     1.080516     0.719953 -71.58  0.004325727    3.546    0.718
        77 -16.8348      6.5972    205.6190   1.2521089569e+02   2.9942624436e+01     12.10518     1.049099 -76.00   0.02219213    7.926    0.874
        78 -11.0824    132.7531    172.0136   9.1767344736e+01   2.0230633088e+01    0.3967929    0.1971281  39.01  0.001592152    1.917    0.478
        79 -11.7014    144.1793     48.9961   5.6368030726e+01   4.2899985503e+01    0.4809767    0.3286995 -86.16  0.000888567    2.145    0.534
        80  -9.7897     29.9988     35.9503   9.0791077439e+01   6.6363039568e+01    0.1500817    0.1195756 -17.19 0.0003795761    1.031    0.030
        81 -11.3545     22.5036     33.9970   9.3742561621e+01   6.7408423983e+01    0.3102217    0.1618835  26.36  0.001534161    2.065    0.516
        82 -10.5126    197.9657     23.6665   4.0211645010e+01   3.2744388699e+01    0.2564425    0.1945222  -3.29 0.0009077615    1.828    0.453
        83 -10.9030     59.6920    220.3574   1.1551528303e+02   2.1145084069e+01    0.2973701    0.2229669  26.24  0.001150862    1.610    0.379
        84  -9.7949    189.6426     14.9502   3.8937974744e+01   3.5728343832e+01    0.1810563    0.1604871 -59.68 0.0007155832    1.144    0.126
        85 -10.4517     32.6888    204.5161   1.1984284658e+02   2.7647574134e+01    0.2049566    0.1706184 -87.12 0.0002950853    1.154    0.134
        86  -9.5695    169.1180    236.3277   9.4429297585e+01   1.5611804878e+00    0.1890203    0.1603283 -11.00 0.0004983674    1.279    0.218
        87  -9.7187    133.9953    196.2291   9.5772340421e+01   1.4819916683e+01    0.2025682    0.1726661  42.38 0.0003973508    1.074    0.069
