#   1 NUMBER                 Running object number                                     
#   2 MAG_AUTO               Kron-like elliptical aperture magnitude                    [mag]
#   3 X_IMAGE                Object position along x                                    [pixel]
#   4 Y_IMAGE                Object position along y                                    [pixel]
#   5 X_WORLD                Barycenter position along world x axis                     [deg]
#   6 Y_WORLD                Barycenter position along world y axis                     [deg]
#   7 A_WORLD                Profile RMS along major axis (world units)                 [deg]
#   8 B_WORLD                Profile RMS along minor axis (world units)                 [deg]
#   9 THETA_WORLD            Position angle (CCW/world-x)                               [deg]
#  10 FWHM_WORLD             FWHM assuming a gaussian core                              [deg]
#  11 ELONGATION             A_IMAGE/B_IMAGE                                           
#  12 ELLIPTICITY            1 - B_IMAGE/A_IMAGE                                       
         1 -11.9310     18.7832     22.5606   1.1414068509e+02   6.7816662047e+01    0.3743356     0.168936 -39.24  0.001604513    1.772    0.436
         2 -10.9213     69.5445     19.8575   9.3450427200e+01   6.1870994564e+01    0.3961892    0.1882233 -20.66  0.001945701    2.269    0.559
         3 -11.7722     57.8157     18.4498   9.6921636150e+01   6.3849967082e+01    0.4057699    0.2028106 -23.03 0.0009805768    1.968    0.492
         4 -11.8929     24.5506      6.6269   1.0504741516e+02   6.9445708162e+01    0.2801565    0.1760436 -37.70 0.0009694931    1.723    0.420
         5 -10.9544     26.2909     12.9996   1.0705735299e+02   6.8457979193e+01    0.2335896    0.1788406  -9.30  0.001016716    1.062    0.058
         6 -10.4401     22.6969     11.3192   1.0790311601e+02   6.9037161496e+01    0.1805403    0.1285724 -32.33  0.001315206    1.378    0.274
         7 -11.3717     41.5901     13.9956   1.0116528839e+02   6.6595019387e+01    0.3466911     0.204958 -30.10  0.001908651    1.544    0.352
         8 -10.8075     74.5242     10.4623   8.8041374665e+01   6.2065322133e+01    0.2920082    0.1668826 -31.61  0.001175808    1.883    0.469
         9 -10.9524    173.0357     13.8884   6.8067704067e+01   4.0188350205e+01    0.1980874    0.1889988 -84.79  0.001273122    1.121    0.108
        10 -11.1472     13.1928     13.8645   1.1319651803e+02   6.9542041024e+01    0.2227424    0.1390356 -28.59  0.000631969    1.218    0.179
        11 -11.6158     16.4079      7.8560   1.0922151866e+02   7.0079445816e+01      0.32621    0.1711746  13.33  0.001852848    1.926    0.481
        12 -11.5357    176.0074      7.2416   6.5856947644e+01   4.0123273867e+01    0.2441094    0.2219994  41.42 0.0003405342    1.240    0.194
        13 -11.0363     85.2798     13.0132   8.5851435470e+01   5.9881664876e+01    0.3140129    0.2110474  78.42  0.001528331    3.033    0.670
        14 -10.7550     70.1360     13.1175   9.0520111294e+01   6.2532946744e+01    0.2075887    0.1716904 -72.09 0.0008408331    2.305    0.566
        15 -10.6138     32.5158     12.0122   1.0400061788e+02   6.7917698765e+01    0.2511244    0.1360312  29.06  0.001569521    1.823    0.452
        16 -11.2135    178.1844     12.7882   6.7050467168e+01   3.9038013650e+01    0.3755712    0.2153054 -73.10  0.001728757    2.215    0.548
        17  -9.9320    149.4875      8.5393   7.0140544873e+01   4.6416929815e+01    0.1326559    0.1125247  57.54 -2.701094e-05    1.029    0.028
        18 -11.9020    107.6681      7.3358   7.7915432972e+01   5.5975692975e+01     0.258284     0.220149  45.78 0.0005970607    1.087    0.080
        19 -11.6669     48.2720     10.2540   9.6972531640e+01   6.6163363257e+01    0.3580668     0.252086  29.14  0.002449992    1.350    0.259
        20 -11.5944    208.7991      5.1367   6.1517364516e+01   3.2391204309e+01    0.2633997    0.1805225 -64.78 0.0004221469    1.402    0.287
        21 -10.6517     87.4439      6.2744   8.2595958664e+01   6.0119877037e+01    0.1466234    0.1103436 -27.17 0.0002756902    1.494    0.331
        22  -9.9870     61.5051      6.4954   9.0602315788e+01   6.4614319053e+01    0.1188348   0.09176027  12.42 -0.0001792992    1.030    0.029
        23 -10.2128    133.7570      4.7686   7.1685028568e+01   5.0435564446e+01    0.2031771    0.1476239  26.75 0.0009496665    1.464    0.317
        24 -10.1932      1.4523      4.7504   1.1492081161e+02   7.1683374975e+01     0.139934   0.06823586 -31.15 0.0004949811    1.536    0.349
        25 -11.4129    217.5174      3.4448   6.0274897278e+01   3.0504405545e+01     0.234741    0.2086613  52.31  0.001557196    1.381    0.276
        26 -10.8110     76.9473      4.1218   8.4709848183e+01   6.2244278410e+01    0.1767001    0.1437487  20.38 0.0005389026    1.022    0.022
        27 -10.9975     73.4002      2.7746   8.5211826605e+01   6.2989852181e+01    0.2549642    0.1797018   7.84  0.001654602    1.300    0.231
        28 -10.4616     68.8571      4.0943   8.7170591922e+01   6.3648186034e+01    0.1651755    0.1113478  19.51 0.0004122764    1.294    0.227
        29 -10.7062     30.9695      3.5162   1.0088430589e+02   6.9109425199e+01    0.2113325    0.1334247 -21.23 0.0009498745    1.335    0.251
        30 -10.1998    233.2389      2.9834   5.8767105276e+01   2.6921000716e+01    0.1498659   0.09755178 -39.99  0.000466089    1.590    0.371
        31 -10.2558    194.9997      3.4823   6.2591458243e+01   3.5871174994e+01    0.1944175    0.1101662  73.17 0.0004617837    1.508    0.337
        32 -10.9758    180.0509      2.2870   6.4033826220e+01   3.9606396256e+01    0.2485343    0.2095864  44.28  0.001109365    1.314    0.239
        33 -11.2719    160.7623      1.8409   6.6458375111e+01   4.4311876152e+01    0.3531538     0.189907  68.55  0.001452739    1.591    0.372
        34 -10.2784    118.3182      2.9648   7.4057148338e+01   5.4056224196e+01     0.166195    0.1466565  31.21 0.0002987836    1.092    0.084
        35 -10.3372     91.1859      2.3628   8.0073173522e+01   5.9738924782e+01    0.1903974    0.1431271   8.14 0.0005993189    1.288    0.224
        36 -10.7905     77.6113     13.1652   8.8186025125e+01   6.1250402276e+01    0.2877017    0.1280402 -29.62  0.001308042    2.284    0.562
        37 -10.4786    138.3048      1.3877   6.9812612628e+01   4.9665449221e+01    0.2190607    0.1013734  60.30 0.0004035369    1.761    0.432
        38  -9.9614     87.2917      2.3179   8.1077365026e+01   6.0492716726e+01    0.1265499   0.07537585  25.50 0.0005097754    1.601    0.375
        39 -10.2296     10.2594      1.2630   1.0915697869e+02   7.1456852240e+01    0.1395026   0.07493486  34.63 0.0008971841    2.439    0.590
        40 -13.4518     75.2391    182.6951   1.3311892769e+02   2.7775655861e+01     1.599799    0.4931225 -62.60  0.005955476    3.017    0.669
        41 -12.0573    180.6394    245.2494   1.2059435686e+02  -2.6240059727e+00    0.5324905    0.2965263 -41.39  0.002836752    2.160    0.537
        42 -12.8932    185.7618    240.0956   1.1884031368e+02  -2.7259417031e+00    0.3796296    0.2853981  -8.89  0.001517078    1.704    0.413
        43 -12.1894    191.3259    235.3696   1.1703396613e+02  -2.9707134758e+00    0.3227924    0.2080525  36.69 0.0006029553    1.337    0.252
        44 -10.3783    150.8201    247.6133   1.2655056146e+02   2.1574912464e+00    0.2310963     0.199348  28.74  0.001518292    1.266    0.210
        45 -11.0023    136.4602    243.7389   1.2874895123e+02   5.2730569672e+00    0.2257416      0.18818  23.40  0.001022406    1.484    0.326
        46 -12.0421    141.4933    247.4667   1.2828212232e+02   3.7811991497e+00     0.412413    0.3306469  70.36  0.002255643    1.266    0.210
        47 -11.6781    141.4266    242.8222   1.2768811307e+02   4.5761736455e+00    0.3060844    0.2276203  49.12  0.001108456    1.112    0.101
        48 -12.5776    129.4104    244.3052   1.3014981997e+02   6.3750945083e+00    0.7831274    0.5451978  88.31  0.003343237    1.755    0.430
        49 -12.5169    131.6325    236.1823   1.2868652818e+02   7.4315784133e+00    0.4778967    0.3588953   9.54  0.002563696    2.220    0.550
        50 -11.7385    117.2229    249.5681   1.3303997062e+02   7.4886919442e+00    0.3826663    0.2931154  19.58  0.002272192    1.986    0.496
        51 -11.3754    121.6502    248.8282   1.3214092262e+02   6.8889237343e+00    0.2793778    0.1956094 -72.17  0.001071204    1.640    0.390
        52 -11.6000    125.0253    247.4596   1.3135447425e+02   6.5649762117e+00    0.2001333    0.1657029  84.94 9.097573e-05    1.250    0.200
        53 -12.7809    107.6766    215.6509   1.3070787654e+02   1.5472226972e+01    0.6785365    0.4917716  38.15  0.001017788    1.477    0.323
        54 -12.4860     95.9514    212.1954   1.3263624812e+02   1.8116005443e+01    0.4702454    0.3069566  60.57  0.001737474    1.397    0.284
        55 -13.5497    106.3017    224.1280   1.3207495164e+02   1.4004678255e+01    0.6002799     0.333427  66.02   0.00158045    1.989    0.497
        56 -10.9584    114.9322    223.1442   1.3024122245e+02   1.2749519280e+01    0.2129104    0.1686366  50.55  0.000272533    1.149    0.130
        57 -12.7230    105.7817    238.0628   1.3384582947e+02   1.1420815804e+01    0.8610052     0.496356  43.98  0.003350731    1.545    0.353
        58 -11.4933     89.3852    244.3861   1.3754582568e+02   1.2826222044e+01    0.2865781    0.2105318  38.51  0.000479528    1.559    0.359
        59 -13.1879    114.3070    239.7928   1.3244375885e+02   9.7072583900e+00     0.734145     0.588061  52.64  0.003777612    1.111    0.100
        60 -11.6922    119.3684    234.1798   1.3079273266e+02   9.8937911584e+00    0.2442591    0.2276043 -85.95 0.0004113819    1.222    0.182
        61 -11.5376     85.0817    243.1291   1.3819507558e+02   1.3709859765e+01    0.2462578    0.2020956 -77.92 0.0007171747    1.319    0.242
        62 -11.2685    101.8813    234.1903   1.3413667055e+02   1.2778308433e+01    0.2478894    0.2224508  23.26 0.0003667073    1.565    0.361
        63 -11.9062    103.5680    229.7004   1.3328831789e+02   1.3365772679e+01    0.2988811    0.2108182 -88.94 0.0007462628    1.473    0.321
        64 -12.0877     83.6235    237.3814   1.3788437333e+02   1.5010931982e+01    0.5818256    0.2424179  51.74  0.002395003    2.025    0.506
        65 -12.5447    106.4627    248.8952   1.3492749411e+02   9.3453157177e+00    0.3986156    0.3053591 -81.78   0.00205146    1.372    0.271
        66 -11.3761    109.0094    244.6726   1.3399578551e+02   9.6896181917e+00    0.1879333    0.1366579  63.78 0.0005714698    1.163    0.140
        67 -12.9298     96.4640    239.5401   1.3574769181e+02   1.2630896527e+01    0.3028001    0.2478264 -63.09  0.002007978    1.459    0.315
        68 -13.5024     93.1800    237.4352   1.3612910700e+02   1.3539656900e+01    0.4715941    0.3237822 -86.25  0.001028667    1.469    0.319
        69 -12.0743     95.5241    248.5508   1.3686450320e+02   1.1125670256e+01    0.3744598    0.2666297  64.63  0.001567619    1.141    0.123
        70  -9.9546     83.6403    250.7806   1.3918619087e+02   1.2524759776e+01    0.1033155   0.08482326  37.89 0.0004511043    1.564    0.361
        71 -10.8159     52.7285    250.6333   1.4443360773e+02   1.6873924698e+01    0.1951957   0.08132838  59.32 0.0008624888    2.028    0.507
        72 -13.2867     54.7762    194.0733   1.3888347555e+02   2.8047211474e+01     1.111207    0.3856534  58.80  0.003053812    3.871    0.742
        73 -13.6463      6.3663    179.7315   1.4720149589e+02   3.6399275112e+01     1.063969    0.7681831  14.39  0.007162253    2.273    0.560
        74 -13.7248     43.1411    196.9266   1.4152568473e+02   2.8874283773e+01     1.274357    0.6407524  56.51  0.006828283    1.876    0.467
        75 -13.8261     30.0827    212.4657   1.4538244985e+02   2.7104811325e+01     1.140258    0.5240953  74.12  0.005886697    2.212    0.548
        76 -14.2303     22.8970    199.9362   1.4569071090e+02   3.0502636265e+01    0.8838861    0.7239535 -61.03  0.005178639    1.533    0.348
        77 -13.5573     43.4421    237.6570   1.4500571425e+02   2.0493702247e+01    0.8942924    0.7770099  53.89  0.005459893    1.473    0.321
        78 -13.5565     47.9510    229.9335   1.4361432316e+02   2.1426141601e+01    0.3540915    0.2093081  57.16  0.001006345    1.404    0.288
        79 -14.0107      8.8326    207.0930   1.4876472610e+02   3.0429268389e+01     1.032429    0.4933822 -55.97  0.005816972    2.579    0.612
        80 -14.0499      3.9148    201.0572   1.4922128000e+02   3.2127904642e+01     0.624607    0.2918868 -81.31  0.003734132    1.658    0.397
        81 -13.8975     38.9968    225.6840   1.4484514851e+02   2.3381557803e+01    0.6667618    0.5908284  77.11  0.003278682    1.348    0.258
        82 -13.5282     28.4967    224.4624   1.4657681715e+02   2.4856503606e+01    0.5818366     0.290157 -78.47  0.001866979    1.703    0.413
        83 -14.5058     21.6388    221.5559   1.4754576176e+02   2.6196391276e+01     1.172506    0.4795598 -89.62  0.006009198    2.364    0.577
        84 -14.7490     12.1166    216.7081   1.4884045826e+02   2.8161801233e+01    0.9707798    0.4665379 -64.14  0.005840263    2.058    0.514
        85 -14.8437     14.1427    238.5307   1.4985884152e+02   2.3717844354e+01     1.180252    0.2996337  37.52  0.005402678    4.100    0.756
        86 -15.2125     28.2773    246.0488   1.4807961367e+02   2.0741263533e+01     1.465606    0.2334539  47.76  0.006214752    3.813    0.738
        87 -15.2617      7.0752    234.3782   1.5073349152e+02   2.5235832851e+01    0.7001886    0.6232336 -77.86  0.005902924    1.623    0.384
        88 -15.1187     19.4183    249.2162   1.4965560635e+02   2.1167508496e+01     0.690437    0.2515651  40.90  0.003859149    2.644    0.622
        89 -14.9335     13.0549    246.7921   1.5049426295e+02   2.2304278043e+01    0.4569027    0.4190985 -58.29  0.003514681    1.923    0.480
        90 -15.2036      3.4054    245.6660   1.5189173863e+02   2.3515945183e+01    0.6954416    0.3264022 -82.96  0.004619122    1.704    0.413
        91 -12.7735     69.9206    190.9248   1.3535095963e+02   2.6689258770e+01    0.4097809    0.2708087 -79.41  0.001128726    1.397    0.284
        92 -13.0540     66.0196    190.0481   1.3607010687e+02   2.7433061406e+01    0.6027169    0.3031357 -53.87  0.001157016    2.131    0.531
        93 -10.3692    243.9150    231.1011   1.0656942005e+02  -1.1092838142e+01    0.1675506    0.1524454  17.34 0.0002936103    1.260    0.206
        94 -10.8111    125.1582    220.9667   1.2789993737e+02   1.1406284104e+01    0.3046867    0.1983651 -88.31  0.001515053    2.001    0.500
        95 -10.7623    128.9756    228.2464   1.2814255622e+02   9.3491128052e+00    0.2520274    0.1330515  43.40 0.0003144942    1.665    0.399
        96 -10.5397    117.2385    218.6617   1.2917863366e+02   1.3237824239e+01    0.2167616    0.1694076 -86.32 0.0004055495    1.321    0.243
        97 -12.2887    124.0786    224.9547   1.2866475338e+02   1.0825531290e+01    0.5414065    0.3208649  59.13  0.001827016    1.645    0.392
        98 -11.1395    118.9238    222.1619   1.2931463919e+02   1.2257933472e+01    0.1982722    0.1824529  80.96 0.0003060859    1.134    0.118
        99 -10.1591    165.0225    228.3090   1.2102447405e+02   2.8833858959e+00    0.1955792    0.1662628  68.75  0.001180718    1.276    0.217
       100 -11.2569    162.6631    221.9614   1.2049567924e+02   4.4278699525e+00    0.4239041    0.2779928 -78.84   0.00125362    2.511    0.602
       101 -10.7043    162.6699    217.4613   1.1976968085e+02   5.2373638513e+00    0.2607145    0.1910313  39.42   0.00109392    1.243    0.195
       102 -11.1585    172.4368    226.2262   1.1923310293e+02   1.8914819981e+00    0.3654647    0.2124021  50.14  0.001012551    1.619    0.382
       103 -10.0049    139.9507    227.0275   1.2579970047e+02   7.6372729715e+00    0.1578251    0.1319756  53.72 0.0003214226    1.023    0.023
       104  -9.9255    225.0222    224.9667   1.0891190367e+02  -7.2034029125e+00    0.1513566     0.129303  14.02 0.0004100761    1.019    0.019
       105 -10.5340    158.2228    224.7099   1.2181496309e+02   4.7527677325e+00    0.2023804     0.176517  89.14 0.0005630903    1.305    0.234
       106 -11.2504    180.3919    222.5743   1.1706538563e+02   1.0571052894e+00    0.3869255    0.2499137  12.11  0.001256396    2.377    0.579
       107  -9.8698    250.1902    223.6204   1.0412137321e+02  -1.1059423889e+01    0.1730691   0.09900186  27.34 0.0005935334    1.644    0.392
       108  -9.8745     49.7168    223.3168   1.4273638149e+02   2.2520357387e+01    0.1240736   0.07047144  72.67  0.000549748    1.582    0.368
       109 -12.5648    128.4029    209.3155   1.2554097850e+02   1.3139161837e+01    0.4055136    0.3431175 -64.03 0.0003854287    1.267    0.211
       110 -12.3658    135.1346    219.1884   1.2562853998e+02   9.9762125863e+00    0.9662295    0.4070416  45.22  0.004130077    2.079    0.519
       111 -10.3545    128.2867    217.9943   1.2684576659e+02   1.1433172556e+01    0.1783279    0.1584249  76.63 0.0001857194    1.083    0.077
       112 -10.5265    124.9419    215.8555   1.2722015894e+02   1.2448111879e+01    0.2926431    0.1767443  35.97  0.001435823    1.757    0.431
       113 -10.5618     53.4527    220.6985   1.4181930848e+02   2.2567442774e+01    0.2138499    0.1305592  79.61  0.001116719    1.462    0.316
       114  -9.6181    250.4853    220.4881   1.0349885571e+02  -1.0680008217e+01     0.123983    0.1033634   6.48 -5.510362e-05    1.027    0.026
       115 -11.3799    195.2749    206.0196   1.1120124792e+02   1.1278607047e+00    0.3505751    0.2334783 -17.56 0.0009943303    1.995    0.499
       116 -11.7038    199.6164    204.8251   1.1011701993e+02   5.1593889112e-01    0.2606825    0.2372893  50.79 0.0003787827    1.182    0.154
       117 -11.5365    197.6417    219.4169   1.1313899139e+02  -1.5664097027e+00    0.4534788    0.2805358  37.33  0.002054124    1.448    0.310
       118 -12.0214    193.0972    213.5656   1.1299993933e+02   2.3962152969e-01    0.6049007     0.272092 -52.85 0.0009162524    3.103    0.678
       119  -9.3390    173.3035    220.3073   1.1809787720e+02   2.7531571554e+00     0.132256    0.1022015  10.84 0.0002325495    1.603    0.376
       120 -10.9409     47.9019    218.4953   1.4264240487e+02   2.3731969583e+01    0.3114591    0.1969861 -59.49  0.001894303    1.798    0.444
       121 -10.7389    229.4728    216.5041   1.0656080348e+02  -6.7067164014e+00    0.2194866    0.2118732 -18.55 0.0006288453    1.279    0.218
       122 -10.9732    231.2415    212.6817   1.0552732612e+02  -6.4337870038e+00    0.4127078    0.2299407 -46.61  0.002020518    2.221    0.550
       123 -10.3012    217.9452    217.2245   1.0884799961e+02  -4.8353092540e+00    0.2268618     0.139134  14.63  0.001082571    2.071    0.517
       124 -11.9903    176.9705    216.0986   1.1665754411e+02   2.8086278370e+00    0.3137065     0.213591  37.96 0.0004395705    1.334    0.250
       125 -11.0223    145.9370    214.6315   1.2273046926e+02   8.8788137735e+00     0.360758    0.1853333 -54.92  0.000726867    2.201    0.546
       126 -11.3640    216.9151    212.7165   1.0821980183e+02  -3.9510053710e+00     0.299221    0.2223824  16.45  0.001105758    1.356    0.263
       127 -11.3029    214.2209    208.4148   1.0793722783e+02  -2.7806066026e+00    0.3005938    0.1687704  50.50 0.0008913511    1.974    0.494
       128 -10.7360    172.9069    211.8244   1.1674738193e+02   4.3367409974e+00     0.195487    0.1761714  45.32 0.0003564482    1.028    0.028
       129 -10.4538    201.9496    226.8231   1.1358517342e+02  -3.5141324348e+00    0.2293343    0.1675018  -1.05 0.0007591355    1.648    0.393
       130 -11.5028    237.6103    209.9321   1.0384408134e+02  -7.0960116545e+00      0.29999    0.2065063 -32.94 0.0009058667    1.468    0.319
       131 -11.6955    103.7825    208.5863   1.3055657989e+02   1.7582774608e+01    0.3919246    0.2766557 -67.04 0.0009244324    1.441    0.306
       132 -12.0002     98.9703    205.2461   1.3110271072e+02   1.9085598120e+01    0.4058335    0.2239505  63.87 0.0003267454    1.984    0.496
       133 -10.4509    151.2379    209.9571   1.2088725058e+02   8.7879672421e+00    0.2002407    0.1705968  72.35 0.0002624129    1.214    0.176
       134 -10.1486    141.8349    208.9935   1.2268777735e+02   1.0737335795e+01    0.3197782    0.1819168 -78.77  0.001229784    3.213    0.689
       135 -10.0065    180.7574    209.1694   1.1469008769e+02   3.3253697297e+00    0.2257548    0.1523825  83.20 0.0009510086    2.811    0.644
       136  -9.8353     91.4204    208.4747   1.3308564316e+02   1.9621590781e+01    0.1316376    0.1117783  76.87 0.0001222225    1.026    0.025
       137 -10.2239    188.4652    206.9134   1.1272877854e+02   2.2615919472e+00    0.1921307    0.1377611 -42.78  0.000389301    1.524    0.344
       138 -11.8344    112.1461    205.1229   1.2832638725e+02   1.6885409761e+01    0.2985078     0.240142  79.39 0.0009480059    1.188    0.158
       139 -11.2078    116.1634    204.8485   1.2744045528e+02   1.6241982670e+01    0.2620893    0.2220874  44.55 0.0005965563    1.217    0.178
       140  -9.6595    226.6488    206.2766   1.0517717399e+02  -4.6545013911e+00    0.1224316     0.106038  71.19 0.0007006708    1.641    0.391
       141 -11.4808    193.1085    195.2114   1.0960262315e+02   3.4689463897e+00    0.3701529    0.2321526 -23.17  0.001663256    2.101    0.524
       142 -11.2953    190.1278    186.9079   1.0859107694e+02   5.6005320647e+00    0.2968355    0.2278607  31.08  0.000800562    1.302    0.232
       143 -11.9725    188.4817    196.1687   1.1072768122e+02   4.1982093424e+00    0.3258633    0.2580172  32.92 0.0004210794    1.208    0.172
       144 -11.7678    188.8178    191.4099   1.0974391567e+02   5.0152008559e+00    0.3122347    0.2412216 -45.29 0.0005051648    1.384    0.277
       145 -11.8995    183.1719    204.3797   1.1333952221e+02   3.7273737701e+00    0.3153367    0.2549843 -40.16 0.0003246406    1.346    0.257
       146 -11.0121    184.0447    200.2837   1.1240855486e+02   4.3065486458e+00    0.2283901    0.1980473 -35.99  0.000246408    1.242    0.195
       147 -11.1687    144.8544    205.8834   1.2155272607e+02   1.0788021807e+01    0.2367606     0.203971 -39.70 0.0003063226    1.358    0.264
       148 -10.4051    145.8447    202.5718   1.2079529823e+02   1.1261749840e+01    0.2200419    0.1763743  60.13 0.0003950976    1.195    0.163
       149 -11.7924     89.3944    202.9498   1.3279243182e+02   2.1120963386e+01    0.4166556    0.2800767 -64.58  0.001186724    1.477    0.323
       150 -11.2462    208.9144    202.5203   1.0785451385e+02  -8.3153520046e-01    0.1972501    0.1701175  30.76 0.0009335651    1.072    0.067
       151 -11.7206    204.9880    197.7357   1.0771002517e+02   7.2812040313e-01    0.3005936    0.1896258  37.70 0.0008310983    1.497    0.332
       152 -11.6725    121.0127    200.2625   1.2571696931e+02   1.6343716545e+01    0.4967273    0.3583695 -89.11  0.001819287    1.576    0.365
       153 -13.9262      8.6263    189.3714   1.4752550750e+02   3.4139314629e+01     1.091073    0.6713586  28.54  0.007003246    2.246    0.555
       154 -12.5402    241.4375    200.4557   1.0133665256e+02  -6.3062592834e+00    0.3640113     0.295783 -32.68 0.0001679957    1.275    0.215
       155 -12.0288    247.1188    199.8328   1.0019706580e+02  -7.1666264500e+00    0.2638959    0.2312957  25.61 0.0003423239    1.177    0.150
       156  -9.8138    220.6691    201.3414   1.0536288549e+02  -2.7959902402e+00    0.1287898     0.110183  88.08 -3.250617e-05    1.747    0.428
       157 -10.3045    216.1559    189.3952   1.0388511491e+02   5.3978826288e-02      0.20056    0.1758123  35.74 0.0004404195    1.126    0.112
       158 -11.2058    216.6100    193.2198   1.0455761623e+02  -6.8969628959e-01    0.3065948    0.2010322 -12.86   0.00102174    1.962    0.490
       159 -12.4386    139.2486    197.1278   1.2128915971e+02   1.3624947533e+01    0.5794703    0.3572659 -48.79  0.002768913    1.764    0.433
       160 -12.0828    100.1123    198.7394   1.2996055126e+02   2.0293281006e+01    0.4504342    0.2777485  52.73  0.001078534    1.501    0.334
       161 -10.7405    170.0134    197.3583   1.1477635834e+02   7.6035426797e+00    0.3991826    0.2044809 -44.72  0.001719301    2.118    0.528
       162 -11.4039    107.5097    195.4024   1.2788348434e+02   1.9765349553e+01    0.6534393    0.3239047  57.80  0.002762377    2.212    0.548
       163 -11.4220    113.3862    194.3547   1.2644746266e+02   1.8967836241e+01    0.3871352    0.2550725  32.55 0.0009862888    1.787    0.440
       164 -10.1232     86.7916    191.4440   1.3179970016e+02   2.4051082569e+01    0.1955822    0.1267059  44.49 0.0005783697    1.526    0.345
       165 -11.0171     93.5528    196.1495   1.3099802147e+02   2.1934307811e+01    0.2941363    0.2808531  -7.33  0.001830424    1.450    0.311
       166 -10.5411     89.8725    194.8872   1.3161153162e+02   2.2801986631e+01    0.3790143    0.1773254 -65.91  0.001677212    2.161    0.537
       167 -11.3278    248.9627    185.4754   9.7026996426e+01  -5.2558525084e+00    0.2927339    0.2690687  21.61  0.001307621    1.166    0.143
       168 -11.8319    248.1353    181.8713   9.6442551508e+01  -4.5375000327e+00    0.4129916    0.2302443 -48.84   0.00119909    2.194    0.544
       169 -11.9581    250.5991    194.9680   9.8630033984e+01  -7.0077674127e+00    0.2598668    0.1594993 -35.20 0.0003440582    1.571    0.363
       170 -12.9726    246.2081    190.8522   9.8591996868e+01  -5.6299403975e+00     0.351938    0.3044743   7.91 0.0005649616    1.055    0.052
       171  -9.5818    198.7746    194.9772   1.0841425222e+02   2.4089208797e+00    0.1737363    0.1160362 -39.66 0.0004234345    1.577    0.366
       172 -10.9735    123.7796    192.5265   1.2388509443e+02   1.7490466183e+01    0.3592417    0.2151748 -39.22  0.001590638    2.237    0.553
       173 -11.0143    120.6093    189.4205   1.2407232606e+02   1.8744276994e+01    0.3947641    0.1866234 -61.05  0.001609723    2.316    0.568
       174 -11.2660    209.4099    192.0300   1.0572489446e+02   8.8151398175e-01    0.2597143    0.1740045 -51.97  0.001268398    1.786    0.440
       175 -11.5655    165.0706    192.2094   1.1487109009e+02   9.5901262404e+00    0.4504715    0.2366454  30.73  0.001771309    2.398    0.583
       176 -12.0764    163.1123    188.8252   1.1465733341e+02   1.0659091667e+01    0.4037122    0.2848188  43.79  0.000544321    1.332    0.249
       177 -12.3147    154.6676    192.3019   1.1711817032e+02   1.1631546206e+01    0.2899765    0.2650227  63.25 0.0003128637    1.053    0.050
       178 -12.0392    149.3198    190.9730   1.1803552163e+02   1.2955463059e+01    0.2642451    0.2415265 -84.52 0.0003984339    1.134    0.118
       179 -11.3735    178.1004    189.9059   1.1167847585e+02   7.4390248142e+00    0.2588851    0.2315182 -82.95 0.0003076966    1.295    0.228
       180 -11.4783     81.9795    189.6975   1.3260185086e+02   2.5185488021e+01     0.293058    0.2393856 -80.07  0.000511934    1.119    0.106
       181 -12.0598    106.8487    187.7326   1.2685037462e+02   2.1566709771e+01    0.4858655    0.2861718  49.10  0.001719616    1.609    0.378
       182 -11.3811     34.9177    188.9668   1.4238069094e+02   3.1565046468e+01    0.3209373    0.2530427 -13.13  0.001958314    2.354    0.575
       183 -11.5061     31.1482    169.9879   1.4120389394e+02   3.6199572449e+01    0.5811094    0.1999219  40.13  0.002685686    2.899    0.655
       184 -11.6914     33.0533    183.7189   1.4223861602e+02   3.2926841902e+01    0.4269155    0.2905604  86.46  0.002683177    1.228    0.186
       185 -12.0335     26.9472    179.3880   1.4305985918e+02   3.4531635335e+01    0.2971323    0.2217473 -80.32 0.0007902716    1.097    0.088
       186 -11.1323     34.9848    179.4948   1.4140645990e+02   3.3654762252e+01    0.2333198    0.1634268 -88.98 0.0008749951    1.173    0.148
       187 -13.0090     31.8119    175.8577   1.4169032263e+02   3.4810255947e+01    0.3735751     0.325802  17.98  0.001631894    1.672    0.402
       188 -11.0613    233.8738    194.0998   1.0147241778e+02  -3.9922352625e+00    0.2291673    0.2053711 -32.65 0.0005584734    1.212    0.175
       189 -11.2155     91.7833    188.1917   1.3024955269e+02   2.3984525343e+01    0.2285076    0.1974255 -82.03  0.000323087    1.089    0.082
       190  -9.7760     58.5081    187.5000   1.3735312403e+02   2.9019766721e+01    0.1290309    0.1068142  88.89 -7.277737e-05    1.034    0.033
       191 -11.5052    199.2097    185.4860   1.0645376326e+02   4.0523601057e+00    0.2426642     0.232733  -9.33 0.0003235869    1.057    0.054
       192 -13.9073     42.0320    208.8245   1.4286688558e+02   2.6466345300e+01     1.207722    0.5545154  59.42  0.006083516    2.049    0.512
       193 -10.3371    175.5174    184.7184   1.1121535658e+02   8.9764557314e+00    0.2664913    0.1442264 -40.77 0.0009249143    1.999    0.500
       194 -10.0437    150.8455    185.1567   1.1663709397e+02   1.3865968461e+01     0.198132    0.1675916  25.65 0.0003971637    1.327    0.246
       195 -10.9671    140.3070    184.3541   1.1881939840e+02   1.6115231656e+01    0.2380494    0.2190094  19.30 0.0006079674    1.261    0.207
       196 -10.0666    237.9842    183.6888   9.8629304317e+01  -3.0308418842e+00    0.1911706     0.172458   9.37  0.001158356    1.049    0.047
       197 -11.6315    122.6882    182.9439   1.2251504613e+02   1.9784365682e+01    0.2876126    0.2407474  83.49 0.0004914887    1.196    0.164
       198 -11.9189    118.4114    178.4616   1.2270690465e+02   2.1574431787e+01    0.4062187    0.2908439 -64.81  0.001077806    1.415    0.293
       199 -12.4986     92.4599    180.7088   1.2898214461e+02   2.5566696767e+01    0.5835651    0.3145147 -43.23  0.002308148    2.473    0.596
       200  -9.8613    225.7562    183.4226   1.0084141961e+02  -7.3161567491e-01    0.2028221    0.1227818  30.24 0.0009452533    1.767    0.434
       201 -12.1049    107.8985    180.4597   1.2544292990e+02   2.3014005353e+01    0.4024844    0.2625566 -52.54 0.0009411168    1.588    0.370
       202 -11.3323    103.6001    182.1680   1.2669474573e+02   2.3374169371e+01    0.2519282    0.2209428  51.95 0.0003514676    1.166    0.143
       203 -12.0765    104.0719    178.3013   1.2595939935e+02   2.4169740828e+01    0.3296737    0.2505638 -74.79 0.0004411656    1.295    0.228
       204 -12.2680     58.7811    180.8948   1.3649039513e+02   3.0473895257e+01    0.5728649    0.3337457  33.97  0.002990608    2.035    0.509
       205 -11.3900    214.0053    196.6982   1.0574387848e+02  -7.9446718586e-01    0.2891199    0.1977349 -39.75 0.0006930147    1.528    0.346
       206  -9.9790    156.5789    181.7303   1.1472841142e+02   1.3432905004e+01    0.1944529    0.1424665 -62.71 0.0006107632    1.527    0.345
       207 -11.0427    230.1758    180.3007   9.9372630941e+01  -1.0267687932e+00    0.2894046    0.2057045 -71.32  0.001270172    2.509    0.601
       208 -10.0711    220.4249    181.2581   1.0141174234e+02   6.5768872017e-01     0.190579     0.131396 -47.52 0.0007185877    1.593    0.372
       209 -10.1052    217.4874    177.9810   1.0129983172e+02   1.8076369937e+00    0.2161735    0.1795854 -58.12 0.0004406812    1.445    0.308
       210 -10.5703    190.3414    180.1876   1.0719652504e+02   6.8399292575e+00    0.2667986    0.2182962 -85.80 0.0006552387    1.621    0.383
       211 -10.8665     47.8259    179.3514   1.3867076188e+02   3.2206424746e+01    0.3558509    0.1740147 -69.00   0.00179607    1.762    0.432
       212 -13.1969     59.6648    213.1661   1.3992737317e+02   2.3297582027e+01    0.5772804    0.4585979 -73.46   0.00197074    1.292    0.226
       213 -10.1898     41.9238    179.2380   1.3991747673e+02   3.2930667811e+01    0.1998412    0.1775145 -22.04  0.001320135    1.708    0.415
       214 -10.8999    177.1898    176.5906   1.0923262491e+02   1.0257432996e+01     0.361437     0.192565 -34.90  0.001441294    2.236    0.553
       215 -11.8438    136.3703    176.1397   1.1818653970e+02   1.8672252638e+01    0.2727164    0.2531603 -58.94 0.0002963189    1.127    0.113
       216 -10.8268     59.5652    171.7082   1.3512903955e+02   3.2474988390e+01    0.4793792    0.2006737 -64.96  0.002132926    2.105    0.525
       217 -11.6109     40.7322    166.2829   1.3867140576e+02   3.6009552126e+01     0.287798    0.2384006 -23.04  0.001136617    1.812    0.448
       218 -10.7098     51.9975    162.0012   1.3555015092e+02   3.5682242083e+01    0.2539486    0.2030848 -54.73 0.0008380908    1.335    0.251
       219 -10.4499     48.5156    161.5489   1.3629675067e+02   3.6205712140e+01    0.2173499    0.1741085  53.56 1.033996e-05    1.322    0.243
       220 -11.2360     56.7402    168.3392   1.3531760568e+02   3.3619262121e+01    0.2889402    0.2437681  11.93  0.001123233    1.714    0.416
       221 -12.3906     50.6112    170.6771   1.3700696259e+02   3.3845567110e+01    0.8620059    0.3836333  70.68  0.003163814    3.821    0.738
       222 -10.9215     52.7986    166.7859   1.3600899111e+02   3.4474116895e+01    0.2678351    0.1859029 -72.98  0.000729711    1.232    0.189
       223 -11.2685    204.0016    174.6911   1.0327084926e+02   5.1013751999e+00    0.2983467    0.2681023 -31.48 0.0006516491    1.121    0.108
       224 -10.4140    129.5483    175.7000   1.1966207291e+02   2.0095775922e+01    0.2468803    0.1687078  66.26 0.0005852237    1.653    0.395
       225 -11.0175    194.9937    174.7641   1.0511737250e+02   6.9312771179e+00    0.2999759    0.2065898 -41.32 0.0009876932    1.487    0.328
       226 -10.3424    189.7808    174.4723   1.0613589028e+02   8.0652858384e+00    0.2662216    0.1412727  48.92 0.0005856223    1.895    0.472
       227 -10.5258    166.5416    174.5132   1.1111546310e+02   1.2894832903e+01    0.1490534    0.1424651  61.86 5.708262e-05    1.027    0.027
       228  -9.5441    152.5315    174.5051   1.1421903229e+02   1.5786386850e+01    0.1495765    0.1416536  66.68 7.861336e-05    1.012    0.012
       229 -12.1793     88.4732    171.9062   1.2852086459e+02   2.8232690483e+01    0.5672932    0.3274738  82.18  0.002354431    2.500    0.600
       230 -11.1100    156.7572    172.5399   1.1288160997e+02   1.5338771265e+01    0.2857575    0.2401265 -80.45 0.0009264412    1.338    0.253
       231 -10.9160    139.9696    171.5042   1.1647749576e+02   1.8981581886e+01    0.2788898    0.2202655  24.98   0.00136847    1.521    0.342
       232 -10.9524     23.9675    172.0557   1.4295014439e+02   3.6460493598e+01    0.2147193    0.1778008  21.79 0.0009883271    1.729    0.422
       233 -11.4896    173.1122    172.0856   1.0918583548e+02   1.2025220040e+01    0.3350306    0.2339741  -0.38  0.001381603    2.358    0.576
       234 -10.8527     19.1565    169.3264   1.4368977067e+02   3.7528688635e+01    0.2691489    0.1651875  87.48  0.001628161    1.411    0.291
       235 -10.3542      3.5397    167.5047   1.4675097158e+02   3.9281008039e+01    0.1967309    0.1820776 -22.63  0.001135918    1.629    0.386
       236 -10.3443     11.6893    163.3316   1.4468281229e+02   3.9525257484e+01    0.2053451    0.1463847 -59.10 0.0008640602    1.426    0.299
       237 -10.9342      7.4989    169.4195   1.4611135148e+02   3.8539077872e+01    0.2144259    0.1444477 -89.47 0.0006198168    1.150    0.131
       238 -11.5552      8.3005    165.9604   1.4563802956e+02   3.9230296467e+01    0.2021397    0.1641164 -71.70 0.0004051587    1.233    0.189
       239 -11.0489    170.3821    168.6184   1.0905943059e+02   1.3317830627e+01    0.2671976     0.224456  50.95 0.0003133696    1.164    0.141
       240  -9.3514    108.6529    169.2689   1.2335009908e+02   2.5436501850e+01    0.1500504    0.1052685  72.66 0.0006990153    1.617    0.382
       241 -11.2895    193.8681    167.9953   1.0391955374e+02   8.4825791784e+00    0.3238281    0.2102526  42.59 0.0007244581    1.515    0.340
       242 -11.1989    195.4739    164.2236   1.0277540985e+02   8.8856180285e+00    0.2650288    0.2482311  58.14 0.0003191466    1.116    0.104
       243  -9.9072    119.5357    168.5033   1.2065065464e+02   2.3622770766e+01    0.1487825    0.1358119  82.82 0.0002826916    1.027    0.026
       244 -10.6173    113.7653    168.1494   1.2194375718e+02   2.4771779900e+01    0.2431715    0.1830708  56.17 0.0006379395    1.306    0.235
       245 -10.7409     61.4419    167.1618   1.3407756272e+02   3.3281264529e+01     0.249872    0.2329996 -51.79  0.001608104    1.313    0.239
       246 -10.4229    217.0554    167.1187   9.9089323489e+01   3.8642546584e+00    0.2157483    0.1855251   0.35 0.0004261644    1.216    0.178
       247 -11.0652    186.5152    165.3534   1.0489085585e+02   1.0562433525e+01    0.5334551    0.1487265 -42.88  0.001580041    3.673    0.728
       248  -9.9759     23.9067    167.4329   1.4248916111e+02   3.7500666129e+01    0.1515964    0.1136192  44.35 0.0005430925    1.521    0.343
       249 -11.0638    203.7304    164.4021   1.0113123598e+02   7.1137259309e+00    0.4776411    0.2800717 -62.71  0.001818675    2.732    0.634
       250 -10.4971    124.1830    164.4970   1.1879386341e+02   2.3656931363e+01    0.4153243     0.191673 -57.14  0.001369725    2.265    0.559
       251 -10.6244    139.5078    165.0634   1.1530856711e+02   2.0505464232e+01     0.225495    0.1482736 -54.20  0.001015662    1.550    0.355
       252 -11.5258    237.1389    173.2153   9.6621265818e+01  -1.1189429843e+00    0.3004272    0.1559642  40.86 0.0008886649    1.973    0.493
       253 -10.7017     45.3531    162.3221   1.3712744491e+02   3.6396321457e+01    0.3535091    0.1614792 -78.72 0.0009178838    2.285    0.562
       254 -11.0220    239.1828    163.8906   9.4282320214e+01   9.9584203041e-02     0.193452    0.1549289  -6.45 0.0003328653    1.315    0.240
       255 -11.3068    100.9664    163.4931   1.2414731639e+02   2.8123559667e+01    0.2625684    0.2052251  84.93 0.0005272354    1.336    0.252
       256 -11.3766     99.2920    160.6512   1.2404039113e+02   2.9075519242e+01    0.3300342    0.1959416 -64.18  0.001153418    1.672    0.402
       257 -10.5791    178.8557    162.6720   1.0594885285e+02   1.2746369929e+01     0.258773    0.2085747 -30.80 0.0006987648    1.339    0.253
       258  -9.7090    172.0000    163.0087   1.0751474709e+02   1.4146770342e+01    0.2527988   0.08714015 -45.28 8.594475e-05    2.967    0.663
       259 -12.0970     18.9840    160.4136   1.4281986344e+02   3.9536954095e+01    0.3437895    0.2428169 -58.04  0.001144339    1.419    0.295
       260 -11.3672    224.8706    161.5615   9.6401096209e+01   3.3086008076e+00    0.3204927    0.2505838  62.11  0.001157016    1.550    0.355
       261 -10.8628    133.0345    162.2959   1.1626740329e+02   2.2426712971e+01    0.2182819    0.1842526  56.75 0.0004696107    1.158    0.136
       262 -10.0972     25.1969    161.8715   1.4161251557e+02   3.8629141317e+01    0.1866994    0.1345451  78.60 0.0007434532    1.268    0.211
       263 -10.3287      4.1118    162.1718   1.4616702076e+02   4.0400560348e+01    0.1630812     0.121969 -74.52 0.0003297516    1.144    0.126
       264 -11.7912     34.6282    158.5381   1.3910690541e+02   3.8444674653e+01    0.3670724    0.2174218  65.51 0.0004853595    1.819    0.450
       265 -11.1353     37.6934    154.7908   1.3792637407e+02   3.8985126284e+01    0.3741454    0.1694747 -73.80  0.001446336    1.987    0.497
       266 -10.4226    196.6986    159.9285   1.0158464795e+02   9.4723849561e+00      0.20773     0.194705 -39.58 0.0005235499    1.075    0.069
       267 -11.7136    192.4955    159.5918   1.0238054950e+02   1.0439912821e+01    0.3630382    0.2911074 -71.06  0.001630902    1.535    0.348
       268 -10.8658    181.5816    158.9669   1.0455291022e+02   1.2922289061e+01    0.2261363    0.1485385 -43.23 0.0003433924    1.545    0.353
       269 -11.2639    107.3631    158.0709   1.2160148584e+02   2.8268737117e+01    0.2742538    0.2331815 -71.61 0.0003818991    1.122    0.109
       270 -10.8483    106.7019    154.6987   1.2111721887e+02   2.9176724663e+01    0.2868403    0.2451202 -41.39  0.001263565    1.303    0.233
       271 -13.1009    136.7415    156.5266   1.1420549353e+02   2.2987544109e+01    0.4157984     0.289323  46.74  0.001223655    1.420    0.296
       272  -9.8931    205.5928    157.1890   9.9175244783e+01   8.1132868606e+00    0.2076003    0.1401176 -29.28 0.0006940357    1.599    0.375
       273 -10.6329     12.3885    156.3257   1.4383950797e+02   4.1024470635e+01    0.2655473    0.1686459 -43.40  0.001548101    2.001    0.500
       274 -11.0242     18.4773    154.0659   1.4224897135e+02   4.1010836077e+01    0.2235699    0.2050346  12.32 0.0009118987    1.537    0.349
       275 -10.9001      7.3729    156.6503   1.4496179245e+02   4.1359680394e+01    0.2025042    0.1370089 -56.12 0.0002525057    1.506    0.336
       276 -10.5132    156.3568    156.0527   1.0952116425e+02   1.8991664058e+01    0.2122555    0.1942498 -56.20 0.0008109538    1.104    0.094
       277 -11.5224    146.5150    155.0374   1.1158281254e+02   2.1301885121e+01     0.326003    0.2903445 -78.14 0.0006363977    1.163    0.140
       278  -9.4380    199.5664    155.7339   1.0006781602e+02   9.6856001481e+00    0.1587204    0.1149968  15.18 0.0006926811    1.819    0.450
       279 -10.1783    123.0521    155.2226   1.1722344752e+02   2.6006477874e+01    0.2020987    0.1850989  71.37  0.001084151    1.061    0.057
       280 -11.2470    114.1928    154.6678   1.1927161533e+02   2.7817265462e+01     0.362171    0.2626596  74.49 0.0008219121    1.624    0.384
       281  -9.9752     85.7837    154.9652   1.2632692367e+02   3.2631354017e+01    0.1915303    0.1064256 -59.59  0.000864027    1.666    0.400
       282 -10.9844    236.9933    154.0106   9.2539424941e+01   2.2572458300e+00    0.1740281    0.1554348 -27.07  0.000335839    1.041    0.039
       283 -10.1870    129.6603    154.0322   1.1537919262e+02   2.4982111125e+01    0.2094385    0.1883333 -63.12 0.0003646337    1.095    0.087
       284 -10.1155     82.4864    154.0132   1.2697398290e+02   3.3368855098e+01    0.2175944    0.1271949 -59.53  0.001023088    1.570    0.363
       285  -9.6343     62.6704    154.7094   1.3195093865e+02   3.6034256420e+01    0.1283486   0.09970742 -37.06  0.000263924    1.623    0.384
       286 -11.1109    152.9308    152.6413   1.0956508791e+02   2.0474341079e+01    0.3311508    0.2099918 -67.23  0.000889594    2.056    0.514
       287 -10.5324    156.5217    152.0168   1.0859690391e+02   1.9840563052e+01    0.2654243    0.1804648   2.51 0.0007776844    2.803    0.643
       288 -11.9649    247.9282    150.6957   8.9919353432e+01   7.2119409853e-01    0.4305534     0.297071 -56.45  0.002140005    1.756    0.431
       289 -10.8260    226.0984    151.9218   9.4056288942e+01   4.8227594465e+00    0.2129778    0.1941167 -63.50 0.0004418018    1.230    0.187
       290  -9.8768    166.1574    152.1440   1.0643107746e+02   1.7720011455e+01    0.2064432    0.1794056  88.66 -0.000430966    1.288    0.223
       291 -10.5638    209.5152    156.4879   9.8240996913e+01   7.4180402041e+00    0.1468679    0.1423745 -11.09 0.0001839289    1.006    0.006
       292  -9.8084     66.4976    158.4439   1.3160368993e+02   3.4641374191e+01    0.1359766    0.1166595 -84.43 0.0002649102    1.014    0.014
       293 -11.6684    103.4860    149.5915   1.2091744068e+02   3.0948191468e+01    0.3994549    0.2995371  30.38  0.001987013    1.568    0.362
       294 -11.6708    178.1328    149.8264   1.0325491982e+02   1.5576806028e+01    0.2601017    0.2470117  -0.81 0.0002448749    1.121    0.108
       295 -10.7644    228.9913    148.2421   9.2706843194e+01   4.9053512227e+00    0.1890764    0.1231654  47.28 0.0007757971    1.615    0.381
       296 -10.9579    165.5208    148.0347   1.0564729966e+02   1.8744729777e+01    0.2569574    0.2043949  46.76  0.001232843    1.247    0.198
       297 -10.4279    155.2617    146.9925   1.0776253126e+02   2.1218073099e+01    0.3715125    0.1800735 -34.89  0.001277247    2.695    0.629
       298 -10.0987     91.3438    148.3001   1.2372089231e+02   3.3317589897e+01    0.1405822    0.1129885 -23.02 0.0007036987    1.676    0.403
       299  -9.9946     31.5344    148.4400   1.3855659034e+02   4.1078849496e+01    0.1251121    0.1005659 -76.66 0.0002078872    1.020    0.020
       300 -10.1209    195.6876    146.8491   9.8851507817e+01   1.2300551051e+01    0.2351881     0.189955 -17.56 0.0006442759    1.416    0.294
       301  -9.6208     43.5203    147.4333   1.3553120078e+02   4.0061604139e+01    0.1290665    0.1068258 -78.78 0.0001257688    1.013    0.013
       302 -10.6572     36.6107    146.3100   1.3705444931e+02   4.1059444686e+01    0.2718836    0.1731149  73.00  0.001128796    1.741    0.426
       303  -9.7575    189.4953    146.4525   1.0004882188e+02   1.3753205925e+01    0.1516696    0.1496565 -87.69 4.696341e-05    1.031    0.030
       304 -12.2458     69.6654    211.5184   1.3781198154e+02   2.2256313884e+01    0.7815837    0.3834448  82.14  0.002979566    2.772    0.639
       305 -10.5779    161.2583    144.9467   1.0591149347e+02   2.0353560486e+01    0.3241056    0.1998219  72.50  0.001174029    2.614    0.617
       306 -11.6972     22.9811    144.4961   1.4008943491e+02   4.2783335951e+01    0.3931069    0.2217621  69.25   0.00210163    2.063    0.515
       307 -11.5546     21.6873    141.6522   1.4004375584e+02   4.3544892341e+01    0.3205519     0.179667 -64.18  0.001257481    1.417    0.294
       308 -11.4735    225.3969    143.1024   9.2209376722e+01   6.5995014284e+00    0.2487098    0.2409689  34.66 0.0003658195    1.082    0.076
       309 -11.4999    219.6884    143.0989   9.3267397365e+01   7.8077011947e+00    0.3032744     0.230345  58.06  0.001502552    1.460    0.315
       310 -10.7445    177.5564    143.5583   1.0193873569e+02   1.7020918956e+01    0.2454852    0.2053798  56.61 5.552405e-05    1.219    0.180
       311 -10.3034    177.4904    140.5173   1.0124171140e+02   1.7675124827e+01    0.2978306     0.214399 -84.20  0.001136259    2.028    0.507
       312 -10.4447     85.3555    143.9772   1.2442423674e+02   3.5301618176e+01    0.2295288    0.1832655  64.21 0.0005377043    1.316    0.240
       313 -11.4055     52.6493    144.0578   1.3276327929e+02   3.9802050784e+01    0.2680163    0.1861724  56.51 0.0003013233    1.561    0.360
       314 -11.5896     49.2637    140.5118   1.3305909627e+02   4.1031336598e+01    0.3035447    0.2243691  59.55  0.001309516    1.468    0.319
       315 -10.4787    231.1467    143.1258   9.1172679044e+01   5.3989177869e+00    0.1963303    0.1653569 -57.96 0.0003119705    1.294    0.227
       316 -10.5523      4.9556    143.0108   1.4412129960e+02   4.4568941823e+01    0.1737619    0.1582795  70.04   0.00105644    1.298    0.230
       317 -10.0995    182.6580    142.2945   1.0053792718e+02   1.6139046555e+01    0.1583066    0.1238845 -89.99 0.0005251882    1.659    0.397
       318 -10.6202    168.8784    141.9594   1.0348924421e+02   1.9305693976e+01    0.2666377    0.2234053 -47.53 0.0009880882    1.196    0.164
       319 -11.0118    168.7691    138.0583   1.0259555015e+02   2.0166069836e+01    0.3070715    0.2285198  39.24 0.0007935379    1.399    0.285
       320 -12.4944    131.3869    140.2710   1.1196767173e+02   2.7788225406e+01    0.4725339    0.4185693 -75.16  0.002444832    1.148    0.129
       321 -10.4322     59.0493    141.2046   1.3067746084e+02   3.9686266410e+01    0.3006612    0.1745957  79.04  0.001077962    2.478    0.596
       322  -9.4916     62.7033    140.6682   1.2964876071e+02   3.9343296079e+01    0.2490264    0.1477905 -21.53 0.0009601406    3.663    0.727
       323 -11.1338    240.9547    141.1991   8.9024126237e+01   3.7525763965e+00    0.2485712    0.1770047  60.06   0.00123985    1.676    0.403
       324  -9.8206     41.5115    139.5018   1.3486441154e+02   4.2126825891e+01    0.1907132    0.1089675 -77.23 -9.564913e-05    1.666    0.400
       325 -11.7712     37.3894    137.3427   1.3558243290e+02   4.3057374599e+01     0.320633    0.2457896  -4.59  0.000670655    1.917    0.478
       326 -10.1178    207.5033    138.4893   9.4540830744e+01   1.1342565322e+01    0.1506161    0.1458218 -53.74 5.360828e-05    1.040    0.039
       327 -11.0062    180.9036    137.1122   9.9694117271e+01   1.7614580315e+01     0.400517    0.2588418  58.28  0.001037617    1.700    0.412
       328 -10.9292    156.8098    136.3804   1.0493908990e+02   2.3210933488e+01    0.3160265    0.2697416 -74.98 0.0006802754    1.281    0.220
       329 -11.1020     59.0776    133.9370   1.2941680753e+02   4.1393642403e+01    0.3410458    0.1787148 -45.49  0.001192214    1.990    0.497
       330 -11.5724      7.6298    134.6518   1.4257012925e+02   4.6237466504e+01     0.341845    0.2037603 -47.44  0.001670962    1.751    0.429
       331  -9.7551    195.5009    135.4546   9.6229280194e+01   1.4635424326e+01    0.1553028    0.1468312 -77.18 0.0001248283    1.103    0.094
       332 -10.5180    149.0980    135.1231   1.0646192385e+02   2.5190618242e+01    0.2222531     0.209972  -6.82  0.001146959    1.176    0.150
       333 -11.2499     77.5607    134.9561   1.2471858964e+02   3.8626158209e+01    0.2603856    0.2133337  62.98 0.0001176906    1.307    0.235
       334 -10.3740    213.5176    133.1351   9.2129982040e+01   1.1049065847e+01     0.329697    0.1462919 -34.47  0.001185648    2.410    0.585
       335 -10.4548    147.4603    130.0636   1.0564041126e+02   2.6671363112e+01    0.2581126    0.2121157  36.12 0.0005658934    1.293    0.227
       336 -11.6206    143.4830    132.6839   1.0723398488e+02   2.6956237478e+01    0.3203364      0.27453  54.15 0.0002976389    1.174    0.148
       337 -10.6403     40.0449    132.6811   1.3419014923e+02   4.3865609744e+01    0.1745124    0.1533763 -74.19 0.0005888314    1.071    0.067
       338 -10.7849    248.4978    129.6536   8.5201867603e+01   4.2860827558e+00    0.3381571    0.2453606 -75.55  0.001642427    1.947    0.486
       339 -10.5099    101.9431    131.3249   1.1749983091e+02   3.5514399008e+01    0.2005806    0.1911517  60.14 0.0004751305    1.095    0.087
       340 -10.2360     49.2058    132.0207   1.3168728888e+02   4.3024112034e+01    0.2180508    0.1360273  85.58  0.001066841    2.014    0.503
       341 -10.7679     34.0683    129.6401   1.3527047426e+02   4.5165638367e+01    0.3941712    0.2096501 -23.15  0.001614311    3.975    0.748
       342 -10.6916     21.9658    130.7468   1.3854121060e+02   4.6002887670e+01    0.1848547    0.1413992  87.59  0.000597753    1.261    0.207
       343 -10.4287    184.7560    130.0848   9.7179455222e+01   1.8187672168e+01    0.2262272     0.205326 -71.93 0.0004360189    1.159    0.137
       344 -10.4006    128.5268    130.1215   1.1033452525e+02   3.0692039424e+01    0.2185833    0.2050776  58.93 0.0004137471    1.076    0.071
       345 -10.4214    122.0004    130.0417   1.1197871537e+02   3.2030542693e+01    0.2387448    0.1875777 -15.62 0.0006215198    1.698    0.411
       346 -10.2038     86.2927    129.9646   1.2137789745e+02   3.8464016160e+01    0.2029444    0.1697342 -59.81 0.0004461419    1.096    0.088
       347 -11.6548     61.3075    128.7375   1.2787443136e+02   4.2331306807e+01    0.2535631    0.2057048 -49.60 0.0005811554    1.193    0.162
       348 -10.0457     50.7886    128.4384   1.3064968528e+02   4.3678538121e+01      0.16111    0.1301483   3.07 0.0009419578    1.663    0.399
       349  -9.6641     17.6595    128.2808   1.3929556212e+02   4.6912809797e+01    0.1182434   0.08002856  74.54 0.0001651187    1.627    0.385
       350 -12.4574    206.6521    124.8024   9.1464539185e+01   1.4206645603e+01    0.3341001    0.3061661 -33.15 0.0003820545    1.089    0.082
       351  -9.8842    162.2116    130.2132   1.0220059818e+02   2.3337596679e+01    0.2088622    0.1826838 -85.77 0.0003519647    1.260    0.206
       352 -11.5572    125.4123    124.2146   1.0971050316e+02   3.2669789284e+01    0.3590107    0.2666146  73.64  0.001624704    1.692    0.409
       353 -11.8978     69.1680    123.5101   1.2470752084e+02   4.2511777599e+01    0.3166172    0.2989811 -67.92 0.0009112695    1.071    0.066
       354 -11.7587     13.9194    122.5363   1.3947046053e+02   4.8490670850e+01    0.2378335    0.1940613  45.81 0.0008129817    1.481    0.325
       355 -10.6980    238.6244    122.2156   8.5137418478e+01   7.6392041376e+00    0.2069761    0.1302291 -29.53 0.0005892423    1.655    0.396
       356 -12.3796     83.6382    120.0996   1.1996885205e+02   4.1183127671e+01    0.4012275    0.3130685  83.77  0.001403152    1.553    0.356
       357 -10.6727    246.8759    119.9890   8.3298691088e+01   6.3160529871e+00    0.3871998    0.2092793 -16.97  0.001344856    3.536    0.717
       358 -11.0169     58.4055    119.2176   1.2683837001e+02   4.4912244036e+01    0.2529894    0.2103412 -63.38  0.001230745    1.053    0.050
       359 -11.3304     60.7709    116.2427   1.2557059867e+02   4.5302880508e+01    0.3582799    0.2376644 -35.34  0.001847045    1.697    0.411
       360 -10.8913     31.8695    120.1008   1.3433871448e+02   4.7558268836e+01    0.1878413    0.1471993 -82.58 0.0003556953    1.222    0.182
       361 -10.0799    226.9912    119.4787   8.6474727424e+01   1.0647070274e+01    0.2140834    0.1465049  50.40  0.001013033    1.547    0.354
       362 -10.4616    106.4303    118.7923   1.1340375495e+02   3.7598001669e+01    0.4114231    0.2498382  18.22  0.001569561    2.778    0.640
       363 -11.2040     92.4946    118.2457   1.1708945280e+02   4.0178246239e+01    0.2665519    0.2472857 -47.37 0.0006696974    1.053    0.050
       364 -10.9210     27.2514    118.7945   1.3538034164e+02   4.8267126247e+01    0.1902355    0.1569668  56.51 0.0005683094    1.410    0.291
       365 -12.0095     19.9770    118.0684   1.3722979517e+02   4.9031680746e+01    0.3242789    0.2398071 -22.54  0.001509043    1.748    0.428
       366 -11.0462     49.1499    117.1743   1.2903871706e+02   4.6471716862e+01     0.244518    0.2033038  63.11  0.001037994    1.375    0.273
       367 -10.8694      3.0362    118.0743   1.4168715809e+02   5.0220632382e+01    0.2263813    0.1533154  45.46  0.001137328    1.793    0.442
       368 -10.9980    140.3000    116.3163   1.0396296200e+02   3.1268741705e+01    0.2716111    0.2523834  88.06 0.0004238145    1.122    0.109
       369  -9.8309    101.0000    116.4523   1.1431820599e+02   3.9116945255e+01    0.3313966   0.08028425 -50.69 0.0009298891    3.896    0.743
       370 -10.4624    147.2018    116.1549   1.0222594696e+02   2.9770907048e+01     0.227627    0.2150524  10.80 0.0005817634    1.155    0.134
       371 -11.5710     87.9208    114.5067   1.1749086049e+02   4.1788267706e+01    0.3334536    0.2068505 -56.86 0.0006329699    1.537    0.349
       372  -9.9309    210.7231    115.3160   8.8399976332e+01   1.5100352892e+01    0.1532298    0.1161017 -70.38 0.0001633616    1.569    0.362
       373  -9.9892    154.8318    115.6573   1.0027022696e+02   2.8145300804e+01    0.2371439    0.1453987  58.14 0.0009530053    1.804    0.446
       374 -10.7386    126.0470    114.1121   1.0702235530e+02   3.4798056066e+01    0.2231985    0.2199452 -62.17 0.0002717472    1.015    0.015
       375 -11.1483     11.7005    113.9178   1.3883818683e+02   5.0569577213e+01    0.2769229    0.1567721  57.06  0.001545565    2.289    0.563
       376 -10.5116     79.1152    112.0449   1.1941504901e+02   4.3726233452e+01    0.3969716    0.1680299 -52.87  0.001587704    2.122    0.529
       377 -10.8824     76.4802    108.4931   1.1934564998e+02   4.4923995338e+01    0.2114556    0.1852525  53.33  0.001026314    1.276    0.216
       378 -12.0375     20.5050    110.4322   1.3588808660e+02   5.0698972693e+01    0.4822646    0.2641904 -21.09  0.002404764    2.895    0.655
       379 -10.5763     26.4792    108.5056   1.3387870025e+02   5.0647414359e+01    0.1831083    0.1214178 -42.76 0.0001260373    1.461    0.316
       380  -9.8881     95.1343    112.6195   1.1501431140e+02   4.1013701403e+01    0.1963524    0.1397319  23.02 0.0008021654    1.733    0.423
       381 -10.5165     34.5186    111.9641   1.3220548896e+02   4.9159183129e+01    0.1949733   0.07118226 -46.31 0.0008101391    2.606    0.616
       382 -10.5040    104.9518    110.5169   1.1176265131e+02   3.9738189431e+01    0.2363784    0.1895715 -47.71 0.0006995003    1.186    0.157
       383  -9.3055    137.2643    110.6649   1.0325509966e+02   3.3158182272e+01    0.1557245    0.1219461 -78.59 0.0002902858    1.584    0.369
       384 -10.9103     70.0103    109.6446   1.2148978291e+02   4.5588102317e+01    0.3181652    0.1674419  33.51  0.001458662    2.149    0.535
       385 -10.5258      3.7469    109.6801   1.4037666941e+02   5.2016826316e+01    0.1607311    0.1406556  -7.00 0.0006516029    1.495    0.331
       386 -10.1605    181.5589    109.2159   9.2633512124e+01   2.3180900469e+01    0.2274633    0.1519626 -27.52 0.0009511885    1.755    0.430
       387  -9.4863     85.3037    109.6188   1.1707021167e+02   4.3317932030e+01    0.1470361    0.1102218 -89.61 0.0007023533    1.781    0.438
       388 -11.9140    152.0648    106.0033   9.8392494257e+01   3.0811392192e+01    0.3928592    0.2962663 -68.78  0.001075865    1.593    0.372
       389 -10.8335    118.5434    107.7164   1.0734269976e+02   3.7735189235e+01    0.3425403    0.1771802  32.83  0.001106092    2.417    0.586
       390  -9.8560     36.6709    108.2724   1.3090932512e+02   4.9787276865e+01    0.1195227   0.09111242  77.29 0.0002438575    1.587    0.370
       391 -11.3206    210.0045    106.9677   8.6489537622e+01   1.6847762499e+01    0.2212781     0.210676 -63.18            0    1.007    0.007
       392 -13.0221    165.6505    105.0324   9.4993664159e+01   2.7822904223e+01    0.4669229    0.4222176  -6.04  0.000904734    1.259    0.205
       393 -11.2315    171.8202    105.6709   9.3796785394e+01   2.6222407647e+01     0.381867     0.267641 -61.20 0.0006143734    1.646    0.392
       394  -9.8165    111.3078    107.6309   1.0927698734e+02   3.9178916089e+01    0.1553876    0.1185505 -85.85 0.0007035263    1.759    0.432
       395 -10.7586     43.2954    107.1013   1.2875428398e+02   4.9391381961e+01    0.1997781    0.1719492 -12.09 0.0007570876    1.372    0.271
       396 -10.2128     91.5225    105.0359   1.1415473911e+02   4.3325975345e+01     0.288746    0.1766863  74.29  0.001036966    3.461    0.711
       397 -10.7524    138.2963    103.6963   1.0113806126e+02   3.4412557459e+01    0.2313966     0.214552 -74.00 0.0003779145    1.129    0.114
       398 -11.2315    135.9380    100.7185   1.0092248609e+02   3.5556007365e+01    0.3454544    0.2701106  56.42 0.0008556707    1.339    0.253
       399 -10.8510     82.5221    103.8699   1.1646857664e+02   4.5043101439e+01    0.2217908    0.1989589  31.92 2.108828e-05    1.216    0.178
       400 -12.0040     76.2768    102.3374   1.1792636997e+02   4.6331030886e+01    0.3660239    0.3356096 -79.75  0.001647975    1.188    0.158
       401 -12.2162    233.6346    102.3561   8.1348782099e+01   1.2279573757e+01    0.2707595    0.2575754 -39.64 0.0003282637    1.086    0.079
       402  -9.7121    100.6705    103.3139   1.1110576982e+02   4.2111230475e+01    0.1473074    0.1163332  87.43 0.0007044398    1.675    0.403
       403 -12.7260     44.7938    101.4005   1.2713895194e+02   5.0508531820e+01    0.3740603    0.2668491  23.39  0.000956855    1.681    0.405
       404 -10.4553    119.6888    102.4054   1.0562135425e+02   3.8650715923e+01    0.2075943    0.1452062  33.93 0.0009449495    1.565    0.361
       405  -9.8201     57.9980    102.7892   1.2348050557e+02   4.8697980078e+01    0.1576404    0.1092346  30.37 0.0004083593    1.660    0.398
       406 -10.2210      1.5546    101.8345   1.3985520240e+02   5.3846221139e+01    0.1530199   0.08983808 -78.01 0.0003555363    1.521    0.342
       407 -10.2673     67.5336    101.0788   1.2022557110e+02   4.7847792303e+01    0.2126737    0.1207342 -52.90 0.0009544423    1.558    0.358
       408  -9.6145     24.6777    101.6953   1.3318681162e+02   5.2304687637e+01    0.1259931   0.07568214 -40.23 0.0003279936    1.638    0.389
       409 -11.2809    148.5230     98.4490   9.7192970234e+01   3.3178658501e+01    0.5151483    0.2304206 -48.25   0.00121305    2.361    0.576
       410 -10.6793    108.6497     99.3479   1.0781032927e+02   4.1485667618e+01    0.4563097    0.2270505  42.87   0.00149862    2.090    0.522
       411 -11.5372     85.2254     99.4396   1.1455427940e+02   4.5590839646e+01    0.3510462    0.2694092 -22.40 0.0009807342    1.483    0.326
       412 -10.8817     32.9972     98.5672   1.3010946491e+02   5.2283709876e+01    0.2694491    0.1488848 -63.86 0.0008753014    1.574    0.364
       413 -10.5442     16.2492     98.8974   1.3516596862e+02   5.3553196803e+01    0.1720052    0.1316342 -70.95 0.0004379401    1.164    0.141
       414 -10.4747      9.2467     98.7814   1.3719074196e+02   5.4046369644e+01    0.2204558    0.1569412 -88.62  0.001430453    1.511    0.338
       415 -10.6858    173.1805     96.8341   9.1156411092e+01   2.7639655493e+01    0.2270769    0.2070773 -85.67  0.000366577    1.138    0.122
       416 -11.4657     58.0814     95.8149   1.2183725227e+02   5.0226320940e+01    0.4255173    0.2314076 -30.98  0.001914451    2.313    0.568
       417 -11.8891     53.1755     92.9694   1.2267710356e+02   5.1430868921e+01    0.3171453    0.2500045 -68.16 0.0009985992    1.330    0.248
       418  -9.8350    118.5434     96.4941   1.0431096676e+02   4.0133043488e+01     0.149902    0.1435948 -20.66 2.420108e-05    1.044    0.042
       419  -9.6524     23.0102     95.7751   1.3258164778e+02   5.3730300258e+01    0.1272539    0.1014104  18.02 0.0003316246    1.555    0.357
       420  -9.8933      1.4357     94.8517   1.3882833740e+02   5.5348139930e+01    0.1725073   0.07210637 -56.62 0.0009373318    1.701    0.412
       421 -10.1997    154.4521     94.1695   9.4609697182e+01   3.2649473174e+01    0.2221346    0.1446492 -53.05 0.0004988518    1.663    0.399
       422 -10.2307     84.9873     94.1824   1.1324482278e+02   4.6764535808e+01    0.2254198    0.1645184  69.05  0.001087105    1.968    0.492
       423 -10.0887     18.3320     93.0269   1.3348154223e+02   5.4674109829e+01    0.2552275   0.07063769 -57.01  0.001097025    2.465    0.594
       424 -10.6455    240.9755     93.0060   7.8047936557e+01   1.2285372205e+01    0.2121947     0.192365 -59.87  0.001221215    1.012    0.012
       425 -10.2916    225.4904     93.0012   8.0430313605e+01   1.5781913895e+01    0.2196993    0.1386317 -39.00 0.0003894314    1.513    0.339
       426 -10.9210    107.3377     92.6621   1.0633368958e+02   4.3145618625e+01    0.3052244    0.1811702  20.23  0.001176609    2.646    0.622
       427 -10.8170    143.3489     92.0984   9.6680520729e+01   3.5641101247e+01    0.3685098    0.1969177  50.15  0.001468002    1.878    0.467
       428 -11.1918    136.1383     91.2271   9.8224788500e+01   3.7444675911e+01     0.424592    0.2723594 -48.63  0.001865418    1.606    0.377
       429 -11.0016     25.0465     91.7292   1.3116876772e+02   5.4443787384e+01    0.2043401    0.1541107 -85.86  0.000864479    1.542    0.351
       430 -10.9129    202.6469     90.4292   8.3678735595e+01   2.1659922484e+01    0.3736236    0.1782865 -38.63 0.0009506983    2.055    0.513
       431 -11.3014     84.9390     83.3671   1.1026785704e+02   4.9026978267e+01    0.2771547    0.2472188 -63.75 0.0008014863    1.261    0.207
       432  -9.9005     76.2874     91.2715   1.1509632947e+02   4.8732791048e+01    0.1756981    0.1252716  42.60 0.0001846696    1.568    0.362
       433 -10.9768     77.9917     87.9950   1.1369162149e+02   4.9166936341e+01    0.3139491    0.1953394 -32.12  0.001506556    1.712    0.416
       434 -11.1530     80.9473     84.7031   1.1187030838e+02   4.9392467066e+01    0.2499787    0.2231416 -27.48   0.00026052    1.044    0.042
       435 -11.3739    180.7212     88.1062   8.7247260229e+01   2.7451580811e+01    0.4664982    0.2822786 -39.56  0.001034351    1.655    0.396
       436 -11.4830    114.8222     88.6626   1.0311225165e+02   4.2495038712e+01    0.4638896    0.2454706 -31.95  0.001826059    2.216    0.549
       437 -10.2961    111.4370     88.9436   1.0413009974e+02   4.3112872444e+01    0.2276777    0.1780078 -60.06 0.0003908832    1.435    0.303
       438 -11.5153     64.2277     87.6004   1.1787005482e+02   5.1206010012e+01    0.4246997     0.329015  61.46  0.002347112    1.730    0.422
       439 -11.4633     70.0533     85.5696   1.1549727760e+02   5.0835661189e+01    0.2972637    0.2090261  42.08   0.00113955    1.619    0.382
       440 -10.9834     65.8375     81.8496   1.1581786042e+02   5.2186840209e+01    0.2430809    0.1899743 -60.49  0.001168243    1.379    0.275
       441 -10.3288      6.5008     89.4363   1.3642749318e+02   5.6211262647e+01    0.1657818    0.0969593  38.01 0.0005479304    2.192    0.544
       442 -11.7424    128.7500     86.0881   9.8639898600e+01   4.0086958554e+01     0.524419    0.3101816  66.20   0.00191685    2.497    0.599
       443 -10.1055     10.9691     86.6423   1.3455062984e+02   5.6529579591e+01    0.1583383    0.1308993 -51.51 0.0008586944    1.087    0.080
       444 -10.2943    190.6404     85.9699   8.4741001980e+01   2.5401276300e+01    0.2135559    0.1859967 -49.90 0.0004577843    1.132    0.117
       445 -10.5927     98.2464     85.0651   1.0677826499e+02   4.6394077739e+01    0.3044989     0.160691 -26.86  0.001146067    2.697    0.629
       446 -11.2412     27.3585     85.2334   1.2908488204e+02   5.5640565544e+01    0.2260896    0.1811161 -42.23 0.0002501066    1.098    0.089
       447 -10.1724    198.8344     84.8210   8.2926346417e+01   2.3595322460e+01    0.2078746    0.1700931 -71.18 0.0003361947    1.287    0.223
       448 -10.6372    154.2217     85.5482   9.2247349134e+01   3.4367853350e+01     0.414354    0.1480908  50.78  0.001010928    2.741    0.635
       449 -12.2595    119.7573     83.4781   1.0025712825e+02   4.2511849039e+01    0.3726187    0.2857722  42.28  0.001001235    1.316    0.240
       450 -11.5364    132.6412     82.4776   9.6584391243e+01   3.9928598146e+01    0.2706352    0.2526644  -3.82 0.0002944946    1.112    0.101
       451 -11.2805     53.4919     82.7613   1.2003839186e+02   5.3559755848e+01    0.2002997    0.1819673   4.44  0.000728732    1.203    0.169
       452 -11.0302     45.6129     81.2460   1.2221794802e+02   5.4757031551e+01    0.2788036    0.1853568  45.32 0.0008198079    1.921    0.480
       453 -10.1327     18.3255     81.8429   1.3126906765e+02   5.7043395884e+01    0.2401257    0.1137527  40.44  0.001243937    2.802    0.643
       454 -10.4909     13.0179     81.9855   1.3300490237e+02   5.7374044286e+01    0.1757732    0.1350955 -54.47   0.00041451    1.018    0.018
       455 -10.9150    128.3443     80.2470   9.7029057341e+01   4.1298382402e+01    0.3017798    0.2328784   6.82 0.0007830699    1.638    0.389
       456 -10.4074    103.7142     81.0504   1.0401298035e+02   4.6179987502e+01    0.1967599    0.1775092 -33.46  0.000266909    1.065    0.061
       457 -10.4688     94.0696     80.8324   1.0677491500e+02   4.7986522737e+01    0.2482613    0.1894979 -38.09  0.001311321    1.239    0.193
       458 -10.1786    150.0759     79.4269   9.1450833903e+01   3.6490368395e+01    0.3129584    0.1951384   5.65  0.001007959    3.467    0.712
       459 -10.3009    154.5956     78.8103   9.0237281721e+01   3.5526089228e+01    0.2118485     0.141093 -49.34 0.0005713216    1.590    0.371
       460  -9.8779    105.4783     84.5306   1.0453255662e+02   4.5156751967e+01    0.1438202    0.1378334 -24.69  0.000214054    1.020    0.019
       461 -10.6400     86.8330     78.5301   1.0828047088e+02   4.9682482999e+01    0.3553607    0.2224522  65.20  0.001466683    2.927    0.658
       462  -9.9302     36.7205     79.0595   1.2460540658e+02   5.6103159333e+01    0.1714016    0.1263588 -50.44 0.0003365954    1.130    0.115
       463 -10.3002    107.7133     77.9803   1.0194987439e+02   4.6005415273e+01    0.2020877     0.178341 -33.18 0.0003429726    1.099    0.090
       464 -11.4387     51.1813     76.7512   1.1920678508e+02   5.5061402243e+01    0.3695471     0.272935 -64.91  0.002144302    1.544    0.352
       465 -10.0392     13.7451     78.3694   1.3203301864e+02   5.8075468889e+01    0.1356577    0.1009726 -16.50 0.0002669129    1.505    0.336
       466 -11.2633      4.2183     77.6288   1.3498070926e+02   5.8798565190e+01    0.2653547    0.1923938 -16.14  0.001016303    1.585    0.369
       467 -11.4380      1.9727     72.5654   1.3472660099e+02   5.9946683367e+01    0.3081865    0.1105602 -50.94  0.001236134    1.924    0.480
       468 -10.0831    167.5218     76.9714   8.6897992549e+01   3.2716023515e+01    0.2023834    0.1384221  -4.09 0.0008063529    2.325    0.570
       469 -11.4783     53.0592     68.8877   1.1637648475e+02   5.6400850987e+01    0.4353141    0.1980918 -53.81  0.001715155    2.190    0.543
       470 -10.9756     57.4250     68.1777   1.1468693146e+02   5.6002812518e+01    0.2187534      0.19732 -36.93 0.0003123296    1.127    0.112
       471 -11.2242     63.0444     76.8294   1.1532161464e+02   5.3578831121e+01    0.2955664    0.2433089  20.50  0.001638557    1.317    0.241
       472 -11.8833     57.9825     74.2105   1.1624626998e+02   5.4753662158e+01    0.3087183    0.2793678 -29.71 0.0003324505    1.068    0.064
       473  -9.8173     28.3050     77.6302   1.2705934852e+02   5.7146106997e+01    0.1154694   0.08987297  88.53 0.0007033835    1.753    0.430
       474 -11.0218    113.8962     74.2295   9.9076780544e+01   4.5477239509e+01    0.2694423     0.194523  26.76 0.0006837305    1.535    0.349
       475 -10.6240     69.0173     73.8491   1.1251815468e+02   5.3351103920e+01    0.1827124     0.175267 -70.19 0.0004363292    1.263    0.208
       476 -10.0926     29.3881     74.2413   1.2588433057e+02   5.7746543895e+01    0.1647661    0.1012269 -62.00 0.0009376434    1.564    0.360
       477 -10.9072     35.8963     71.3523   1.2293480535e+02   5.7744701874e+01    0.3103482    0.2293218 -56.06  0.001646822    1.278    0.217
       478 -10.2453     17.9454     72.4797   1.2934876127e+02   5.8991745413e+01    0.1442674    0.1127674   3.49 0.0003816258    1.497    0.332
       479 -10.0465    166.5399     70.9752   8.5406915337e+01   3.3999766114e+01    0.2162003    0.1379948  -6.24 0.0008087814    2.713    0.631
       480 -10.5163    205.0911     69.4987   7.7908745006e+01   2.4680914548e+01    0.2167845    0.1894561 -50.18 0.0003549322    1.126    0.112
       481 -10.2547    173.0088     70.2513   8.3892371394e+01   3.2523108244e+01    0.1925928    0.1257542  57.13 0.0002867786    1.484    0.326
       482 -11.7306    132.8116     68.0439   9.2204075128e+01   4.2514608146e+01    0.3428276    0.2648349  15.57 0.0004767167    1.546    0.353
       483 -11.5531     88.1990     68.7578   1.0488096223e+02   5.1318113471e+01    0.3623727    0.2269794  22.28  0.001208464    1.926    0.481
       484 -11.5788     80.6191     66.6237   1.0658128219e+02   5.2969723345e+01    0.3681252    0.3124783  48.03  0.002170637    1.390    0.280
       485 -10.1990     14.9515     65.4567   1.2873940808e+02   6.0596318572e+01     0.148968     0.108754   1.42  0.001015736    1.580    0.367
       486 -10.7129     27.9121     64.0914   1.2380826631e+02   5.9884715395e+01    0.2609186    0.1479144  44.32  0.001143044    2.562    0.610
       487  -9.8937    120.4704     63.0050   9.3791898960e+01   4.6088314674e+01    0.2114787    0.1399832 -36.70 0.0006011183    1.528    0.345
       488 -10.2568     88.5424     62.8724   1.0289828061e+02   5.2322601752e+01    0.2099167    0.1265478 -37.41  0.001024933    1.584    0.369
       489 -10.8160     77.7316     61.1185   1.0574497208e+02   5.4425676692e+01     0.357171    0.2308365  -2.91  0.001712041    2.094    0.522
       490 -10.3950     71.2122     61.3975   1.0796675837e+02   5.5375260209e+01    0.1718283    0.1226986  44.08 0.0009460861    1.637    0.389
       491 -10.0606     31.3532     61.3012   1.2181699132e+02   6.0122275493e+01     0.126817   0.07492413 -26.55 0.0007038336    1.701    0.412
       492 -10.8885      6.1516     60.2333   1.3062201919e+02   6.2156258722e+01    0.2247799    0.1336788 -58.60 0.0007603752    1.386    0.278
       493 -10.2801      2.0321     60.8199   1.3222591611e+02   6.2265332693e+01    0.1849078   0.09069257 -30.41  0.001074068    2.012    0.503
       494 -11.1660     95.9118     59.1923   9.9455905469e+01   5.1640252783e+01    0.2379633    0.1880748 -23.50 0.0003103127    1.229    0.186
       495 -11.6306     93.5705     54.6021   9.8627607378e+01   5.2834491011e+01    0.3235742    0.2748018  36.03   0.00115767    1.195    0.163
       496 -10.6045     58.8433     59.7461   1.1161941382e+02   5.7397800844e+01    0.3482699    0.1990796  -3.73  0.001518336    2.836    0.647
       497 -10.4189     15.9916     59.9479   1.2700524121e+02   6.1595259921e+01    0.1769799    0.1342409 -43.69 0.0006075776    1.026    0.025
       498  -9.9162    173.6352     58.2629   8.0402792991e+01   3.4311744910e+01     0.188486    0.1433559 -22.26 0.0004387834    1.526    0.345
       499 -11.0077     44.6868     56.4796   1.1558624952e+02   5.9692591038e+01    0.3392771    0.1682491 -46.66  0.001762509    1.754    0.430
       500 -10.9088    106.7321     56.9977   9.5591545685e+01   4.9926642077e+01     0.472367    0.1990906  47.68  0.001890079    2.371    0.578
       501 -10.8560     52.7781     56.4535   1.1269010149e+02   5.8757874043e+01    0.2946107    0.1878594 -57.16 0.0008729796    1.940    0.485
       502 -11.0877     28.0064     54.5567   1.2111494896e+02   6.1680223878e+01    0.2531411    0.1736615 -43.58  0.001069362    1.184    0.156
       503  -9.8506     20.3102     56.6318   1.2455085898e+02   6.1914330277e+01    0.1055138   0.08778075 -87.49 0.0007036559    1.763    0.433
       504 -10.5656     76.3360     53.8105   1.0377533850e+02   5.5909351515e+01     0.199081    0.1731935  33.43 0.0003827741    1.256    0.204
       505 -11.2034      2.4830     53.5043   1.3034563941e+02   6.3637203149e+01    0.2530084    0.1832454 -85.14  0.001690002    1.979    0.495
       506 -10.7155      5.2350     52.0122   1.2894578725e+02   6.3766699867e+01    0.1612221    0.1296341 -51.74 0.0006758584    1.185    0.156
       507 -11.9644     40.6752     50.7278   1.1523507059e+02   6.1155470022e+01     0.323436    0.2951007 -83.55  0.001281667    1.653    0.395
       508 -12.0832     16.2409     47.2890   1.2345370146e+02   6.3930211138e+01     0.363114    0.2872853 -16.06  0.002443176    1.203    0.169
       509 -11.0559     61.0879     52.0538   1.0832972672e+02   5.8454839157e+01    0.3077246    0.1719544  30.75   0.00161599    1.887    0.470
       510 -10.4110     62.9828     48.7479   1.0654523462e+02   5.8748726502e+01    0.1792535    0.1535821 -21.78 0.0002529819    1.082    0.076
       511 -12.2587     61.9303     44.5519   1.0544676604e+02   5.9579253327e+01    0.3709612      0.20623 -36.13 0.0003574056    1.639    0.390
       512 -10.0974     33.0936     51.8574   1.1841052657e+02   6.1712815837e+01    0.1684869    0.1358627  61.36  0.001069189    2.050    0.512
       513 -10.5781    148.4807     51.4350   8.3458192176e+01   4.1524561392e+01    0.1447183    0.1347497  47.97 5.007992e-05    1.020    0.020
       514  -9.8943    124.5389     51.4980   8.9043350259e+01   4.7045279048e+01    0.1395823    0.1335886  30.28 0.0001533219    1.040    0.039
       515 -10.1127    105.7120     50.5311   9.3718689338e+01   5.1156455280e+01    0.2293366    0.1199333 -34.28 0.0005026553    1.929    0.482
       516 -10.2561    175.9906     49.6881   7.7562371640e+01   3.5012752820e+01    0.2029913    0.1763693  66.01 0.0003501456    1.076    0.071
       517 -10.3791    100.8846     48.8789   9.4527265492e+01   5.2360808293e+01    0.2071365    0.1693167   7.40 0.0004545235    1.224    0.183
       518 -10.0972     74.1879     48.3972   1.0262219865e+02   5.7138300376e+01    0.1759479    0.1199784  46.71 0.0009572079    1.734    0.423
       519  -9.5706    134.2857     47.3380   8.5348948714e+01   4.5462053879e+01    0.1455311    0.1059583  19.22 0.0003445362    1.631    0.387
       520 -10.0659    122.7473     46.1586   8.7742345242e+01   4.8228289530e+01    0.1927882    0.1522291  24.36 0.0006732687    1.301    0.231
       521 -10.3266    130.2601     44.9325   8.5517342514e+01   4.6724793538e+01    0.1897988    0.1762155 -15.97 0.0005898328    1.122    0.109
       522  -9.9580     67.8302     45.3783   1.0369851646e+02   5.8594049015e+01    0.1696685    0.1103955  22.99 0.0003573098    1.585    0.369
       523 -12.3806      9.8561     49.1729   1.2644390780e+02   6.4016691153e+01    0.4041863    0.3489047  54.65  0.003046815    1.743    0.426
       524 -10.3032     34.9947     44.9453   1.1548939364e+02   6.2742222262e+01    0.1691538    0.1363408 -25.77            0    1.037    0.036
       525 -11.3520     25.8041     44.3865   1.1885392920e+02   6.3690238974e+01    0.2336951    0.1415936 -30.78 0.0006729167    1.383    0.277
       526 -10.1327    180.5016     44.4740   7.5336025086e+01   3.4626697761e+01    0.1441209    0.1315149  81.65 0.0001386422    1.019    0.019
       527  -9.5623    103.3178     43.3388   9.1926000381e+01   5.2704744404e+01    0.1430658     0.098174  13.04 0.0005167746    1.707    0.414
       528 -10.8282     37.4448     40.9310   1.1319522899e+02   6.3166886040e+01     0.224664    0.1446255  -2.70  0.001352574    1.660    0.398
       529 -11.5088    175.3101     39.1596   7.4731745231e+01   3.6647367730e+01    0.2455098    0.2180897  78.78 0.0002727569    1.052    0.049
       530 -10.2526     97.7069     40.2956   9.2453001215e+01   5.4235020579e+01    0.1891708    0.1756216  10.16 0.0002616418    1.082    0.076
       531 -10.8626    101.7534     39.1704   9.0905842778e+01   5.3601855740e+01     0.232048    0.1724605  43.55 0.0005538329    1.290    0.225
       532 -10.2644     20.8323     44.8191   1.2092787053e+02   6.4024128996e+01    0.1376559    0.1200759 -42.42 0.0003430501    1.273    0.214
       533 -10.2706      8.8560     39.9599   1.2420185966e+02   6.5724515202e+01    0.1999564    0.0828341 -35.29  0.001090845    2.014    0.504
       534 -10.9313    147.9190     38.1674   7.9501072983e+01   4.3509535580e+01    0.2109627    0.1996741 -27.93 0.0002747674    1.144    0.126
       535 -11.3121     23.4871     38.3863   1.1781666853e+02   6.4910939599e+01    0.2863594     0.196095  26.11  0.001943313    1.698    0.411
       536 -11.7080      3.5033     36.3808   1.2530669284e+02   6.6666605224e+01    0.2664459    0.1667239 -45.83  0.001083171    1.227    0.185
       537  -9.4849    193.2901     37.6721   7.1500581043e+01   3.2357876210e+01    0.1458753    0.0993038 -69.05 0.0003213648    1.619    0.382
       538 -10.9928    129.5080     36.6462   8.2987888263e+01   4.8015267396e+01     0.232358    0.2153024  40.64 0.0001988213    1.025    0.025
       539  -9.9990    110.9659     37.2246   8.7730461400e+01   5.1990147700e+01    0.1797072    0.1047516  50.49 0.0005027178    1.633    0.388
       540 -11.7381     41.1434     36.2124   1.1010152768e+02   6.3525551409e+01    0.2123945     0.175625 -43.89  0.001462577    1.447    0.309
       541 -11.5071     41.1370     30.7401   1.0807807124e+02   6.4364088091e+01    0.4370683    0.2773629 -51.88  0.002521462    2.186    0.543
       542 -10.9519     71.5971     34.9541   9.8624650982e+01   5.9580485014e+01    0.3501992    0.1911256 -44.08  0.001373341    2.154    0.536
       543 -11.5587     77.5148     32.9527   9.5929239564e+01   5.8891432690e+01    0.4708027    0.2314098  36.20  0.002313307    1.977    0.494
       544 -11.7510     60.7184     34.5214   1.0221313219e+02   6.1283160614e+01    0.2597886    0.1856421 -33.12 0.0005030653    1.349    0.259
       545 -10.9212     55.6798     34.4395   1.0399298426e+02   6.1995881869e+01    0.2276234    0.1731799 -13.01 0.0006712318    1.126    0.112
       546 -10.8682    142.0899     33.0544   7.9096633587e+01   4.5548288714e+01    0.2570414    0.1977084   2.29  0.001373855    1.552    0.356
       547 -11.6316    135.0237     32.5000   8.0408671199e+01   4.7271660777e+01    0.2256368    0.2097856 -19.10   0.00136783    1.161    0.139
       548 -10.4275    117.9529     33.3009   8.4607854936e+01   5.1008094530e+01    0.1882206     0.161962  43.48 0.0004450674    1.081    0.075
       549 -10.0116     92.4905     33.4757   9.1515092170e+01   5.6155175670e+01    0.1301029    0.1148666  13.59 0.0001768962    1.025    0.024
       550 -10.2117    222.9772     31.4860   6.6099519515e+01   2.5921552852e+01    0.1962106    0.1640363 -57.47 -1.43929e-05    1.150    0.130
       551 -10.2269    182.5937     32.2029   7.1648300716e+01   3.5729436484e+01    0.1777693    0.1379303  -9.54 0.0006146998    1.666    0.400
       552 -10.7383    106.3203     32.1227   8.7166492578e+01   5.3610824365e+01    0.2328996    0.1636053  34.74 0.0006225214    1.323    0.244
       553 -10.2494    171.4703     30.9852   7.3072123043e+01   3.8647560215e+01    0.1884373     0.139815 -29.94 -4.508338e-06    1.500    0.333
       554 -10.3058     24.2940     31.0521   1.1495467243e+02   6.6033453994e+01    0.1535674    0.1139866 -26.24 0.0001926319    1.042    0.041
       555 -10.3198    123.0851     28.7331   8.1831530776e+01   5.0437099336e+01    0.1936181    0.1565389  46.75 0.0005615035    1.117    0.104
       556 -10.8543     70.4110     28.5222   9.6574940365e+01   6.0648140103e+01    0.2706321    0.1438912 -23.05  0.001390255    1.912    0.477
       557 -10.9956     75.9927     27.2121   9.4234979850e+01   5.9902963939e+01    0.2039933    0.1602986 -10.33 0.0004144765    1.165    0.142
       558 -10.3487     32.1367     27.6704   1.1049657209e+02   6.5801211399e+01    0.1887083    0.1396278 -52.99 0.0009928382    1.909    0.476
       559 -11.6087    187.1932     27.0153   6.9581433245e+01   3.5223617140e+01    0.2717316     0.180044  68.52 0.0004748986    1.356    0.263
       560 -10.7268     65.9903     24.0378   9.6316171373e+01   6.1923867976e+01    0.1929311    0.1523383   3.95 0.0006125314    1.072    0.067
       561 -10.4328     60.8339     24.1013   9.8134943296e+01   6.2697713599e+01    0.1718147     0.151552  -9.60  0.000468454    1.215    0.177
       562 -10.0428    169.8051    249.1649   1.2320056649e+02  -1.3563727446e+00    0.1741682    0.1282532  29.92  0.001050094    1.317    0.241
       563 -11.5147    109.7439     22.8183   8.2978653232e+01   5.4000747710e+01    0.2432313    0.1854566  33.39 0.0003405896    1.183    0.155
       564 -10.0905     90.5424     22.9098   8.8150734633e+01   5.7826380222e+01    0.1869736    0.1186563 -21.65  0.001030923    1.604    0.377
       565 -10.2314      5.0824     23.4528   1.2044437381e+02   6.8701127928e+01    0.1363877   0.09184707   4.82 0.0004296593    1.512    0.339
       566  -9.8839    196.3274    246.6657   1.1787167188e+02  -5.5062774737e+00    0.1195109   0.09362955  66.04 0.0002585053    1.719    0.418
       567 -11.6988    151.0530     20.0931   7.3366596448e+01   4.4896076431e+01    0.2069876    0.1862606  55.74 0.0002988037    1.029    0.028
       568  -9.5554    122.2736     21.2993   7.9494991073e+01   5.1455227106e+01    0.1333156   0.09058563  28.05 0.0002111494    1.531    0.347
       569 -10.1690    209.8517    245.1711   1.1513177427e+02  -7.5472140417e+00    0.1680879    0.1264703  14.03 0.0004175423    1.304    0.233
       570 -11.2801     38.9153     21.0328   1.0515439299e+02   6.6005352841e+01    0.2661881    0.1513309  28.25 0.0008498633    1.755    0.430
       571 -11.4251     33.9440     17.8699   1.0587612239e+02   6.6997573434e+01    0.2430983    0.1900228 -26.01 0.0008854044    1.268    0.211
       572 -10.0794     74.0367     20.4779   9.2230952022e+01   6.1055758838e+01    0.1719589    0.1085298  39.16 0.0003015842    1.478    0.324
       573  -9.6308     51.6333     20.3345   9.9954566771e+01   6.4488647787e+01    0.1016468   0.09608911 -69.65 0.0007032474    1.829    0.453
       574 -13.9450     75.8799    240.7500   1.3961454798e+02   1.5515383148e+01    0.4933111    0.2693523  73.12   0.00171583    1.861    0.463
       575 -10.7825     28.4747     20.0244   1.0902494075e+02   6.7282009211e+01    0.1590206    0.1140366 -19.17 0.0005403602    1.080    0.074
       576 -11.1158     25.9516     16.9575   1.0885020263e+02   6.7960557667e+01    0.1840392    0.1343219 -14.26  0.001342656    1.034    0.033
       577  -9.9839     65.7622    239.0560   1.4125618823e+02   1.7276301385e+01    0.2103882     0.131177  49.09 0.0008171471    1.426    0.299
       578 -11.3805     68.5654    235.1441   1.4040025082e+02   1.7635401927e+01    0.2617148    0.1728307  58.39 0.0009092058    1.239    0.193
       579  -9.8258     14.2901     19.6569   1.1498883994e+02   6.8618163351e+01    0.0905944    0.0820039 -46.10 0.0007024992    1.652    0.395
       580 -10.3743    158.0347     17.4451   7.1382525087e+01   4.3486770715e+01    0.1838175    0.1786933 -24.45 0.0003013489    1.173    0.147
       581  -9.8051    139.7946     17.9838   7.4782394037e+01   4.7793893483e+01    0.1577101    0.1079705 -22.97 0.0003308792    1.648    0.393
       582  -9.8297      5.3314     18.4033   1.1851306057e+02   6.9462961899e+01    0.1821964   0.08015838   0.34 0.0009555118    3.018    0.669
       583 -10.1635    145.9752     16.7411   7.3248070961e+01   4.6460283772e+01    0.1883325    0.1521443  57.76 0.0003436041    1.083    0.076
       584 -11.4331    131.4680     16.7116   7.6006241966e+01   4.9855323613e+01    0.3181029    0.1772474  46.00 0.0007517452    1.595    0.373
       585  -9.6478     89.5004     17.5769   8.6416975281e+01   5.8616542251e+01    0.1257115    0.1055797  23.02 0.0001048864    1.014    0.014
       586 -10.4107    174.4648    244.2878   1.2161760584e+02  -1.4086155907e+00    0.1519002    0.1246991 -68.20 0.0009424917    1.589    0.371
       587 -12.2572    203.2755    241.4547   1.1575566972e+02  -5.9292278959e+00    0.2487276    0.2373149 -33.98 0.0006187835    1.301    0.231
       588  -9.8687    199.6863    243.3096   1.1672119340e+02  -5.5906554452e+00    0.2038598     0.110329  43.75 0.0003899327    1.615    0.381
       589 -10.0215    154.1680     14.6176   7.1186435125e+01   4.4711558388e+01    0.2028559    0.0994398  53.23 0.0008503133    1.754    0.430
       590 -10.3528    161.1167    241.6355   1.2377080153e+02   1.3438029029e+00    0.2055701    0.1733197 -73.42  0.001301181    1.451    0.311
       591 -11.9316    147.0013    241.1230   1.2639751459e+02   3.8984179979e+00    0.3051397    0.2233972 -43.53 0.0008570149    1.701    0.412
       592 -10.9223    160.8220    249.7728   1.2496738328e+02   9.2286399120e-02    0.2391013    0.2268394  20.00   0.00126987    1.217    0.178
       593  -9.9903    233.8521    239.1471   1.0976244055e+02  -1.0591866237e+01    0.1612768    0.1185744  10.99  0.001012716    1.246    0.198
       594 -10.4232    168.2462    238.5879   1.2195927289e+02   5.8559285098e-01    0.2135495    0.1599514 -66.72  0.001236763    1.750    0.429
       595 -11.0361    142.7990    237.3799   1.2669285551e+02   5.2769020300e+00    0.3274512     0.139903  38.66  0.000709536    2.207    0.547
       596 -10.8243    112.0059     14.9306   7.9628765503e+01   5.4347822441e+01    0.1909252     0.168737  33.87 0.0003921083    1.034    0.033
       597 -10.1851    126.3084    234.8987   1.2954626689e+02   8.5801973408e+00    0.2229699    0.1161879 -66.32  0.001037071    2.396    0.583
       598 -10.9519    249.5568    233.2094   1.0594460368e+02  -1.2226264593e+01    0.2252146     0.179593  13.55 0.0007126363    1.030    0.029
       599 -11.3868    219.3288    232.8804   1.1134506120e+02  -7.3921411550e+00    0.2362956     0.194968  15.26 0.0003649935    1.068    0.064
       600 -12.0927    176.5386    233.1408   1.1952594802e+02  -1.1189432379e-03    0.3525776    0.2088037  33.20 0.0004004781    1.625    0.385
       601 -11.2700    161.1818    232.2124   1.2237524772e+02   2.9068852692e+00    0.2401629    0.2206463  68.33 0.0006722462    1.152    0.132
       602  -9.9642    149.5764    250.5597   1.2717345885e+02   1.8934812233e+00    0.1717232   0.09803972  50.29  1.63712e-05    1.485    0.327
       603 -11.0159    183.8580    232.3180   1.1797862447e+02  -1.1735345678e+00     0.425163     0.209342  27.34  0.001771695    2.676    0.626
       604 -10.1277    156.4598    233.0734   1.2342657638e+02   3.6053442926e+00     0.170167    0.1316548 -52.43 0.0003161728    1.509    0.337
       605 -12.4312    142.4911    231.8491   1.2598410195e+02   6.3094671623e+00    0.3724737    0.2163854  43.72  0.001927464    1.483    0.326
       606 -11.0810    112.9367    231.9214   1.3175108191e+02   1.1396925420e+01    0.3274364    0.2433062  18.77  0.001182586    2.122    0.529
       607  -9.7410    115.2707    227.3406   1.3071965759e+02   1.1878298783e+01    0.1731672    0.1061102  52.70 0.0002877724    1.408    0.290
       608 -12.3783     67.0200    175.4577   1.3395749213e+02   3.0605584108e+01     0.508554    0.3585764  59.87  0.001682524    1.381    0.276
       609 -12.4977     94.5408    225.0506   1.3448423609e+02   1.5727122940e+01    0.7761675    0.3690302 -62.07  0.003821964    2.194    0.544
       610 -11.8903     89.9530    217.9927   1.3455083814e+02   1.7873144017e+01    0.4570611    0.2943454 -83.99   0.00092694    1.603    0.376
       611 -12.5429     80.2438    210.2803   1.3557122143e+02   2.0968088219e+01    0.9130011    0.5246249 -67.18  0.004879958    1.695    0.410
       612 -12.0212     76.7314    173.7881   1.3151756625e+02   2.9599949265e+01    0.2653001     0.218972  89.69 0.0002612361    1.074    0.069
       613 -12.2174     72.1414    169.9213   1.3200365779e+02   3.1165283090e+01    0.7952206    0.2572923 -55.88  0.003025649    2.805    0.644
       614 -11.7937     73.9264    204.9747   1.3622192586e+02   2.3033871814e+01    0.3036292    0.2153898  63.03            0    1.246    0.197
       615 -11.6731     68.6130    200.6721   1.3680099338e+02   2.4727148282e+01    0.3699863    0.3307834  82.87  0.001423556    1.173    0.147
       616 -11.9952     85.2029    221.8547   1.3592695240e+02   1.7822405928e+01    0.6431699    0.2919721  51.14  0.001833514    1.933    0.483
       617 -12.6300     62.5271    219.7082   1.4003429109e+02   2.1553650514e+01     0.214296     0.170203  76.40 0.0004922064    1.031    0.030
       618 -13.5994     75.2070    227.8019   1.3846684170e+02   1.8122950546e+01    0.8138863    0.6352701 -48.84  0.002866029    1.815    0.449
       619 -11.6985     81.5656    230.7271   1.3758072931e+02   1.6605801985e+01    0.4009792    0.2205216  34.07  0.002046409    2.264    0.558
