#   1 NUMBER                 Running object number                                     
#   2 MAG_AUTO               Kron-like elliptical aperture magnitude                    [mag]
#   3 X_IMAGE                Object position along x                                    [pixel]
#   4 Y_IMAGE                Object position along y                                    [pixel]
#   5 X_WORLD                Barycenter position along world x axis                     [deg]
#   6 Y_WORLD                Barycenter position along world y axis                     [deg]
#   7 A_WORLD                Profile RMS along major axis (world units)                 [deg]
#   8 B_WORLD                Profile RMS along minor axis (world units)                 [deg]
#   9 THETA_WORLD            Position angle (CCW/world-x)                               [deg]
#  10 FWHM_WORLD             FWHM assuming a gaussian core                              [deg]
#  11 ELONGATION             A_IMAGE/B_IMAGE                                           
#  12 ELLIPTICITY            1 - B_IMAGE/A_IMAGE                                       
         1 -11.2828      3.9619     30.6611   9.0957929172e+01   7.1074565070e+01    0.8076455    0.5141046  81.91   0.00333046    3.016    0.668
         2  -9.4099     81.1641     12.4992   4.6100622330e+01   6.2298262346e+01    0.3174765    0.2288084  40.60  0.001807399    1.276    0.216
         3 -10.2294     69.5862      7.8378   4.7466790086e+01   6.5253768380e+01    0.6903644    0.3931055 -18.17  0.003568989    1.933    0.483
         4 -10.1385     50.6700     32.4291   6.6687770902e+01   6.5425462392e+01    0.6791422    0.5226865 -46.31  0.003976136    1.425    0.298
         5 -11.4079     60.3340     15.2649   5.4475510378e+01   6.6241791237e+01    0.9763509    0.6374235   9.84  0.005133439    1.850    0.459
         6 -12.3735     61.1934     32.1582   6.2085336776e+01   6.3677423008e+01     1.377142    0.9729993 -32.40  0.007644408    1.402    0.287
         7 -12.0495     68.6996     20.1409   5.3713753976e+01   6.3991561900e+01     1.292874    0.6305835  42.13   0.00605137    1.940    0.484
         8 -11.2344     45.0634     19.0635   6.2936661136e+01   6.8422452809e+01     1.070249    0.6274351  14.01  0.005192013    2.273    0.560
         9 -10.2586     37.8709     15.3143   6.4517328222e+01   7.0094525748e+01    0.5697541    0.2204896 -39.76   0.00256909    2.586    0.613
        10 -12.0304    151.9781     45.8118   4.2435515332e+01   4.1215418424e+01     1.156008    0.7798177   1.72  0.005057608    2.407    0.584
        11 -12.4835    206.1954     56.1280   3.7189081308e+01   2.6841942698e+01    0.5323372    0.4884415 -39.58  0.001906185    1.167    0.143
        12 -11.8721     99.5866     45.9628   5.4539168393e+01   5.3699433437e+01     1.016954     0.792341 -45.11  0.003313641    1.345    0.256
        13 -10.3795     82.3538     32.2099   5.4399936074e+01   5.9538149123e+01     1.147264     0.638863  -9.74  0.004523457    3.053    0.672
        14 -12.6918    246.0817     11.5976   2.3433759450e+01   2.4065848059e+01     1.821322    0.5408668 -37.71  0.008492498    2.481    0.597
        15  -9.7589    107.6669     25.4225   4.4544470345e+01   5.4769829949e+01    0.3904642    0.2255654  37.86  0.001293651    1.915    0.478
        16  -9.7134     29.7836     17.5056   6.9947550600e+01   7.0916013097e+01    0.3286722    0.2219126 -54.25  0.001235177    2.008    0.502
        17  -9.4883     60.9378      4.6840   4.8824309946e+01   6.7332675347e+01    0.3225046    0.2419647 -58.56  0.001859266    1.942    0.485
        18  -9.0111     64.9032      2.2824   4.6198169533e+01   6.6771958860e+01    0.2328618    0.1372884  39.26 0.0004436924    1.537    0.349
        19  -9.5683     92.0142      3.7975   3.9344641316e+01   6.0719867275e+01    0.1885154    0.1787564  10.91  0.000271108    1.123    0.110
        20  -9.1384     43.8287    133.7640   9.6742694537e+01   4.3171700301e+01    0.3476465    0.2072948 -64.21   0.00169079    1.514    0.340
        21  -9.7337    215.0402    249.2931   7.4806189022e+01  -5.1538733680e+00     0.201463    0.1183072  20.90 0.0009781253    1.432    0.302
        22 -10.1481    205.0774    250.4772   7.6697142253e+01  -4.0824229036e+00    0.3735659   0.08793557  36.58  0.001520591    3.671    0.728
        23 -10.4479    188.3081    249.2394   7.9514296361e+01  -1.7964249794e+00    0.2721071    0.2115385  18.80  0.001950543    1.028    0.027
        24  -9.1544    150.7682    250.2229   8.6678922122e+01   3.0936889135e+00    0.1945163   0.08127875  26.82 0.0008856504    2.459    0.593
        25  -9.4428     30.7571    133.9206   1.0080433141e+02   4.4523039668e+01    0.3407124    0.1899575  88.60  0.001571728    1.913    0.477
        26  -9.9783     24.7022    134.0785   1.0268334234e+02   4.5055979245e+01    0.2729834    0.1997599  32.59 0.0004856157    1.493    0.330
        27  -9.6065     23.4295    128.7856   1.0243964184e+02   4.6510754787e+01    0.4958941     0.239836 -37.70  0.002071799    2.851    0.649
        28 -10.0014      8.8400    131.5035   1.0724416804e+02   4.6993499378e+01    0.2586397    0.2315679  70.46 0.0003419045    1.135    0.119
        29  -8.2388     73.6870    130.3476   8.6934476434e+01   4.0050538264e+01    0.1561522    0.1094003  74.31 0.0003700047    1.716    0.417
        30  -7.8317     83.2744    129.6451   8.3894805772e+01   3.8710820138e+01    0.1538918    0.1127899  80.76  0.000300489    1.645    0.392
        31 -10.5569      3.7590    124.9592   1.0818586511e+02   4.8970967917e+01    0.3203022    0.2516988  84.34  0.002009228    1.121    0.108
        32  -9.6800     43.4223    122.1373   9.5051042192e+01   4.6183704738e+01    0.3868231    0.2163485 -73.19    0.0010481    1.724    0.420
        33  -9.3264     34.8766    122.4926   9.7905387573e+01   4.7019430418e+01    0.2685183    0.2222565  63.14  0.001552733    1.232    0.188
        34  -8.4252     80.8332    121.8635   8.3008425584e+01   4.1038832204e+01    0.1983284    0.1681825  76.69            0    1.256    0.204
        35  -9.1212     70.3549    120.2099   8.5950885633e+01   4.3099194969e+01    0.2553102    0.2121885 -28.37 0.0008575921    1.403    0.287
        36  -8.3788     58.1022    120.9059   9.0037016731e+01   4.4672260818e+01    0.1880438    0.1609493 -39.75            0    1.262    0.208
        37 -10.2141    107.9996    119.9950   7.4518601958e+01   3.6633618590e+01    0.2206656     0.214857 -72.97   0.00119433    1.012    0.012
        38  -7.9611     94.2708    120.3705   7.8595304222e+01   3.9099220029e+01    0.1550725    0.1164391 -26.71  0.000476192    1.672    0.402
        39  -8.6883     89.0049    120.0105   8.0096522028e+01   4.0116242854e+01    0.1818678    0.1735525  57.29 0.0004136728    1.066    0.062
        40  -8.5731     76.2784    119.9636   8.4022054742e+01   4.2243984564e+01    0.2202728    0.1861174 -64.20  0.000933102    1.130    0.115
        41  -9.4781      3.7746     99.3822   1.0541927600e+02   5.5332174492e+01    0.4893802    0.1947397 -53.87  0.002235838    2.133    0.531
        42 -11.3929      3.7055    113.8149   1.0709791197e+02   5.1751241416e+01     0.719802    0.3433804 -64.57  0.001667196    1.713    0.416
        43 -10.3270      2.9477    104.9637   1.0638204027e+02   5.3996989705e+01    0.3778999    0.2776451  -4.71  0.002270246    1.712    0.416
        44  -7.9954     36.2767    118.3192   9.6794290919e+01   4.7938055583e+01    0.1397361   0.09502275 -43.19 0.0002141224    1.575    0.365
        45 -11.0418     40.3814    110.0910   9.3990585740e+01   4.9587683378e+01    0.6358702    0.3964594  -5.14  0.002854975    2.443    0.591
        46  -9.5858     46.9235    115.7267   9.2774685834e+01   4.7406621543e+01     0.264852    0.1879715 -62.30 0.0002940266    1.278    0.217
        47 -10.2755     46.8182    110.6895   9.1870296618e+01   4.8695382810e+01     0.399504    0.2578214 -80.76  0.001567919    1.670    0.401
        48  -8.9151     43.0102    115.9473   9.4134095117e+01   4.7807146558e+01    0.2302588    0.1548679  69.48 0.0008935299    1.728    0.421
        49  -8.3903     60.5221    114.0201   8.7880655124e+01   4.6080154358e+01    0.2162618    0.1338126 -60.12 0.0004063012    1.499    0.333
        50  -9.0104     32.9735    112.5134   9.6975869432e+01   4.9751077393e+01     0.273046    0.1897918 -26.76 0.0009423839    1.801    0.445
        51 -10.6476     26.7482    113.5252   9.9273270087e+01   5.0087024963e+01    0.3937323    0.2922201  80.01  0.002183841    1.382    0.276
        52  -8.8683     22.4921    112.5495   1.0058822787e+02   5.0707983720e+01    0.2199482    0.1730382  -3.33 0.0006335414    1.586    0.369
        53 -10.3313     12.1046    113.7124   1.0427736556e+02   5.1224030724e+01    0.2675445    0.2636624 -51.56 0.0009033776    1.189    0.159
        54  -8.4704     82.2928    110.9639   8.0091527635e+01   4.3474712311e+01    0.2058888    0.1823077 -56.72 0.0003972299    1.086    0.079
        55 -10.9242     65.0977    103.3942   8.3999337714e+01   4.8066930063e+01    0.6824366    0.5765447 -67.32  0.003119053    1.144    0.126
        56  -9.5583     69.9899     99.0075   8.1257545500e+01   4.8388558450e+01    0.2392119    0.1981048 -43.24  0.001256685    1.196    0.164
        57  -8.7682     15.5001    109.0185   1.0251073117e+02   5.2156492843e+01    0.2042807    0.1116968 -70.18 0.0005270261    1.544    0.352
        58  -9.1488     89.5126    107.8703   7.7064314690e+01   4.2961126394e+01    0.2904712    0.2048677  37.63 0.0009530317    1.475    0.322
        59  -9.0408     77.5465    107.4203   8.0778341559e+01   4.5130586668e+01    0.2898842    0.2529713 -43.46  0.001544283    1.155    0.134
        60 -10.3261     51.5000    103.9954   8.8881873750e+01   4.9797613850e+01    0.5115582    0.3004618  68.21  0.002101337    2.534    0.605
        61  -9.9581     56.6709    107.6843   8.7860831832e+01   4.8196646643e+01    0.3530686    0.2122511  21.74  0.001170703    2.010    0.503
        62  -9.7028    113.8564    105.0461   6.9109782239e+01   3.8912595733e+01    0.3122391    0.2162962  12.11  0.001262275    2.284    0.562
        63  -9.8138     36.5389    104.4002   9.4304859852e+01   5.1437515017e+01     0.388408    0.2448871 -23.05  0.001711233    2.159    0.537
        64  -9.7979     22.7202     96.8714   9.8034723268e+01   5.4628259408e+01    0.2647143     0.197241  15.57 0.0002584273    1.569    0.363
        65  -9.1766     13.9725    105.4706   1.0256212245e+02   5.3159048528e+01    0.2338681    0.1930976  -5.27 0.0009315874    1.471    0.320
        66  -8.9338     14.9796    100.2983   1.0145822549e+02   5.4379368472e+01     0.343928     0.166518 -78.84  0.001102171    1.979    0.495
        67 -10.6026     12.0587     96.7839   1.0201610561e+02   5.5459066688e+01    0.5685715    0.3120182 -22.70  0.001239465    2.438    0.590
        68  -9.1244     28.7561    103.6317   9.6974136722e+01   5.2401845490e+01    0.3719924    0.1927012 -21.68  0.001468385    3.225    0.690
        69  -8.4710    144.9886    103.0187   6.0550988375e+01   3.2648606380e+01    0.1847372    0.1771201 -57.45 0.0003963601    1.015    0.015
        70 -10.6034    111.9431    100.0266   6.8302767278e+01   4.0429763082e+01    0.5052239    0.3385854 -23.79  0.001198587    2.069    0.517
        71  -8.9560     96.8291    102.1141   7.3325250605e+01   4.2961973443e+01    0.2302392    0.2052262 -85.80 0.0004837934    1.203    0.169
        72  -9.3907     97.9633     98.2794   7.1950899629e+01   4.3626846660e+01    0.2869755    0.2517909 -58.27 0.0004042062    1.125    0.111
        73  -8.6908     95.2163     95.3919   7.2007657454e+01   4.4815819958e+01    0.2805814    0.2599578  21.37 0.0008782827    1.159    0.137
        74  -9.3445     98.6663     91.7192   6.9909784695e+01   4.4969759585e+01    0.2928986    0.2422478  30.58 0.0006641511    1.304    0.233
        75  -9.0435     96.3864     89.7709   7.0057056154e+01   4.5852690394e+01    0.2941062     0.249886 -21.94 0.0008380574    1.323    0.244
        76  -9.4038    137.2267     96.0392   6.0523893645e+01   3.5815808556e+01    0.2821237    0.2078699 -37.46 0.0005914639    1.388    0.280
        77  -9.9804     80.8054     99.7706   7.7806868461e+01   4.6424090700e+01    0.3665034    0.2524363   5.77  0.001223361    2.219    0.549
        78 -11.5079     51.5197     80.1901   8.3140762104e+01   5.5564306837e+01    0.9373266     0.708471  14.50  0.003301434    1.517    0.341
        79 -11.4873     48.9363     85.2946   8.5488042579e+01   5.4699190133e+01    0.7050719    0.4767913 -66.62  0.003535903    1.497    0.332
        80 -10.9589     45.0406     85.4681   8.7045721697e+01   5.5144803349e+01    0.7244519    0.2328715  30.00   0.00260459    3.287    0.696
        81 -11.2343     46.9638     95.6182   8.8696586640e+01   5.2442336854e+01    0.5709451    0.3774891 -49.32  0.001086691    1.409    0.290
        82 -10.1693     43.4678     93.5219   8.9535198669e+01   5.3376736945e+01     0.347789    0.2389497 -65.00 0.0008894042    1.358    0.264
        83  -9.3772     33.8731     99.0392   9.4266407895e+01   5.3055829541e+01       0.2058    0.1970261  33.21 0.0003112936    1.167    0.143
        84 -10.5831    116.1468     95.4494   6.5856784723e+01   4.0554271719e+01    0.4480304    0.2471621 -60.80  0.001681419    2.339    0.572
        85  -8.5272    105.4936     97.4877   6.9472579075e+01   4.2314753283e+01    0.1513896    0.1483746 -46.89 0.0001044143    1.030    0.030
        86  -8.9023    124.8282     96.2422   6.3728559725e+01   3.8515107266e+01    0.2635706    0.1707485 -84.38 0.0009513784    2.806    0.644
        87  -8.8329     30.5666     94.7142   9.4672675076e+01   5.4458214467e+01    0.3803138    0.2460879  23.08   0.00192505    1.747    0.427
        88  -8.7655     64.5534     93.9138   8.1878521596e+01   5.0452396249e+01    0.2196878    0.1357549 -56.50 0.0003799993    1.528    0.346
        89  -9.5392    133.2190     93.5518   6.0822500123e+01   3.7224135730e+01    0.3773668    0.1483529  46.12  0.001293148    2.597    0.615
        90  -9.3067    110.0882     93.4879   6.7016314690e+01   4.2256202424e+01    0.2301048    0.1512356  44.91 0.0009318693    1.546    0.353
        91  -7.8223     83.6536     93.7197   7.5258489134e+01   4.7345944913e+01    0.1496593     0.117802  -9.63 0.0003885688    1.639    0.390
        92 -11.2779    107.1956     86.4019   6.5804056704e+01   4.4389804212e+01    0.4741274    0.3820302 -83.90  0.000524187    1.523    0.344
        93 -10.5351     72.4493     89.0512   7.7794646145e+01   5.0356555542e+01    0.8820053    0.4521912 -70.16   0.00109749    3.192    0.687
        94 -10.9826     61.9574     83.8720   8.0160492026e+01   5.3217845159e+01    0.4328234    0.3508343 -27.28  0.001527188    1.326    0.246
        95 -10.6550     65.7154     81.6090   7.8128772380e+01   5.3161016974e+01     0.534108      0.41223  71.75   0.00174643    1.679    0.404
        96  -9.7018    116.3206     88.2760   6.3756814854e+01   4.2048330617e+01    0.2667625     0.185503 -40.39 0.0008563511    1.452    0.311
        97  -9.1723     66.1252     88.6411   7.9934272250e+01   5.1464830479e+01    0.3680398    0.1947766 -48.76  0.001581365    1.777    0.437
        98  -8.2477     11.6748     88.2547   1.0083412123e+02   5.7587607896e+01    0.1897912    0.1421158 -78.64 0.0002911855    1.226    0.184
        99  -9.4378     16.6361     88.7331   9.8960463190e+01   5.7121306899e+01    0.2759652    0.1796483  83.85   0.00027996    1.756    0.431
       100  -9.6312     13.9304     85.4734   9.9465171108e+01   5.8113410984e+01    0.3363393    0.2278976  -5.23   0.00165057    1.808    0.447
       101 -10.1192    139.2793     84.3092   5.6717751881e+01   3.7696112745e+01    0.5452012    0.2625513 -38.32  0.002087383    2.117    0.528
       102  -9.5564      7.1562     87.6376   1.0251532087e+02   5.8023393176e+01    0.2437038    0.2009167 -76.74 0.0004450206    1.090    0.083
       103  -8.6694      1.7041     87.2902   1.0460338419e+02   5.8411073591e+01    0.2961422    0.1158259 -66.03  0.001357898    1.971    0.493
       104  -8.5048    176.9593     85.4693   4.9214513991e+01   2.8755762151e+01    0.2108934    0.1448751  57.28 0.0005707199    1.519    0.342
       105  -9.3378     97.5372     85.9324   6.8578244526e+01   4.6468872774e+01    0.2971078     0.179851 -24.38 0.0008002086    2.503    0.601
       106  -9.3148    162.5008     84.3269   5.1667028257e+01   3.2295894602e+01    0.2630644    0.1386247  55.23 0.0008093258    1.953    0.488
       107  -9.2552     29.2714     83.1417   9.2793178972e+01   5.7416233356e+01    0.3117343    0.2296113  73.98  0.001316462    1.666    0.400
       108  -8.9694    145.2541     83.4170   5.5081813350e+01   3.6483366828e+01    0.2039209     0.145908  66.33 0.0002554568    1.536    0.349
       109 -10.6545     96.3638     74.6371   6.5472119821e+01   4.9098067416e+01    0.6943268    0.4425607 -39.64  0.002961117    1.586    0.369
       110 -11.1470    119.4898     60.3216   5.4160766008e+01   4.6746628631e+01    0.9474365    0.5990459 -17.78  0.003792624    2.238    0.553
       111  -9.8865    101.2429     70.3338   6.2578930167e+01   4.8949323722e+01    0.3610906    0.2505152 -56.94  0.001673969    1.612    0.380
       112  -9.9837    118.8632     81.8221   6.1145972425e+01   4.2822126583e+01    0.3535981    0.2493918 -58.88  0.001094611    1.572    0.364
       113 -10.3956    128.8682     81.0185   5.8290817537e+01   4.0729716815e+01    0.5107071    0.3878014  64.07  0.001805169    1.414    0.293
       114 -10.6305    104.4571     75.3255   6.3221389559e+01   4.7269667905e+01    0.6834553    0.4124957 -16.06  0.002430327    3.130    0.681
       115 -11.2199    107.7275     63.9337   5.8552146772e+01   4.8768339627e+01    0.9576971    0.6778027 -29.48   0.00456628    1.545    0.353
       116 -10.0635    114.2964     80.0970   6.1876219688e+01   4.4178028018e+01    0.5536605    0.4082578 -16.13  0.001723262    1.798    0.444
       117 -10.9464    125.9308     74.8243   5.7156079298e+01   4.2601279750e+01    0.5931515    0.3178515  46.75  0.002432456    1.887    0.470
       118 -11.4636    116.0878     73.8199   5.9434465603e+01   4.5027645246e+01    0.8627151    0.5928132  61.79  0.003950312    1.611    0.379
       119 -10.2467     82.0418     80.4838   7.1990242396e+01   5.0630285309e+01    0.6055006    0.2905565 -45.01  0.002420206    2.035    0.509
       120 -10.0852     87.9740     72.7586   6.7574627899e+01   5.1161391543e+01    0.6415666     0.391479 -40.81  0.001566784    1.638    0.390
       121  -9.4700     82.1846     73.4225   6.9743204644e+01   5.2127110738e+01    0.3870223    0.2462871 -44.54  0.001071087    1.533    0.348
       122  -9.0125     75.4272     82.3952   7.4854034179e+01   5.1379719114e+01    0.3554064    0.2104091 -64.20  0.000868833    2.059    0.514
       123 -10.7117    172.3764     76.9651   4.7770212021e+01   3.1302539886e+01    0.4708453    0.3895283  84.22  0.001788532    1.287    0.223
       124 -10.2387    173.7433     72.4216   4.6287658535e+01   3.1756646455e+01    0.3337597    0.2999486  38.90  0.001197176    1.263    0.208
       125  -9.2816     40.1278     80.3865   8.7736797192e+01   5.6937498248e+01    0.2354684    0.1679512 -48.19 0.0004840752    1.272    0.214
       126 -10.5834      6.7678     79.4383   1.0135066290e+02   6.0033450608e+01    0.6474434    0.3833422 -19.34  0.003316656    2.041    0.510
       127 -11.9260    139.9293     72.2778   5.3013627241e+01   3.9806976850e+01     0.892298    0.4965813  55.21   0.00176361    1.806    0.446
       128  -9.8069     33.6957     69.7483   8.7669378090e+01   6.0132645064e+01    0.4450447    0.3506992 -51.95  0.001713969    1.131    0.116
       129 -10.5763     18.1902     65.8090   9.3578656458e+01   6.2475235176e+01    0.9837531    0.1572175 -47.99  0.002298867    4.521    0.779
       130 -10.5736      2.7275     39.0005   9.4318490339e+01   6.9435949080e+01    0.4208458    0.2217913 -68.05  0.002024923    1.895    0.472
       131 -10.7297     24.3069     68.4470   9.1465632880e+01   6.1351523256e+01    0.8182494    0.4309253   5.05  0.003085475    2.551    0.608
       132 -11.2685     29.3549     61.2619   8.7244122233e+01   6.2503858655e+01    0.6450305    0.4036065 -38.75  0.002129289    1.506    0.336
       133  -9.9747     16.3386     43.6370   8.8285081061e+01   6.7510071255e+01    0.2208469    0.1785663 -32.40 0.0004135787    1.077    0.072
       134 -10.1579     20.1552     56.5706   9.0249968633e+01   6.4403959629e+01    0.4272925    0.3442921  44.36  0.002641733    1.494    0.330
       135 -10.9648     11.5860     46.3760   9.1648022128e+01   6.7299077482e+01    0.9603457    0.5135199  57.40  0.002641499    3.539    0.717
       136  -9.6227    197.9827    244.9929   7.7178035995e+01  -2.4863151849e+00    0.1908405    0.1183566   3.01  0.001143389    1.746    0.427
       137 -10.3459     10.2106     31.8760   8.7665711700e+01   7.0393217156e+01    0.5125318    0.2467447 -61.88  0.002091305    2.171    0.539
       138  -9.0551    185.3086     77.3470   4.5633406031e+01   2.8249425707e+01    0.1424437    0.1146712  10.69 0.0007044165    1.704    0.413
       139 -10.0915     72.2145     76.2575   7.4157475341e+01   5.3296557552e+01    0.3270424    0.2571091  26.07  0.001180299    1.372    0.271
       140  -8.6137    194.0447     76.0342   4.3899962649e+01   2.6489504574e+01    0.1712074    0.1532431 -53.38 0.0003772073    1.021    0.021
       141 -10.1402    162.8506     74.5417   4.8879201175e+01   3.3963133381e+01    0.4613962    0.2559988  66.53  0.001772028    2.073    0.518
       142  -9.4780    151.8179     73.8621   5.0895629379e+01   3.6700966796e+01    0.4071122    0.2175632 -32.72  0.001067251    2.024    0.506
       143 -10.3456    148.2437     68.4928   5.0062654175e+01   3.8498991720e+01    0.6307999    0.2438958 -48.98  0.001660281    2.934    0.659
       144 -10.6777    151.1550     67.3166   4.9110612574e+01   3.8003682136e+01     0.529689    0.4213382 -43.18  0.001874529    1.237    0.192
       145  -9.7929     38.6415     72.6324   8.6330379886e+01   5.8922627865e+01    0.3277239    0.2504481  36.19  0.001085476    1.438    0.305
       146  -8.5930    181.5068     71.4928   4.4714981882e+01   3.0097851365e+01    0.1451319     0.132572 -63.90 0.0008105713    1.014    0.014
       147  -8.9432     52.5002     70.7809   8.0053263303e+01   5.7579111870e+01    0.2541126    0.1983876  28.20   0.00124136    1.360    0.265
       148  -8.1640     48.4646     71.4176   8.1890106515e+01   5.7986584745e+01    0.1374584    0.1249193 -34.07 0.0001135589    1.036    0.035
       149 -10.2901      9.3360     67.3061   9.7949786645e+01   6.2753733284e+01    0.4813735    0.3408485 -44.15  0.002872064    1.256    0.204
       150  -9.7587    168.9271     68.3298   4.6009499155e+01   3.3578644230e+01     0.400831    0.2659252 -86.25  0.001773088    1.988    0.497
       151  -8.7887    123.2343     67.5930   5.5572684511e+01   4.4575621335e+01    0.2817832    0.1760212 -51.70 0.0007823258    1.720    0.419
       152 -10.5721     94.7808     66.0665   6.3158991548e+01   5.1140303192e+01    0.4383169    0.3200542  -9.16  0.001920587    1.869    0.465
       153 -11.9677    179.0201    242.1599   8.0250847549e+01   4.0585501858e-01    0.6243443    0.3658809  17.28  0.003562996    1.741    0.426
       154  -8.5285    221.0211    239.2620   7.2317568661e+01  -4.6467165432e+00    0.1618831    0.1218988  10.25  0.001166672    1.049    0.046
       155 -10.0438     69.2584     40.7701   6.2590554063e+01   6.0790987450e+01    0.6548684     0.390137  32.80  0.003140955    1.781    0.438
       156 -11.3491     56.2107     45.3805   6.9692818663e+01   6.2245933378e+01    0.9021664    0.5439854  33.15  0.004060882    1.704    0.413
       157 -10.0345    191.4176    233.2099   7.6661983630e+01  -1.1749732208e-02    0.2363229    0.1922716  37.93  0.001617624    1.368    0.269
       158 -10.3259    212.7777    216.5592   7.0199996661e+01  -5.6578523953e-01    0.2690727    0.1328837  28.55  0.001418772    1.929    0.482
       159  -9.8073     53.7590     13.9662   5.6465416764e+01   6.7626859737e+01    0.3503436    0.1652478  41.87 0.0003325021    1.979    0.495
       160  -8.8899    229.6561    203.3161   6.5072605958e+01  -9.8724560917e-01    0.1017834   0.09762259 -84.28  0.000631431    1.715    0.417
       161  -8.2525    243.3354    178.2963   5.8394338105e+01   7.0484981560e-01    0.1237113   0.08154974  -2.59 0.0007029853    1.648    0.393
       162  -8.4853     16.2987    174.6530   1.0877692671e+02   3.5843340394e+01    0.1375546    0.0751905  64.86 0.0007036126    1.681    0.405
       163  -8.2991      7.6468    174.7002   1.1090973177e+02   3.6584358923e+01    0.1173478   0.08681412 -47.82 0.0007037141    1.698    0.411
       164 -10.9941     59.6225     62.4218   7.4504302375e+01   5.8331052253e+01    0.8629262    0.7021274 -84.20  0.004619102    1.646    0.393
       165 -10.6200     59.2934     53.7356   7.1584114719e+01   6.0148783605e+01    0.6570475    0.3402666 -38.48  0.001890669    1.935    0.483
       166  -9.8669    173.7624     65.7210   4.4442673325e+01   3.2858560599e+01    0.2805011    0.2247798  33.87  0.001449169    1.529    0.346
       167 -10.2101     27.0740     77.0029   9.2321173828e+01   5.9093315584e+01     1.179623     0.407535  18.75  0.004386222    3.669    0.727
       168  -8.8610     84.8537     64.8838   6.6007401732e+01   5.3369379164e+01    0.3075958    0.2114368 -36.22  0.001482332    1.480    0.324
       169  -9.4877     85.1154     60.9164   6.4545974593e+01   5.4094285333e+01    0.3043876    0.2550659 -44.79  0.001008477    1.198    0.165
       170 -11.7081     81.7032     55.6139   6.3817327483e+01   5.5770758084e+01    0.5703743     0.394994 -24.42            0    1.648    0.393
       171 -11.3844     39.5679     62.0894   8.2877181003e+01   6.1188826703e+01    0.5553409    0.4165075  -1.59  0.001463188    1.516    0.340
       172  -9.6772     15.2132    160.3691   1.0796743518e+02   3.9358725857e+01    0.1747652    0.1026839  42.33 0.0003662927    1.638    0.390
       173 -10.0924    161.7395     44.6150   4.0400448634e+01   3.8986733905e+01    0.3669495    0.3039296  51.32  0.001291598    1.281    0.219
       174 -10.1515    164.7679     40.0384   3.8567550488e+01   3.8881009043e+01    0.2491544    0.2425958  36.87 0.0002076354    1.187    0.157
       175  -9.7992    161.7900     35.2833   3.7612819980e+01   4.0248827908e+01    0.3446857    0.2593796 -51.51  0.001632767    1.296    0.228
       176 -12.0328    138.8360     55.0910   4.7923639344e+01   4.3014908881e+01    0.9149277    0.7110985 -64.68  0.002109355    1.399    0.285
       177 -11.3016    163.6969     55.3516   4.3227025082e+01   3.6916950333e+01    0.5916672    0.4572205  82.87   0.00200637    1.346    0.257
       178 -10.6503    136.8648     77.6835   5.5343992827e+01   3.9525945423e+01    0.6123528     0.331761  67.92  0.001457483    2.557    0.609
       179 -11.0182    190.6189     58.4840   3.9866208023e+01   3.0033123022e+01    0.3003743    0.2474158 -74.87  0.001189306    1.184    0.155
       180 -10.7670    128.8491     58.2694   5.1184687608e+01   4.4895354230e+01    0.6550105    0.3944812  42.08  0.002873651    1.804    0.446
       181 -10.8125      6.3042    158.5860   1.1018172163e+02   4.0519452001e+01    0.3702146    0.2111616 -79.15  0.001645645    1.490    0.329
       182 -11.3248    181.0037     56.5029   4.0748854642e+01   3.2585072106e+01    0.6308083    0.2580023 -44.96  0.002479663    2.304    0.566
       183 -11.3143    182.5371     48.3842   3.8311824224e+01   3.3415476917e+01    0.4302557    0.2891557  82.75  0.001873754    1.584    0.369
       184  -9.7598    175.0807     55.1280   4.1284570920e+01   3.4204003627e+01    0.2766809    0.1803996  58.14 0.0009341569    1.551    0.355
       185  -9.6306     12.6409    153.9317   1.0813543346e+02   4.1144924666e+01    0.2159212    0.1631536  49.95 0.0002651007    1.298    0.230
       186 -11.0692     86.8636     47.0960   5.8893119608e+01   5.6247801965e+01    0.6574067    0.3981221  43.12  0.003107259    1.626    0.385
       187 -10.4429     82.9391     40.0872   5.7442758758e+01   5.8213752482e+01    0.4331757    0.3991322  15.84   0.00176574    1.052    0.049
       188  -9.1084    236.4956    146.5024   5.3322020682e+01   6.5453990758e+00    0.1289299    0.1082895 -22.73 -3.604878e-05    1.024    0.024
       189  -8.1811     67.7191     54.9395   6.8680875891e+01   5.8495334796e+01    0.2460004      0.15928  78.28 0.0008967654    3.744    0.733
       190 -10.1542     43.3651     53.7999   7.8459928074e+01   6.2477365327e+01    0.4997371    0.3282125   3.60   0.00249108    1.943    0.485
       191  -9.2534     38.6772     54.7195   8.0906845987e+01   6.2882010612e+01    0.2671998    0.1677268 -36.16 0.0005865433    1.542    0.351
       192 -11.0188    197.0739     51.9520   3.7291226382e+01   2.9506589552e+01    0.3693606    0.2245681  29.34  0.001542702    2.993    0.666
       193 -10.1499      3.6265     56.6061   9.8333983039e+01   6.5542018119e+01    0.3834362    0.3067598  -2.98    0.0023425    1.382    0.277
       194 -10.5094    161.0079     49.7974   4.2059137418e+01   3.8412841470e+01    0.4097443    0.3510586 -38.22  0.001473045    1.196    0.164
       195 -10.0844     68.4010     48.9389   6.6164825417e+01   5.9506699286e+01    0.3973183    0.3152425  39.63  0.001220692    1.275    0.216
       196 -10.5887     89.8870     37.3735   5.4126624321e+01   5.7168416988e+01    0.9400682    0.4685282 -28.80  0.004005898    2.240    0.554
       197  -9.2471     47.8406     47.5215   7.4167346260e+01   6.3119913434e+01      0.26709    0.1730452 -36.60 0.0009720614    1.474    0.322
       198  -9.6887    174.5684     45.8619   3.8765423958e+01   3.5684511833e+01    0.3480585     0.189553 -89.00  0.001392176    2.572    0.611
       199 -11.2992    130.6293     53.3809   4.9173113814e+01   4.5274344917e+01    0.7608818    0.5041882  59.89  0.003608037    1.489    0.328
       200  -9.8779     23.5386     44.2814   8.4727106725e+01   6.6724677410e+01     0.325914    0.2412897 -20.25  0.001170239    1.328    0.247
       201 -11.4507    193.1848     44.1998   3.5776048393e+01   3.1495377410e+01    0.3682512    0.2824759  35.27  0.001236279    1.732    0.423
       202 -11.0367    190.2347     41.3855   3.5405754225e+01   3.2568668246e+01    0.3290636    0.2346329  60.51   0.00139724    1.456    0.313
       203 -10.2858    189.5093     38.4871   3.4727627177e+01   3.3126868107e+01    0.2323125    0.2073597 -62.82 0.0006708757    1.047    0.045
       204  -9.9337    141.4864     40.9005   4.2824130960e+01   4.4505986082e+01    0.3487558    0.3016376  85.13   0.00194534    1.137    0.121
       205  -9.5151    111.4566     33.4707   4.6695209830e+01   5.2828295941e+01    0.3789466    0.2895386  -7.53   0.00127649    1.572    0.364
       206  -9.2069    135.5881     31.0200   4.0672800576e+01   4.7289911403e+01    0.2442115     0.190837  77.56 0.0001083666    1.259    0.206
       207 -10.2902    126.8063     43.0203   4.6552248818e+01   4.7795168980e+01     0.687086    0.3486533  77.05  0.002446623    3.107    0.678
       208  -9.8617    112.6034     39.6394   4.8692605453e+01   5.1687118518e+01     1.120071    0.2425316  57.37  0.003108075    4.554    0.780
       209 -10.5967    139.1676     34.7767   4.1257780844e+01   4.5915968415e+01    0.3579318    0.2542251  45.60  0.001821466    1.477    0.323
       210  -9.3427    132.0434     44.9958   4.6080783810e+01   4.6230456076e+01    0.2199809    0.1919279  32.79 0.0004639908    1.260    0.207
       211 -10.3313    133.8379     39.9625   4.4021598445e+01   4.6520451621e+01    0.5148439      0.41144  67.00  0.001849295    1.204    0.170
       212 -10.2083    126.3095     37.3313   4.4696986081e+01   4.8728743827e+01    0.7074341    0.2973069  60.43  0.002773889    2.274    0.560
       213  -9.4479     41.5564     43.5505   7.5530217591e+01   6.4768797938e+01    0.4015525    0.2878799 -74.08  0.002051579    2.190    0.543
       214 -10.3435      3.5043     51.2608   9.7155301783e+01   6.6744385759e+01    0.3930686    0.2774295 -54.50  0.002461995    1.161    0.139
       215 -11.1309     30.4441     37.8612   7.8781021219e+01   6.7263479412e+01    0.3093454    0.2283255 -31.46 0.0006501367    1.222    0.181
       216  -8.5018     25.4876     38.4918   8.1613347011e+01   6.7691725952e+01    0.1921307    0.1511231  26.25 0.0006961729    1.374    0.272
       217  -9.4666     13.7157     38.7951   8.8100652009e+01   6.8725451778e+01    0.1919674    0.1772044   4.63 0.0002477804    1.207    0.171
       218  -9.4115     73.8300     34.0372   5.8087538497e+01   6.1000751860e+01    0.2517692    0.1790152  62.24   0.00129486    1.722    0.419
       219  -9.6869     36.5193    145.1034   1.0048029030e+02   4.1101760214e+01    0.3072883    0.1970901  84.45 0.0007915228    1.575    0.365
       220  -8.6738    154.2321     30.3332   3.7268767437e+01   4.2751748265e+01    0.2676967    0.1496377 -56.68 0.0009469872    1.987    0.497
       221  -8.3883    120.4058     31.4781   4.3902481503e+01   5.0950762455e+01    0.1371908    0.1305316  54.64 0.0001152002    1.037    0.036
       222  -8.3476     38.3207     30.9447   7.1868841923e+01   6.7528813203e+01    0.1778048    0.1475358 -26.20 0.0006323534    1.098    0.090
       223  -9.2011    130.5981     30.2502   4.1363693393e+01   4.8619003908e+01    0.3359688    0.1737383  58.10 0.0009255222    1.774    0.436
       224  -9.8036    125.2078     24.9291   4.0555116800e+01   5.0599791880e+01    0.3934644    0.2411341 -29.31  0.001259516    1.744    0.427
       225  -8.7965    128.4905     25.5489   4.0136195346e+01   4.9719132520e+01    0.1380667    0.1272779  65.73 8.519921e-06    1.028    0.027
       226  -9.4678     24.0948     26.4043   7.7400308305e+01   7.0115180226e+01    0.3613892    0.1842778  14.51  0.001446722    2.416    0.586
       227  -9.8848      1.8535    144.5412   1.1037356352e+02   4.4257577111e+01    0.3522784      0.16936  84.00  0.001706846    1.938    0.484
       228  -9.9925     86.8750     22.3952   4.8816480716e+01   5.9894943065e+01    0.6504874    0.3468604  72.82  0.002207448    2.938    0.660
       229  -9.3188     91.7900     19.3791   4.6134937450e+01   5.9166633925e+01    0.2901586    0.2201763  14.89 0.0009745245    1.489    0.328
       230  -8.2233    147.8493     23.0591   3.5969979483e+01   4.5213416496e+01     0.296353   0.07570626 -33.03  0.001002633    3.519    0.716
       231  -7.7022     94.6736     24.2389   4.7384912080e+01   5.7925215816e+01    0.1282922    0.1039347 -86.94 0.0006886245    1.527    0.345
       232 -10.3258    131.4786     20.6846   3.7888581435e+01   4.9548178108e+01    0.3124369    0.2399573 -68.41 0.0005729505    1.403    0.287
       233  -9.3585    102.9029     23.9510   4.5126017057e+01   5.6068989240e+01    0.3187422    0.2002686  51.87  0.001601404    1.460    0.315
       234  -8.3815     37.6899    139.7168   9.9447625867e+01   4.2338925230e+01    0.1328785   0.09906842 -40.55 0.0001869139    1.569    0.363
       235  -8.4904    117.0607     16.2355   3.8989312264e+01   5.3572374649e+01    0.1904809    0.1564251  59.93 0.0004974651    1.111    0.100
       236  -8.8568     98.4758     31.8971   4.9441537631e+01   5.6055520455e+01    0.2709991    0.1684806  41.16  0.001305194    1.612    0.380
       237  -8.4557     48.9254    139.2504   9.5997929274e+01   4.1175886069e+01    0.1868508    0.1704739 -89.86 0.0002616182    1.022    0.022
       238  -8.9462     15.5333    136.2381   1.0569596746e+02   4.5298125674e+01    0.2471462    0.1551574  83.07  0.001311109    1.505    0.335
