#   1 NUMBER                 Running object number                                     
#   2 MAG_AUTO               Kron-like elliptical aperture magnitude                    [mag]
#   3 X_IMAGE                Object position along x                                    [pixel]
#   4 Y_IMAGE                Object position along y                                    [pixel]
#   5 X_WORLD                Barycenter position along world x axis                     [deg]
#   6 Y_WORLD                Barycenter position along world y axis                     [deg]
#   7 A_WORLD                Profile RMS along major axis (world units)                 [deg]
#   8 B_WORLD                Profile RMS along minor axis (world units)                 [deg]
#   9 THETA_WORLD            Position angle (CCW/world-x)                               [deg]
#  10 FWHM_WORLD             FWHM assuming a gaussian core                              [deg]
#  11 ELONGATION             A_IMAGE/B_IMAGE                                           
#  12 ELLIPTICITY            1 - B_IMAGE/A_IMAGE                                       
         1 -14.4703    154.7492     51.5144   2.9039458215e+02   6.2372825633e+00   0.07017315   0.05634573 -18.87  0.004763099    1.400    0.286
         2 -14.5773    166.0173     35.6203   2.9016709957e+02   6.3506066740e+00   0.05342741   0.04130527 -44.95  0.004257068    1.299    0.230
         3 -13.9716    179.9813      4.6293   2.8981502582e+02   6.6195632276e+00   0.04710566   0.03192607  26.61  0.003796486    1.493    0.330
         4 -13.5689    178.1728    197.1632   2.9102725263e+02   4.4334730105e+00   0.03363634   0.01996818  31.88  0.002981999    1.660    0.398
         5 -19.8163     69.0870    168.6620   2.9209882678e+02   5.4144753031e+00    0.9576893    0.3537476 -64.12   0.07327183    2.868    0.651
         6 -13.1411    180.3925    193.7532   2.9098085829e+02   4.4590582877e+00   0.04397267   0.02435102  80.60   0.00330531    3.558    0.719
         7 -11.8112    158.8749    194.3989   2.9123067071e+02   4.5811481541e+00   0.01503071   0.01066712  76.32 0.0008673031    1.812    0.448
         8 -12.1799    135.3954    195.8565   2.9150798940e+02   4.7056615171e+00    0.0177538   0.01183834  74.44  0.001183818    2.049    0.512
         9 -10.9774    220.3926    227.7380   2.9073388246e+02   3.8302135679e+00   0.01250369  0.006533999 -67.93 0.0009435582    2.097    0.523
        10 -10.2535      7.2213    196.7321   2.9297935946e+02   5.4639395621e+00   0.01722466   0.01171565  69.79  0.001189194    1.917    0.478
        11 -11.9811    170.0138    195.0665   2.9110752203e+02   4.5065140765e+00   0.01621195  0.009415827 -65.17  0.001315664    1.776    0.437
        12 -13.5894    207.5071    183.5192   2.9060801828e+02   4.4126514176e+00   0.03839919   0.02400617 -86.99  0.001142062    2.203    0.546
        13 -13.1524    210.4993    181.5328   2.9056158431e+02   4.4173037999e+00   0.02460635    0.0168772 -47.85   0.00185367    1.449    0.310
        14 -11.3730    166.2486    189.4352   2.9111579994e+02   4.5934874111e+00   0.01582559  0.009900548  59.98  0.001503663    2.039    0.510
        15 -10.7692     14.9504    189.2476   2.9284496072e+02   5.5033047825e+00  0.008894614  0.007962749 -13.06 0.0002789357    1.181    0.154
        16 -11.1711    157.4332    184.6681   2.9118712404e+02   4.7009719909e+00   0.01224895  0.006616057 -68.35 0.0007144955    2.027    0.507
        17 -11.1550    139.7739    249.0658   2.9178561243e+02   4.0714498043e+00   0.01962392   0.01185567 -65.90  0.001938863    1.715    0.417
        18 -11.1123    108.4783    182.5674   2.9173384520e+02   5.0192047988e+00   0.01357858   0.01054968  64.14 0.0007021232    1.475    0.322
        19 -12.1478    197.6513    176.2435   2.9067563349e+02   4.5550926156e+00   0.02270927   0.01629159  88.03   0.00153635    1.743    0.426
        20 -10.0681    145.5293    178.4689   2.9128494132e+02   4.8433817709e+00  0.006512556  0.006389863 -32.52 8.326294e-05    1.013    0.013
        21 -12.3397    178.8559    174.5269   2.9087974060e+02   4.6878801938e+00   0.01902683   0.01221492 -49.99  0.001643549    1.531    0.347
        22 -12.4041    145.6312    169.9510   2.9123122436e+02   4.9400704283e+00   0.03168346   0.01895878  59.97  0.002916755    2.211    0.548
        23 -11.7713    112.6251    169.2181   2.9160413870e+02   5.1468315484e+00   0.01981051   0.01572374  41.85  0.001563686    1.278    0.218
        24 -11.9691    226.9919    168.7517   2.9029431974e+02   4.4638074650e+00   0.02363314   0.01365863  87.23  0.001947065    2.893    0.654
        25 -11.0415    206.1128    170.2027   2.9054167954e+02   4.5730876205e+00     0.022376   0.01346484 -13.89  0.001952871    2.551    0.608
        26 -11.5849    138.3027    172.0680   2.9132807294e+02   4.9599560098e+00   0.02434446   0.01458505  70.22  0.002123747    2.563    0.610
        27 -10.5589     22.2061    166.7647   2.9262374633e+02   5.7169232063e+00   0.01406034  0.008718628  14.22 0.0008476732    1.876    0.467
        28 -11.6637    229.9983    165.7486   2.9024143676e+02   4.4799587100e+00  0.009420827  0.009030004  28.62 0.0007429892    1.050    0.047
        29 -10.3008    123.5117    166.4847   2.9146276978e+02   5.1126516049e+00   0.01146239  0.005529215  39.66 0.0006278725    2.067    0.516
        30 -11.1442    200.2565    164.1101   2.9057092024e+02   4.6779327762e+00   0.01628351   0.01288264  73.23  0.001266712    1.477    0.323
        31 -10.5370    101.0710    224.5140   2.9207676972e+02   4.5843207527e+00  0.009148757  0.008917334 -73.09 0.0007687722    1.035    0.034
        32 -10.6958    110.0920    222.9761   2.9196420421e+02   4.5477588076e+00  0.009611942   0.00922339  83.83 0.0004548875    1.077    0.072
        33 -12.6714    134.2357    148.2550   2.9122762852e+02   5.2564330320e+00   0.03100926   0.01357515 -73.05  0.002314267    3.212    0.689
        34 -13.1831    133.5772    142.8677   2.9120189975e+02   5.3219286710e+00   0.03305894    0.0144687 -71.84  0.002523606    3.042    0.671
        35 -10.3431     20.8989    219.2697   2.9296120683e+02   5.1245172764e+00  0.008498265  0.007795103  64.74 0.0005519902    1.148    0.129
        36 -10.9042    174.5155    148.5116   2.9076865619e+02   5.0110968829e+00   0.01484215   0.01130179 -82.23  0.001331514    1.490    0.329
        37 -11.8617    153.0639    145.1544   2.9099315689e+02   5.1785784374e+00    0.0125189    0.0103688 -87.94  0.001438034    1.343    0.255
        38 -11.0669     21.0530    235.9974   2.9306204465e+02   4.9323595827e+00  0.009921699  0.008284237 -38.06 0.0008258178    1.228    0.186
        39 -13.3455    143.5530    144.3600   2.9109701401e+02   5.2448793832e+00   0.03895783   0.02061478 -86.37  0.002964927    3.361    0.702
        40 -13.1427      6.7640    139.7596   2.9263448085e+02   6.1179226453e+00   0.02730994   0.02160857  34.41  0.002895365    1.263    0.208
        41 -11.6995     24.3055    140.8524   2.9244028685e+02   6.0005286370e+00   0.01221627  0.009552931  15.33 0.0006224232    1.357    0.263
        42 -13.5813    135.4030    122.9126   2.9105775575e+02   5.5388547979e+00   0.06683657   0.01656672 -66.07  0.003590151    5.902    0.831
        43 -10.5566    139.4776    216.8211   2.9159050695e+02   4.4416109979e+00   0.01749408    0.0100687  81.67  0.001402799    3.056    0.673
        44 -12.3902     19.1350    127.8190   2.9241927040e+02   6.1804040542e+00   0.02069795   0.01164023 -53.28  0.001693546    1.715    0.417
        45 -10.8295     25.8185    231.9980   2.9298303286e+02   4.9495852469e+00  0.009931603  0.007811971 -34.45 0.0005549547    1.348    0.258
        46 -12.2939      2.5429    125.4207   2.9259460310e+02   6.3070172870e+00   0.01682177   0.01048179 -62.88  0.001482297    1.609    0.378
        47 -11.5934    160.5179    128.3856   2.9080430537e+02   5.3251976722e+00   0.01949548   0.01031458 -52.76  0.001834209    1.820    0.451
        48 -11.6259    134.5010    102.9887   2.9094492957e+02   5.7717852318e+00    0.0153119  0.006440526 -61.60  0.001266278    2.361    0.577
        49 -12.1504      3.9967    112.2420   2.9249680634e+02   6.4489130015e+00   0.02328495   0.01390028  11.87   0.00218987    2.058    0.514
        50  -9.8851     12.2628    212.9349   2.9302111568e+02   5.2485683837e+00  0.007314543  0.006366617  -8.55 0.0002654337    1.238    0.192
        51 -10.1211    116.8996    230.9996   2.9193577391e+02   4.4152114594e+00  0.009969688  0.007447022  66.15 0.0005064498    1.588    0.370
        52 -12.6617    165.0842    205.7802   2.9122991217e+02   4.4137970490e+00   0.02936844   0.01577178 -78.22  0.001901134    2.557    0.609
        53 -10.4749    155.0666    104.9360   2.9072166024e+02   5.6257513388e+00   0.00938704  0.009293875 -43.54            0    1.003    0.003
        54 -10.8008    205.4797    110.1644   2.9017761257e+02   5.2622109030e+00   0.01401475  0.009875704  13.50 0.0009017633    1.581    0.367
        55 -11.7997    170.1688    204.9170   2.9116650526e+02   4.3930719751e+00   0.01628708   0.01120427 -78.01  0.000487596    1.677    0.404
        56 -10.7151    124.4390     94.9654   2.9101048791e+02   5.9239259070e+00  0.009598996  0.008888601  20.18 0.0003883894    1.092    0.084
        57 -10.5190    144.8476     79.1236   2.9067888469e+02   5.9819230842e+00  0.009267916  0.007628493 -27.51 0.0004291669    1.307    0.235
        58 -10.6304     30.0013    205.3805   2.9277183704e+02   5.2288583553e+00  0.009050088  0.006088049   1.66 0.0004717057    1.878    0.468
        59 -10.8780     20.4355    202.4145   2.9286305525e+02   5.3199814343e+00  0.009600515  0.006818792 -50.29 0.0004610532    1.385    0.278
        60 -11.0583     13.5963    244.8676   2.9320165875e+02   4.8755285082e+00   0.01909399  0.005843955 -59.39  0.001386743    3.041    0.671
        61 -12.9746    169.4665     28.1112   2.9008105977e+02   6.4154120341e+00   0.02143647   0.01710038 -28.07  0.001044414    1.367    0.268
        62 -10.4098     13.5241     59.9409   2.9206510056e+02   6.9892804913e+00  0.009626137  0.008872072  28.03 0.0003871273    1.091    0.083
        63 -10.8634    142.5321     33.0858   2.9042025242e+02   6.5210826876e+00   0.01312187  0.008272328  43.65 0.0009397478    1.640    0.390
        64 -11.4913    211.5126    201.5302   2.9067349864e+02   4.1828892898e+00   0.01198955  0.006598926 -77.27  0.001034604    2.387    0.581
        65 -11.1967    189.7068     14.9870   2.8976803085e+02   6.4428228766e+00  0.009484648  0.008581355 -64.07 0.0006151038    1.107    0.097
        66 -12.2939    182.2244    189.2193   2.9093195346e+02   4.4998117861e+00   0.01614202   0.01469722  54.77 0.0007558057    1.141    0.123
