#   1 NUMBER                 Running object number                                     
#   2 MAG_AUTO               Kron-like elliptical aperture magnitude                    [mag]
#   3 X_IMAGE                Object position along x                                    [pixel]
#   4 Y_IMAGE                Object position along y                                    [pixel]
#   5 X_WORLD                Barycenter position along world x axis                     [deg]
#   6 Y_WORLD                Barycenter position along world y axis                     [deg]
#   7 A_WORLD                Profile RMS along major axis (world units)                 [deg]
#   8 B_WORLD                Profile RMS along minor axis (world units)                 [deg]
#   9 THETA_WORLD            Position angle (CCW/world-x)                               [deg]
#  10 FWHM_WORLD             FWHM assuming a gaussian core                              [deg]
#  11 ELONGATION             A_IMAGE/B_IMAGE                                           
#  12 ELLIPTICITY            1 - B_IMAGE/A_IMAGE                                       
         1 -13.1470    200.1955     36.2479   2.9858074127e+01   3.1701752859e+01     1.249324    0.7491558  80.36  0.006157726    1.712    0.416
         2 -15.0973    202.8577     61.1271   3.5481842575e+01   2.7774720715e+01     2.998901      1.62466 -65.75   0.01301343    2.267    0.559
         3 -14.8766     27.0101     59.0419   8.4072471703e+01   6.3565570254e+01     3.087429     1.370933  17.15   0.01310592    2.584    0.613
         4 -12.8277     74.8775     22.6360   4.8252729097e+01   6.2046338812e+01      2.10497     1.011719  58.10  0.009390692    2.146    0.534
         5 -12.1899     43.7659     21.3254   5.9872184576e+01   6.8170127844e+01     1.123458    0.4311525  34.40   0.00466176    2.697    0.629
         6 -13.7143     61.3244     35.2727   5.8784004694e+01   6.3025869645e+01     2.113611      1.18671  14.62  0.008584333    2.897    0.655
         7 -10.3772     48.7275     17.6501   5.5736254847e+01   6.7793826933e+01    0.4324112    0.3448221 -83.25  0.002384309    2.339    0.572
         8 -11.7298    151.6061     43.1054   3.8006539115e+01   4.1771728632e+01     1.011732    0.8861006  36.17  0.005970154    1.317    0.241
         9 -12.8990      2.8352     36.1120   8.9924573536e+01   7.0428394840e+01     1.592932    0.5258759 -35.55  0.006584629    2.866    0.651
        10 -13.3082     13.2988     38.1352   8.4277142077e+01   6.9234778934e+01      1.51291    0.5527568 -31.56  0.005795589    3.306    0.698
        11 -13.6816    172.6185     45.7111   3.5550909733e+01   3.6547831870e+01      1.95406     1.064465  36.09  0.008134315    3.031    0.670
        12 -10.0483     88.5802     21.0622   4.3532410573e+01   5.9245183753e+01    0.4209224    0.3263015 -35.82  0.001355971    1.422    0.297
        13 -11.8893     31.4901     19.2482   6.5051806734e+01   7.0403801459e+01    0.3454354    0.2313347 -33.53  0.000936726    1.490    0.329
        14 -11.0569     71.9275     15.7302   4.6075190577e+01   6.3453523383e+01     0.323699    0.2421377 -69.53  0.001121861    2.018    0.504
        15 -10.0824    134.7352     13.6398   3.1571238121e+01   4.9194155437e+01     0.206594    0.1589175   1.48 0.0008464067    1.676    0.403
        16 -10.9842    149.7672     12.4783   2.9203099640e+01   4.5747918704e+01    0.3833124    0.1876809 -71.93  0.001036622    2.657    0.624
        17 -13.0763     49.3438     28.0354   6.0579494362e+01   6.6258757820e+01    0.9441012    0.6334599  26.55   0.00167038    1.426    0.299
        18 -11.4975    116.0427     10.6687   3.3537439490e+01   5.3915406701e+01     0.328483    0.2696725 -77.50  0.001276657    1.283    0.221
        19 -10.9206     89.0160     12.0874   3.9674910335e+01   6.0072180874e+01    0.1896258    0.1643228  48.34 0.0003758555    1.016    0.015
        20 -10.2209     95.0370     10.9720   3.7800357392e+01   5.8802675730e+01    0.1868667    0.1447063 -69.77  0.000452268    1.573    0.364
        21 -10.0492     91.4215      7.3147   3.7117555861e+01   5.9957353327e+01    0.1614263    0.1167279 -37.91 0.0009336293    1.567    0.362
        22 -10.9714      3.4869      6.3124   7.5954036446e+01   7.5774922790e+01    0.2355325    0.1584447  -3.19 0.0009050358    1.295    0.228
        23 -10.4167     54.0472     10.4151   4.9787467980e+01   6.7645195217e+01    0.2316397    0.1882981 -77.14  0.001288156    1.984    0.496
        24 -10.2807     72.8224      3.7964   4.0239254917e+01   6.4403898979e+01    0.2917397    0.1918273  45.82  0.001689835    1.295    0.228
        25  -9.7206    145.4923      4.5333   2.7355767972e+01   4.7479617490e+01    0.1245968    0.1082111  80.28  0.000809261    1.046    0.044
        26  -9.8646    110.9489      3.9935   3.2002314493e+01   5.5690286758e+01    0.1503396    0.1266501  67.13 0.0005431594    1.035    0.034
        27 -10.1692     67.0618      3.6617   4.1856099034e+01   6.5649879137e+01    0.1763547     0.137154  47.81 0.0004383347    1.107    0.097
        28 -10.4231     56.5550      2.1538   4.4523523442e+01   6.7954310818e+01    0.2203698    0.1463835  47.54 0.0007464052    1.285    0.222
        29  -9.8773     29.8482    106.8173   9.4553844587e+01   5.1679950729e+01    0.1806168    0.1590139  73.54 0.0002939072    1.255    0.203
        30 -10.1361    229.1387    249.8156   6.8919301703e+01  -6.6818161013e+00    0.1563707   0.09840456  -7.23 0.0004728703    1.299    0.230
        31 -12.7120    165.5144    248.5011   8.0538785867e+01   7.2495804636e-01    0.4762315    0.3025758   7.60   0.00278211    1.552    0.355
        32 -11.7339    154.6873    248.9507   8.2788665411e+01   2.0042448253e+00    0.2906088    0.1608021  11.77  0.001003757    2.004    0.501
        33 -13.1818    136.2388    248.2918   8.6523194282e+01   4.4550612883e+00    0.5434331    0.2865957  23.90  0.002839575    1.724    0.420
        34 -13.2004    110.1956    240.7487   9.1198107564e+01   9.1636519290e+00    0.4810325    0.3560513  48.82  0.002012915    1.377    0.274
        35 -13.7981    110.6632    249.2176   9.2067116916e+01   7.5635441059e+00    0.9020984    0.5036669  40.89  0.004671928    1.598    0.374
        36 -12.1218     11.9154    246.9209   1.1274867188e+02   1.9123350513e+01    0.4844182    0.2348381 -73.68  0.002796042    2.110    0.526
        37 -10.9088    134.9389    105.0377   5.9416052043e+01   3.4728207924e+01    0.2335103    0.2233352 -27.87 0.0004126056    1.043    0.041
        38 -11.1295    165.7484    103.4250   5.2057767990e+01   2.8502841569e+01    0.4055769     0.186865 -45.82  0.001318085    2.062    0.515
        39 -10.0255    213.6643    103.6582   4.3851476438e+01   1.8906859078e+01    0.1328956    0.1018101  -4.16 0.0007050562    1.761    0.432
        40 -11.3902     69.9116    101.9371   7.8364686412e+01   4.7889196789e+01    0.2281025    0.2115752 -36.05 0.0003151048    1.026    0.026
        41 -10.8406     50.6340    102.1683   8.5571711412e+01   5.0586961451e+01    0.2259661    0.1381984 -58.98 0.0002009913    1.532    0.347
        42 -11.9480     53.8656     99.4948   8.3692545805e+01   5.0837343112e+01    0.3791598    0.2490442 -37.32 0.0003259654    1.549    0.354
        43 -12.5290    124.3885    100.2001   6.0808548965e+01   3.7987148648e+01    0.3292136    0.2720896 -46.64  0.001031833    1.180    0.153
        44 -12.4769    123.8742     95.4935   5.9622124033e+01   3.9089522135e+01    0.3191337    0.2923678 -22.57  0.001683035    1.127    0.112
        45  -9.9014    218.2864    100.3783   4.2461772714e+01   1.8602817869e+01     0.130963   0.09835852 -11.13 0.0007015712    1.727    0.421
        46 -12.4935    131.8858     96.4200   5.7817752163e+01   3.7175784395e+01     0.386345    0.2760781 -16.01  0.001695554    1.869    0.465
        47 -11.4365     81.5183     99.2477   7.3571649992e+01   4.6607496211e+01    0.3152073    0.2455582 -31.63  0.001530695    1.330    0.248
        48 -11.9122    200.4470     97.1533   4.4353822980e+01   2.2533337242e+01     0.508886    0.2977819 -62.99  0.002267376    2.246    0.555
        49 -10.9028    191.9907     99.1242   4.6178200468e+01   2.3873204324e+01    0.3259476    0.2401763  61.95  0.001734983    1.550    0.355
        50 -11.7247    193.2897     95.6998   4.5144237059e+01   2.4210404745e+01    0.4865807    0.1803831 -41.71   0.00125283    2.357    0.576
        51 -11.3608    170.1814     97.8192   4.9753630031e+01   2.8625117308e+01    0.3369072    0.3019406   6.41  0.001403082    1.304    0.233
        52 -10.5353    135.3115     99.3273   5.7771710058e+01   3.5839567075e+01    0.1546039    0.1215714  -1.44 0.0004911869    1.664    0.399
        53 -11.6024    139.1328     97.7452   5.6409062582e+01   3.5337661006e+01    0.2860871    0.2437266  10.64 0.0001893123    1.392    0.282
        54 -11.2335     87.0897     97.8000   7.1286109592e+01   4.5951964520e+01    0.3378109    0.2965455 -17.78  0.001094644    1.195    0.163
        55 -11.4877    143.8038     97.8799   5.5346114144e+01   3.4297886216e+01    0.2696059    0.2564513 -39.81  0.001080749    1.025    0.024
        56 -10.7978    150.9129     96.4896   5.3366409421e+01   3.3027641719e+01    0.2452465    0.2099695 -15.50 0.0009084021    1.317    0.241
        57 -11.3379     59.9502     96.9725   8.0737397774e+01   5.0614643814e+01    0.2204497    0.2076979 -40.48 0.0003192181    1.019    0.019
        58 -11.6353     61.6751     93.0861   7.9046603343e+01   5.1306637728e+01    0.2663458    0.2306744  -8.39 0.0003850054    1.211    0.174
        59 -13.5162    107.0438     91.6950   6.3234080260e+01   4.3430986959e+01    0.7590237    0.5290817 -53.18  0.003363352    1.496    0.331
        60 -10.2985    158.3206     95.5575   5.1535731291e+01   3.1597735768e+01    0.2673674    0.1475945  55.97 0.0009074234    1.993    0.498
        61 -10.3913    162.0174     88.7351   4.8973741549e+01   3.2063827971e+01    0.1977467    0.1861006  68.00 0.0003326764    1.112    0.100
        62 -11.7936    160.2716     50.3586   3.8689078537e+01   3.8739659130e+01    0.5366102    0.3018562  80.66  0.001940386    2.226    0.551
        63 -12.9382    185.5541     90.9837   4.5270280884e+01   2.6617178829e+01    0.8410133    0.5925763 -29.52  0.004299051    1.475    0.322
        64 -12.4116    176.0250     90.0259   4.6679309819e+01   2.8796675913e+01    0.6522897    0.3148082  45.62  0.001402813    2.356    0.575
        65 -12.6466    161.8920     58.7540   4.0784019572e+01   3.7128381691e+01    0.6238723    0.5162656 -83.04  0.001283446    1.238    0.192
        66 -12.6930    162.3560     83.9180   4.7617528208e+01   3.2858478391e+01    0.5425782    0.3991512  47.22  0.002467883    1.458    0.314
        67 -14.1253    169.3129     79.3410   4.5101299307e+01   3.2119116726e+01     1.441852     0.867501  85.07  0.005842485    2.684    0.627
        68 -11.8706    173.9005     56.5291   3.8262802753e+01   3.4726637180e+01     0.430021    0.2783292 -39.85  0.001056361    1.461    0.315
        69 -12.5081    169.7102     56.0317   3.8768484667e+01   3.5748413215e+01     0.562571    0.3436362 -83.65  0.002301047    2.199    0.545
        70  -9.9134     68.9251     95.0000   7.6863250902e+01   4.9726931060e+01    0.2334311   0.08601747  33.76 0.0004574421    2.830    0.647
        71 -11.4604     98.5642     92.5163   6.6054626111e+01   4.4964286661e+01    0.2667949    0.2471294  78.89 0.0005412993    1.213    0.175
        72 -11.5649     95.0962     89.1839   6.6161507870e+01   4.6378545962e+01    0.4303938    0.3417926  36.55   0.00137492    1.285    0.222
        73 -10.8558     48.5444     86.1691   8.2343729715e+01   5.4810673699e+01    0.3079972    0.2056357 -78.16  0.001376807    2.043    0.510
        74 -12.4568     52.8602     90.0705   8.1658237367e+01   5.3294294878e+01    0.4309805    0.3007896 -73.63 0.0009724687    1.750    0.429
        75 -11.5505     52.9991     86.0815   8.0509475215e+01   5.4232979075e+01    0.2548657    0.2057822  14.14 0.0003073893    1.311    0.237
        76 -12.1149     40.0280     90.1943   8.6895078963e+01   5.4868765448e+01    0.2724978    0.2408649 -44.69 0.0002740784    1.022    0.021
        77 -11.6073     38.5198     86.0009   8.6473350890e+01   5.6070071960e+01    0.3020342    0.2351715 -53.22 0.0006389381    1.175    0.149
        78 -11.5450    128.0051     89.4910   5.6827456470e+01   3.9424700985e+01    0.2375529    0.2038283 -43.65 0.0004802732    1.139    0.122
        79 -11.8202    115.9863     89.1087   5.9908616940e+01   4.2100568826e+01    0.2890558    0.2189135 -32.33 0.0002746586    1.374    0.272
        80 -12.2788    214.5856     89.3046   4.0495899684e+01   2.1098466169e+01    0.4475652     0.171114  58.31  0.001854582    3.092    0.677
        81 -13.0792    162.9699     68.0781   4.3186275959e+01   3.5417684177e+01     0.767678    0.5508631 -31.72 0.0008040164    1.447    0.309
        82 -12.9824    121.8041     86.3231   5.7507753984e+01   4.1412357648e+01     0.518313    0.4199667  -0.89  0.002049569    1.539    0.350
        83 -11.8341    126.5487     81.0114   5.4698335513e+01   4.1407274770e+01    0.4649217    0.3485252   7.59  0.002094403    1.868    0.465
        84 -10.2079    232.4443     87.7347   3.7886958256e+01   1.8059669699e+01    0.2242729    0.1099694 -34.17 0.0005630315    1.844    0.458
        85 -11.8755    237.2939     86.4288   3.7046456743e+01   1.7405337632e+01    0.3017405    0.2211421 -85.07 0.0009002835    1.678    0.404
        86 -12.6409    148.2248     80.9140   4.9649593467e+01   3.6557304729e+01    0.7767823    0.3626775 -51.92   0.00290649    2.466    0.595
        87 -11.8549    139.7943     80.1943   5.1292500840e+01   3.8589854003e+01    0.3950767    0.2809038 -43.89 0.0003608128    1.371    0.271
        88 -12.7776     66.6278     82.5850   7.4130357176e+01   5.2993091377e+01     0.695774    0.5261607  83.29  0.002171772    2.019    0.505
        89 -11.0252    206.6315     85.5016   4.0720017296e+01   2.3254257126e+01     0.228356     0.112994 -38.60 0.0009693634    1.765    0.433
        90 -13.9361    193.4724     84.6265   4.2441098499e+01   2.6055420171e+01    0.8985032     0.516123  58.12  0.003706312    1.922    0.480
        91 -12.8649     83.3300    247.8853   9.7821643411e+01   1.1219708794e+01     0.445775    0.3565085 -17.20  0.002831718    1.589    0.371
        92 -15.1517    186.7247     69.2868   3.9660101414e+01   2.9957802662e+01     2.807897     1.275807  60.45   0.01220826    2.345    0.574
        93 -12.0894      2.4273    242.2110   1.1444491263e+02   2.0898701640e+01    0.3678292    0.1602111  90.00  0.001990597    2.216    0.549
        94 -12.1753    113.8937     80.4590   5.7875973542e+01   4.4296608545e+01    0.4343657    0.2802283 -29.03  0.001900131    1.766    0.434
        95 -12.7937    210.7828     82.0759   3.9360868265e+01   2.2986401121e+01    0.4090606    0.2411244 -47.09  0.001133309    1.472    0.321
        96 -14.2516    181.9444     61.3653   3.8341735201e+01   3.2214564956e+01      1.30928    0.7077196 -37.65  0.006235304    1.728    0.421
        97 -13.1898     96.1476     70.7287   5.9982000509e+01   4.9971807489e+01    0.8240662    0.6685146 -17.97  0.002986175    1.354    0.261
        98 -12.0767    106.9867     64.4475   5.4654770231e+01   4.8814750085e+01    0.3489411    0.2552249  28.34  0.001291069    1.558    0.358
        99 -12.4031     98.6163     79.6928   6.2124097080e+01   4.7679456039e+01    0.7510495    0.3443063 -31.85  0.002578152    2.902    0.655
       100 -11.6588    104.1058     75.2460   5.9038376535e+01   4.7421359403e+01    0.3659758    0.2867796   8.53 0.0004394435    1.584    0.369
       101 -10.9794    148.3358     53.9610   4.1793776773e+01   4.0997357977e+01    0.5934508    0.2238638 -43.66  0.002242161    2.616    0.618
       102 -10.8076    142.8807     54.7106   4.3051194347e+01   4.2162859129e+01    0.3672835    0.1929681 -36.51  0.001037742    1.899    0.473
       103 -11.9319    145.0257     60.4893   4.4368620148e+01   4.0766358009e+01    0.6814767     0.337511 -43.83  0.002892797    1.992    0.498
       104 -11.9094    129.1102     74.9134   5.2224217998e+01   4.1972977279e+01    0.4078361    0.3409452  72.72  0.001410504    1.307    0.235
       105 -13.0209    141.4154     72.0478   4.8548008910e+01   3.9680097903e+01    0.6534289    0.4810325 -36.46  0.002662143    1.362    0.266
       106 -13.2406    134.5822     73.5821   5.0529908523e+01   4.0971205441e+01     1.000144    0.5139766 -22.69  0.003505348    3.135    0.681
       107 -11.9553    133.0483     68.8049   4.9434051947e+01   4.2161939520e+01    0.4236211    0.2918159  34.93   0.00180332    1.700    0.412
       108 -13.2302    154.0787     65.6250   4.4121977036e+01   3.7847460790e+01    0.9871825    0.5067088  53.73  0.002060159    1.958    0.489
       109 -11.8800    152.1733     59.4898   4.2709544708e+01   3.9260919792e+01    0.3909005    0.3323526  35.40 0.0008877698    1.351    0.260
       110 -13.8866     39.6295     77.0503   8.3586378450e+01   5.8084761031e+01    0.8212519    0.6168269   9.75  0.004357445    1.424    0.298
       111 -13.4047     35.5468     69.1645   8.3116628221e+01   6.0380061415e+01    0.5628132    0.4123933  48.93  0.002151698    1.720    0.419
       112 -12.0973     40.0595     66.1807   8.0112517127e+01   6.0507976327e+01    0.4101443    0.2649761 -71.51 0.0005962625    2.174    0.540
       113 -10.6337     18.9984     81.0091   9.3791959805e+01   5.9156005034e+01    0.2053935    0.1816939 -47.09  0.001242958    1.029    0.028
       114 -13.3293     13.9107     72.8416   9.4277952234e+01   6.1515566722e+01     1.079016    0.2103795 -53.95  0.003588684    3.207    0.688
       115 -13.8921      8.5925     67.8419   9.5683929905e+01   6.3056658424e+01     1.181656    0.5995528 -24.46  0.005551418    2.143    0.533
       116 -11.9893     94.7071    247.5179   9.5323340132e+01   9.8836773957e+00    0.2500936    0.1809025  56.27 0.0006932444    1.456    0.313
       117 -13.9997     51.0698    233.9642   1.0369011687e+02   1.7772671427e+01     1.054456    0.5325983  46.19  0.005524862    1.697    0.411
       118 -13.0227     57.2090    242.4388   1.0301092532e+02   1.5360299312e+01    0.3793954    0.3254334 -61.16  0.001996346    1.358    0.264
       119 -13.0611    180.0800    242.7074   7.6825416810e+01  -1.7616554288e-01    0.4398309    0.3678958  86.75  0.002671028    2.440    0.590
       120 -13.4854     86.5562    238.8668   9.6222375912e+01   1.2550735136e+01    0.6178941    0.4107046  34.02   0.00358516    1.297    0.229
       121 -12.5030     49.6879     46.0173   6.8339992140e+01   6.3228332723e+01    0.2686296    0.2276282 -27.04 0.0003930691    1.129    0.115
       122 -13.0642     53.7558     43.4206   6.5458315319e+01   6.3029795143e+01    0.3845101    0.2535989  24.09 0.0009831986    1.553    0.356
       123 -11.4082    155.3651     77.3414   4.7181953034e+01   3.5581937247e+01    0.4885869     0.298741  62.41  0.001894199    1.780    0.438
       124 -12.4940     87.3445     73.8160   6.3865193025e+01   5.1142317412e+01    0.5641593     0.366643  -9.82 0.0006072671    2.437    0.590
       125 -13.4055     54.0206     72.5912   7.6051814842e+01   5.7187839557e+01    0.6421223    0.4569991 -36.48  0.001288463    1.345    0.256
       126 -10.7330     23.6380     78.1625   9.1035317105e+01   5.9465982386e+01    0.2088673    0.1027605 -51.40 0.0008658246    1.707    0.414
       127 -12.2186    229.4112     71.1765   3.4680872774e+01   2.1091724827e+01    0.2715438    0.2072721 -14.38 0.0009721832    1.746    0.427
       128 -11.8892     73.2590     76.0554   6.9580421891e+01   5.3308391964e+01    0.3493053    0.2045111  39.18  0.001037801    1.739    0.425
       129 -11.1026     20.0350     75.7071   9.2090331783e+01   6.0362550145e+01    0.1839879    0.1618872 -22.63 0.0003322815    1.112    0.100
       130  -9.8265    247.8649     75.2118   3.3609014740e+01   1.7233832123e+01    0.1516439    0.1212785 -31.17 0.0002859558    1.298    0.230
       131 -11.7804     61.1659     71.6151   7.2800723498e+01   5.6301457572e+01    0.3394662    0.2525634  13.16 0.0007411368    1.478    0.323
       132 -11.5365     64.2252     74.8163   7.2628003273e+01   5.5112738816e+01     0.267326    0.2061318  20.64 0.0005229274    1.355    0.262
       133 -11.2922     68.3203     74.2935   7.0868793329e+01   5.4542785416e+01    0.2542586     0.174719  31.00 0.0003730001    1.493    0.330
       134  -9.2527    240.0000     71.9784   3.3734852567e+01   1.9059372639e+01    0.2119768   0.05741446 -36.78 8.352115e-05    3.015    0.668
       135 -10.7229    152.0908     71.9473   4.6310015835e+01   3.7254305370e+01    0.2098009    0.2023381 -55.82 0.0003241303    1.038    0.036
       136 -11.9115    123.9641     69.2163   5.1722586346e+01   4.4164319063e+01    0.5081363    0.2944198 -56.30  0.001210802    2.141    0.533
       137 -13.3268    117.0897     63.0866   5.1487907865e+01   4.6793539495e+01    0.8153177    0.5563543 -30.94  0.002680622    1.559    0.359
       138 -10.7974    115.0446     56.9184   4.9964420493e+01   4.8290914691e+01    0.2727771    0.2014541  46.45  0.000612894    1.329    0.247
       139 -10.6716     78.6954     71.5812   6.6120629405e+01   5.3256888375e+01    0.1969641    0.1388335  49.65 0.0006556261    1.555    0.357
       140 -11.1772    233.9335     66.6574   3.3236903502e+01   2.0910151151e+01    0.2113008    0.1525296 -34.11 0.0006283926    1.333    0.250
       141 -12.2589     58.7071     60.9476   7.0133306059e+01   5.8920354563e+01    0.5420144    0.4105098 -73.97  0.001698786    1.980    0.495
       142 -10.5037     84.4649     65.5587   6.2038427632e+01   5.3339651519e+01     0.330122    0.1981449  29.63 0.0006528865    1.909    0.476
       143 -12.9602     79.1198     59.8853   6.1879963070e+01   5.5460549048e+01    0.6596961    0.5534092  43.37  0.002744834    1.210    0.173
       144 -10.6465    227.1899    242.3772   6.8117275077e+01  -5.5118764307e+00    0.1448754   0.09183402  29.34 0.0009448585    1.687    0.407
       145 -11.9664    137.3950     59.8562   4.5733719261e+01   4.2645224841e+01    0.7643002    0.3799298 -36.77  0.003231223    2.012    0.503
       146 -12.3068    134.0385     48.7329   4.2952935644e+01   4.5130096230e+01    0.7870464    0.4165723 -38.97  0.001757743    1.889    0.471
       147 -12.4376    124.3336     44.1093   4.3481060249e+01   4.8078792041e+01    0.9677798    0.6164652 -84.00  0.004221025    2.349    0.574
       148 -11.8414     93.9246     60.7076   5.7242885830e+01   5.2301611196e+01    0.4649222    0.3002855 -58.27  0.001674062    2.029    0.507
       149 -10.7700     88.8514     55.1587   5.6859362730e+01   5.4340891645e+01    0.3912737    0.1819034  43.48 0.0009606956    2.103    0.524
       150 -11.4376    126.6209     59.1888   4.7902286210e+01   4.5257944603e+01    0.4945931    0.3067965  32.77  0.002159895    2.066    0.516
       151 -11.6880    123.7609     52.5230   4.6396495293e+01   4.6975110602e+01    0.5631071     0.364982 -21.31  0.001807519    1.876    0.467
       152 -11.2771    103.4352     60.7448   5.4406957122e+01   5.0247004715e+01    0.2965178    0.2273161  59.01  0.000931168    1.376    0.273
       153 -12.7859    175.6045     36.5559   3.2712064599e+01   3.7066634930e+01    0.8829671    0.5242071  80.18  0.002810892    1.751    0.429
       154 -11.5879     70.4603     32.3254   5.4021464538e+01   6.1692953138e+01    0.5352256    0.3281995  53.88  0.001578082    1.707    0.414
       155 -12.5376    222.0900     55.4709   3.2027747319e+01   2.4711118245e+01    0.4284306     0.295564  86.35  0.001388475    1.578    0.366
       156 -11.8636     53.4860     55.4764   7.0345662371e+01   6.0842131941e+01     0.448493    0.3061182   1.46  0.002009019    1.793    0.442
       157 -11.9104      2.0240     27.5371   8.7279125168e+01   7.2184170312e+01    0.4429335     0.229175 -63.83  0.002253148    2.322    0.569
       158 -13.1799     40.5013    246.3158   1.0685748531e+02   1.6423719131e+01    0.9894326    0.7125548  38.29  0.006508627    1.206    0.171
       159 -12.2831     21.9606     27.7442   7.4725732310e+01   7.0297483102e+01    0.5729079     0.360247  38.52 0.0005644772    1.871    0.466
       160 -10.9785    208.8740    104.6009   4.4776488282e+01   1.9639143590e+01    0.3449254    0.2066372 -62.47  0.001591969    2.169    0.539
       161 -12.3220     12.4819     32.2301   8.2446958610e+01   7.0457927565e+01    0.3220415    0.2792441 -21.40  0.001084559    1.108    0.097
       162 -12.7413      2.6130     54.3111   9.5477823051e+01   6.6525389280e+01    0.7151939    0.3595936 -73.21  0.003403523    2.216    0.549
       163 -11.4685      8.8396     55.1542   9.2343966657e+01   6.5963773427e+01    0.2918581    0.2094685 -23.30 0.0008085341    1.297    0.229
       164 -11.6998    100.7781     53.6375   5.2680817104e+01   5.2032250654e+01    0.5695565    0.2600696  43.33  0.001670563    2.204    0.546
       165 -11.4706    239.1903     52.0025   2.9670311669e+01   2.1962059199e+01    0.1788928    0.1451092 -65.83 0.0006193315    1.109    0.098
       166  -9.5784    111.5148     52.4112   4.9332982507e+01   4.9818534564e+01    0.1427844    0.1321883  34.65 1.193524e-05    1.080    0.074
       167 -11.6133    228.2202     46.9035   2.9575019291e+01   2.4678794515e+01    0.3590584    0.3118643 -59.56   0.00253349    1.109    0.098
       168 -11.8090     82.1119     48.4807   5.6571068982e+01   5.6860318903e+01    0.7013426    0.2520804  45.44  0.002587211    2.658    0.624
       169 -13.3979     81.4172     41.2964   5.3981284886e+01   5.8139662566e+01     1.345398    0.7536638  38.09  0.005429818    1.788    0.441
       170 -12.3004     76.0036     42.4712   5.6301121231e+01   5.9067204504e+01    0.4944677    0.2392492  43.23  0.002155685    1.966    0.491
       171 -10.6326     99.7331     46.6490   5.0449222678e+01   5.3369502457e+01    0.2889703    0.1882773 -45.10  0.001401248    1.665    0.399
       172 -12.2631     62.9327     44.4724   6.2041631474e+01   6.1247602254e+01    0.5068527    0.4035012 -56.86  0.001584898    1.608    0.378
       173 -12.0224    206.9339     41.3002   3.0361961378e+01   2.9648031656e+01    0.3112519    0.1737676 -54.74 0.0009396449    1.617    0.382
       174 -10.8572     82.2830     34.8630   5.1093233833e+01   5.8893874723e+01     0.242742    0.2196389 -64.01 0.0005861884    1.336    0.252
       175 -11.7253     24.7349     44.1877   8.0076529665e+01   6.6914552695e+01     0.438227    0.2619774  24.04  0.002329553    1.695    0.410
       176 -10.2044     35.6719     42.8011   7.3765527898e+01   6.5864103802e+01    0.2089097    0.1611346  48.43 0.0007029239    1.701    0.412
       177 -11.5954     40.9620     39.3348   6.9665262582e+01   6.5757605911e+01    0.3502362    0.2653877  34.43  0.002029709    1.370    0.270
       178 -10.6509     76.3001     36.9835   5.3948055312e+01   5.9839879878e+01    0.1841411    0.1781037  53.28 0.0002277518    1.165    0.142
       179 -10.2500    109.5480     38.8086   4.5028506819e+01   5.2267630546e+01    0.2237822    0.2047881  -2.00 0.0007225552    1.182    0.154
       180 -11.3324    134.6973     36.6886   3.8980411827e+01   4.6620956183e+01    0.3263064    0.2049064 -42.88  0.001004604    1.625    0.385
       181 -11.1623    131.7451     33.8119   3.8596207740e+01   4.7686465417e+01    0.3092736    0.2642522  37.74  0.001191256    1.272    0.214
       182 -12.4670     26.6034     35.9461   7.5721557658e+01   6.8282486306e+01    0.3754929    0.2596009   3.03  0.001448941    1.451    0.311
       183 -10.7494    219.1046    240.4711   6.9225787657e+01  -4.3885382826e+00    0.1741663    0.1468546 -15.15  0.001122852    1.319    0.242
       184 -10.5296     94.1985     17.0647   4.0460091390e+01   5.8401924593e+01    0.2503041    0.1718598  35.91  0.000960213    1.471    0.320
       185  -8.9687     82.4895     27.4978   4.7968392308e+01   5.9824795859e+01     0.288904    0.1843787  74.41  0.001227137    2.219    0.549
       186 -11.3068     91.6117     34.1973   4.8010319031e+01   5.6959151445e+01    0.3234154    0.3071352  78.58  0.001235937    1.161    0.139
       187 -11.6799     88.9895     30.7404   4.7381811203e+01   5.7992864783e+01    0.3882765    0.2790156  17.35  0.001524419    1.634    0.388
       188 -10.6412     85.6970     29.6547   4.7901982713e+01   5.8854692648e+01    0.3464913    0.2235449  19.93 0.0008524351    1.957    0.489
       189  -9.5490    233.3674     33.4204   2.6302397863e+01   2.5399027756e+01    0.1157642   0.08967967 -56.37 0.0001844486    1.026    0.025
       190  -9.9940    111.5057     32.9309   4.2450973454e+01   5.2582024640e+01    0.2170736    0.1722348  57.03  0.001102582    1.169    0.145
       191 -11.1593    169.2520    234.3819   7.7748535226e+01   2.5056691006e+00    0.1765755    0.1024061  35.79 0.0009520933    1.683    0.406
       192 -10.1729    122.8383     31.2812   3.9461281726e+01   5.0114840565e+01    0.2527219    0.1696548  14.84  0.001204526    2.153    0.536
       193 -11.3196     37.3396     30.2457   6.7407105511e+01   6.7837968086e+01    0.2925431    0.2029131  35.33 0.0008119886    1.456    0.313
       194 -10.3101     29.3536     30.1203   7.1601066028e+01   6.8972203831e+01    0.2425322    0.1161378 -46.82 0.0007493966    2.190    0.543
       195  -9.9660     29.3465     26.3278   6.9807739567e+01   6.9606934183e+01    0.1834814    0.1110313 -23.78   0.00054277    1.666    0.400
       196 -10.9376    187.0470     29.0454   2.9461648739e+01   3.5422705804e+01    0.2090702    0.1845223 -33.94 0.0007769642    1.276    0.216
       197 -10.8135    190.0236     25.2283   2.8211797543e+01   3.5213700571e+01    0.2352576    0.1976691 -84.76 0.0007282014    1.084    0.077
       198 -11.2916    104.1688     28.3380   4.2465300977e+01   5.4853465994e+01    0.3371917    0.2410614  67.42 0.0008267376    1.399    0.285
       199  -9.7054    149.3143     27.3368   3.3676863045e+01   4.4283709639e+01    0.3455073    0.1616622  33.39  0.001173296    4.490    0.777
       200 -10.2288    114.0981     28.0792   4.0138064969e+01   5.2564593036e+01    0.3931842    0.1167234  52.88  0.001424454    2.872    0.652
       201 -10.2400    154.7296     25.2806   3.2308525014e+01   4.3241095067e+01    0.2244429    0.1511979 -38.43  0.000850331    1.494    0.331
       202 -12.1156    161.1240     39.3546   3.5441650059e+01   4.0039003999e+01    0.8073071    0.3044836 -36.50  0.003319901    2.486    0.598
       203 -10.3822    111.8682     23.9142   3.9106554884e+01   5.3566520191e+01    0.2218901    0.1640958  39.43  0.001225465    1.387    0.279
       204  -9.8715    102.4044     23.8075   4.1161010754e+01   5.5788634403e+01    0.1889401    0.1271139  -4.05 0.0009517112    1.907    0.476
       205 -12.4268    165.5973     38.5944   3.4588996209e+01   3.9099261438e+01    0.5084459    0.4386109 -84.48 0.0009410942    1.076    0.070
       206 -10.3152     97.8694     21.7159   4.1426889011e+01   5.7066848713e+01    0.2917264    0.1996267 -16.38  0.001563904    1.681    0.405
       207 -10.7629    163.2979     21.2071   3.0059759207e+01   4.1691298516e+01    0.2033969    0.1806135  88.03  0.000540715    1.052    0.049
       208 -10.7937    119.0890     21.9083   3.6951016501e+01   5.2078758921e+01    0.2581083    0.1868896  54.16 0.0007431232    1.274    0.215
       209 -10.6959    150.9892    234.5133   8.1554103013e+01   4.8822167677e+00    0.1913998    0.1102602  28.92 0.0004347842    1.534    0.348
       210 -10.6484    127.0741     20.6587   3.5083368414e+01   5.0311977577e+01     0.584444   0.07274974  55.18  0.001676312    4.871    0.795
       211  -9.7331    201.5823     20.0544   2.5921930376e+01   3.3313942161e+01    0.1864028    0.1394148 -89.53  0.001046841    1.230    0.187
       212  -9.8178    175.1869     18.9133   2.8114102010e+01   3.9215562578e+01     0.156352   0.08991519 -34.59 0.0004705303    1.726    0.421
       213 -10.2433    159.3732     18.3398   2.9727305297e+01   4.2908758993e+01    0.2123276     0.109593  72.86 0.0005146309    1.802    0.445
       214 -11.0707    139.4779     17.2610   3.2028359097e+01   4.7708384725e+01     0.321525    0.1960855 -79.69  0.001603667    1.890    0.471
       215 -12.8712     60.4286    245.0871   1.0252537633e+02   1.4470714929e+01    0.5783191    0.2953869 -56.85  0.003085449    2.231    0.552
       216 -10.5233    102.7687     14.8779   3.7650018174e+01   5.6642518318e+01    0.1758456    0.1582346  41.55 0.0003566921    1.091    0.083
       217 -11.4548    159.9779    219.6120   7.7405316728e+01   6.2837371216e+00    0.2160162    0.1788463 -31.68 0.0002921805    1.228    0.186
       218 -12.0736     33.3740    213.8964   1.0618988424e+02   2.4023500399e+01     0.333621    0.2228512 -81.28  0.001435254    1.464    0.317
       219 -12.1501     13.3041    212.9491   1.1076691017e+02   2.6151607526e+01     0.367938    0.2899464  85.49  0.002420381    1.143    0.125
       220 -10.9605    244.0218    153.1894   4.9706442346e+01   5.7715341809e+00    0.2026201    0.1438602 -33.53 0.0003318537    1.110    0.099
       221 -10.0666    162.2223    123.2065   5.7710795504e+01   2.5291649802e+01    0.1956364    0.1711296 -71.01 0.0002769404    1.294    0.227
       222 -10.2322    249.7207    117.5963   4.1939252301e+01   1.0568018755e+01    0.1821499    0.1194689  44.29  0.001063863    1.952    0.488
       223 -11.9000    138.6722     87.6952   5.3707665478e+01   3.7426455040e+01    0.3335292    0.2720225 -63.33  0.001683173    1.324    0.244
       224 -11.0616    203.6508    116.0724   4.8194480462e+01   1.8612425676e+01    0.3582786    0.2221223  69.12  0.001247165    2.453    0.592
       225 -10.3488    181.8364    115.1950   5.1822282522e+01   2.2959668529e+01    0.2093682    0.1932904 -64.54  0.001197434    1.142    0.125
       226 -12.2299    131.6560    111.6128   6.1992027236e+01   3.4005239494e+01     0.462475    0.3025874  45.41  0.001958049    1.589    0.371
       227 -10.0318    212.3131    112.3811   4.5996225479e+01   1.7669478748e+01    0.1669782    0.1304113  70.12 0.0009408006    1.618    0.382
       228 -11.7383    198.2750    108.6576   4.7383822819e+01   2.0947382115e+01    0.4700553    0.3422683 -56.16  0.002449989    1.403    0.287
       229 -10.7673    217.2100    108.8537   4.4484858646e+01   1.7385443703e+01    0.3234675    0.1916045 -36.04  0.001624781    1.474    0.321
       230 -10.1669    183.4266    106.4943   4.9439245316e+01   2.4270380200e+01     0.305521    0.2065401 -20.47  0.001424569    1.837    0.456
