#   1 NUMBER                 Running object number                                     
#   2 MAG_AUTO               Kron-like elliptical aperture magnitude                    [mag]
#   3 X_IMAGE                Object position along x                                    [pixel]
#   4 Y_IMAGE                Object position along y                                    [pixel]
#   5 X_WORLD                Barycenter position along world x axis                     [deg]
#   6 Y_WORLD                Barycenter position along world y axis                     [deg]
#   7 A_WORLD                Profile RMS along major axis (world units)                 [deg]
#   8 B_WORLD                Profile RMS along minor axis (world units)                 [deg]
#   9 THETA_WORLD            Position angle (CCW/world-x)                               [deg]
#  10 FWHM_WORLD             FWHM assuming a gaussian core                              [deg]
#  11 ELONGATION             A_IMAGE/B_IMAGE                                           
#  12 ELLIPTICITY            1 - B_IMAGE/A_IMAGE                                       
         1 -11.4160     58.1898     28.8593   2.2594443936e+01   6.5779924536e+01    0.7296823    0.4030969  28.15  0.003034315    2.374    0.579
         2 -10.9564     92.6788     30.7421   1.1482190051e+01   5.7508436160e+01    0.3835657    0.2222979 -52.94  0.001680056    2.078    0.519
         3 -10.7090     19.6655     17.1290   3.8604151202e+01   7.4579094352e+01    0.3502972    0.2101089 -29.43  0.001150644    1.742    0.426
         4  -9.5435    167.4004     17.1994   3.5439207391e+02   4.0433402555e+01    0.1756762    0.1047908 -43.89  0.000314627    1.508    0.337
         5 -11.2968     13.3761     13.2180   4.1326468049e+01   7.6093189788e+01    0.4779958    0.2842663 -27.99  0.002249606    1.741    0.426
         6 -11.1147     54.4703      8.3686   1.2778100977e+01   6.9309287264e+01    0.3627797    0.2966976 -17.53  0.002166305    1.333    0.250
         7 -10.9174     50.0000      9.9909   1.5656800478e+01   7.0111659479e+01    0.2660948    0.1869657  -6.71 0.0005374327    1.654    0.395
         8 -10.6805     45.3447     12.1232   1.9164400033e+01   7.0836505990e+01    0.2860806    0.1974985  33.50 0.0006524327    1.372    0.271
         9 -10.0443     35.0538     13.6686   2.5779282840e+01   7.2642658722e+01     0.238299    0.1941426 -34.15 0.0007280991    1.337    0.252
        10 -10.5391     32.3481     10.1799   2.5130940639e+01   7.3634364059e+01    0.2759058    0.1990693 -18.16 0.0008554101    1.465    0.317
        11 -10.1592     27.9514     12.5542   2.9607985501e+01   7.4061715854e+01    0.3703721    0.1687903 -43.62  0.001670066    2.468    0.595
        12  -9.2062    142.3297     10.1386   3.5481874036e+02   4.7242985946e+01    0.1796503    0.1047547 -41.92 0.0009102323    1.644    0.392
        13  -9.7719     72.4962     10.4877   7.7320516621e+00   6.4871870258e+01    0.2910869    0.1525463  49.10  0.001357536    1.701    0.412
        14  -9.5290     69.5151      9.5437   8.1391669591e+00   6.5686545021e+01    0.2213876     0.171514   1.15 0.0006687052    1.497    0.332
        15 -10.0642    115.3531      8.7720   3.5782098820e+02   5.4216304064e+01    0.2202667    0.1797812 -72.32 0.0003066677    1.191    0.160
        16  -9.1583    218.5993      8.5395   3.4864812111e+02   3.0228250132e+01    0.1153029   0.08847864 -56.35 0.0001041937    1.026    0.026
        17 -11.0013    123.9599      6.5327   3.5578409460e+02   5.2215812798e+01    0.4765286    0.2482394 -68.30  0.002130991    2.161    0.537
        18 -10.3692     97.3407      5.8252   3.5963347427e+02   5.9096353389e+01     0.449312    0.1735728 -39.87  0.001837724    2.694    0.629
        19 -11.2501     85.5180      7.1724   2.6803429694e+00   6.1974668280e+01     0.271782    0.2355611 -52.56 0.0008690305    1.264    0.209
        20  -9.0776     40.3030      8.3311   1.9297811325e+01   7.2342918096e+01    0.1368646   0.09146492  20.23  0.000368286    1.653    0.395
        21  -9.6005     78.5640      6.8458   4.1979451205e+00   6.3739877198e+01    0.2307022    0.1376017 -13.14   0.00112146    2.034    0.508
        22 -10.8922     49.4773     14.2820   1.8501223525e+01   6.9695525612e+01    0.3077983    0.2429792  46.67 0.0007963351    1.160    0.138
        23 -10.9677    174.2422      3.2819   3.4999628750e+02   4.0211945237e+01    0.2917033    0.1797626 -67.46  0.001436251    1.421    0.296
        24 -11.1111    113.7705      2.1952   3.5552168239e+02   5.5190421410e+01    0.2922385    0.2670396 -67.91  0.001134991    1.119    0.107
        25 -10.8623     16.6003      2.6769   3.1031494638e+01   7.7355301653e+01    0.3287914    0.2338476  -8.90  0.001467233    1.450    0.310
        26 -10.4698     67.7426     15.5833   1.1924796607e+01   6.5446627643e+01    0.3474722    0.2955671 -55.71  0.002017322    1.366    0.268
        27  -9.2374    229.6560      1.7345   3.4668323086e+02   2.8774016161e+01   0.09306332   0.08234447  54.80 0.0004719722    1.604    0.377
        28  -9.8235    179.0222      1.4768   3.4920086477e+02   3.9286252291e+01    0.1770292    0.1073196  83.75 -7.810003e-05    1.517    0.341
        29  -9.2706     20.3141    103.6831   6.5279919246e+01   5.3832743490e+01    0.1519717    0.1010177  59.78 0.0002240529    1.646    0.392
        30 -10.4314     28.6897     99.3174   6.0893949972e+01   5.4257977299e+01    0.2149841    0.1628024 -39.92 0.0005598876    1.356    0.263
        31 -10.7641    102.9131     95.6064   3.1405935990e+01   4.3092584227e+01    0.3464275    0.2381449 -38.75   0.00153676    1.535    0.349
        32 -10.4842     90.4742     94.9539   3.5209991189e+01   4.5807026939e+01    0.4528033    0.2815456 -67.07  0.001303509    2.106    0.525
        33 -11.3760     64.3147     95.2232   4.4867672212e+01   5.0578098497e+01    0.6570693    0.4004952 -72.36  0.001037675    2.081    0.519
        34  -9.4744      4.8971     95.2846   7.0997071665e+01   5.7160453344e+01    0.2976454    0.1300452 -49.02  0.001234021    2.154    0.536
        35 -11.3502     17.4827     94.4795   6.5117393708e+01   5.6555788962e+01    0.5492941    0.2439277  21.48  0.002246872    2.308    0.567
        36 -11.5442     25.0577     91.9687   6.1173422894e+01   5.6584376577e+01    0.3436992    0.3063905 -81.27  0.001920147    1.113    0.102
        37  -9.4047    103.6997     88.3126   2.9028847319e+01   4.4529034512e+01     0.156381    0.1233307 -89.66 0.0004754918    1.607    0.378
        38  -9.9768      2.7655     87.3503   7.1031127889e+01   5.9398485749e+01    0.2380351    0.1766622 -63.55 0.0006633625    1.205    0.170
        39 -10.6765     12.0023     85.7960   6.6319439308e+01   5.9283181913e+01    0.2370366     0.187576 -65.56 0.0003919147    1.157    0.136
        40  -9.1481    160.1754     81.1830   1.3434411780e+01   3.3161190254e+01    0.1969653    0.1576091 -65.70 0.0004131921    1.305    0.234
        41 -11.4717     54.7039     78.4740   4.4151549109e+01   5.6299728953e+01    0.3946741    0.3283201  63.83 0.0005461618    1.377    0.274
        42  -9.3895    110.8197     77.8393   2.3713764944e+01   4.5120124549e+01    0.2036242    0.1757586 -85.36            0    1.285    0.222
        43  -9.4911    143.8780     77.1546   1.5490788270e+01   3.7574282334e+01    0.2276356    0.1940555 -78.70 0.0008291139    1.239    0.193
        44  -8.8673     77.9668     77.8005   3.4415812158e+01   5.2243402226e+01    0.1971174      0.11995  40.45            0    1.627    0.385
        45  -9.2490    152.4519     76.4661   1.3581958419e+01   3.5719284345e+01    0.1449743    0.1353327 -63.57 0.0008077068    1.009    0.009
        46 -10.3684      2.9615     75.0063   6.9231615527e+01   6.2655687800e+01    0.2136559    0.1926032 -55.10 0.0005387372    1.018    0.017
        47  -9.7294     69.9582     72.1070   3.5632246117e+01   5.5087878970e+01    0.2454713     0.186822  -9.93  0.001122245    1.711    0.416
        48  -9.4679     77.3208     71.3196   3.2493647578e+01   5.3802480552e+01    0.1555876     0.121595  -2.19 0.0004673125    1.668    0.400
        49 -10.6707    133.7507     68.5037   1.5067447031e+01   4.1479004170e+01    0.3918908    0.2369252 -38.21  0.001746373    1.654    0.395
        50 -12.0040     64.1051     69.5651   3.7179683962e+01   5.6760978237e+01    0.2621429    0.2555304 -31.49 0.0002508714    1.032    0.031
        51  -9.4255     40.5043     66.5077   4.7163695997e+01   6.1322832163e+01    0.2472857    0.1992502 -67.06   0.00115478    1.341    0.254
        52 -10.0272     25.0365     68.2156   5.5837173832e+01   6.2771662769e+01    0.2635515    0.1989298 -62.72  0.001122771    1.290    0.225
        53 -10.1889      7.6840     68.8047   6.5594378372e+01   6.4015402439e+01    0.2306887    0.2136636  46.85 0.0005125102    1.192    0.161
        54  -9.9691     43.3095     69.8578   4.6821400876e+01   6.0121078546e+01    0.3188865    0.2433106  68.81  0.001233927    1.689    0.408
        55  -9.8665    192.1603     65.8515   4.5148178463e+00   2.8648637188e+01    0.1959086    0.1542948 -58.48 0.0003198856    1.166    0.142
        56  -9.5340    151.4986     66.4758   1.0903536369e+01   3.7616182637e+01    0.1439548    0.1342762 -69.05    2.815e-05    1.002    0.002
        57 -10.5224     75.1778     64.6473   3.0954194406e+01   5.5659325538e+01    0.2337273    0.1792569  58.17 0.0006120011    1.415    0.293
        58 -10.4143      4.5098     63.6247   6.6417883730e+01   6.5519207859e+01    0.2405272    0.2007828 -58.97 0.0008902166    1.083    0.076
        59 -10.7146      3.0086     59.5164   6.6509134606e+01   6.6635854475e+01    0.3664682    0.2310877  -7.15  0.001344879    1.695    0.410
        60 -10.4724     99.8396     62.8746   2.1902740336e+01   5.0558966714e+01    0.4022522    0.2398287 -56.65   0.00165399    2.028    0.507
        61  -9.4936    114.3092     60.9838   1.7233396037e+01   4.7466027336e+01    0.2037072    0.1911022 -44.70 0.0003874025    1.099    0.090
        62 -11.5595     22.0613     59.1281   5.4968540314e+01   6.5317364761e+01     0.413783    0.2869048 -64.28 0.0009676583    1.445    0.308
        63 -10.7508    231.5443     60.2459   3.5901633713e+02   2.1795398356e+01    0.1980345    0.1592675  86.26 0.0007164039    1.408    0.290
        64 -10.2017    124.9303     59.8745   1.4293760729e+01   4.5082576382e+01    0.2152222    0.2065532 -89.87 0.0003877744    1.017    0.017
        65 -10.8447     66.5545     58.2740   3.2031631590e+01   5.8723002505e+01     0.346365    0.2639066 -77.91  0.001622613    1.817    0.450
        66 -12.2339     12.0539     53.6352   5.9497305693e+01   6.7530772607e+01    0.7538552    0.3954162  -3.89  0.003285279    2.270    0.560
        67  -9.0245     99.4691     55.4937   1.9352877528e+01   5.1987121874e+01    0.1488459    0.1431388  62.47 2.783007e-05    1.010    0.009
        68  -9.2747     78.7721     55.4754   2.6146263947e+01   5.6727677471e+01    0.2171476    0.1361329  35.02 0.0009384101    1.729    0.422
        69  -9.4960    104.0147     54.4741   1.7685494615e+01   5.1077228183e+01    0.2300368    0.1415266  53.10 0.0009459004    1.557    0.358
        70  -9.7878     88.4194     52.9297   2.1807162388e+01   5.5030846189e+01    0.2234778    0.1914279  50.09 0.0003348288    1.119    0.107
        71 -10.0811    112.1020     50.7242   1.4210028008e+01   4.9732047842e+01    0.2756919    0.2070734  31.50 0.0007183608    1.599    0.375
        72 -11.6375     29.6849     56.3775   4.9671710622e+01   6.5135136401e+01    0.4871368      0.35716 -17.42  0.002468687    1.485    0.327
        73  -9.1446     45.4860     56.4859   4.1125752532e+01   6.2890734553e+01    0.1434468    0.1371464  -3.70 6.338794e-05    1.011    0.011
        74 -11.5664      5.0086     48.5508   6.2737802355e+01   6.9236415857e+01    0.5591877    0.3046247 -30.59  0.002693599    1.828    0.453
        75  -9.0052    130.3360     49.2755   9.6331325643e+00   4.5446720580e+01    0.1444937    0.1099487  33.77 0.0004833249    1.607    0.378
        76 -11.7471     93.9838     48.5011   1.8337573809e+01   5.4493870022e+01    0.2973515    0.2385184 -42.92 -0.0006390206    1.300    0.231
        77 -10.7308    121.5520     46.7958   1.0627912292e+01   4.8004360039e+01    0.4705671    0.2969016  26.88   0.00161872    2.456    0.593
        78 -11.6317     40.8098     43.3507   3.8281461948e+01   6.6432135748e+01    0.5750366    0.3064786  29.88   0.00189962    1.919    0.479
        79 -10.8881    185.9068     41.5328   3.5908777223e+02   3.3334640988e+01    0.2297613    0.1933511 -49.82  0.000293996    1.084    0.078
        80 -10.2657     97.6533     43.9909   1.5506357883e+01   5.4344041691e+01    0.2582608    0.1965432  48.31  0.000211346    1.271    0.213
        81  -9.4715     24.0079     43.9946   4.8631149103e+01   6.8637176402e+01    0.2220231    0.1496223 -21.95 0.0006219894    1.608    0.378
        82  -9.1584    182.3230     44.2792   2.0263949201e-01   3.3772912449e+01    0.2417993    0.1466475  27.72 0.0008154002    3.182    0.686
        83  -9.4812    119.0056     40.9346   9.1111994505e+00   4.9503375041e+01    0.2310187    0.1718866  28.45  0.001123911    1.713    0.416
        84  -9.0421    212.4573     40.5073   3.5629295094e+02   2.7890791097e+01    0.1257879   0.09805505 -55.21 0.0002777769    1.043    0.041
        85 -10.4390    158.8878     39.2184   1.7272767359e+00   3.9864656738e+01    0.2216757     0.194031 -67.40 0.0003466708    1.027    0.026
        86  -9.6213      1.4033     39.9000   6.2944464649e+01   7.1496002507e+01    0.1867679    0.1176878 -66.62 0.0005067989    1.522    0.343
        87 -11.5901     80.8631     37.1126   1.7806257684e+01   5.9432650536e+01    0.5104282    0.3332141  68.88  0.002286005    1.772    0.436
        88  -8.9900    207.9723     38.0713   3.5610823247e+02   2.9089696152e+01    0.1456484    0.1140623 -50.90 0.0009341826    1.054    0.051
        89 -10.1270     96.4504     37.9845   1.3450402697e+01   5.5554217646e+01    0.2254217    0.1833982  58.28 0.0005010457    1.150    0.130
        90 -10.3901     64.3529     38.2503   2.4500297324e+01   6.2946508074e+01    0.3709625    0.1750634  59.09  0.001355857    2.814    0.645
        91  -9.3907     57.6256     38.7145   2.7653663005e+01   6.4256853350e+01    0.1492051    0.1072734  14.30 0.0007017058    1.715    0.417
        92 -10.0926     47.2877     35.9865   3.1388490579e+01   6.6736371707e+01    0.2331535    0.2164578  -2.21 0.0002963735    1.046    0.044
        93 -10.0371      1.5260    181.8957   7.8249536147e+01   3.4659036976e+01    0.3500963     0.115269 -89.79  0.001347956    3.057    0.673
        94 -10.8433     51.9735     33.0000   2.7561944134e+01   6.6372865293e+01    0.2890678    0.1781747  46.11 0.0005082279    1.566    0.361
        95  -9.9619     48.6960     32.2925   2.8836723306e+01   6.7128163833e+01    0.2311616    0.1863764  -1.20 0.0004711674    1.356    0.262
        96 -10.8931     40.1184     35.4243   3.5009934728e+01   6.8102696221e+01    0.4422305    0.2446559  45.45  0.002017714    1.917    0.478
        97  -9.1467    174.2246     34.9371   3.5861756131e+02   3.6801492358e+01    0.1743929   0.09956164 -35.53 0.0008684089    1.642    0.391
        98 -10.2620    119.1769     35.0198   6.9471141091e+00   5.0278483195e+01     0.231038    0.1919397  67.70 0.0003392651    1.126    0.112
        99  -9.0468    154.0050     32.0116   2.3570668018e-01   4.1959654436e+01     0.164707    0.1419463 -88.22 0.0003796635    1.067    0.063
       100 -10.4267     21.4765    170.2504   7.1863192742e+01   3.5933635298e+01     0.247586    0.2191034  48.47 0.0005292271    1.065    0.061
       101 -11.1607    127.8507     30.2111   3.6131128831e+00   4.8700368225e+01     0.359767    0.2583277  36.02  0.001234714    1.709    0.415
       102 -10.0351      4.4908     31.4527   5.7846908226e+01   7.3242834468e+01    0.3516225    0.1655005  36.88  0.001245133    2.436    0.590
       103  -9.7787     17.8204     31.2099   4.7480953312e+01   7.2091108286e+01    0.1825086    0.1750994  13.78 0.0004552464    1.176    0.150
       104 -10.1599     65.3184     28.5223   1.9453521257e+01   6.4285094147e+01    0.3102687    0.1982264  26.98  0.001174953    1.894    0.472
       105  -9.9160    104.0121     28.1086   7.5684674425e+00   5.5017698657e+01    0.2112996    0.1937046  70.97  0.000374448    1.008    0.008
       106  -9.9115    160.5189     27.1451   3.5797740618e+02   4.0967182376e+01    0.2280518    0.1718612  80.01 0.0003769657    1.256    0.204
       107 -11.1687     47.1303     26.5212   2.6628126529e+01   6.8393051249e+01    0.3111362    0.2344203  14.49 -7.38931e-05    1.456    0.313
       108 -10.8522     39.2065     24.4356   2.9796394572e+01   7.0213908723e+01    0.4227986    0.3564641  86.23  0.002148909    1.766    0.434
       109 -10.1816    110.9662     24.8686   4.8014801021e+00   5.3648327993e+01    0.3008286      0.18614  71.24  0.001015347    1.531    0.347
       110  -9.2538     83.3243     25.2703   1.1724471336e+01   6.0526777300e+01    0.1445242    0.1001892  34.79 0.0002211196    1.573    0.364
       111  -9.6092    239.2666     23.4736   3.5072237238e+02   2.4789529496e+01    0.3041734   0.04772226 -35.67  0.001206962    3.486    0.713
       112  -9.7097    137.2215     22.9734   3.5967306717e+02   4.7188578909e+01     0.332382    0.1377107  46.11  0.001246644    3.055    0.673
       113 -10.5897     98.3925     22.7407   6.6590201007e+00   5.7094764585e+01    0.2476891    0.2191293  49.22 0.0004969933    1.124    0.111
       114 -10.3216      2.0339     22.0716   5.6183642023e+01   7.5447150785e+01    0.2880529    0.1877384 -70.63  0.001578772    1.804    0.446
       115  -9.2772    142.3079     25.6420   3.5983226402e+02   4.5607925143e+01    0.1505026   0.09083457 -62.61  0.000704149    1.730    0.422
       116  -9.0633     21.6275     22.3072   4.0137935349e+01   7.3373760372e+01    0.1270225    0.1023209  59.87 0.0001921918    1.767    0.434
       117  -9.7563     66.5525     20.8795   1.5113493958e+01   6.5069315667e+01    0.2043033     0.169039  51.02  0.000349316    1.103    0.093
       118 -10.0810     27.5538    160.1828   6.9170517533e+01   3.7952286943e+01    0.3406184     0.122013 -70.83  0.001287576    2.621    0.618
       119 -10.3670     23.5186     16.5206   3.5317048402e+01   7.4130474739e+01    0.2311936    0.1882373  56.55 0.0008178164    1.665    0.399
       120  -9.3752    159.1880     20.2554   3.5610135002e+02   4.2065179971e+01    0.1836805    0.1303161 -60.22 0.0005905911    1.287    0.223
       121 -10.1970    124.8033     20.1565   5.6721952414e-01   5.0650791904e+01    0.3965788    0.1894303  78.74  0.001591013    2.175    0.540
       122  -8.9454    104.2410     20.3674   4.3905386854e+00   5.5883872028e+01    0.1367029    0.1025483  27.98 0.0006928108    1.609    0.378
       123  -9.7285    109.1890     18.8809   2.8072838660e+00   5.4784556575e+01    0.2187583    0.1802901 -75.25  0.001004822    1.225    0.184
       124  -9.7124     48.7305     19.3745   2.1845116994e+01   6.9160119066e+01    0.1961006    0.1615221  55.35 0.0006436598    1.276    0.216
       125  -9.8855     80.0669     19.0000   9.7473368400e+00   6.2094482799e+01    0.3955863    0.0730463  60.97  0.001048383    4.908    0.796
       126 -10.0617      3.0611    156.1325   7.6587327085e+01   4.0978696351e+01    0.2007039    0.1761787  71.97 0.0004054566    1.007    0.007
       127 -10.0691     85.5084     16.0747   6.8700268776e+00   6.1085444832e+01    0.3620778    0.1637051  56.63  0.001552653    1.900    0.474
       128  -9.8616     40.0255    147.7816   6.3785108625e+01   3.9934337706e+01    0.2273448    0.1777286  55.98 0.0005038462    1.242    0.195
       129 -10.1270    183.4702     15.0346   3.5242728745e+02   3.6959831713e+01    0.1929889    0.1459305 -87.34  0.000495348    1.213    0.176
       130  -9.4336     25.0170    146.2604   6.8675558500e+01   4.1852963510e+01    0.2002396    0.1774046  34.69 0.0009324835    1.145    0.127
       131 -10.8472     21.5266    141.4912   6.9397604577e+01   4.3438629258e+01    0.2929999    0.2373815 -58.61 0.0006630162    1.258    0.205
       132 -10.5107     18.4660    141.4649   7.0453659667e+01   4.3703207436e+01     0.248699    0.2397637  78.55 0.0004731159    1.069    0.064
       133  -9.8172    111.9349     14.0794   4.2306790811e-01   5.4583532910e+01    0.4022139    0.1813101  69.90  0.001714022    1.999    0.500
       134  -9.8263      6.6905    142.5440   7.4570300640e+01   4.4292071297e+01    0.2440005    0.1161996 -82.20  0.001001383    1.958    0.489
       135  -9.9051      1.6958    142.0067   7.6220176559e+01   4.4752762012e+01    0.1975344    0.1585192  84.98 0.0005779498    1.121    0.108
       136  -9.8832     28.7437    138.0756   6.6506507566e+01   4.3701398622e+01    0.2290694    0.2049513  27.45 0.0004790283    1.165    0.142
       137  -8.9708     91.7022    137.7055   4.5194715578e+01   3.5185286553e+01    0.1526921    0.1198179 -16.62 0.0001994994    1.566    0.361
       138  -9.8863     11.3149    134.0138   7.2301774823e+01   4.6254733005e+01     0.244697    0.1612425 -75.34 0.0005608897    1.406    0.289
       139 -10.1926     17.9470    132.3135   6.9751575203e+01   4.6212846990e+01    0.3446757    0.1654113  42.15  0.001426401    2.007    0.502
       140  -8.9066     46.3605    131.2901   5.9268719877e+01   4.3618904404e+01    0.1550615    0.1113521 -27.95 0.0007026762    1.693    0.409
       141 -10.5402    135.0099    124.2427   3.0056443955e+01   3.0163544227e+01    0.2687899    0.2163568 -44.64 0.0007148972    1.223    0.182
       142  -9.0678      5.4927    125.4998   7.3714700416e+01   4.8937329263e+01    0.1386719     0.125207  85.70 0.0008106472    1.005    0.005
       143 -10.3553     56.1252    116.8643   5.3074721814e+01   4.6206654186e+01    0.3454359    0.2653852 -34.78 0.0009088473    1.446    0.308
       144  -9.8698     13.0870    117.6703   7.0059952784e+01   5.0565987489e+01    0.1852976    0.1796962   6.41 0.0003651068    1.132    0.117
       145  -9.9215     91.7621    116.3818   4.0428270002e+01   4.0428570093e+01    0.3538798    0.2474583  21.30  0.001336881    1.687    0.407
       146 -10.5441     96.2128    112.3792   3.8015414415e+01   4.0553539278e+01    0.6477557    0.2609392 -49.48   0.00130803    2.470    0.595
       147  -9.3181     20.8364    116.1899   6.6802147332e+01   5.0373146606e+01    0.2046742    0.1602497 -41.36  0.001066944    1.344    0.256
       148 -10.0957     79.8623    111.8264   4.3311359692e+01   4.3720408806e+01    0.4426925    0.2149786 -67.85  0.001475224    2.895    0.655
       149  -9.5232      1.4596    108.5557   7.3852180422e+01   5.3748736341e+01    0.1370817    0.1241299 -80.44 3.697675e-05    1.009    0.009
       150  -9.4961    102.9817    105.8222   3.4206517592e+01   4.0755442194e+01    0.2691573    0.1779832  66.62  0.001078689    2.067    0.516
       151  -9.9920      1.8340    104.8926   7.3359207632e+01   5.4721321194e+01    0.2206648    0.1660967 -51.24 0.0009378897    1.294    0.227
       152  -9.6526     76.9802    103.3183   4.2201972170e+01   4.6360229394e+01    0.2196861    0.1947369  31.69 0.0004424072    1.140    0.123
