#   1 NUMBER                 Running object number                                     
#   2 MAG_AUTO               Kron-like elliptical aperture magnitude                    [mag]
#   3 X_IMAGE                Object position along x                                    [pixel]
#   4 Y_IMAGE                Object position along y                                    [pixel]
#   5 X_WORLD                Barycenter position along world x axis                     [deg]
#   6 Y_WORLD                Barycenter position along world y axis                     [deg]
#   7 A_WORLD                Profile RMS along major axis (world units)                 [deg]
#   8 B_WORLD                Profile RMS along minor axis (world units)                 [deg]
#   9 THETA_WORLD            Position angle (CCW/world-x)                               [deg]
#  10 FWHM_WORLD             FWHM assuming a gaussian core                              [deg]
#  11 ELONGATION             A_IMAGE/B_IMAGE                                           
#  12 ELLIPTICITY            1 - B_IMAGE/A_IMAGE                                       
         1 -14.2826      2.5584    108.3953   1.2434968287e+02   5.1364905167e+01     3.809896    0.1941138 -72.52  0.008760182   10.833    0.908
         2 -13.0789    203.8130     34.6671   5.5241566462e+01   2.9915422781e+01     1.047564    0.9421617  39.34  0.005200807    1.160    0.138
         3 -13.6482    222.7396     15.6540   4.7340833393e+01   2.7278870874e+01     1.176671    0.9298318  26.13  0.001909622    1.523    0.343
         4 -10.7999    198.2245    245.4627   1.0303068878e+02  -1.0223340704e+00    0.2332294    0.1249934  31.36  0.001364241    1.806    0.446
         5 -11.0786    185.1782    248.7125   1.0552585780e+02   7.0967327800e-01    0.3459466    0.2317726   7.95  0.002124668    2.404    0.584
         6 -10.4120    174.6478    250.2054   1.0738040513e+02   2.2209376414e+00    0.2800586   0.08404211  45.99   0.00130577    2.473    0.596
         7 -11.4259    142.8977    248.9929   1.1228370766e+02   7.3892152816e+00    0.3947359    0.1724378  59.72  0.002014535    2.541    0.606
         8 -11.2326    132.0791    249.0981   1.1400004928e+02   9.0409382907e+00    0.5232574    0.1780021  50.78  0.002652076    2.273    0.560
         9 -12.2911    123.6112    247.3101   1.1515799835e+02   1.0569725286e+01    0.5343958    0.4425536  41.89  0.004193293    1.400    0.286
        10 -11.6390    125.2887    240.3774   1.1421595138e+02   1.1298432366e+01    0.3556245    0.1864851  42.94  0.001811688    1.641    0.391
        11 -11.4031    116.2721    248.9312   1.1645491889e+02   1.1434788856e+01    0.4648575    0.3499901  81.37  0.003609726    1.326    0.246
        12 -10.7662    110.0820    247.5231   1.1729067397e+02   1.2540839841e+01      0.27725    0.2108765  68.90  0.001667732    1.120    0.107
        13  -9.8228    100.0316    250.4693   1.1908445666e+02   1.3554588515e+01    0.3214654    0.1985326  25.11  0.001682365    3.923    0.745
        14 -11.2376     98.9647    247.0249   1.1896560232e+02   1.4204815416e+01     0.559471    0.1816475  50.09  0.002953456    2.265    0.558
        15 -11.6503     89.4771    225.1168   1.1859432617e+02   1.8938807751e+01    0.4280966    0.2649051  54.37  0.002910156    1.271    0.213
        16 -10.6843     84.1412    230.2861   1.1990430418e+02   1.8840785376e+01    0.2043659     0.174376 -79.33  0.001618129    1.432    0.302
        17 -11.4490     87.5556    248.5773   1.2082600636e+02   1.5553854974e+01    0.4759292    0.2482591  54.65   0.00176106    1.397    0.284
        18  -9.8525     81.6065    248.4504   1.2171077233e+02   1.6371193624e+01    0.2501477    0.1151969 -71.74  0.001435414    2.404    0.584
        19 -12.0490     88.7440    238.5199   1.1985338767e+02   1.6910292162e+01    0.6505243     0.325648  75.82  0.003782433    2.284    0.562
        20 -11.3836     82.6240    239.9118   1.2091502034e+02   1.7529652493e+01    0.4077578    0.1707595  59.30  0.001136988    2.003    0.501
        21  -9.3421     56.2440    250.4595   1.2556007070e+02   1.9283942548e+01    0.1583249   0.09954548  47.08 0.0005752858    1.543    0.352
        22 -11.2943     60.1774    246.1994   1.2473080408e+02   1.9451659410e+01    0.4568408    0.2520729  63.29  0.003218528    1.312    0.238
        23 -12.7735      2.7720    190.0232   1.3030319983e+02   3.5089454878e+01     1.388524    0.2431616 -79.41  0.005501075    5.008    0.800
        24 -12.0323     48.7124    216.1893   1.2450200902e+02   2.5722121562e+01      1.93799    0.6269984  69.55  0.007189228    5.479    0.817
        25 -13.7260      9.3083    210.3561   1.3029875969e+02   3.0887684850e+01     1.660392     1.063067 -74.07   0.01339797    1.588    0.370
        26 -13.1832     37.8156    242.7068   1.2775770307e+02   2.2612434373e+01     1.843906    0.5870847 -73.47   0.01089785    2.975    0.664
        27 -12.9915     21.9373    224.7289   1.2912623549e+02   2.7211654499e+01    0.3373067    0.2199791 -77.13 0.0008007881    1.540    0.351
        28 -13.9586     27.2102    218.1626   1.2798629956e+02   2.7770960908e+01    0.7604292    0.5828207  67.65  0.004059866    1.247    0.198
        29 -11.7307    165.8025    243.5517   1.0801459244e+02   4.4576477438e+00    0.3102674    0.2484579  61.91  0.002312694    1.237    0.192
        30  -9.5110    191.3208    248.3195   1.0449870474e+02  -2.3124364704e-01    0.1108389   0.07213037  25.30    0.0005011    1.667    0.400
        31 -12.0663    134.9028    234.4027   1.1202653456e+02   1.0664184752e+01    0.4489344    0.2699267 -68.69  0.002804964    2.138    0.532
        32 -10.6207     97.4540    239.4581   1.1856487918e+02   1.5547695097e+01    0.2490556    0.1676868  82.61  0.001121179    1.426    0.299
        33 -11.3874    113.5814    230.8826   1.1517452877e+02   1.4497143867e+01    0.4453887    0.3151834  32.68  0.002652813    1.852    0.460
        34 -12.4353    102.8123    238.3856   1.1762359405e+02   1.4942977723e+01    0.5432046    0.3956175  73.17  0.002246955    1.178    0.151
        35 -12.0956    102.6245    230.9485   1.1697589259e+02   1.6117073042e+01    0.5862551     0.353703  32.66  0.002434705    2.338    0.572
        36 -11.8393    118.8647    237.2235   1.1493963741e+02   1.2738297287e+01    0.5108178    0.3767166  18.86   0.00222638    2.517    0.603
        37 -10.9949     68.2832    245.6192   1.2349890705e+02   1.8528595424e+01    0.3648589    0.1932018  85.03 0.0009312506    1.861    0.463
        38 -10.8337     74.1329    244.2046   1.2252730994e+02   1.7993560054e+01    0.2767629    0.2194523  87.65  0.002325391    1.308    0.235
        39 -11.1679     74.3287    236.3410   1.2192568222e+02   1.9189728018e+01    0.4554857    0.1739249 -56.91  0.002199515    3.452    0.710
        40 -14.2845     11.1255    244.9836   1.3155299281e+02   2.5057496065e+01     2.008171    0.7610351  46.46   0.01411445    2.095    0.523
        41  -9.3876    123.2441    229.9661   1.1348201414e+02   1.3154436046e+01     0.169186    0.1251151  82.13 0.0007677352    1.387    0.279
        42  -9.2642     55.0321    235.5930   1.2481923769e+02   2.1738269303e+01    0.2255336   0.09052239  60.99  0.001344685    2.023    0.506
        43  -8.6627    157.3179    234.6471   1.0834502849e+02   7.0095807847e+00    0.1162031   0.07716845  69.25 0.0007046862    1.743    0.426
        44 -11.6622    180.5159    243.6852   1.0565184214e+02   2.0536153893e+00     0.464392    0.1640742  37.97   0.00213708    2.677    0.626
        45  -9.8618    153.7817    230.0475   1.0838012519e+02   8.2287202042e+00     0.168652    0.1320804  65.39 0.0004307666    1.234    0.190
        46  -9.4204     56.3629    228.2742   1.2413027456e+02   2.2765744667e+01    0.2176676    0.1107446  88.81  0.001272297    1.879    0.468
        47 -11.0485     79.3342    225.5773   1.2028689958e+02   2.0261201396e+01    0.3750346    0.2391989  57.41  0.002649963    1.211    0.175
        48  -9.2873     77.1784    220.8345   1.2024179699e+02   2.1341429946e+01    0.1676088    0.1103125  69.64 0.0004426269    1.204    0.169
        49 -10.1899    136.1607    224.3188   1.1068128159e+02   1.1957710088e+01    0.2466963    0.1664061 -49.83 0.0009144312    1.898    0.473
        50  -8.8230     64.7727    224.7999   1.2256172390e+02   2.2296462231e+01     0.137691    0.1100595 -34.85 0.0009349496    2.704    0.630
        51  -8.8711     45.7791    225.2423   1.2556429394e+02   2.4526536042e+01    0.1213521   0.09820683  83.29 0.0004180044    1.300    0.231
        52 -10.3742     99.2724    223.4836   1.1682268654e+02   1.7800670742e+01    0.2013745    0.1708309  26.94  0.001139277    1.801    0.445
        53 -10.1047    141.7539    219.4986   1.0914343127e+02   1.1773165455e+01    0.2505885     0.194948 -54.23  0.001706551    1.582    0.368
        54 -10.3262     71.1060    219.5374   1.2112960502e+02   2.2366028786e+01    0.3701251    0.1980713  74.84  0.002289738    1.781    0.438
        55  -9.8379     90.9866    220.0157   1.1787948573e+02   1.9568333276e+01    0.1746016    0.1268037  67.57 0.0003458974    1.064    0.060
        56  -9.9497    117.0322    215.6205   1.1298151021e+02   1.6393984789e+01    0.2814738    0.1935417  29.40   0.00123179    2.044    0.511
        57  -9.2649    106.9269    216.5398   1.1482888767e+02   1.7803228672e+01     0.169533   0.09224018  49.49 0.0003960482    1.502    0.334
        58  -9.7151     86.6307    211.8368   1.1784658008e+02   2.1577839269e+01    0.2984052     0.135867  64.84  0.001529906    2.320    0.569
        59 -10.3373     63.1377    208.6255   1.2155918953e+02   2.5288530583e+01    0.2580921       0.2132  67.60   0.00141365    1.233    0.189
        60  -9.3966     58.5156    212.5091   1.2263980375e+02   2.5181405668e+01    0.1798105    0.1123536  70.47 0.0006291234    1.258    0.205
        61 -10.1929     55.8521    208.9805   1.2280768668e+02   2.6130490969e+01    0.3790046    0.1422177 -74.79  0.002017536    2.609    0.617
        62  -8.4195    110.6927    211.3292   1.1361153064e+02   1.8098822998e+01    0.1224885    0.0752884  71.53 0.0004247029    1.659    0.397
        63  -9.6524     99.3714    209.7031   1.1542248546e+02   2.0098887482e+01    0.2565527     0.131589  77.08 0.0007868662    2.646    0.622
        64  -8.5841     74.4137    208.4827   1.1963079938e+02   2.3845769060e+01    0.1125574   0.08457912  73.29 0.0002264016    1.017    0.016
        65  -8.8980     91.7943    204.9007   1.1625597430e+02   2.2055775071e+01    0.1368862   0.08483493 -67.76 0.0005189592    1.671    0.402
        66  -9.8783    106.9315    203.5136   1.1339980773e+02   2.0028398062e+01    0.2016701    0.1595017 -79.02 0.0003426155    1.291    0.225
        67  -8.4174     72.6733    203.3155   1.1946193840e+02   2.5002680748e+01    0.1207157   0.06697965  70.30 0.0007044226    1.672    0.402
        68 -10.1243     44.2620    200.2667   1.2408729873e+02   2.9068463685e+01    0.2789465    0.2101101  84.01  0.001204497    1.104    0.094
        69  -9.4571     74.3296    199.9750   1.1885840507e+02   2.5388667305e+01    0.1534443     0.117379  89.94 0.0001918938    1.157    0.136
        70  -9.2452     96.9768    199.0781   1.1470063091e+02   2.2334918830e+01    0.1748168    0.1431123  69.50 0.0003014139    1.052    0.049
        71  -9.3299     53.1417    198.2755   1.2241485308e+02   2.8395546036e+01    0.1829364    0.1618064  33.16  0.001404268    1.740    0.425
        72 -11.5876     52.4674    192.9703   1.2209156428e+02   2.9463167065e+01    0.3158326    0.2125692  47.47 0.0006391375    1.498    0.332
        73  -9.9183     31.3428    192.8949   1.2574278921e+02   3.1840795711e+01    0.2328785    0.1871915 -52.79 0.0009440741    1.915    0.478
        74  -9.2837     25.8190    192.6676   1.2666043565e+02   3.2450884232e+01    0.2002563    0.1197667  74.79 0.0009938915    1.281    0.220
        75  -9.9049     21.1050    191.8156   1.2739511361e+02   3.3077028489e+01    0.5067958    0.1816627  77.78  0.002425408    3.238    0.691
        76  -9.1842    191.5579    191.6564   9.6123066650e+01   7.1115021090e+00    0.1480505    0.1278525 -53.79 0.0005776993    1.409    0.290
        77  -8.2278     38.6223    192.2889   1.2445279438e+02   3.1174266292e+01    0.1171451   0.05884545  67.67 0.0007018391    1.732    0.423
        78 -11.4402     15.6698    226.0812   1.3010697419e+02   2.7618815559e+01    0.3430221    0.2812077  66.39 0.0004164951    1.447    0.309
        79  -9.1629     76.3954    187.0182   1.1717998746e+02   2.7534155270e+01     0.256749    0.1306482 -88.64  0.001111434    2.329    0.571
        80  -9.8385    250.2425    193.9980   8.6358884488e+01  -3.8924191206e+00    0.1787571    0.1442929  10.27   0.00117942    1.076    0.070
        81 -10.1804      9.7882    187.1486   1.2899789522e+02   3.5002096519e+01    0.2240121    0.1126791 -86.03  0.001526692    1.521    0.342
        82 -10.5821     70.9375    187.0590   1.1819950452e+02   2.8261131837e+01    0.2324606    0.1430349  47.96 0.0003663959    1.526    0.345
        83 -11.6540     59.1256    185.2115   1.2019899676e+02   3.0130508072e+01    0.2198881    0.1839612 -89.08 0.0004548287    1.201    0.167
        84  -8.6045     29.3520    184.5242   1.2549029271e+02   3.3621410397e+01    0.2595171    0.1404356 -59.27  0.001546762    2.125    0.529
        85  -8.4042    107.4532    185.5256   1.1110829501e+02   2.3218088727e+01    0.1250301    0.1037442  71.73 0.0001239743    1.007    0.007
        86  -8.6128     24.3389    184.2888   1.2634714784e+02   3.4169391302e+01   0.09117486     0.074203 -62.80 0.0007012093    1.640    0.390
        87  -9.4785     36.8760    180.4236   1.2383750853e+02   3.3622752561e+01    0.2336681     0.129298 -69.04 0.0006638499    1.642    0.391
        88  -9.3356     27.1152    179.6864   1.2553083894e+02   3.4773603099e+01     0.171439    0.1175448 -87.08 0.0004012352    1.144    0.126
        89  -9.1723     81.0425    178.5339   1.1535163858e+02   2.8535769676e+01    0.1693766    0.1532536 -78.55 0.0004070908    1.290    0.225
        90  -8.6719    111.5371    177.5606   1.0923474557e+02   2.4073476021e+01    0.1262005    0.1093825  70.92 0.0005176466    1.040    0.038
        91 -11.3887    248.4904    172.4220   8.2513133878e+01  -9.4638703087e-01    0.4334207    0.3138936   9.41  0.002515461    1.351    0.260
        92 -10.5512     70.6931    173.2577   1.1676458752e+02   3.0998006865e+01    0.2129074     0.177237  82.27 0.0002497025    1.073    0.068
        93 -11.9916      9.6616    156.7634   1.2705180919e+02   4.0869896470e+01      1.09424    0.3352079  76.06  0.003420668    7.367    0.864
        94 -11.2449      2.5289    172.4158   1.2937313329e+02   3.8397440972e+01    0.3193599    0.1573741  85.02  0.001536351    1.567    0.362
        95 -11.0010     12.8456    173.1744   1.2760969608e+02   3.7373991878e+01    0.3300311    0.2085461 -65.54   0.00239641    1.635    0.388
        96 -11.5234     12.4081    167.2517   1.2728702029e+02   3.8563737876e+01    0.2908512    0.2148654  47.74  0.002289048    1.534    0.348
        97 -11.3320      9.5607    164.6993   1.2763067879e+02   3.9307671842e+01    0.3294117     0.144832 -63.11  0.001999219    2.137    0.532
        98  -9.8904     55.4913    172.4937   1.1964017997e+02   3.3073407662e+01    0.2155387    0.1637074  82.91 0.0005599143    1.034    0.033
        99  -9.4832     51.5132    171.4036   1.2029800447e+02   3.3763756057e+01    0.1894697    0.1375328  67.49 0.0005613667    1.184    0.156
       100  -9.8937     27.1791    171.7260   1.2491378400e+02   3.6317184048e+01    0.2126007    0.1619895 -60.34 0.0003999312    1.618    0.382
       101  -9.2732     17.9406    172.1574   1.2662901090e+02   3.7111407936e+01    0.1705219    0.1056926  72.87  0.001124304    1.287    0.223
       102 -11.6001     39.0445    167.9058   1.2236182448e+02   3.5860475444e+01    0.2422033    0.1991152 -80.96  0.000432828    1.236    0.191
       103 -11.7321     78.8455    165.2314   1.1416989995e+02   3.1513110997e+01    0.4380141    0.3909963  65.96  0.001947398    1.209    0.173
       104 -11.8309    245.4224    162.3457   8.0975979469e+01   9.5170447276e-01    0.4626698       0.2881 -35.66  0.002428705    1.700    0.412
       105 -10.7310    249.4082    161.2119   8.0074412215e+01   3.4859958167e-01    0.3205453    0.2004151 -39.37  0.001668194    1.797    0.444
       106 -11.1736    247.9886    157.4112   7.9514358977e+01   1.1293474531e+00    0.4876834    0.2632087  59.52  0.002115134    2.698    0.629
       107  -9.7793     68.1600    166.2063   1.1645714299e+02   3.2757138422e+01    0.2009055    0.1426998  88.55 0.0003871752    1.229    0.186
       108  -9.1360     91.5659    168.6392   1.1202116035e+02   2.8976499669e+01    0.2041736    0.1239725  62.60 0.0007638367    1.608    0.378
       109  -9.8117     24.0978    161.8651   1.2469952491e+02   3.8575068165e+01    0.1628615    0.1115981  77.63 0.0004281279    1.165    0.142
       110  -8.8121     66.9403    161.2398   1.1611485733e+02   3.3936289981e+01    0.1561162    0.1390436 -19.21 0.0003502009    1.796    0.443
       111  -9.5320     28.6830    161.0165   1.2374542712e+02   3.8307100033e+01     0.156401    0.1066527 -85.11  0.000357537    1.133    0.117
       112 -10.6242     82.0425    157.4703   1.1247787006e+02   3.2665075359e+01      0.33899    0.2284498  61.36  0.001983743    1.411    0.291
       113 -10.5038     32.1898    153.9655   1.2241078076e+02   3.9403123826e+01    0.2506784    0.1623254 -60.39 0.0004826281    1.588    0.370
       114 -10.7120     26.0515    155.2158   1.2375142825e+02   3.9738549791e+01    0.2053188    0.1739354  78.23  0.001361671    1.217    0.178
       115  -9.8011     12.4821    153.5896   1.2627297480e+02   4.1272963517e+01    0.2182896   0.08076358 -75.74 0.0009034541    2.076    0.518
       116 -10.7862    249.6058    151.0544   7.7890172573e+01   1.6861771731e+00     0.347332    0.2692717 -20.65  0.002001392    1.238    0.192
       117  -9.3113     54.0910    151.8158   1.1766352322e+02   3.7489291131e+01    0.2098497    0.1265197 -50.58  0.001195028    1.975    0.494
       118 -10.6791     93.1373    150.0384   1.0899724540e+02   3.2580831801e+01    0.2639572     0.256727 -76.98 0.0008997589    1.256    0.204
       119 -11.3922     22.2775    149.5038   1.2399644695e+02   4.1257155310e+01    0.3929941    0.1712253  46.87  0.002285477    2.251    0.556
       120  -9.8771     81.2097    148.4031   1.1136553441e+02   3.4695168327e+01    0.2444859    0.1934529  71.06  0.001522951    1.174    0.148
       121 -11.7167     68.3123    143.9950   1.1357793867e+02   3.7396527301e+01    0.6112931    0.3512143  79.10  0.002374568    2.084    0.520
       122  -9.6597     59.4792    146.6144   1.1586922909e+02   3.7947604232e+01    0.2388239     0.143282 -45.33  0.001225106    2.209    0.547
       123  -8.6869     40.6519    147.3292   1.1998797968e+02   3.9925432359e+01    0.1251541   0.07127954  73.48 0.0007049284    1.760    0.432
       124 -12.4959      9.5620    143.5435   1.2605145118e+02   4.3550641816e+01    0.3881794    0.1900041 -77.69  0.002429472    1.536    0.349
       125 -11.7418    245.5139    121.3322   7.1845419460e+01   6.7925769447e+00    0.6202852    0.4198821  73.21  0.002845766    2.248    0.555
       126 -12.0992    248.1425    142.5041   7.6263398949e+01   3.1679238179e+00    0.6053982    0.4753247   2.09  0.003413889    1.246    0.198
       127 -12.5874    248.0803    134.4358   7.4462501437e+01   4.3346449353e+00     1.153282    0.5640914 -19.10   0.00467078    2.476    0.596
       128  -8.9449     96.7350    146.0397   1.0756292462e+02   3.2867632947e+01     0.180943    0.1520124 -75.26 0.0003091758    1.099    0.090
       129  -9.9107    133.1319    141.1488   9.8556528351e+01   2.7520134292e+01    0.3387316    0.1999106 -60.54  0.001079148    1.857    0.462
       130  -9.0993     37.0132    140.0323   1.1995744526e+02   4.1841851117e+01    0.1435307    0.1087556 -84.17 0.0004940534    1.028    0.028
       131 -10.8492     16.2536    139.5710   1.2433474400e+02   4.3831329643e+01    0.2494575    0.1045354 -86.71    0.0012955    2.205    0.546
       132  -9.6289    106.8544    135.7565   1.0346633895e+02   3.3409132705e+01    0.3776469    0.2693546 -14.68    0.0017172    2.690    0.628
       133 -14.0767     10.6030    106.6179   1.2220818377e+02   5.1216132944e+01     1.360737    0.5567774 -61.39  0.007632821    1.852    0.460
       134 -11.1115    170.3845    247.6736   1.0776249509e+02   3.2075183052e+00    0.3950192    0.2258907  18.10  0.001808037    4.137    0.758
       135  -9.9630    249.5512    117.5171   7.0290907257e+01   6.5015539974e+00    0.2470062     0.219827   9.47 0.0006330317    1.073    0.068
       136  -9.0486    236.1271    145.8762   7.9040725241e+01   5.1067171419e+00    0.1951797    0.1507524  14.73 0.0004658372    1.307    0.235
       137  -8.9604     93.5655    133.2245   1.0609363777e+02   3.6120625873e+01    0.1717443     0.117639 -51.68 0.0003116981    1.465    0.318
       138 -11.8438    248.4181    112.8557   6.9357231091e+01   7.4340330362e+00    0.6254995    0.3921642  38.94  0.002999079    1.664    0.399
       139 -12.9887    247.9023    101.8309   6.6754366198e+01   9.1921710255e+00     1.228047    0.7301028 -17.98  0.005475039    1.841    0.457
       140 -11.4632    150.1394    247.0507   1.1092753625e+02   6.5104520457e+00    0.3132037     0.261713 -40.70  0.002177688    1.696    0.410
       141 -10.4558    232.0664    116.4816   7.2928252728e+01   1.0462095246e+01    0.2290377    0.1904749 -25.08 0.0006288075    1.159    0.138
       142  -9.2803    168.2607    113.2873   8.4483789391e+01   2.5717006757e+01    0.3112913    0.2211253 -83.40  0.001308875    2.137    0.532
