#   1 NUMBER                 Running object number                                     
#   2 MAG_AUTO               Kron-like elliptical aperture magnitude                    [mag]
#   3 X_IMAGE                Object position along x                                    [pixel]
#   4 Y_IMAGE                Object position along y                                    [pixel]
#   5 X_WORLD                Barycenter position along world x axis                     [deg]
#   6 Y_WORLD                Barycenter position along world y axis                     [deg]
#   7 A_WORLD                Profile RMS along major axis (world units)                 [deg]
#   8 B_WORLD                Profile RMS along minor axis (world units)                 [deg]
#   9 THETA_WORLD            Position angle (CCW/world-x)                               [deg]
#  10 FWHM_WORLD             FWHM assuming a gaussian core                              [deg]
#  11 ELONGATION             A_IMAGE/B_IMAGE                                           
#  12 ELLIPTICITY            1 - B_IMAGE/A_IMAGE                                       
         1 -12.0967    249.1811     20.5893   3.5904230748e+02   2.1203104643e+01     0.330932    0.1635998 -39.35  0.000292996    1.616    0.381
         2 -12.2308     28.5995     19.8285   4.7463376147e+01   7.1778770621e+01    0.3141677    0.2162803  15.42 0.0002141448    1.397    0.284
         3 -11.4612     14.7812     18.0816   5.5960503871e+01   7.3695525277e+01    0.2801907    0.2436362 -50.65 0.0009305549    1.384    0.278
         4 -10.2188      9.0130     15.7096   5.9087337607e+01   7.4658441147e+01    0.2523874    0.2179048  84.42  0.001028235    1.843    0.457
         5 -12.4700      3.3516     13.1208   6.2303358337e+01   7.5577894387e+01    0.6155294    0.2972343 -53.14  0.002810229    1.890    0.471
         6 -11.7364      9.8767     10.5696   5.5712108194e+01   7.5509117843e+01    0.3899757    0.3491734  40.72  0.002712048    1.556    0.357
         7 -12.5663    240.1086     15.1615   3.5846157030e+02   2.3581238942e+01    0.3233034     0.247784 -25.77 0.0004869819    1.516    0.340
         8 -13.0928     65.3619     11.7506   2.4416936498e+01   6.6314748758e+01    0.3418523    0.2618308  42.21  0.000523967    1.142    0.124
         9 -11.2007     59.3062     11.5012   2.6678415112e+01   6.7629271728e+01    0.3497998    0.2208066 -38.35  0.001394239    1.832    0.454
        10 -11.0520    137.3393     15.1995   8.3835542154e+00   4.8082854854e+01    0.2792768    0.2113668 -61.53 0.0004423211    1.373    0.272
        11 -12.5306     76.0964     10.6502   2.0109575539e+01   6.4026097185e+01    0.5524355    0.3213375  24.88  0.001217364    2.037    0.509
        12 -10.4378     26.5182     13.0489   4.5017481955e+01   7.3169269448e+01    0.3387737    0.1580231 -32.65  0.001620408    2.164    0.538
        13 -11.5442    146.3845      7.4442   4.5425610035e+00   4.6461297726e+01    0.3942284    0.2266892  59.15  0.001409449    1.588    0.370
        14 -10.8760    177.8504     12.0692   2.4651877325e+00   3.7971884093e+01    0.2237108    0.1716901  85.69 0.0002981114    1.156    0.135
        15 -10.2288    119.6065     11.2772   9.9089131781e+00   5.3117092626e+01    0.2363091    0.2174548  59.49 0.0004295472    1.078    0.072
        16 -10.5344    116.7386      9.3195   9.6754255027e+00   5.4047151451e+01    0.4616737    0.1652555  79.42  0.001426456    3.954    0.747
        17 -11.3538    139.6264     10.8680   6.5733078083e+00   4.7908738051e+01    0.2981502    0.1828632  83.37    0.0014478    1.558    0.358
        18 -11.7750    249.0004      9.1655   3.5673032807e+02   2.2469751860e+01    0.2125324    0.1538821 -35.16 0.0007394919    1.374    0.272
        19 -11.5537    234.7154      9.3636   3.5755003576e+02   2.5291577705e+01    0.2317019    0.1055492 -44.43  0.001055612    1.716    0.417
        20 -11.1717    160.5449      8.2835   3.1533993072e+00   4.2718142248e+01    0.2236152    0.1849129   8.49 0.0007223436    1.591    0.371
        21 -11.6997    154.6236      8.1888   3.7886824699e+00   4.4252270799e+01    0.4614521    0.1769965  70.70  0.001215181    2.241    0.554
        22  -9.1534    100.2545      9.6782   1.3154620922e+01   5.8247898159e+01     0.131953    0.1012564 -64.43 0.0002085016    1.541    0.351
        23  -9.4817     19.8242      8.5904   4.6965074683e+01   7.4749001736e+01    0.1505446    0.1068392  32.75 0.0003786155    1.487    0.327
        24 -10.3153     82.0947      6.9482   1.6479856495e+01   6.2978881861e+01     0.199436    0.1684775  46.37 0.0003577335    1.025    0.025
        25 -10.3224     68.3159      5.4718   1.9998327130e+01   6.6320778187e+01    0.2205905    0.1858599  26.84 0.0004591433    1.103    0.093
        26  -9.8383     36.5730      5.9318   3.4425649355e+01   7.2630433409e+01    0.2751243    0.1276251  28.06  0.001216118    2.436    0.590
        27  -9.9500    223.0055      5.3208   3.5735359180e+02   2.8164407945e+01    0.1655256    0.1295899 -72.09  0.001105925    1.059    0.056
        28 -11.7885    180.3763      3.4927   3.5989968954e+02   3.8183729191e+01    0.4789974    0.2327223  56.14  0.002124834    2.159    0.537
        29 -10.9303    164.3413      4.6571   1.6837618337e+00   4.2086405036e+01    0.2228766    0.1842084 -63.93 0.0002664212    1.138    0.121
        30 -12.2460    242.2299      3.1957   3.5585903651e+02   2.4408488894e+01    0.4043223     0.190007  84.65  0.002249397    2.091    0.522
        31 -10.6234    159.9498      3.6969   1.8413942836e+00   4.3293371073e+01    0.1935648    0.1541414  85.23 0.0004386549    1.081    0.075
        32 -12.2646     31.5852      2.0000   3.4788031552e+01   7.3961567439e+01    0.4158247    0.1732156  41.71 0.0003405646    2.197    0.545
        33 -10.6597     22.2170      1.6240   4.0693529239e+01   7.5452560481e+01    0.5117264    0.2689635   4.70  0.002258524    2.984    0.665
        34 -10.1313    126.1031      2.6131   5.6269639599e+00   5.2184994130e+01    0.2079388    0.1795838 -55.23 0.0004505649    1.240    0.194
        35 -10.7125     98.0632      2.8071   1.0654116179e+01   5.9404508826e+01    0.2049197    0.1963996  14.23 0.0004689763    1.169    0.144
        36 -10.0190     90.9842      2.4684   1.2076448218e+01   6.1203389879e+01    0.1903487    0.1730949  33.03 0.0005086993    1.127    0.113
        37 -10.9493    230.1182      1.5450   3.5613116554e+02   2.7037669837e+01    0.1809752    0.1264598  84.34 0.0004115242    1.377    0.274
        38  -9.2702    120.6552      1.6815   6.1022863355e+00   5.3682465879e+01    0.1473194   0.08740407  44.12   0.00070491    1.723    0.420
        39 -10.2245     73.7806      1.4207   1.6107213478e+01   6.5436595474e+01    0.2310579     0.117234  62.59 0.0005894322    1.799    0.444
        40 -12.5500     15.4439    192.1652   8.6154802131e+01   3.1980697079e+01    0.3954299    0.3445933 -11.32   0.00184716    1.581    0.367
        41 -11.0148    247.6971    249.6058   4.3210940292e+01  -8.5678027005e+00    0.1762874    0.1323214   6.25  0.001127629    1.224    0.183
        42 -10.6586    250.4959    244.9960   4.2083573577e+01  -8.3781381238e+00    0.2427168    0.1117031  -6.20  0.001303772    2.611    0.617
        43 -11.6869    223.7352    248.9674   4.7078011900e+01  -5.8775683960e+00    0.3174312    0.1908977  12.20  0.002138183    1.328    0.247
        44 -11.1951    219.0080    246.7371   4.7568843243e+01  -5.0732435580e+00    0.2785746    0.1371171 -32.10  0.001682361    2.102    0.524
        45  -9.9321    109.8627    249.8463   6.9317099231e+01   8.9455919736e+00    0.1729916    0.1150701  45.80 0.0006010926    1.309    0.236
        46  -9.8494     72.4684    250.0229   7.7182831922e+01   1.3836181267e+01     0.148127    0.1157642 -71.73  0.001015461    1.579    0.367
        47 -11.3268     21.9588    248.8110   8.7427821559e+01   1.9830112946e+01    0.4803712    0.1265222  43.79    0.0023499    2.318    0.569
        48  -8.9201    209.6849    193.2815   4.0571404984e+01   3.2366998664e+00    0.1072855    0.1019626  54.28 0.0002244191    1.575    0.365
        49 -10.0375    186.2402    193.0347   4.5033904732e+01   6.8818696881e+00     0.168868    0.1063446 -35.80 0.0008876059    1.629    0.386
        50 -10.0256      2.4783    193.4913   8.9324547446e+01   3.2810033085e+01    0.1219096   0.09522321  65.37 3.918624e-05    1.006    0.006
        51 -10.0943      2.3111    187.3351   8.9102031295e+01   3.4195629003e+01    0.1139025   0.08590624 -50.81 0.0005715945    1.681    0.405
        52 -10.2304    155.8142    185.4182   5.0151041283e+01   1.3275983647e+01    0.2552617    0.1096187 -49.08  0.001014833    2.661    0.624
        53  -9.6280     61.9822    184.5201   7.3597142218e+01   2.8531908718e+01    0.2015627    0.1252771  32.73 0.0006673742    1.507    0.336
        54 -12.6995     15.3150    182.1195   8.5605300298e+01   3.4285548658e+01    0.5143673    0.2488447  52.55  0.002610724    1.778    0.438
        55 -11.5485     23.4046    180.5050   8.3416383471e+01   3.3907468087e+01    0.3237096    0.1737867  54.60   0.00166242    1.648    0.393
        56 -11.4849      2.9889    179.7650   8.8591515078e+01   3.5864190294e+01    0.3198722    0.1932962  -5.62  0.001652139    2.659    0.624
        57 -11.4188     17.6022    172.5263   8.4392035204e+01   3.6336055573e+01    0.3688442    0.1350547  63.69  0.001433777    3.006    0.667
        58 -12.0759      7.8465    172.5033   8.6972393786e+01   3.7171034353e+01    0.2438218    0.1619991 -87.55  0.001428609    1.345    0.257
        59 -11.4927      2.4004    168.7994   8.8202163042e+01   3.8466783799e+01    0.2819694    0.1277116 -63.20  0.001374322    2.195    0.544
        60 -10.0838    176.9736    168.2871   4.2285540848e+01   1.2710384666e+01    0.2515092    0.1421564  -8.98  0.000893345    3.425    0.708
        61 -10.2902      1.5256    157.4959   8.7833369266e+01   4.1233730307e+01    0.1260487    0.1057948  79.34 8.578536e-05    1.022    0.022
        62 -10.6730    216.3115    154.8752   3.2021581225e+01   8.1428810700e+00    0.1972016    0.1784747  34.74 0.0003240749    1.268    0.211
        63  -9.9353    158.6440    153.6503   4.3317410342e+01   1.8919584646e+01    0.2343059    0.1737501   1.96  0.001103056    1.671    0.401
        64 -11.4928      5.5882    145.1680   8.5896221941e+01   4.3978061912e+01    0.5237156    0.1672333  19.66  0.002079139    3.394    0.705
        65 -12.7318     13.5640    148.3246   8.3748497675e+01   4.2599442377e+01    0.5146515    0.2699913 -64.99 0.0001170768    1.771    0.435
        66 -12.9470     15.5280    141.4194   8.2569966582e+01   4.4181259632e+01    0.6130182    0.3464045  70.07  0.002307698    1.781    0.439
        67  -9.6002     35.1393    150.8073   7.7463058683e+01   3.9988067311e+01    0.1784394    0.1526903 -50.28 0.0003798187    1.297    0.229
        68 -10.7306    234.0141    146.5417   2.7434455158e+01   6.5385151962e+00     0.208944    0.1447782 -30.07 0.0006310634    1.245    0.197
        69 -10.2455     23.9508    147.0000   8.0486860343e+01   4.2049922505e+01    0.2117337   0.07539397  22.81 0.0008087083    2.986    0.665
        70  -9.8373     30.2324    145.0139   7.8339641811e+01   4.1959902427e+01    0.1843041    0.1056955 -74.73 0.0008774421    1.629    0.386
        71  -9.3757    218.4956    144.4861   2.9509167089e+01   9.4327966977e+00    0.1327569    0.1160523 -17.10 0.0008104984    1.009    0.009
        72 -11.3860    239.9057    140.1904   2.5261368172e+01   6.5495366269e+00    0.2216739    0.1578198 -30.00 0.0006354428    1.190    0.159
        73 -10.4241    235.3503    137.9988   2.5491273999e+01   7.6123257927e+00    0.1840168    0.1406069 -29.36 0.0004133688    1.120    0.107
        74 -12.9742     37.5548    135.3189   7.4820319584e+01   4.3700138211e+01    0.3393344    0.2675671  89.93 0.0009637633    1.218    0.179
        75 -11.1476      3.3090    135.2212   8.5886467378e+01   4.6615014269e+01    0.2762893   0.08341116 -70.03   0.00108712    2.679    0.627
        76 -11.5197    241.6557    134.5814   2.3868014316e+01   7.1015758363e+00    0.2285073    0.1708549 -25.17 0.0006043719    1.143    0.125
        77 -11.6778     17.1265    130.9951   8.1068195750e+01   4.6712171749e+01    0.3834695    0.2089748  20.64  0.001342778    2.028    0.507
        78 -11.1746     57.9239    132.3074   6.7601258775e+01   4.2009512607e+01    0.3883262    0.2677053 -23.95  0.001130104    1.982    0.496
        79 -10.6451     53.0681    132.9904   6.9330113428e+01   4.2475031364e+01    0.2126434     0.203074 -73.37 0.0003197474    1.061    0.057
        80 -11.2408      4.7752    130.1319   8.5031988632e+01   4.7805302486e+01    0.2079121    0.1945832 -81.67  0.000307836    1.113    0.102
        81 -12.0585     81.6036    125.2690   5.8413925891e+01   4.0185260258e+01    0.6655679    0.4748338 -56.90  0.002002921    1.408    0.290
        82 -10.1644    217.0304    129.2828   2.6511998638e+01   1.2145745797e+01    0.1785552     0.167796 -10.93 0.0003821653    1.077    0.071
        83 -11.5396     24.6541    126.9830   7.8093266945e+01   4.7118573977e+01    0.3490143    0.2204783 -64.68  0.001590766    1.446    0.308
        84 -11.1414     46.7767    124.5105   7.0086684833e+01   4.5459065318e+01    0.3012933    0.2583698 -33.57  0.000553427    1.299    0.230
        85 -11.4975     10.1742    122.1824   8.2529299511e+01   4.9478415921e+01    0.3177625    0.2008433  46.55 0.0007173812    1.606    0.377
        86 -10.9517      7.7177    119.3336   8.3101152565e+01   5.0366768349e+01    0.2435135    0.1772461 -75.78 0.0007532591    1.201    0.168
        87  -9.3899     68.3022    121.6808   6.2109961430e+01   4.3244520342e+01    0.1561783    0.1132928  69.41 0.0007025624    1.625    0.385
        88 -10.0258     61.0789    121.4938   6.4563359898e+01   4.4360325674e+01    0.2142897    0.1466631  30.31 0.0006624639    1.501    0.334
        89 -11.0897     25.1612    118.6556   7.6860366349e+01   4.9232795330e+01    0.3536005    0.1754822  84.63  0.001295553    2.486    0.598
        90 -12.1935    249.1054    117.1137   1.9275509758e+01   8.4531681131e+00    0.3817514    0.2167372 -19.77  0.001944435    1.990    0.497
        91 -11.4114     73.8608    128.7302   6.1663434108e+01   4.0582352274e+01    0.3718877    0.3111027   8.46 0.0009084556    1.392    0.282
        92 -10.7030     16.0075    115.5022   7.9755813404e+01   5.0786226383e+01    0.3048699    0.1786727 -86.42 0.0005429428    1.653    0.395
        93 -11.8327     12.9249    110.2278   8.0258361643e+01   5.2362628652e+01    0.4380156    0.2905505  36.92  0.001375781    1.590    0.371
        94  -9.4305    182.0721    114.5656   2.9341927133e+01   2.1638709174e+01    0.1817424    0.1303588  84.34 0.0006307756    2.120    0.528
        95 -10.7810     38.9380    111.7971   7.0763008215e+01   4.9665163755e+01    0.3018686    0.1738583 -84.49  0.001043145    2.003    0.501
        96 -10.8140      2.6213    117.2260   8.4678004524e+01   5.1205466091e+01    0.4061309    0.1816979 -44.45  0.001812501    2.436    0.590
        97 -11.3107     55.1532    109.7929   6.4339449215e+01   4.8196930167e+01    0.2933854    0.2579127 -52.30 0.0005762668    1.116    0.104
        98 -11.4151     31.7025    109.3384   7.3073293329e+01   5.1049248262e+01    0.2929461    0.2288592  66.64 0.0006586225    1.360    0.265
        99 -11.1115     30.2709    106.6396   7.3178735428e+01   5.1886078882e+01    0.3374957    0.2549055  28.54  0.001211209    1.409    0.290
       100 -10.4298     20.4447    108.2308   7.7179120169e+01   5.2326630392e+01    0.2386191    0.1871915  17.43  0.001020292    1.426    0.299
       101  -9.1689     96.7866    106.9998   4.9116968722e+01   4.1864547146e+01    0.1864618     0.127494 -50.99            0    1.485    0.326
       102 -11.7105     75.0625    103.8507   5.5701757425e+01   4.6644025864e+01    0.4285602    0.2514078 -56.06 0.0003779389    1.703    0.413
       103  -9.1570     42.6347    103.7384   6.7861961332e+01   5.1333852203e+01    0.1464634    0.1051908 -26.26 0.0003585926    1.642    0.391
       104 -10.3118      4.2351    105.0233   8.2924203831e+01   5.4222010924e+01    0.2924242    0.1680126  24.24  0.001518202    1.907    0.476
       105 -10.5508    248.3240     99.3316   1.5676299076e+01   1.1148592924e+01    0.1220998   0.09158334  -1.26  0.000705044    1.704    0.413
       106 -11.2037     62.1406     98.4739   5.9146259571e+01   5.0061753056e+01    0.3118735    0.2476789 -48.35  0.001443835    1.234    0.189
       107  -9.9405     52.0293     97.4475   6.2829579008e+01   5.1764608247e+01    0.2898292    0.1767724 -44.29 0.0008848375    1.659    0.397
       108  -9.9132     50.6752    104.3125   6.4875141033e+01   5.0197649005e+01    0.1519872    0.1088965  66.01 0.0002881279    1.660    0.398
       109  -9.7765    226.2333     93.2294   1.7123645438e+01   1.6100293575e+01    0.1836541    0.1391457 -57.40  0.000519184    1.357    0.263
       110 -10.0364     31.5251     92.5009   7.0119016225e+01   5.5398107259e+01    0.2242266    0.1935998 -71.54 0.0005185764    1.109    0.098
       111 -10.5850     35.1594     90.3245   6.8142760688e+01   5.5582454317e+01    0.2382497    0.2299082 -85.48 0.0005102931    1.075    0.069
       112 -11.8513     57.4527     90.8070   5.9049892927e+01   5.2661229541e+01    0.3968488    0.3163337 -16.59 0.0007086943    1.440    0.306
       113 -10.3736     95.8448     88.7106   4.4298858525e+01   4.6276742835e+01    0.4110358    0.1795681  47.74  0.001438321    2.362    0.577
       114 -11.5775    239.1487     85.0744   1.3705313654e+01   1.4844194624e+01    0.1937787    0.1651592 -18.97 0.0007597303    1.258    0.205
       115 -10.3760     65.0000     84.0006   5.4172597867e+01   5.3138920909e+01    0.3418783    0.2026246 -66.85 0.0008234383    2.099    0.523
       116 -10.7258     64.6742     79.6856   5.3032696839e+01   5.4206326012e+01    0.3067571    0.2398279 -33.01 0.0008458585    1.327    0.247
       117 -10.4174     46.8546     84.8377   6.1890962436e+01   5.5589394580e+01    0.1972045    0.1703617  68.08 0.0006467863    1.322    0.243
       118 -10.5373    184.8368     85.2076   2.1436597260e+01   2.6196997462e+01    0.2036441    0.1825148 -66.71 0.0003105814    1.117    0.105
       119  -9.2682     34.4474     84.4673   6.7161965926e+01   5.7127432898e+01    0.1402985      0.12754 -47.20 0.0002167603    1.025    0.025
       120  -9.9153     76.3281     81.8652   4.9138061098e+01   5.1666081065e+01    0.3561389    0.1566717  49.24  0.001231698    2.699    0.630
       121 -10.1320     68.7908     82.0806   5.2108533693e+01   5.2956124895e+01    0.2165191    0.1996931  84.91 0.0003160896    1.219    0.180
       122  -9.2754      1.3474     81.2480   8.1277375929e+01   6.0353254205e+01    0.1317783   0.08104958 -39.98 0.0003146205    1.580    0.367
       123 -12.5557     88.4137     77.2224   4.3258291248e+01   5.0338918831e+01    0.3861521    0.3274901  29.67 0.0003927525    1.192    0.161
       124 -10.4750     50.0940     78.0541   5.8676231525e+01   5.6802929457e+01    0.2201739    0.1806444 -30.31 0.0003577135    1.231    0.188
       125 -11.3600     23.0439     76.2325   7.0481668186e+01   6.0240819415e+01     0.386333    0.3103519  35.46  0.001535904    1.369    0.270
       126 -10.3084     99.3656     75.7991   3.9088505292e+01   4.8302697732e+01    0.3357225    0.1415019 -51.24  0.001117946    2.797    0.643
       127 -10.7516     73.5536     75.8204   4.8305015049e+01   5.3541172433e+01    0.3443857    0.2437149  11.05  0.000439769    1.817    0.450
       128  -9.5764     44.4870     74.4774   6.0146671659e+01   5.8401489446e+01    0.1393732    0.1348029 -44.26 6.974499e-05    1.058    0.055
       129 -12.2409    248.1644     72.6482   1.0051016539e+01   1.4915793994e+01    0.3528239    0.2176492  57.72   0.00204687    1.910    0.476
       130  -9.3833     61.6236     73.2147   5.2291354684e+01   5.6196700350e+01     0.203753    0.1314774 -42.11 0.0004351747    1.539    0.350
       131 -11.3691    102.9160     69.7201   3.5926108190e+01   4.8731389719e+01    0.3678865     0.240598 -44.43 0.0008576132    1.588    0.370
       132 -13.7627     16.4476     67.3780   7.1703254806e+01   6.2910105558e+01     0.449432     0.364838 -69.41 0.0008192172    1.198    0.165
       133 -11.4991      4.2982     61.3965   7.6637323821e+01   6.5066327205e+01    0.7249001    0.3443487 -11.36  0.003345835    2.520    0.603
       134  -9.9706     45.0938     70.8135   5.8809513509e+01   5.9187448269e+01    0.1964031    0.1877294  73.87 0.0003164158    1.187    0.158
       135 -11.1575     92.7074     67.9259   3.8648569712e+01   5.1365124315e+01    0.3243996    0.2828076 -48.16 0.0005491975    1.202    0.168
       136  -9.3552     78.3019     69.3115   4.4317511145e+01   5.4058871527e+01    0.1524628    0.1175826  -4.18 0.0003840897    1.608    0.378
       137 -11.6045     50.3370     68.1452   5.5601691070e+01   5.9083999810e+01    0.3074799    0.2347743 -37.31 0.0004820303    1.274    0.215
       138 -11.0428      6.4126     67.8146   7.6782721246e+01   6.3418531034e+01    0.2251225    0.1942434 -47.31 0.0002799019    1.047    0.045
       139 -10.3232    110.6220     65.1789   3.2043834317e+01   4.7799409926e+01    0.3312073    0.2418253  81.37  0.001169262    1.841    0.457
       140 -12.6763     30.1450     63.3094   6.3789100264e+01   6.2689363033e+01    0.4267052    0.3907779  54.22 0.0007376363    1.274    0.215
       141 -10.6475     81.8127     65.0753   4.1520252914e+01   5.4237842848e+01    0.2587215    0.2159378  40.98   0.00052462    1.171    0.146
       142 -10.5798    159.8841     64.1553   2.0102301392e+01   3.5700728249e+01     0.211779    0.2057504  76.43 0.0004388889    1.057    0.054
       143  -9.6125    155.0905     63.7089   2.0888560605e+01   3.6978023104e+01    0.2069526    0.1862686  70.04 0.0004745623    1.076    0.070
       144  -9.2852    130.7200     64.7146   2.6528250847e+01   4.2955717817e+01    0.1493523    0.1195541  21.68 0.0002290498    1.517    0.341
       145  -9.3349     45.3315     64.2825   5.6680116187e+01   6.0659794355e+01     0.145512    0.1030653 -18.35 0.0003939611    1.611    0.379
       146 -11.4262    209.8226     62.8784   1.2109487978e+01   2.4023586187e+01    0.2181946    0.1971963 -61.82 0.0003003679    1.028    0.027
       147 -10.1334    123.0330     62.5563   2.7743972207e+01   4.5249278715e+01    0.2846488    0.2116407 -19.62 0.0007538773    1.618    0.382
       148 -10.3082    246.6574     61.6756   7.8607535292e+00   1.6668987167e+01    0.1146419    0.0940696  10.60 0.0007050828    1.733    0.423
       149 -10.7179     90.5427     61.0678   3.6953853899e+01   5.3182342416e+01    0.2906087    0.2055923  60.98 0.0008498906    1.622    0.384
       150 -11.4805     46.7382     60.1008   5.4626889909e+01   6.1399932195e+01    0.3849538    0.2737994 -16.22 0.0008537045    1.612    0.380
       151  -9.6342    189.1899     60.1364   1.4160520315e+01   2.9144726585e+01     0.185231    0.1481546 -68.49 0.0003177893    1.237    0.191
       152 -12.5522    232.3558     58.1649   8.4825448902e+00   1.9922560456e+01    0.4601717     0.238886 -61.30  0.002200261    2.164    0.538
       153 -10.9064    153.9989     58.6538   1.9573376974e+01   3.8062964242e+01     0.248681    0.2115647 -42.11 0.0003210674    1.196    0.164
       154 -10.2744     68.1619     57.7253   4.4191264064e+01   5.8390117039e+01    0.3943165    0.1743712 -35.19  0.001014438    2.696    0.629
       155 -10.2116     15.2733     58.5577   7.0213510328e+01   6.5091752114e+01    0.1980995    0.1474729  -8.48 0.0004874467    1.406    0.289
       156  -9.7243    135.0904     58.4729   2.3464434456e+01   4.2909414336e+01    0.2173819      0.14546  59.91 0.0002813207    1.440    0.306
       157 -11.5441     89.0927     54.6070   3.5050750539e+01   5.4709324272e+01    0.4409183    0.2721807 -36.81  0.001298836    1.699    0.411
       158  -9.5739    177.3039     56.4622   1.4927934912e+01   3.2557371818e+01    0.1936857     0.134553  83.18 0.0008537616    1.557    0.358
       159 -10.8043    115.9079     55.2627   2.7109724348e+01   4.8268275142e+01    0.2785915    0.2377612  85.04  0.000696708    1.297    0.229
       160 -11.9099      4.9689     43.9306   7.2269313216e+01   6.9084181830e+01    0.9397957    0.2569298 -48.71  0.003831275    2.651    0.623
       161 -10.7165     12.9490     53.1216   7.0078440485e+01   6.6515810458e+01    0.4744348    0.2026183 -31.23  0.002000834    2.603    0.616
       162 -10.8200      3.8579     53.0543   7.5138422768e+01   6.7052913851e+01    0.3254459    0.1940048  -8.58  0.001608206    1.822    0.451
       163 -10.8555      8.2995     51.6812   7.2319314709e+01   6.7138382618e+01    0.2935981    0.2323714 -88.57 0.0008816554    1.475    0.322
       164 -13.4397     12.5866     47.8615   6.8836614257e+01   6.7738700506e+01    0.6237756    0.3546039 -30.67  0.000677043    1.716    0.417
       165 -11.7990    149.8022     51.6457   1.8211783206e+01   4.0213419023e+01     0.415362    0.2678423 -55.55  0.001352266    1.698    0.411
       166  -9.9201    154.3871     52.4662   1.7609994101e+01   3.8914261664e+01    0.2295725      0.18236  73.80 9.645541e-05    1.227    0.185
       167 -11.4190    105.1432     52.5027   2.9135284672e+01   5.1362931797e+01    0.2858305    0.2550077  50.94 0.0002634499    1.062    0.058
       168 -10.3707     62.6459     50.9862   4.3939435425e+01   6.0737238104e+01    0.2690802    0.1334544 -50.99  0.001087219    2.296    0.564
       169  -9.7299    127.1887     51.1669   2.2844373647e+01   4.6095969083e+01    0.2098143    0.1723601 -65.16 0.0008668227    1.339    0.253
       170 -10.5957     83.0084     47.4881   3.4412048688e+01   5.7311987846e+01    0.3132905    0.1797636  47.25   0.00137497    1.661    0.398
       171 -10.0472     78.4919     47.4524   3.6063117429e+01   5.8285733726e+01    0.2234431    0.1699224  16.42 9.352336e-05    1.487    0.327
       172 -12.0808     44.8023     44.2018   4.9630301006e+01   6.5011766065e+01     0.574519    0.3612943 -55.04 0.0004937387    1.820    0.450
       173 -10.3261     50.2080     43.3014   4.6550349990e+01   6.4350079242e+01    0.3379555    0.2363452 -36.48  0.001767787    1.402    0.287
       174 -11.5966     53.8742     48.4871   4.6919799555e+01   6.2742551785e+01    0.5012915     0.363461  33.41  0.002629494    1.358    0.264
       175 -11.0214     57.3641     34.9144   3.9432531954e+01   6.4634384561e+01    0.4496594    0.2895127   4.94  0.001537089    2.153    0.536
       176 -10.8290    247.8589     46.6764   4.5697787046e+00   1.8373098553e+01    0.2772268    0.2304681   6.70  0.001664955    1.750    0.429
       177 -12.3215    246.2033     41.0943   3.5217406887e+00   1.9381508905e+01    0.4303607    0.2056261 -51.66  0.002271427    1.778    0.438
       178 -11.6235     55.4519     41.4242   4.3232862241e+01   6.3823956508e+01    0.8305664    0.3345898 -52.57  0.002899915    3.537    0.717
       179 -10.7140    222.1121     45.8817   6.6921825620e+00   2.3674382095e+01    0.1959132    0.1460204 -61.22 0.0002742068    1.197    0.165
       180 -10.8379    122.3221     44.0997   2.1516764446e+01   4.8417110890e+01    0.4484285    0.3668146  -5.19   0.00228332    1.475    0.322
       181  -9.9548    126.7947     43.1818   2.0159411496e+01   4.7403740389e+01      0.24348     0.190451  73.76 0.0003803651    1.280    0.219
       182 -10.4826    237.0717     44.6974   5.0487137656e+00   2.0728933505e+01    0.1690502    0.1446512 -70.57 0.0004880094    1.108    0.098
       183  -9.3583    112.4057     45.4720   2.4499879852e+01   5.0717475637e+01    0.1481427    0.1395934  46.44 0.0001109584    1.034    0.033
       184 -11.4987     75.3032     43.8696   3.5802768873e+01   5.9580143391e+01    0.3809351    0.2028419  50.61 0.0009658492    1.914    0.478
       185  -9.5065    143.8333     42.1536   1.6306769520e+01   4.3131334932e+01    0.1916887    0.1626123  43.06 0.0002544528    1.258    0.205
       186  -9.9130     90.1748     41.8873   2.9665904920e+01   5.6637155152e+01    0.2997493    0.1921759  80.05   0.00117704    2.683    0.627
       187 -11.4709    149.5157     40.7921   1.4835615766e+01   4.1842145909e+01    0.2607558    0.2298319 -87.47 0.0002558777    1.086    0.079
       188 -10.3181     97.2881     41.1321   2.7112408474e+01   5.5084527674e+01    0.3302148     0.208094  63.59  0.001044547    1.716    0.417
       189 -11.2524    234.2108     39.5428   4.1561464621e+00   2.1950750432e+01    0.2632046    0.1486026 -73.11 0.0009845442    1.928    0.481
       190 -11.3546     83.5577     37.1629   2.9925470966e+01   5.8885151036e+01    0.4653118    0.3499845  47.36  0.001491474    1.239    0.193
       191 -12.0667     27.7287     37.6742   5.6348407541e+01   6.8556949363e+01    0.2413572    0.2155466   3.30 0.0002445932    1.112    0.101
       192 -10.9742     24.4011     34.7819   5.7164666843e+01   6.9506207284e+01    0.2375731     0.189677 -20.35 0.0004481934    1.119    0.107
       193 -11.6397    248.1602     36.1442   2.3322378641e+00   1.9604589948e+01    0.2399623    0.1532931 -44.37 0.0003497005    1.252    0.201
       194 -10.8191    222.8275     37.1981   4.6110456005e+00   2.4620322343e+01    0.1562472    0.1512505  38.73 0.0004010304    1.335    0.251
       195  -9.2708    202.2865     37.3244   6.6352563733e+00   2.9186489338e+01     0.123264    0.1033558  28.54 0.0004713136    1.604    0.377
       196  -9.7306    140.8181     36.8120   1.5109043367e+01   4.4642406186e+01    0.1967191    0.1600634 -74.36   0.00035243    1.279    0.218
       197 -11.2881     65.0246     36.5537   3.6790241884e+01   6.2902495257e+01    0.2344832    0.1915889 -50.61 0.0006529118    1.453    0.312
       198 -10.1285    180.2818     47.0224   1.1872570915e+01   3.3173554504e+01    0.1909788    0.1669664 -58.31 0.0002044096    1.076    0.071
       199 -10.0128    110.4941     34.1401   2.0697015833e+01   5.2840264989e+01     0.258274    0.1869818  42.96  0.001277435    1.352    0.260
       200  -9.2781    116.6244     33.7241   1.9052375984e+01   5.1335018617e+01    0.1564383     0.102405  36.59 0.0007004627    1.696    0.410
       201 -10.0644     88.0644     32.5145   2.6419386665e+01   5.8541017111e+01    0.2646042    0.1950599  -2.53 0.0009195469    1.646    0.392
       202 -10.9827     75.7734     33.2600   3.1013986495e+01   6.1202155420e+01    0.3681486    0.1844885  55.51  0.001527833    2.123    0.529
       203  -9.9979     34.5059     33.0932   5.0419546010e+01   6.8613507063e+01    0.1937018    0.1217935 -42.83  0.001013065    1.533    0.348
       204 -10.3119      8.3705     32.1925   6.6477242127e+01   7.1437035926e+01    0.2665681    0.1894868 -70.74  0.001566535    1.631    0.387
       205 -11.3168      6.6396     28.1146   6.6179956064e+01   7.2399937535e+01    0.2857316    0.1878434 -61.59  0.001359936    1.545    0.353
       206 -10.3573     12.1873     29.3048   6.2819601287e+01   7.1754430825e+01    0.2280661     0.159131 -47.78  0.001365246    1.288    0.224
       207 -10.3346     15.6297     32.1598   6.1657852486e+01   7.0886975351e+01    0.2150958    0.1667889  -9.68 0.0003545216    1.202    0.168
       208 -10.3127     19.3751     30.8411   5.8685145170e+01   7.0808539611e+01    0.2168256    0.1736822  -3.40   0.00118711    1.162    0.140
       209 -11.7864    212.9983     27.2672   3.1434597093e+00   2.7969449241e+01    0.4424783    0.3087889  25.73  0.002321261    2.363    0.577
       210  -9.7748     49.0097     28.5046   4.0394548574e+01   6.7193480846e+01     0.197764    0.1637648 -18.86  0.001159464    1.169    0.144
       211 -12.1588    231.9311     26.6759   1.4919678599e+00   2.3960002815e+01     0.354623    0.2074893 -79.29  0.001308459    1.730    0.422
       212 -10.6792    197.9201     28.2052   4.7724124266e+00   3.1321537465e+01    0.2896191     0.163662 -87.84  0.001399888    1.874    0.466
       213 -11.9128    111.9940     27.3141   1.7677802478e+01   5.3341963967e+01    0.3198774    0.2794965  11.09  0.001108255    1.294    0.227
       214 -10.3027     80.1004     27.5516   2.6870924704e+01   6.1067533213e+01    0.2833674    0.1882991  -3.82  0.001327506    1.950    0.487
       215 -11.0349    176.6721     26.7372   6.6781443078e+00   3.6661192025e+01    0.2427956    0.2100973 -80.17 0.0002502873    1.021    0.020
       216 -10.5024    119.2809     27.2425   1.6017925962e+01   5.1474466274e+01    0.2506405    0.1722316  53.58 0.0008952113    1.327    0.246
       217 -10.4706     71.4110     25.9726   2.9283904835e+01   6.3207262750e+01     0.259911    0.2306127  87.78  0.001484523    1.455    0.313
       218 -10.6370    218.9887     25.5141   2.2296521374e+00   2.6849549403e+01    0.1872197     0.149305 -53.30 0.0003721744    1.085    0.079
       219  -9.5786     98.5050     26.4504   2.0733857213e+01   5.6842982887e+01    0.1465059    0.1278114  43.40 0.0001113296    1.067    0.062
       220 -10.2595    237.2985     25.3008   8.0569150203e-01   2.3018666752e+01    0.1038448   0.09362441  29.18 0.0002217024    1.580    0.367
       221 -10.4919     91.4595     24.8856   2.2057129671e+01   5.8758691865e+01    0.3318495    0.1729729  50.82  0.001078282    1.692    0.409
       222 -10.2185     11.0288     24.5074   6.1647391382e+01   7.2808030763e+01    0.2484644    0.1348917 -37.58 0.0007980145    1.604    0.377
       223  -9.6935    128.9943     24.5446   1.3078676405e+01   4.9261593301e+01     0.221077    0.1301352  66.41 0.0007089736    1.538    0.350
       224 -10.5102    159.5228     23.4574   7.8738948521e+00   4.1403322889e+01    0.2231937    0.1707124  64.83 0.0006256886    1.234    0.190
       225 -11.0817    156.6843     21.4082   7.6257459019e+00   4.2367118307e+01    0.3041261    0.1756981  77.01 0.0007867028    1.630    0.387
       226 -11.4885     34.1779     22.6988   4.5554098890e+01   7.0516348325e+01    0.2238771    0.1835881  -0.24 0.0002288516    1.083    0.076
       227 -10.3573     11.1990    248.5230   8.9521908105e+01   2.0946843484e+01    0.3247303   0.08083179  49.01  0.001578083    2.475    0.596
       228 -11.7254    241.9696     21.9966   3.5978618106e+02   2.2456241174e+01    0.2271655     0.153349  84.35  0.001178036    1.496    0.332
       229  -9.6620    142.0707     21.8643   9.9022077653e+00   4.6132317186e+01    0.2016402    0.1516032  51.32  0.001058458    1.332    0.249
       230  -9.7752    101.3154     22.3058   1.8256809294e+01   5.6647938801e+01    0.1491929   0.09924126  33.77 0.0007026399    1.625    0.385
       231 -10.5657     82.2022     21.3444   2.3307923924e+01   6.1393369070e+01    0.2571805    0.1655414 -41.47  0.001263969    1.779    0.438
       232 -10.7019    193.1221     20.7771   3.3287884624e+00   3.3315146533e+01    0.2129081    0.1821074 -42.21 0.0003117259    1.214    0.176
       233 -10.7508    122.2327     20.1735   1.2768694717e+01   5.1522146051e+01    0.3700615    0.1845419  43.70  0.001268535    2.132    0.531
       234  -9.5276     74.4016     21.1878   2.5879052993e+01   6.3191363319e+01    0.1697344     0.129388 -39.33 0.0002987399    1.486    0.327
       235 -11.0004     69.0347     21.2733   2.7906402717e+01   6.4356492446e+01    0.2444325    0.1902617  66.32  0.001322244    1.521    0.343
       236  -9.5489     59.0016     21.2580   3.2013778961e+01   6.6437883419e+01     0.174063    0.1077231  44.71 0.0005459477    1.496    0.331
       237  -9.9206      6.8968    249.1824   9.0371599198e+01   2.1236275397e+01    0.1708953    0.1028274  56.03 0.0005092576    1.196    0.164
       238 -10.3682     88.8793     19.6666   2.0493381649e+01   6.0013058268e+01      0.35711    0.2117157  68.00  0.001638403    1.814    0.449
       239 -11.2265     73.5779    244.2168   7.6492474913e+01   1.4719730646e+01    0.2789857    0.2247801  27.21  0.001371543    1.270    0.212
       240 -12.6831     75.6518    239.9184   7.5692498016e+01   1.5228489662e+01    0.5351877    0.4390908  88.58  0.003665469    1.394    0.282
       241 -10.2877     45.9181    244.4641   8.2346043241e+01   1.8029858490e+01    0.1830334   0.09119914  35.38  0.001027298    1.583    0.368
       242  -9.6004      4.4977    243.9925   9.0676827252e+01   2.2403002045e+01    0.1458701   0.09067339  82.66 0.0004663217    1.495    0.331
       243 -10.8325     88.6931    241.3161   7.2993581082e+01   1.3259048823e+01    0.2097443    0.1341123 -36.08  0.001153052    2.352    0.575
       244 -10.9564     64.0206     17.7175   2.8073612290e+01   6.5883563731e+01    0.2356683    0.1884896  -7.12 0.0004436758    1.298    0.229
       245 -10.2708      3.7777    238.5139   9.0651714097e+01   2.3486594459e+01    0.1895203    0.1282326  82.81 0.0007754241    1.377    0.274
       246  -9.8974    195.4970    238.0081   5.0531402116e+01  -1.0725894595e+00    0.1584862    0.1082476 -29.29  0.001026594    1.571    0.364
       247  -9.3381    165.3041     17.2959   5.2979874761e+00   4.0592948012e+01    0.1339324    0.0985766  44.23 0.0002534456    1.581    0.368
       248 -11.0985    131.9026     16.2480   9.6137748437e+00   4.9404165881e+01    0.2400528    0.2049854 -67.91 0.0002714816    1.200    0.167
       249 -10.1584    109.3189     16.6675   1.4055839836e+01   5.5243090574e+01     0.271741    0.1538205  60.54 0.0008002497    1.533    0.348
       250  -9.9307     35.5491     17.4356   4.1900930805e+01   7.1165513731e+01    0.1301682    0.1089009   3.84 -1.158391e-06    1.025    0.024
       251 -10.9491    216.9874     16.0031   1.7570735021e-01   2.8354601859e+01    0.4084623    0.1387498  65.99  0.001783255    2.817    0.645
       252 -10.1548    193.4899     16.3417   2.1500457698e+00   3.3713148992e+01    0.2470437    0.1453698  85.23 0.0009534309    1.609    0.379
       253 -10.6534     34.9875    237.7230   8.4246515208e+01   2.0511726575e+01    0.1753894    0.1224564  46.57   0.00116649    1.100    0.091
       254 -10.5012     39.5419    236.5566   8.3218922356e+01   2.0230418091e+01     0.341226    0.1066671  56.24   0.00143437    3.067    0.674
       255 -11.3051    152.2707     15.2266   6.2795766771e+00   4.4172239572e+01    0.3437057    0.1804317  84.11  0.001512441    1.935    0.483
       256  -9.6871     54.1833     14.3913   3.0495354460e+01   6.8310653501e+01    0.1834885     0.120426  56.16 0.0009435645    1.717    0.417
       257 -10.3675    160.4694    235.0569   5.6973172650e+01   4.1511726373e+00    0.1636012   0.09535754 -16.15  0.000807819    2.432    0.589
       258 -11.8236    166.8102     12.9565   3.8532538346e+00   4.0658804037e+01    0.3960142    0.1846826  76.75  0.001744488    1.983    0.496
       259  -9.9557     91.9751    235.5105   7.1720196529e+01   1.3853627278e+01    0.1956334    0.1031684  32.88 0.0006084287    1.554    0.357
       260 -10.6642     30.8193    234.1574   8.4935045413e+01   2.1643932172e+01    0.2790858    0.1326475  82.97  0.001118148    2.277    0.561
       261 -10.4992     54.9673    230.7914   7.9498242336e+01   1.9543839108e+01    0.2290249     0.132972 -43.53  0.001186209    2.656    0.624
       262 -10.7770    248.5219    229.0123   3.9943747554e+01  -6.4236125010e+00    0.1565032   0.08847982 -26.39 0.0008311081    1.582    0.368
       263 -10.5712    183.1247    234.6149   5.2392397746e+01   1.0439484028e+00    0.1806165    0.1632536  -6.87 0.0009492529    1.307    0.235
       264 -10.2111      4.0081    225.8262   9.0197438292e+01   2.5909701634e+01    0.1815299    0.1566183   8.91  0.001082104    1.613    0.380
       265 -10.2844     79.0164    223.4811   7.3453366246e+01   1.7885308407e+01     0.213048    0.1677565  -7.08  0.001143218    1.777    0.437
       266 -10.1145    101.6800     17.6930   1.6230777808e+01   5.7076846787e+01    0.3351426    0.1675093  57.82   0.00147567    1.720    0.419
       267  -9.7516     16.3167    222.2952   8.7456443143e+01   2.5467079819e+01   0.09953275   0.08964399 -35.16  0.000270896    1.605    0.377
       268 -11.3533     49.7194    218.6270   7.9777222067e+01   2.2603391619e+01    0.3589423    0.2329475  31.71   0.00133345    1.424    0.298
       269 -10.4037     38.6011    217.1353   8.2220032992e+01   2.4196601242e+01    0.2164371    0.1293732  45.05 0.0005395981    1.333    0.250
       270  -9.9942     23.8530    216.0708   8.5494334976e+01   2.5992330697e+01    0.1860936    0.1230632  58.63 0.0002899771    1.215    0.177
       271 -10.3517     29.8004    214.3992   8.4055745686e+01   2.5724049032e+01    0.1600171    0.1099284  21.45 0.0006027965    1.657    0.397
       272 -10.9819    217.4196    209.5697   4.2006143806e+01  -1.8233117289e-01     0.414341    0.1527676 -32.27  0.001886983    2.732    0.634
       273  -9.9343     19.9797    211.7638   8.6140261623e+01   2.7280088410e+01    0.2157044   0.08774174  51.23  0.001069574    1.946    0.486
       274 -11.5191      4.4881    205.0404   8.9332204130e+01   3.0135273270e+01    0.2786884    0.2288915 -10.58  0.001879362    1.793    0.442
       275 -12.0128      5.1331    210.7597   8.9412982404e+01   2.8872168867e+01    0.3103852    0.1990024  81.35  0.001778525    1.373    0.271
       276 -12.2202     11.1554    209.1729   8.8006493071e+01   2.8665724991e+01    0.3127998    0.2067207  51.84  0.001471273    1.196    0.164
       277  -9.5098     71.6209    208.7347   7.3732251699e+01   2.1878518001e+01     0.125217     0.100163  -1.53 0.0006986317    1.680    0.405
       278  -9.6352    148.3290    206.3361   5.5331745839e+01   1.0697392156e+01     0.139386    0.0976436   0.29  0.000705199    1.728    0.421
       279 -10.9120     18.9943    204.8127   8.6000346542e+01   2.8858269653e+01    0.3043827    0.1443098 -64.66  0.001568638    2.264    0.558
       280 -11.8016     21.3041    199.1614   8.5139442874e+01   2.9866345266e+01    0.3701086    0.2714314  -5.87  0.001311748    2.058    0.514
       281 -10.2971    174.8532    201.9494   4.8910684005e+01   7.2246743006e+00    0.2047803    0.1556145   6.19 0.0005211314    1.266    0.210
       282 -10.3218    238.3719    200.7646   3.6917470774e+01  -1.7732780049e+00    0.1978663   0.09358995 -32.86 0.0004495297    1.926    0.481
       283  -9.4617    120.4208    200.4498   6.0871498788e+01   1.6300228204e+01    0.1380105    0.1208589  31.18 0.0002503869    1.025    0.025
       284 -10.0412    134.8329    196.3345   5.6829908779e+01   1.4751273909e+01    0.2030482    0.1894714 -71.56 0.0004598528    1.294    0.227
       285 -10.0244     51.2078    197.3825   7.7669795262e+01   2.6973763389e+01    0.2477812    0.1411489  41.53  0.001277949    1.482    0.325
