#   1 NUMBER                 Running object number                                     
#   2 MAG_AUTO               Kron-like elliptical aperture magnitude                    [mag]
#   3 X_IMAGE                Object position along x                                    [pixel]
#   4 Y_IMAGE                Object position along y                                    [pixel]
#   5 X_WORLD                Barycenter position along world x axis                     [deg]
#   6 Y_WORLD                Barycenter position along world y axis                     [deg]
#   7 A_WORLD                Profile RMS along major axis (world units)                 [deg]
#   8 B_WORLD                Profile RMS along minor axis (world units)                 [deg]
#   9 THETA_WORLD            Position angle (CCW/world-x)                               [deg]
#  10 FWHM_WORLD             FWHM assuming a gaussian core                              [deg]
#  11 ELONGATION             A_IMAGE/B_IMAGE                                           
#  12 ELLIPTICITY            1 - B_IMAGE/A_IMAGE                                       
         1 -11.8609     72.7642     47.6808   4.5490988112e+01   5.9109104505e+01     1.091294    0.6486189 -70.52  0.001092886    4.308    0.768
         2 -12.3477    119.7060     38.8386   2.7100407746e+01   5.0175583618e+01    0.9357411    0.4636823 -45.27  0.002882367    2.248    0.555
         3 -11.1433     61.4003     35.9720   4.5307204074e+01   6.3315313398e+01    0.6970109    0.3745317 -18.89  0.002699699    2.957    0.662
         4 -11.6304     57.4181     30.8256   4.4754694964e+01   6.4906293271e+01    0.8060068    0.4031489 -30.73  0.003144602    2.159    0.537
         5 -12.0826    104.8285     13.4133   2.0493673606e+01   5.7106074382e+01    0.4997731    0.3980871 -13.99  0.001520001    1.361    0.265
         6 -12.4950    113.9205     25.4967   2.3336008953e+01   5.3438797828e+01       1.0072    0.4155246  44.98  0.003791475    2.441    0.590
         7 -10.9515    182.9754     25.4695   1.1483456758e+01   3.5695395911e+01    0.3885576    0.3609094 -29.27  0.001794765    1.177    0.150
         8 -10.2226     29.4123      2.0164   4.3844907632e+01   7.3823734823e+01    0.2169193    0.1909417 -18.33  0.000400263    1.229    0.186
         9 -10.1570     12.8116      2.1476   5.5330957638e+01   7.5847442770e+01    0.2737162    0.1942142   4.99  0.001172952    1.326    0.246
        10 -11.8498     26.4127     28.5667   5.9774669520e+01   6.9672281623e+01    0.5545914      0.41714 -22.94  0.003391923    1.218    0.179
        11 -11.8144     20.2919     21.7744   6.0492747581e+01   7.1611593299e+01    0.7083468    0.3793194 -34.81  0.001966614    1.709    0.415
        12 -11.3454      2.2408      3.3889   6.4339596550e+01   7.6536138308e+01       0.5893    0.2083705 -44.30  0.002916838    2.188    0.543
        13 -12.0030     36.5541     18.5082   4.9187172827e+01   7.0259288642e+01    0.7930862    0.4119982 -41.92  0.004001441    1.847    0.458
        14 -12.1617     48.3818     12.8857   3.9925673313e+01   6.9289176851e+01    0.6680793    0.3257913  47.30  0.003138967    2.207    0.547
        15 -10.9613      6.3281     10.8230   6.4913190201e+01   7.4876749329e+01    0.6285962    0.4567576 -47.76   0.00416603    1.256    0.204
        16 -10.6231     12.7806      8.5540   5.9032733293e+01   7.4757416927e+01    0.3799995    0.2309032 -53.24  0.001016572    1.749    0.428
        17 -10.2463     22.3027      3.2001   4.9201924014e+01   7.4605858604e+01    0.2573408     0.190519 -26.95 0.0007200102    1.202    0.168
        18 -12.3815     15.5382     14.7948   6.0309238485e+01   7.3374745227e+01     1.070419    0.4862239 -23.93  0.004710637    2.868    0.651
        19 -12.2175     22.6669     10.9307   5.3521966954e+01   7.3315069532e+01    0.6679844    0.4621031 -16.54  0.004072265    1.356    0.262
        20 -10.4956    201.1139     25.0653   9.3454760309e+00   3.1287289409e+01    0.3962363    0.3060943  24.24  0.002099408    1.740    0.425
        21 -10.2547    154.3132     24.0351   1.4971698262e+01   4.3215015346e+01    0.5813539    0.4340959  45.55  0.003013749    1.403    0.287
        22 -10.9056    136.5117     22.1138   1.7308246751e+01   4.8074613742e+01    0.6194094    0.4241045  70.41  0.003062715    1.403    0.287
        23 -11.1237    127.5328     16.5999   1.6940274739e+01   5.1017112859e+01    0.6513756    0.3951072 -19.15  0.002324168    1.865    0.464
        24 -11.1605    135.1671     15.0503   1.4981973887e+01   4.9202114830e+01    0.6973467    0.3306281  60.13  0.002738103    1.857    0.461
        25 -11.0667     67.6189     18.8105   3.4606566971e+01   6.4872693147e+01    0.4924929    0.4077885 -76.91  0.002354426    1.809    0.447
        26 -12.2909    164.7161     18.1897   1.1594700838e+01   4.1171131261e+01    0.5696138    0.3071059  41.42  0.002458991    2.247    0.555
        27 -10.1775    147.4229     16.6972   1.3570021975e+01   4.5830323000e+01    0.6240852    0.2461835  39.63  0.002065751    3.671    0.728
        28 -11.7045    239.6740     16.3152   3.9321361563e+00   2.3576136445e+01    0.4865352    0.2342045  63.87  0.002518442    2.221    0.550
        29 -11.5361    228.6951     15.9441   4.6296543673e+00   2.5967934991e+01    0.3692228    0.2409727  69.78 0.0003609931    1.593    0.372
        30 -10.7855    225.6982     13.6919   4.3163497729e+00   2.6867678247e+01    0.2599524    0.2122681 -23.34 0.0007201423    1.372    0.271
        31  -9.6706    206.3445     15.8922   6.4286403031e+00   3.1062074481e+01     0.300832    0.1143535 -27.98  0.001249596    2.552    0.608
        32 -10.9693     85.8981     14.1841   2.5966333947e+01   6.1528471449e+01    0.4048679    0.2920722  -6.92  0.001456979    1.522    0.343
        33 -11.1914    192.5616      7.7854   5.4969625392e+00   3.5215091473e+01    0.6015964    0.3440921  -1.66  0.001926608    2.746    0.636
        34 -10.1176    218.8494     12.7504   4.6040728576e+00   2.8500752232e+01    0.2714455    0.2139954 -32.30  0.001677715    1.290    0.225
        35 -11.3256    206.4621      2.7991   3.0494712104e+00   3.2363343580e+01    0.7961371    0.2843333  74.65  0.003363236    2.627    0.619
        36 -11.4043    223.7216      2.6038   1.8155447469e+00   2.8434576609e+01    0.5091784    0.2662759 -84.31 0.0005123738    1.918    0.479
        37 -11.6215    212.0856      9.4471   4.3065161933e+00   3.0392881538e+01    0.5865321    0.3743877  -3.50  0.002534888    2.292    0.564
        38 -10.6988    218.5910      3.6477   2.4032862497e+00   2.9482872778e+01    0.3096783    0.2605458  57.54 0.0008525814    1.399    0.285
        39 -13.1677    105.3821     20.4419   2.3360685845e+01   5.6171182569e+01    0.3676435    0.3333816  83.37 0.0005021617    1.198    0.165
        40 -10.1440    188.2571      2.5171   4.4250791954e+00   3.6778034349e+01    0.4265985    0.2092956 -55.08  0.001979705    1.995    0.499
        41 -10.3726    168.7015      9.7117   8.4695015516e+00   4.1020030034e+01    0.5698674    0.1670284  59.80  0.002068949    2.893    0.654
        42  -8.9228    163.6688      9.6767   9.0480650103e+00   4.2319474319e+01    0.1815109    0.1452926   9.63 0.0007648074    1.563    0.360
        43 -10.0198    163.4754      6.4825   8.0661829009e+00   4.2675522912e+01    0.5116467    0.2636606  17.49  0.001907693    3.652    0.726
        44  -9.7460    145.1898      9.9353   1.1574498932e+01   4.7101937330e+01    0.2363538    0.1797129  26.45 0.0007318078    1.553    0.356
        45 -11.3663    247.2198      6.3685   1.2541143608e+00   2.3057515752e+01    0.3596022    0.2940859  10.60  0.002295763    1.780    0.438
        46 -11.1000    243.0791      4.4994   1.0809486615e+00   2.4094705296e+01    0.4229249    0.1911376  80.44  0.002070253    2.260    0.557
        47 -10.2196    245.8998      1.3986   2.4958818073e-01   2.3823043398e+01    0.1907585    0.1407675  82.19 0.0003565012    1.391    0.281
        48 -10.6911    232.3944      7.1866   2.3304887062e+00   2.6079522423e+01      0.30142    0.1822042 -56.47  0.001145782    1.416    0.294
        49 -11.6444    233.4176      2.5230   1.1996613943e+00   2.6325485246e+01    0.5167727    0.2254709 -59.66 0.0001585795    2.128    0.530
        50 -10.6361    185.1866      7.2958   6.0399758733e+00   3.7084141209e+01     0.261776    0.2163887  62.55 0.0008846166    1.250    0.200
        51 -10.0947    183.4877      4.5420   5.4187781896e+00   3.7771614474e+01    0.2154427    0.1672193  23.29  0.001104086    1.685    0.407
        52  -9.4248     78.0074      7.6324   2.5204640615e+01   6.4040607833e+01    0.2193277    0.2024729  85.63  0.000630771    1.309    0.236
        53 -10.2833     74.3173      3.1449   2.4060367616e+01   6.5321550674e+01    0.6783282    0.2850235  48.51  0.002990197    2.042    0.510
        54 -10.0627    153.8823      6.8087   9.3330480141e+00   4.5131882942e+01     0.536999    0.1617519  68.21  0.001916643    2.831    0.647
        55  -9.1513    157.3058      3.6832   7.8916668082e+00   4.4528250912e+01    0.2206316    0.1656763  88.27 0.0009642115    1.243    0.195
        56 -10.1097    152.9770      1.5363   7.7023615216e+00   4.5840368081e+01     0.275158    0.1449224  76.64 0.0006208287    1.753    0.429
        57 -10.3251    122.3394      5.2151   1.3489223658e+01   5.3482426554e+01    0.2344547    0.2242392  40.91  0.001332165    1.091    0.083
        58 -10.0652     62.6047      6.6469   3.0152935209e+01   6.7428919316e+01    0.2821177    0.1899921  25.16  0.001529394    1.472    0.321
        59 -10.2765    177.2729      5.8953   6.4073764399e+00   3.9204522924e+01    0.2936389    0.1915462 -86.84 0.0004873541    1.484    0.326
        60 -10.0207    141.5735      3.5244   9.8477468406e+00   4.8637733427e+01    0.3108658    0.2265089  85.86  0.001313448    1.320    0.243
        61 -11.5748    133.6628      2.5980   1.0652246124e+01   5.0778951675e+01    0.4713081    0.3144476  71.73  0.002438188    1.354    0.261
        62  -8.9473    128.6897      1.2914   1.0921275297e+01   5.2180812696e+01    0.2067401     0.108078  62.43 0.0006761632    1.648    0.393
        63 -10.5912    113.7164      2.9106   1.4136946363e+01   5.5891098746e+01    0.3495704     0.297916 -63.85  0.001760807    1.302    0.232
        64 -10.3565     41.4357      3.8892   3.8174089924e+01   7.1695717856e+01    0.3008654     0.198551  -0.68  0.001074824    1.630    0.387
        65 -10.7921    105.5843      2.0467   1.5386487311e+01   5.8014271719e+01    0.4516885    0.2695491  81.98  0.002114289    1.921    0.479
        66  -9.3299     81.4714      1.2189   2.0883461414e+01   6.3891026160e+01    0.2329966   0.09942567  60.17 0.0006611876    2.146    0.534
        67  -9.0293     33.5597      1.5196   4.1032859608e+01   7.3274465892e+01    0.1245839    0.1018404   1.77 0.0003774897    1.020    0.020
        68  -9.4630     82.8480    124.8211   6.3988713119e+01   3.9908378854e+01    0.4263524     0.244707  -8.85  0.001118564    6.355    0.843
        69 -10.2855     50.9629    250.0147   8.5960029267e+01   1.7649646206e+01    0.1489177    0.1308125   2.55  0.001138773    1.697    0.411
        70 -11.9428    104.3169    122.2270   5.7035672336e+01   3.6777503587e+01     0.374569    0.3294052  68.58 0.0005134156    1.195    0.163
        71  -9.7383     19.0401    123.8678   8.4008276216e+01   4.7837701411e+01    0.1908848    0.1622452 -87.72 0.0004592304    1.011    0.011
        72  -9.9340     49.9048    122.9515   7.4024642336e+01   4.5015661726e+01    0.2897025    0.1948858  -4.38  0.001356447    2.219    0.549
        73  -9.7153     56.1306    121.9257   7.1850461117e+01   4.4502156538e+01    0.2175396    0.1772622  71.04 0.0005571755    1.252    0.201
        74  -9.9252     44.6191    119.8435   7.5249304200e+01   4.6404055934e+01    0.3104964    0.2021163  83.32 0.0008026198    1.716    0.417
        75 -10.0196     43.5128    116.4940   7.5086290275e+01   4.7365680634e+01     0.339642    0.2149604  27.37  0.001708324    1.720    0.418
        76 -10.2433     37.4688    116.7638   7.7139847502e+01   4.7941592833e+01    0.2529639    0.2337786 -39.53 0.0005344895    1.205    0.170
        77 -10.7366     42.8804     93.2843   7.1108365063e+01   5.3231404221e+01    0.5446268    0.4007676 -82.74  0.002885967    1.433    0.302
        78 -10.2067     35.5106     92.7116   7.3792938091e+01   5.4150654931e+01    0.3210106    0.2680695 -65.94  0.001254233    1.077    0.072
        79 -11.7688     42.6471     84.9167   6.9396553167e+01   5.5314671026e+01     0.928896    0.4835419  12.71  0.003604227    2.646    0.622
        80 -10.9279     15.4259    110.0818   8.3669617209e+01   5.1521022915e+01    0.8021022    0.2304766 -55.69  0.001450554    2.943    0.660
        81 -10.8090     26.8784     86.2410   7.5938124690e+01   5.6549800167e+01    0.5813734    0.5234839  28.28   0.00284337    1.245    0.197
        82 -12.3202     17.4603    100.6885   8.1792604628e+01   5.3707120757e+01    0.3084254    0.2757465 -54.53 0.0004477882    1.140    0.123
        83 -11.7872     21.1544     93.0221   7.9317894243e+01   5.5336023348e+01    0.8903458    0.4705913  71.77  0.001521236    2.505    0.601
        84 -10.3591      7.8347    114.8925   8.6689986819e+01   5.0843674760e+01    0.4018446    0.2123499 -56.69  0.001193209    1.758    0.431
        85 -10.6713     34.6613    103.2803   7.5990458681e+01   5.1599715908e+01    0.7118205    0.3410544   8.39  0.002717883    3.232    0.691
        86 -11.5597     25.2814    107.5517   7.9960361106e+01   5.1384681893e+01    0.7397066    0.3702064 -46.25   0.00343511    2.095    0.523
        87 -10.9570      4.6266    105.1484   8.6819352405e+01   5.3426035659e+01    0.3981372    0.3424747  19.81  0.002657798    1.384    0.277
        88 -11.5357     21.5546    114.5422   8.2140157216e+01   4.9948292231e+01    0.5005524    0.2754326   1.43  0.001855516    2.654    0.623
        89 -11.1287     28.1893    113.0320   7.9719545433e+01   4.9763141125e+01    0.3510112     0.289927  17.82 0.0007979346    1.408    0.290
        90  -9.5960     79.5481    114.6618   6.2895807456e+01   4.2908299558e+01    0.2799518    0.2000493 -42.11  0.001344445    1.496    0.332
        91  -9.1327     67.8206    114.8859   6.6738128330e+01   4.4653597075e+01    0.2064058    0.1647296  68.60  0.001067288    1.354    0.261
        92  -9.4214     57.6847    114.4479   7.0003358702e+01   4.6164219005e+01     0.290286    0.1679017 -80.74  0.001014309    2.067    0.516
        93  -9.6425    104.7604    112.8582   5.4710341719e+01   3.8864894962e+01     0.291318    0.2105465  27.98  0.000956831    1.540    0.351
        94 -11.4543     80.4426    108.5222   6.1235698083e+01   4.4250574672e+01    0.6885139    0.4671701  43.09  0.000768346    1.492    0.330
        95 -10.3405     88.8812    104.8395   5.7629849593e+01   4.3684437407e+01    0.4740248    0.2099073  36.87 0.0008058007    2.318    0.569
        96  -9.9747     85.5570    103.4911   5.8370824557e+01   4.4589494057e+01    0.2642252    0.2227674 -54.83 0.0005791973    1.164    0.141
        97  -9.7589     48.9363    112.0671   7.2515792144e+01   4.7852132422e+01    0.2626436    0.1955496  31.89 0.0009920647    1.429    0.300
        98  -9.0353    134.8609    109.8325   4.5611609722e+01   3.3344480438e+01    0.2025495    0.1802134  83.99 0.0002844962    1.271    0.213
        99  -9.2010    119.9981    109.4753   4.9495539996e+01   3.6579357060e+01    0.2502561    0.2022395 -45.93 0.0009049015    1.250    0.200
       100  -9.9926    102.0592    109.1876   5.4613984126e+01   4.0230842573e+01     0.286612    0.2201771   9.08 0.0006804996    1.704    0.413
       101  -9.5245     46.0521    104.6845   7.2176490678e+01   5.0035636373e+01     0.552734    0.1328468 -52.54  0.001764546    3.572    0.720
       102  -9.1654    182.4894    104.4704   3.3495320794e+01   2.3795712333e+01    0.1460624    0.1412092 -24.55 8.281739e-05    1.010    0.009
       103 -11.9104     68.6419     96.0423   6.2282929314e+01   4.9146688990e+01    0.6739724    0.4980735  13.00 0.0008142414    1.662    0.398
       104 -11.0375     89.7612     88.4112   5.2985800943e+01   4.7341518370e+01    0.9570412    0.4615025 -37.04  0.003489746    2.524    0.604
       105 -11.3089     74.8382     78.6032   5.5340747874e+01   5.2247069902e+01     1.120157    0.7504292  76.64  0.004596844    2.543    0.607
       106 -10.0581     77.9174     96.5661   5.9187443273e+01   4.7540021238e+01    0.2571691    0.2331001  17.46 0.0006519087    1.190    0.159
       107 -11.4966     79.4370     92.6880   5.7659772016e+01   4.8202066757e+01    0.9043928    0.6652604 -74.87  0.003309703    1.622    0.384
       108 -10.8037     52.0816     99.1034   6.8913025083e+01   5.0699600294e+01    0.6226475    0.2401098 -48.89   0.00124218    2.516    0.603
       109  -8.8574    120.4553    101.4525   4.7256076287e+01   3.8240045264e+01    0.1527931     0.150278  12.07 0.0001289824    1.034    0.033
       110 -12.0604      9.4837     97.0915   8.4224453365e+01   5.5126003501e+01    0.4375513    0.4341622 -54.63  0.000444637    1.179    0.152
       111 -12.2719      2.5921    111.8434   8.8119712820e+01   5.1901466418e+01     0.514627    0.2838742 -77.99  0.001960851    1.510    0.338
       112  -9.0173     33.5399     98.4980   7.5584883847e+01   5.2903365324e+01    0.1968496    0.1471151  68.76   0.00053502    1.466    0.318
       113  -9.7892     30.6151     96.2503   7.6282231883e+01   5.3738059587e+01    0.2764215     0.158446 -72.07 0.0008516706    1.610    0.379
       114 -10.5584    120.1837     85.3091   4.2736954952e+01   4.1722968462e+01    0.4837609    0.3708726 -72.66  0.002212913    1.655    0.396
       115 -10.6302    121.8045     93.8147   4.4763878382e+01   3.9586502792e+01    0.7079197    0.2841143 -52.17  0.002185881    2.978    0.664
       116  -9.4146    115.5329     93.4826   4.6442995552e+01   4.1015657757e+01    0.3264508    0.1516498  43.69  0.001202991    2.149    0.535
       117 -11.4544     98.6848     91.0783   5.0848833234e+01   4.5019850053e+01    0.4908245    0.2745115  51.56  0.001982305    1.975    0.494
       118 -10.1899     49.7272     91.1903   6.8069592875e+01   5.2943819611e+01    0.3765804    0.3007511  67.11  0.002037905    1.423    0.297
       119  -9.2785     11.4837     90.4950   8.2632377296e+01   5.6629757111e+01    0.1974403    0.1280553 -47.66 0.0006480209    1.484    0.326
       120 -11.3864      7.0695     88.4575   8.4053429506e+01   5.7387936592e+01    0.4821598    0.3772564 -10.43  0.002432424    1.532    0.347
       121  -9.9309     66.4668     88.7434   6.1232966628e+01   5.1231761960e+01    0.3427127    0.2421801 -11.40  0.001160151    1.972    0.493
       122  -9.4088    111.9707     88.4714   4.6034726447e+01   4.2853787500e+01    0.3226652    0.1956479  60.03  0.001287448    2.047    0.511
       123 -10.4210    104.0391     87.1223   4.8031031221e+01   4.4811987589e+01    0.2773685    0.2194465 -43.13  0.001119548    1.264    0.209
       124 -10.7614    143.2341     84.5743   3.6531248453e+01   3.6552675392e+01    0.2726655    0.2578573 -42.55 0.0003358864    1.061    0.058
       125  -9.4759    133.9293     84.9549   3.8949483048e+01   3.8659987309e+01    0.2458112    0.1914129 -88.16  0.001027455    1.686    0.407
       126 -10.9878    112.8928     83.1313   4.4170064478e+01   4.3783691923e+01    0.4867229    0.3062337  55.01   0.00169946    1.722    0.419
       127 -10.0589     66.8007     81.7986   5.9244336064e+01   5.2821373245e+01    0.3676192    0.2973476  -8.27  0.001903594    1.462    0.316
       128  -8.3682     46.9015     74.7284   6.5174106234e+01   5.7264429876e+01    0.5842606    0.2336145 -61.06  0.002259855    2.458    0.593
       129 -11.2385     53.2920     75.3665   6.2728698464e+01   5.6290422165e+01    0.6454684    0.3495069 -59.78  0.002882611    1.812    0.448
       130 -11.1186     58.1135     77.6460   6.1432738091e+01   5.5088170480e+01    0.5203761    0.3249297 -72.60 0.0004825192    2.016    0.504
       131 -10.4756    125.9188     94.7990   4.3913924526e+01   3.8473253303e+01    0.3084083       0.2677 -42.40  0.000314627    1.160    0.138
       132 -10.4953    102.9075     79.5808   4.6102593236e+01   4.6666984572e+01    0.4007378    0.2186114 -43.68 0.0006056677    1.833    0.454
       133  -9.8218    103.3182     74.8997   4.4496475465e+01   4.7558981466e+01    0.3607898    0.2414266  59.29  0.001579245    1.741    0.426
       134 -10.3410     88.6122     72.8671   4.8659539236e+01   5.0990935227e+01    0.7344932    0.3990326 -67.02  0.002020539    3.513    0.715
       135 -10.1081     93.0334     72.9480   4.7188062257e+01   5.0097718614e+01    0.3377931     0.272671 -76.15 0.0007792624    1.555    0.357
       136 -10.7893     88.1688     77.3882   5.0244311801e+01   5.0100797933e+01    0.6984437    0.3692883  48.29  0.002833655    2.030    0.507
       137 -10.0493     94.2001     76.5799   4.7961952615e+01   4.9092291924e+01    0.5346409    0.2968951  40.44  0.002182488    1.829    0.453
       138  -9.2840      1.4879     80.1252   8.5184962769e+01   5.9697362239e+01    0.1901029    0.1032445 -72.90 0.0008185927    1.516    0.340
       139 -11.2679     14.1241     74.7072   7.9105718211e+01   6.0324680676e+01    0.4409235    0.3157349 -85.99  0.002405923    1.403    0.287
       140  -9.7044     14.4720     67.3153   7.7565843328e+01   6.2079916539e+01    0.4217915    0.2273322  -0.50  0.002071453    2.364    0.577
       141  -9.1128    134.7049     77.5387   3.6514112969e+01   3.9915260885e+01     0.210473    0.1503846  63.65 0.0009372075    1.543    0.352
       142  -8.9202    181.8057     76.3340   2.6169662948e+01   2.8781145575e+01    0.2008036    0.1305705  47.65 0.0003263688    1.605    0.377
       143  -8.7128    158.6074     76.4478   3.0682833298e+01   3.4352437294e+01    0.1489853    0.1452897 -51.71 0.0001689608    1.019    0.018
       144  -9.2917    112.4582     75.3631   4.1878774202e+01   4.5473418597e+01    0.2661265    0.1448267  47.80   0.00106636    1.829    0.453
       145  -9.5283     66.4003     74.6907   5.7345809733e+01   5.4525311431e+01     0.292242    0.1627665  47.80  0.001111302    2.060    0.515
       146 -10.0517     24.8855     74.4685   7.4440092566e+01   5.9592014539e+01    0.2995369    0.1840863 -60.32 0.0005864548    1.396    0.284
       147 -10.5124     81.2391     72.5011   5.1132223974e+01   5.2468384584e+01    0.6491112    0.2366048 -40.14   0.00195667    3.088    0.676
       148  -9.6534     78.1403     67.9069   5.0764202934e+01   5.4026804236e+01    0.4293588    0.3574444  74.39  0.002208038    1.515    0.340
       149 -10.8014      2.1013     71.5062   8.3754911042e+01   6.1747953638e+01    0.3469203    0.1819191 -67.55  0.001416353    1.534    0.348
       150 -12.4595      6.6431     61.6215   8.0073193300e+01   6.3885810928e+01    0.7830565    0.4653879 -33.77  0.003208186    1.702    0.412
       151  -9.9100    186.6965     72.3520   2.4234138206e+01   2.8262223950e+01    0.3314071    0.2713498 -32.96  0.001750621    1.198    0.165
       152  -9.9069    153.4431     72.8146   3.0703917645e+01   3.6249466022e+01    0.4017036    0.1849757  41.13  0.001419509    2.569    0.611
       153 -11.6499     40.6196     69.8177   6.6524824772e+01   5.9164253589e+01    0.4639256    0.3260578 -66.17  0.001534162    1.419    0.295
       154 -11.2549     35.3553     71.7630   6.9302277832e+01   5.9271617826e+01     0.551811    0.2955413  20.44  0.002592368    2.132    0.531
       155 -11.1084    122.7530     68.9593   3.6906873918e+01   4.4363227648e+01    0.5399396    0.3116443  45.22  0.001723689    1.724    0.420
       156  -8.8989    221.3269     67.2909   1.7861547705e+01   2.1147743579e+01    0.1308514    0.1038267  19.06 0.0002397603    1.618    0.382
       157  -9.2547    217.7438     66.3842   1.8095000359e+01   2.2055388480e+01    0.1802002    0.1241711  50.55  0.000405325    1.607    0.378
       158  -9.6821     91.6785     57.3658   4.2282452933e+01   5.3515038418e+01    0.3007254    0.2200965  59.96   0.00105806    1.582    0.368
       159 -10.7104     88.3713     55.5739   4.2756069257e+01   5.4543595481e+01    0.7485387    0.2728874 -36.76  0.002515495    3.016    0.668
       160 -10.4104     96.3635     65.1672   4.3486055487e+01   5.1007624779e+01    0.2780268     0.257566  -0.44  0.001501373    1.112    0.100
       161 -11.0414     92.2934     62.6949   4.3979275803e+01   5.2348079797e+01    0.5446008    0.3331996  53.23  0.001745945    1.795    0.443
       162  -9.3417     51.9732     65.7116   6.0469048665e+01   5.8695886700e+01    0.1921055    0.1725305  19.55 0.0005141854    1.171    0.146
       163 -10.4681    201.4283     64.8286   1.9920064917e+01   2.5957676800e+01    0.2906034    0.2150344  70.78 0.0005394453    1.451    0.311
       164  -8.7850    192.5143     65.5219   2.1435289412e+01   2.7941851048e+01    0.1437172    0.1342672 -57.07 0.0008100436    1.018    0.018
       165 -10.1807    158.3884     63.1313   2.6741178477e+01   3.6664997662e+01    0.4807248    0.2301676  43.94   0.00155668    2.321    0.569
       166 -10.0015    106.8411     62.8487   3.9389513145e+01   4.9178441325e+01    0.5434105     0.327937  22.00   0.00204064    2.615    0.618
       167 -10.5160    105.9114     58.0016   3.7965237905e+01   5.0292395196e+01    0.6804016    0.3408649  66.95  0.002126615    3.795    0.736
       168 -12.4681     76.4131     53.2494   4.6229306240e+01   5.7353136557e+01    0.7989869    0.4657904 -41.02  0.000939527    1.690    0.408
       169  -9.0909    113.3017    249.3665   7.3891825733e+01   9.9294500341e+00     0.108894   0.08294302   3.64 0.0007034344    1.736    0.424
       170  -9.5153     57.7889     61.6669   5.6719420896e+01   5.8764151966e+01    0.3375312    0.2297227 -66.28  0.001266436    1.776    0.437
       171 -10.3711     63.5547     60.7494   5.4019019115e+01   5.8066228054e+01     0.522158    0.3570537 -13.91  0.002423765    1.935    0.483
       172 -10.5870     51.4624     61.4932   5.9366338371e+01   5.9712365278e+01    0.3540401    0.2456947  40.96  0.001243092    1.576    0.365
       173 -11.1424     40.2484     56.8821   6.2935995059e+01   6.2173891031e+01     0.319624    0.2167628  28.95 0.0008984477    1.577    0.366
       174 -11.2674     43.0981     61.6723   6.3114346768e+01   6.0755602693e+01    0.4801054    0.2360806 -49.89  0.002170216    1.809    0.447
       175 -10.6144     46.4891     59.4796   6.0913631648e+01   6.0824025018e+01    0.2730529    0.2309352 -78.48 0.0008197289    1.402    0.287
       176  -9.9908    234.2032     62.3837   1.5146612795e+01   1.9106840771e+01    0.1716511    0.1227881  86.24 0.0009469948    1.652    0.395
       177  -9.5606    113.9826     61.2860   3.6756199843e+01   4.7838755308e+01    0.3373774    0.2078559 -47.15  0.001438513    1.720    0.419
       178 -10.4987    124.6603     56.5031   3.2215252171e+01   4.6144863723e+01    0.3360543    0.3191977   8.35  0.001379584    1.097    0.089
       179 -11.3645    117.9163     56.0018   3.3819125872e+01   4.7856139035e+01     1.345725    0.5658422 -51.58  0.004300695    3.399    0.706
       180 -10.7051    112.4960     50.5215   3.3342724721e+01   5.0083753100e+01    0.3814309    0.3054707 -14.30  0.001116518    1.404    0.288
       181 -11.6032    112.3084     42.6470   3.0455455761e+01   5.1408389475e+01     0.548975    0.4198487  60.78 0.0001905067    1.324    0.245
       182 -10.5118    110.3596     38.8201   2.9513392052e+01   5.2465691166e+01    0.3519142    0.2682223   5.23  0.001137808    1.597    0.374
       183 -11.4231    117.9257     44.4482   2.9642656430e+01   4.9763575976e+01    0.6308734    0.3432115 -43.41  0.002641812    1.950    0.487
       184  -9.0350    213.4616    248.5193   5.5213329644e+01  -3.4349787210e+00    0.1114084   0.08033232  15.03 -5.41139e-06    1.005    0.005
       185 -11.0470     31.7923     52.9456   6.5740202834e+01   6.3984353750e+01     1.236334     0.508924   9.87  0.004259381    4.369    0.771
       186  -9.1784     29.5179     60.4917   6.9013638222e+01   6.2492592783e+01     0.322263    0.2332076 -67.42  0.001406007    1.370    0.270
       187 -10.0774     25.5302     59.5040   7.0633777988e+01   6.3083688543e+01    0.2688697    0.2370114 -30.65  0.001381562    1.102    0.093
       188 -10.6613     25.2236     55.9749   6.9834661186e+01   6.3923108661e+01    0.5577739    0.2720102 -22.79  0.002311128    2.935    0.659
       189  -8.8941    135.5876     59.2260   3.0446668383e+01   4.2999015515e+01    0.2147762    0.1488383 -19.62 0.0009462712    1.721    0.419
       190 -10.4652    157.2469     54.0355   2.4150684938e+01   3.8393554137e+01     0.593693    0.3979961 -68.85  0.002604876    1.898    0.473
       191  -9.8345    154.3595     51.7280   2.3978481313e+01   3.9478750640e+01    0.3542426    0.2235018 -23.18  0.001089567    1.807    0.447
       192  -8.9420    238.0031     55.9879   1.3236136370e+01   1.9174957640e+01    0.1584928    0.1269477 -40.58 0.0003422394    1.082    0.076
       193  -9.8534    139.8249     54.2810   2.7832484053e+01   4.2758049034e+01    0.3075868    0.2322407  73.23 0.0007672719    1.438    0.305
       194  -7.8778     50.9757     56.6971   5.7998751802e+01   6.0833343276e+01    0.4680543    0.3771174  39.17  0.002632679    1.353    0.261
       195 -11.1145     60.8433     48.0529   5.0533949407e+01   6.1131786232e+01     0.864476    0.3871955 -39.37  0.003531668    2.238    0.553
       196  -9.6438     55.5466     50.5386   5.3785675526e+01   6.1469052344e+01     0.204992    0.1674194  -8.35  0.000102565    1.283    0.221
       197  -9.0066    201.3191     53.3400   1.6888505321e+01   2.7631274276e+01    0.1403118     0.107849  22.41 0.0006109148    1.713    0.416
       198 -10.0262     52.0136     48.0062   5.4422749911e+01   6.2519016186e+01    0.3733202    0.2510564  22.80 0.0009568844    1.604    0.377
       199 -10.3673     46.7926     48.6136   5.7061525422e+01   6.3133568382e+01    0.3420311    0.2714182   8.72  0.001147471    1.331    0.249
       200 -11.9992     43.1220     44.1799   5.7164526106e+01   6.4545351225e+01    0.6132984     0.589202  11.92  0.001069922    1.154    0.134
       201 -10.5488    145.4520     49.6112   2.5075355390e+01   4.2066895670e+01     0.523988     0.282007 -16.72  0.001692416    2.685    0.628
       202  -8.9010     97.2038     51.1026   3.8137157790e+01   5.3486367421e+01    0.3301252    0.1196758 -32.41  0.001043438    3.369    0.703
       203  -9.7861    240.0597     50.9341   1.1853831860e+01   1.9407216091e+01    0.1944147    0.1720753 -42.88 0.0005902324    1.068    0.064
       204  -9.7933     11.3070     49.2947   7.5094664023e+01   6.6486107448e+01    0.3993544     0.124415 -52.37  0.001701685    2.367    0.578
       205  -9.4308     13.3379     46.3459   7.3259161957e+01   6.7022954765e+01    0.2024809     0.113611 -38.08  0.001070419    1.637    0.389
       206 -10.4104    132.5681     50.0438   2.8049142630e+01   4.5255085341e+01    0.3074629    0.2112595  49.61  0.001014402    1.412    0.292
       207 -10.3929     82.6607     47.1228   4.1543477348e+01   5.7284374004e+01    0.4082092    0.2577114 -24.46  0.001761701    1.837    0.456
       208  -8.7990    189.1998     49.3959   1.7480184086e+01   3.1085221048e+01    0.1811171    0.1331393  83.69 0.0002934193    1.457    0.314
       209  -9.2219    174.6647     49.3186   1.9654713290e+01   3.4694531897e+01    0.1559864    0.1060258 -66.82 0.0007048956    1.700    0.412
       210 -10.9630     20.3116     46.5707   6.9629231816e+01   6.6458296209e+01    0.4854515    0.2482322 -47.65  0.002460856    1.642    0.391
       211 -10.6895     27.2945     47.6234   6.6323924050e+01   6.5608804866e+01    0.6007383    0.2935638 -23.22  0.001924116    2.934    0.659
       212 -10.2807     26.3383     42.8433   6.5250352947e+01   6.6740076553e+01    0.2822388    0.2692704 -85.90  0.001048333    1.271    0.213
       213 -10.2092     23.0403     37.3517   6.5132072437e+01   6.8218919376e+01    0.4606986    0.1883076  38.26  0.002006286    2.949    0.661
       214  -9.6576      2.0386     48.8843   7.9826659632e+01   6.7064785149e+01    0.2784468    0.1784925 -72.77  0.001162936    1.417    0.294
       215  -8.5217      4.8674     41.9702   7.6720265142e+01   6.8497340244e+01    0.4927543    0.1885084 -65.38   0.00227891    2.183    0.542
       216 -11.3549      4.8685     35.7873   7.5077063535e+01   6.9863047477e+01    0.4115888    0.3314036 -29.31   0.00277227    1.155    0.134
       217 -10.5185     10.3854     31.8520   7.0581271636e+01   7.0383780191e+01    0.5506252    0.2102934 -36.42  0.002433611    2.556    0.609
       218  -9.8989      7.5101     30.4928   7.1885183290e+01   7.0853970306e+01     0.280699    0.1764047 -15.61  0.001636769    1.652    0.395
       219 -10.2816    200.2208     45.0698   1.4816907844e+01   2.9016650411e+01    0.3979811    0.2297383  78.89  0.001827936    1.959    0.489
       220  -9.9914    136.0021     46.0000   2.5874245448e+01   4.5015598371e+01    0.3190557    0.1960571  57.97 0.0008829547    1.565    0.361
       221  -9.8501    139.6663     43.8149   2.4332966209e+01   4.4409242937e+01    0.3020059     0.213123  49.29  0.001049268    1.387    0.279
       222  -9.0369    179.7904     45.2265   1.7660168014e+01   3.3985143974e+01    0.1818874    0.1648209  26.08 0.0004454661    1.271    0.213
       223  -9.2541     34.4292     45.2621   6.1887607221e+01   6.5379062131e+01    0.1803458    0.1221743 -62.40 0.0009514703    1.595    0.373
       224 -10.3836    155.9051     42.7472   2.0814512964e+01   4.0397313819e+01    0.3494039     0.294387  31.49  0.001105587    1.333    0.250
       225  -9.7055     91.7291     41.8893   3.6314932142e+01   5.6279580787e+01     0.364319    0.2527846  81.77  0.001231083    2.378    0.579
       226  -9.9075     56.7452     41.8342   4.9851253075e+01   6.3013810801e+01    0.2734056    0.2125721  43.34 0.0009026396    1.413    0.292
       227  -9.4229     17.5406     41.6159   6.9607805473e+01   6.7769245472e+01    0.2713327    0.1210721 -38.39  0.001254665    2.130    0.530
       228 -10.0271    231.5387     38.8971   9.8443452512e+00   2.2703919643e+01    0.3254656     0.104182 -32.90  0.001302763    2.610    0.617
       229 -10.4146     80.5832     39.5406   3.9207180488e+01   5.9040195773e+01    0.4757632    0.3331102  68.90  0.001937835    2.040    0.510
       230 -11.1109     78.3594     34.4235   3.7829664405e+01   6.0345302103e+01    0.6088811    0.3820677  29.78  0.002854753    1.749    0.428
       231  -9.3343    188.8125     38.4435   1.4455356763e+01   3.2649251488e+01    0.2297073    0.1686958 -27.21  0.001194289    1.420    0.296
       232  -8.9841    194.9710     37.9287   1.3530277537e+01   3.1209070117e+01    0.2034743    0.1586602  32.42 0.0004630605    1.601    0.376
       233 -12.3709    152.9278     35.8854   1.9111300810e+01   4.2101330585e+01    0.3174235    0.3053818  10.23 0.0003909153    1.142    0.124
       234 -10.0918    168.2128     23.7841   1.2871107194e+01   3.9644127094e+01    0.3551528    0.1823691  62.02  0.001283279    1.809    0.447
       235 -11.2421    160.0356     29.9136   1.5993621325e+01   4.1024483388e+01    0.4600076    0.3000599 -37.01 0.0005500641    1.535    0.349
       236 -11.7646    164.3029     27.6710   1.4636029522e+01   4.0194466787e+01    0.3633447    0.3023777 -64.13 0.0004072957    1.194    0.162
       237  -9.1035     43.0301     28.0476   5.0407056248e+01   6.7676657217e+01    0.1961733     0.157421  -5.87  0.001164359    1.197    0.165
       238  -9.6717     94.6589    246.6790   7.7287530768e+01   1.2831969776e+01    0.1078406   0.08405273   7.26 0.0004326068    1.720    0.419
       239  -9.7765     68.0106     32.7416   4.1089861985e+01   6.2666211043e+01    0.4711186    0.3421164  56.91  0.002435579    1.671    0.401
       240 -11.5135    126.4357    241.6676   7.0522331250e+01   9.2959467293e+00    0.3128056    0.2355767  60.74  0.001462681    1.518    0.341
       241 -11.4594     48.8541     30.5104   4.8626831088e+01   6.6361747957e+01    0.6762214    0.3207479  31.73   0.00301457    2.233    0.552
       242  -8.9641    206.4523     37.5104   1.2067571980e+01   2.8519221536e+01    0.1362559     0.121266 -60.78  8.79178e-05    1.009    0.009
       243 -10.2915    176.6603     35.7725   1.5333435618e+01   3.6027967457e+01    0.4455629    0.2640523 -57.40  0.001945554    1.838    0.456
       244 -10.3036    175.1173     31.1308   1.4164102413e+01   3.7002348765e+01    0.3485011     0.172815  56.92  0.001306157    1.946    0.486
       245  -9.7070    169.6741     30.3064   1.4677203692e+01   3.8492832731e+01    0.4323655    0.2341322 -68.78  0.001483207    2.462    0.594
       246  -9.1638     13.0209     36.3050   7.0477763776e+01   6.9253578178e+01    0.2629968    0.1143932 -49.69  0.001285897    1.829    0.453
       247  -8.8877     94.6060     36.2625   3.3084756150e+01   5.6542846628e+01    0.1436021    0.1143398 -89.15 0.0006973774    1.709    0.415
       248  -8.5861    214.3042     35.2631   1.0643188570e+01   2.6975772948e+01    0.1224261    0.1008127  35.19 0.0001798583    1.522    0.343
       249 -11.3012     67.9845    240.6510   8.2066954202e+01   1.7226903145e+01    0.3302128    0.2307336   9.66  0.001548355    2.178    0.541
       250 -11.3852    106.0363     33.0116   2.8391203851e+01   5.4358697748e+01    0.4524559    0.3030188  23.91  0.001280619    1.831    0.454
       251 -10.7085    147.3458    237.9310   6.5969681741e+01   6.8922197597e+00    0.3564586    0.2227269  42.66  0.002174723    1.397    0.284
       252 -10.3419    240.6381     32.2698   7.4973276195e+00   2.1578577632e+01    0.2569581    0.1989823  52.03  0.001398757    1.573    0.364
       253  -9.4541    139.3868     32.7672   2.0557134828e+01   4.6016111625e+01     0.276663    0.1636164  43.22  0.001209684    1.792    0.442
       254 -11.0386    188.9549     28.2602   1.1565473740e+01   3.3876918635e+01    0.5146105    0.3463137  -1.36  0.002462353    2.109    0.526
       255  -9.4047    167.2885    237.9922   6.2124298895e+01   4.0438582707e+00     0.158665    0.1339623  16.36 0.0008445655    1.116    0.104
       256  -9.5304    187.4953     22.9804   1.0242207014e+01   3.4853173595e+01    0.2526799    0.1967482 -20.49 0.0005936921    1.438    0.305
       257  -8.6073    148.2823     32.2826   1.8732407181e+01   4.3774712631e+01     0.143234    0.1079342  33.46 0.0002078704    1.516    0.340
       258  -9.0330     48.6730    238.6659   8.5736498268e+01   1.9854350389e+01   0.09683681   0.08620793 -12.60 0.0007051635    1.718    0.418
       259 -10.5837     32.6474     31.0907   5.7322253479e+01   6.8476852004e+01    0.2582135    0.2022932 -47.57 0.0003662278    1.269    0.212
       260  -9.0180     15.4254    233.7584   9.1902962319e+01   2.4215612323e+01    0.1303187   0.08950315 -75.77 0.0009387482    1.632    0.387
       261  -8.7937    205.6478    233.6870   5.4454945421e+01  -7.0946428600e-01    0.1217457   0.07244768   8.45 0.0007045639    1.728    0.421
       262  -9.0208    246.7034    231.3308   4.7196475861e+01  -5.6406524382e+00   0.08952571   0.08097141   7.13 0.0007027591    1.639    0.390
       263  -8.7747    189.7134    229.6936   5.6757895517e+01   1.9860326648e+00    0.1179278   0.07719482   6.89 0.0003616263    1.568    0.362
       264  -8.6315    181.2993    228.3308   5.8134095775e+01   3.3651839588e+00    0.1213991   0.07991926   5.94 0.0004377605    1.645    0.392
       265  -9.8524     68.9806    225.0000   8.0661362029e+01   1.9886603988e+01    0.2017117   0.05647264  33.55 0.0008083553    2.984    0.665
       266 -10.3022     76.0925    239.9990   8.0407566114e+01   1.6329757045e+01    0.2826177     0.215433  18.60  0.001899099    1.599    0.375
       267  -9.4058     49.4925    222.5114   8.4542328603e+01   2.2706575031e+01    0.1162379    0.0934879  54.96 0.0008099662    1.053    0.050
       268  -8.9510    144.0000    215.9620   6.3785484511e+01   1.0791435947e+01     0.181695   0.07358907 -49.93 0.0008061557    2.968    0.663
       269  -9.2292    164.3537    211.9330   5.9031037970e+01   8.2903080990e+00    0.1676465    0.1474451  11.04 0.0005256152    1.101    0.092
       270  -9.7513     16.9955    206.1940   9.0408265379e+01   2.9318444125e+01    0.2846696     0.116501  82.48  0.001423066    2.459    0.593
       271  -9.5615    134.6925     31.4404   2.1018143330e+01   4.7400321413e+01    0.2797642    0.1422488  68.56  0.001121239    2.056    0.514
       272 -11.9863    126.0794     28.1805   2.1616221709e+01   5.0028952530e+01     0.501577      0.41066  88.24  0.001853919    1.329    0.248
       273  -8.7907    220.4800     39.4113   1.1051688792e+01   2.5063523701e+01    0.1316159    0.1154055 -59.46 9.352028e-05    1.017    0.017
       274  -8.7730    221.6584     29.7010   8.5348511454e+00   2.5977669157e+01    0.1244894   0.09813266  34.00 0.0007035355    1.669    0.401
       275  -9.2171     61.5232    206.4913   8.0717909919e+01   2.4384302887e+01    0.1237136    0.1021322  56.14 -3.761943e-05    1.019    0.019
       276 -11.6111      5.8410    199.4530   9.2468547984e+01   3.1683719947e+01     0.387302    0.1853241 -75.07  0.002239732    2.006    0.502
       277  -9.6876     78.5770    203.8745   7.6627886061e+01   2.2686454258e+01    0.2424205    0.1509522  44.97 0.0005189519    1.342    0.255
       278 -11.1479    143.6958     25.1909   1.7114106348e+01   4.5844841683e+01    0.7180527    0.3751643 -88.96   0.00263616    2.903    0.656
       279 -10.5070    148.5619     22.3611   1.5323063613e+01   4.4906952945e+01    0.5662479    0.2222131  56.13  0.001203174    2.279    0.561
       280  -9.5394    233.8475    196.5902   4.3591618349e+01   5.1244168413e-02    0.1915632    0.1250148 -29.60  0.001192575    1.500    0.333
       281  -8.4584    199.7036    191.6772   4.8775509352e+01   5.8169545780e+00    0.1308649   0.08777608   2.97 0.0002585129    1.621    0.383
       282  -9.6077    212.5011     23.9756   7.9474652916e+00   2.8727504141e+01    0.1960655    0.1202449 -32.36 0.0006320914    1.552    0.355
       283  -9.4540     90.8098     22.9868   2.8534596714e+01   5.9311413236e+01    0.2531935    0.1954622  48.06 0.0007894767    1.211    0.174
       284  -9.2763    223.8982     22.4622   6.5687645456e+00   2.6310247955e+01    0.1807331     0.119549  79.14 0.0005201418    1.531    0.347
       285 -10.8576    178.8560     20.7265   1.0594034252e+01   3.7273735924e+01      0.49811    0.2605212  43.50  0.002141702    2.349    0.574
       286  -9.5880    216.2452     20.1701   6.6528822693e+00   2.8293296443e+01    0.2356674    0.1532846 -40.36 0.0008994364    1.375    0.273
       287  -8.8351     97.3493     26.2801   2.8034840333e+01   5.7355341591e+01    0.1506978    0.1013956  28.79 0.0007012159    1.645    0.392
       288 -12.5705      4.4819    183.6438   9.2090419465e+01   3.5100549586e+01    0.7254744    0.3904255  88.14  0.004285394    1.615    0.381
       289 -10.8484    246.8715     19.3022   4.1102902086e+00   2.1765961943e+01    0.2338086    0.1664092 -29.29  0.001457984    1.390    0.280
       290  -9.8095     27.9901    176.2100   8.6117151636e+01   3.4626475397e+01    0.2322562    0.1637398 -75.23 0.0009953583    1.375    0.273
       291  -9.8312     74.5841     19.8387   3.2477242934e+01   6.3302308091e+01    0.2694224    0.1900436  14.66  0.001323736    1.589    0.371
       292  -9.9651     46.4287     19.6959   4.4556143901e+01   6.8579149891e+01    0.2344763    0.2184549  14.56  0.001226435    1.180    0.152
       293  -8.9296      1.4854     20.5660   7.2402109289e+01   7.3259473408e+01    0.1205981   0.09356294 -38.06  0.000272519    1.035    0.034
       294 -10.0131     16.0074    174.2304   8.8898129997e+01   3.6185938823e+01    0.3303767    0.1521749 -89.07  0.001667488    2.032    0.508
       295  -9.0596     80.7652     19.2247   3.0017032065e+01   6.2056735150e+01    0.2334616   0.08887481  44.73 0.0008903404    2.459    0.593
       296  -8.7567     51.3519    173.6709   8.0065521423e+01   3.2654013167e+01    0.1448662   0.08142387  61.47  0.000704744    1.770    0.435
       297  -9.1978     39.4999    173.5098   8.3044614874e+01   3.4041989384e+01    0.1284501    0.1070478  68.70 5.828881e-05    1.013    0.013
       298  -8.9724    170.5161    171.5362   5.0912425318e+01   1.4007830974e+01    0.1393455     0.123032  14.88  0.000320498    1.037    0.036
       299 -10.6469      4.1886    153.5226   9.0620887108e+01   4.1841195029e+01    0.3082649    0.1634218  46.45  0.001038478    1.708    0.415
       300 -10.2937    231.2289     27.3494   7.1289977933e+00   2.4145345393e+01    0.3525018    0.1751157 -72.95  0.001604291    2.453    0.592
       301 -11.6362     18.7459    164.9691   8.7614461300e+01   3.8036792946e+01    0.5018141    0.3237599 -28.70   0.00268724    2.465    0.594
       302 -11.1255      9.2558    155.3852   8.9414712041e+01   4.1032433289e+01    0.3831997    0.2265613 -86.76  0.001572415    1.464    0.317
       303  -9.2533    120.6611     15.6801   1.7935529307e+01   5.2881875086e+01    0.2353509    0.1475958  35.01  0.001064805    1.764    0.433
       304 -10.3911    186.8519     15.2465   8.1229038639e+00   3.5861875308e+01    0.2337823    0.2195122  58.63 0.0004135898    1.188    0.158
       305 -12.4829     22.5531    149.3782   8.5398949901e+01   4.1344169654e+01    0.6780717    0.3440961 -43.67   0.00316026    2.639    0.621
       306 -11.0160     16.5385    147.9455   8.6936334597e+01   4.2199170215e+01    0.3325332    0.2103067 -77.01 0.0006554606    1.400    0.286
       307 -12.5942      9.9878    164.8885   8.9812505015e+01   3.8794143407e+01    0.6647999    0.6410682 -42.81  0.004184898    1.357    0.263
       308 -10.3582     14.0411    159.0084   8.8409991091e+01   3.9811113397e+01    0.2831201    0.2071449 -60.14 0.0007809665    1.478    0.323
       309 -10.5157    204.8549    163.3781   4.2496446691e+01   9.3059330849e+00    0.2530475    0.2130069  -9.08 0.0007422455    1.084    0.077
       310 -10.6910     28.0603    161.4935   8.4946720475e+01   3.7978813872e+01    0.3304086    0.2628737 -74.60  0.001896581    1.229    0.187
       311  -9.0428    120.1977     11.6098   1.6417005234e+01   5.3424068779e+01    0.2008585    0.1135775  54.18 0.0004465985    1.579    0.367
       312  -9.5835    104.3440    154.6193   6.3507027430e+01   2.9320955643e+01    0.2785911    0.1819633 -54.42  0.001334076    1.602    0.376
       313  -8.5949    144.3473    154.7276   5.3488909595e+01   2.2027680724e+01    0.1447879    0.1123554  68.20 0.0003556457    1.624    0.384
       314 -10.5750     30.5162    152.2489   8.3465939276e+01   3.9918005856e+01    0.3145801    0.2379721 -79.62  0.001897342    1.208    0.172
       315 -11.1138     46.9994    147.3565   7.8314852428e+01   3.9342153834e+01    0.6872041    0.3826909 -49.60  0.003285033    2.008    0.502
       316  -9.5848     61.5290    151.8430   7.4782891043e+01   3.6472407578e+01    0.2487729    0.1895897  36.39 0.0007614164    1.315    0.239
       317  -9.3473     65.7050     10.4802   3.1033214396e+01   6.6344632073e+01    0.2250037    0.1259709  54.37 0.0007055734    1.832    0.454
       318 -10.4011      3.0600    147.9139   9.0586807226e+01   4.3224165751e+01    0.2843924    0.1773934 -83.57  0.001119218    1.361    0.265
       319 -11.5933     12.6406    136.8056   8.7141249829e+01   4.5172900998e+01    0.7249936     0.507978 -64.15   0.00436355    1.370    0.270
       320 -11.0491      9.8858    127.6471   8.7190805880e+01   4.7590421672e+01    0.5109681    0.2921223 -61.53  0.002009742    1.616    0.381
       321 -10.8555      8.4926    148.0233   8.9134689276e+01   4.2809795246e+01     0.365164    0.1825151 -70.98  0.001925268    1.765    0.433
       322 -10.7124      5.8000    142.8021   8.9518995462e+01   4.4235767657e+01    0.3183877    0.1814608  61.28  0.001079326    1.615    0.381
       323 -10.8549      2.1830    141.4494   9.0428568772e+01   4.4800922465e+01    0.4076869    0.1918146 -81.31  0.002097448    1.801    0.445
       324  -9.5649    104.2658    147.0537   6.2155040341e+01   3.1048447525e+01    0.2309951    0.1918694  26.86 0.0001943902    1.270    0.213
       325 -10.8653     33.0604    144.3279   8.1960453520e+01   4.1571219217e+01     0.297406     0.248016  79.66 0.0008076392    1.059    0.055
       326 -10.4615     40.4298    138.7273   7.9171446126e+01   4.2176610029e+01    0.3580283    0.2455257 -87.08  0.001215228    1.398    0.285
       327  -8.7160    227.6876    140.3015   3.3762219159e+01   8.9022023764e+00    0.1211106    0.1024919 -61.02 0.0004077862    1.609    0.379
       328  -9.7633     32.2163    137.7043   8.1488274732e+01   4.3268133655e+01    0.2372566     0.209035  52.06 0.0007498706    1.153    0.133
       329 -11.4214     24.0979    136.6092   8.3774411678e+01   4.4287865340e+01    0.6734717    0.3698924  37.20  0.002543634    1.797    0.443
       330 -10.7300     30.1039    132.8560   8.1576344161e+01   4.4661437521e+01    0.4175958    0.2914276  27.32  0.001998094    1.574    0.365
       331 -10.7485     80.1196    138.4451   6.7371927684e+01   3.7046891631e+01    0.3131515    0.2711501  56.03 0.0006985398    1.116    0.104
       332  -9.4686     47.4135    133.7904   7.6423201918e+01   4.2614632578e+01    0.3495878    0.1160225 -65.29  0.001309322    2.697    0.629
       333  -9.6328     38.6576    133.5798   7.9063325697e+01   4.3631753677e+01    0.2915133    0.1385073  19.52  0.001246105    2.637    0.621
       334  -8.8235    103.9414    131.0076   5.9059808510e+01   3.4805375467e+01    0.1746489    0.1678169  58.52 0.0003910882    1.010    0.010
       335  -9.3474     62.6310    131.1907   7.1365444218e+01   4.1349967361e+01    0.2078689    0.1183707 -54.43 0.0009466055    1.725    0.420
       336  -8.8600     26.5501    127.5057   8.2059070247e+01   4.6307680215e+01     0.131373    0.1138848 -89.15  0.000106201    1.005    0.005
       337  -9.7437     22.8733    126.9870   8.3144070625e+01   4.6754755585e+01     0.189024    0.1631169 -85.04 0.0003786778    1.026    0.025
       338  -9.6866     33.2169    125.8853   7.9773527366e+01   4.6088645911e+01    0.3093332    0.1508782  67.39  0.001277204    2.606    0.616
       339  -9.7461      2.0643    125.7816   8.9399780993e+01   4.8548586683e+01    0.2560232    0.1631851  75.26  0.001048588    1.419    0.295
