#   1 NUMBER                 Running object number                                     
#   2 MAG_AUTO               Kron-like elliptical aperture magnitude                    [mag]
#   3 X_IMAGE                Object position along x                                    [pixel]
#   4 Y_IMAGE                Object position along y                                    [pixel]
#   5 X_WORLD                Barycenter position along world x axis                     [deg]
#   6 Y_WORLD                Barycenter position along world y axis                     [deg]
#   7 A_WORLD                Profile RMS along major axis (world units)                 [deg]
#   8 B_WORLD                Profile RMS along minor axis (world units)                 [deg]
#   9 THETA_WORLD            Position angle (CCW/world-x)                               [deg]
#  10 FWHM_WORLD             FWHM assuming a gaussian core                              [deg]
#  11 ELONGATION             A_IMAGE/B_IMAGE                                           
#  12 ELLIPTICITY            1 - B_IMAGE/A_IMAGE                                       
         1 -11.1447    205.1734     18.0981   2.8961043091e+02   6.3139433069e+00   0.08592145   0.03401923  54.66  0.005149814    5.196    0.808
         2 -12.5795    231.3789     58.2537   2.8956004454e+02   5.6979255878e+00    0.1733474   0.07342356 -79.14  0.009940844    5.786    0.827
         3 -12.4496    216.1011     35.7844   2.8959525020e+02   6.0463668656e+00   0.08989678   0.06364645 -88.43  0.005132934    1.754    0.430
         4 -11.4894    174.6320     54.2910   2.9018425699e+02   6.0857327642e+00   0.03943775   0.01910927 -40.52   0.00336044    2.393    0.582
         5 -11.2073    225.7701     27.6084   2.8943399767e+02   6.0810918810e+00   0.03520251    0.0214578  -3.22  0.001909697    2.426    0.588
         6 -11.4896    163.7610     53.2369   2.9030211498e+02   6.1633117462e+00    0.1191719   0.03780733  51.25  0.005287059    9.252    0.892
         7  -9.8210    249.5486     18.7110   2.8910709369e+02   6.0386146358e+00   0.02879722   0.01993624  75.80  0.002895882    1.907    0.476
         8 -11.6396    237.7333     11.2767   2.8919589570e+02   6.1947752263e+00   0.04776003   0.02527347  68.85   0.00329601    3.759    0.734
         9  -9.4854    236.6191      1.9510   2.8915070367e+02   6.3077115801e+00   0.02193989   0.01529064  47.24  0.001251622    1.514    0.339
        10  -9.8777    243.1493      4.3336   2.8909089439e+02   6.2410635383e+00   0.02328231   0.01725282 -62.55  0.001620763    1.350    0.259
        11  -9.8824    248.5789      3.1077   2.8902125448e+02   6.2221562379e+00   0.02077497   0.01891535  47.37  0.002295326    1.122    0.109
        12  -9.6991    222.6921     15.3725   2.8939322026e+02   6.2391015121e+00   0.02727478   0.01933485  51.38  0.001875727    1.537    0.349
        13 -11.3125    119.6707     10.0756   2.9053949989e+02   6.9211234722e+00    0.0332671   0.02821015  20.73  0.003164234    1.204    0.169
        14  -9.0550    186.9073     10.4309   2.8977178299e+02   6.5116428045e+00    0.0169388   0.01040008  56.72  0.001048241    2.008    0.502
        15  -9.1438    181.9791      6.0272   2.8980084095e+02   6.5915748568e+00   0.01928532   0.01347947  37.88  0.002076304    1.428    0.300
        16  -9.5199    182.8304      2.1662   2.8976713134e+02   6.6304215257e+00   0.02293683   0.01191415  36.09  0.002144878    1.880    0.468
        17 -10.2357    212.0421      4.1874   2.8944552380e+02   6.4308947302e+00   0.02687404   0.01578988  84.39  0.001418895    2.839    0.648
        18  -8.9999    220.3558     12.6742   2.8940317209e+02   6.2839646950e+00   0.01415527   0.01099764  65.17 0.0009504312    1.483    0.326
        19  -9.8223    144.0944      6.6239   2.9023827820e+02   6.8133357521e+00   0.01620405      0.01024 -24.71  0.001534782    2.071    0.517
        20  -9.0051      2.5978      8.7580   2.9187429085e+02   7.6386451378e+00  0.009223658  0.006394044 -76.38 0.0004002688    1.632    0.387
        21  -9.5889    172.6121      2.6681   2.8988719613e+02   6.6863946464e+00   0.02222011   0.01537766  38.84  0.002302512    1.447    0.309
        22  -9.6890    146.9094      1.7975   2.9017609367e+02   6.8513667456e+00   0.02549134  0.005271258  27.73  0.001474963    4.932    0.797
        23  -9.0740    194.5003     98.1462   2.9022869670e+02   5.4655803278e+00   0.01081173  0.008824683 -15.35 0.0005374714    1.372    0.271
        24  -8.5779    148.4657     95.3392   2.9073781759e+02   5.7750530743e+00   0.01402357   0.01077441 -16.33 0.0009083874    1.518    0.341
        25  -8.1259    134.6164     93.1271   2.9088262506e+02   5.8836760101e+00   0.01144482  0.008483156  41.76 0.0006262193    1.369    0.270
        26  -9.1972     70.5887    243.9996   2.9254490955e+02   4.5443921722e+00   0.01149911   0.01063622 -18.68 0.0004251887    1.117    0.105
        27  -7.7986      5.2358    233.7897   2.9322935526e+02   5.0521327340e+00   0.00892606  0.007388148 -26.68 0.0004525518    1.301    0.232
        28  -9.6765    216.4831     21.7923   2.8950404920e+02   6.2035012235e+00   0.01755667   0.01225274  75.80   0.00139574    1.876    0.467
        29 -11.1782    227.6315     48.0108   2.8953932700e+02   5.8373329277e+00   0.04155997   0.03141903  80.70   0.00449838    1.612    0.380
        30  -8.0180    137.1787    229.5598   2.9169521364e+02   4.3098843749e+00  0.008657347  0.006404524   7.07 0.0009187782    1.542    0.351
        31 -11.2549    182.2579     79.7644   2.9025484765e+02   5.7491555537e+00   0.04164788   0.02695771 -80.84   0.00409638    1.911    0.477
        32 -10.9442    175.0104     72.0337   2.9028985858e+02   5.8810611015e+00   0.03290511   0.02149597 -45.16  0.001730148    1.554    0.356
        33  -8.8698    142.4589     83.7052   2.9073457715e+02   5.9440162995e+00   0.01211168   0.01175128  82.85 0.0008833183    1.060    0.056
        34  -8.8993    249.9004     80.8238   2.8948846636e+02   5.3286721820e+00   0.01015367  0.008859288 -24.65 0.0005430853    1.211    0.174
        35 -10.0119    157.2463     74.2982   2.9050712068e+02   5.9623013501e+00   0.01624089   0.01132966 -47.24 0.0007218373    1.429    0.300
        36  -8.9423    214.2645     67.2128   2.8981115425e+02   5.6991671832e+00   0.01850632    0.0103621  54.62  0.001300174    2.248    0.555
        37  -9.3733    182.4476     65.3336   2.9016328077e+02   5.9126383609e+00   0.01298344   0.01192528 -49.07 0.0004591742    1.077    0.072
        38  -8.6381    205.8472     64.7052   2.8989182181e+02   5.7785888302e+00   0.01471893  0.008132107  86.13  0.001107074    3.437    0.709
        39 -12.1054      7.2569    220.2671   2.9312334435e+02   5.1946581722e+00   0.04645852   0.04292507 -46.03  0.004245064    1.073    0.068
        40  -8.8304    202.5401     56.0048   2.8987569325e+02   5.8977699364e+00   0.01465864   0.01003059  66.21  0.001148197    1.855    0.461
        41  -9.7723    192.3763     56.5755   2.8999544930e+02   5.9526178145e+00   0.01492942    0.0127601  -8.59  0.001208163    1.276    0.216
        42 -10.5602    197.6897     52.5578   2.8990978158e+02   5.9663598074e+00   0.02516147   0.01692232 -45.69  0.002648023    1.500    0.333
        43  -8.6624     48.1026    223.0311   2.9267320466e+02   4.9187487498e+00  0.009781194   0.00942423 -46.59 0.0003403806    1.027    0.027
        44  -8.9418    136.9908     45.6774   2.9056173099e+02   6.4108546177e+00   0.01129787  0.009047184 -50.39 0.0002904435    1.231    0.188
        45  -8.6455    157.5110     87.4473   2.9058548958e+02   5.8106510950e+00   0.01017621  0.007554814 -27.49 0.0006045421    1.529    0.346
        46 -12.4288     37.7097    194.2440   2.9261523576e+02   5.3100379661e+00   0.05005361   0.03728543 -23.07  0.005424873    1.559    0.359
        47  -8.6419    250.6316     40.0821   2.8922740026e+02   5.7886177197e+00  0.009360534  0.006211488 -61.33 0.0002826567    1.498    0.332
        48  -8.0205    159.3248     59.9524   2.9039448978e+02   6.1134507104e+00  0.009257075  0.008318258 -52.03 0.0004566744    1.099    0.090
        49  -7.7167    237.6495     35.6990   2.8934847587e+02   5.9170774910e+00  0.006978011  0.004949107 -23.60 0.0007038385    1.694    0.410
        50  -8.6058    245.1446     31.3109   2.8923562302e+02   5.9217405238e+00   0.01258013  0.008099376 -52.32  0.001293365    1.515    0.340
        51  -9.4701    160.8736     84.8991   2.9053124545e+02   5.8194731183e+00   0.01662821   0.01249877 -23.99  0.001351735    1.530    0.346
        52 -10.2917    145.6026     21.5553   2.9031360949e+02   6.6340493105e+00   0.01235511   0.01139092 -60.32 0.0002489588    1.079    0.073
        53 -11.8904     50.5753    182.7887   2.9239759886e+02   5.3639484726e+00   0.04662975   0.04249219 -39.88  0.003627944    1.100    0.091
        54  -9.7069    190.2286    189.2796   2.9084090175e+02   4.4509376857e+00   0.01097158   0.01053145 -87.06 0.0002428079    1.071    0.066
        55  -7.7058    190.5478    174.4853   2.9074591223e+02   4.6179528748e+00  0.006501089  0.006391881  77.44  4.08338e-05    1.039    0.037
        56  -7.8076     18.0126    151.4406   2.9257751172e+02   5.9171612953e+00  0.009868733  0.006446153  26.96 0.0006044817    1.546    0.353
        57  -8.5196     70.2088    145.6142   2.9194399904e+02   5.6711313695e+00   0.01212015  0.009179003  44.27   0.00134346    1.356    0.263
        58  -7.4686    164.7025     20.6416   2.9008925889e+02   6.5292982933e+00   0.00707609  0.004828239 -30.37 0.0003808698    1.705    0.413
        59  -9.0964     66.4487    144.2801   2.9197882188e+02   5.7089240421e+00    0.0165059   0.01409352 -63.11 0.0009742191    1.170    0.145
        60  -8.9642    250.0769     85.6771   2.8951653600e+02   5.2722686633e+00   0.01134411  0.009152256 -81.86 0.0006416256    1.365    0.267
        61  -7.3498    156.3812     16.4842   2.9015873702e+02   6.6268749812e+00  0.006476578  0.006250676 -56.02 0.0001180103    1.029    0.028
        62  -7.9137    203.5484    137.5708   2.9036925285e+02   4.9610646990e+00  0.006484936  0.006344809 -25.25 4.039595e-05    1.021    0.021
        63  -9.0576    134.5989    136.7377   2.9115235820e+02   5.3858001195e+00   0.01121124   0.01069062 -16.50 0.0003560573    1.066    0.062
        64 -11.8147    245.9658     95.9263   2.8962699098e+02   5.1802327957e+00   0.05744746   0.03638542  22.52  0.005708251    1.659    0.397
        65 -12.3764    244.3891    115.9727   2.8976917123e+02   4.9611068890e+00   0.07175381   0.02474413 -57.80 0.0005912049    2.692    0.628
        66  -8.9984    199.0104    125.1633   2.9034435587e+02   5.1300482979e+00   0.01058092  0.009302803 -60.19 0.0002947917    1.129    0.114
        67  -8.2590    131.6091    121.8633   2.9109468083e+02   5.5736600388e+00   0.01039888  0.008908167   3.51 0.0005683168    1.251    0.200
        68  -9.4756    167.7363    113.6755   2.9063080318e+02   5.4496684710e+00   0.01416889   0.01190526  84.75 0.0006495233    1.334    0.251
        69  -8.9410    186.4959    110.9770   2.9039961630e+02   5.3674182929e+00   0.01012219   0.00643369 -61.16 0.0008281242    1.560    0.359
        70  -9.8933    190.1984    103.1339   2.9030875038e+02   5.4346062891e+00   0.01524034   0.01040822   3.54 0.0007990187    1.807    0.447
