#   1 NUMBER                 Running object number                                     
#   2 MAG_AUTO               Kron-like elliptical aperture magnitude                    [mag]
#   3 X_IMAGE                Object position along x                                    [pixel]
#   4 Y_IMAGE                Object position along y                                    [pixel]
#   5 X_WORLD                Barycenter position along world x axis                     [deg]
#   6 Y_WORLD                Barycenter position along world y axis                     [deg]
#   7 A_WORLD                Profile RMS along major axis (world units)                 [deg]
#   8 B_WORLD                Profile RMS along minor axis (world units)                 [deg]
#   9 THETA_WORLD            Position angle (CCW/world-x)                               [deg]
#  10 FWHM_WORLD             FWHM assuming a gaussian core                              [deg]
#  11 ELONGATION             A_IMAGE/B_IMAGE                                           
#  12 ELLIPTICITY            1 - B_IMAGE/A_IMAGE                                       
         1 -14.1638    224.8834      4.6147   3.6830518700e+01   2.8133967919e+01     2.143816     1.096504  54.73  0.007822359    2.148    0.534
         2 -13.9076    182.0432     48.7545   5.3800033088e+01   3.3325765201e+01     1.762608     1.200341  22.94 0.0008933381    2.030    0.507
         3 -14.0386    193.3980     39.2625   4.9295907591e+01   3.1757603171e+01     1.308668     1.070048 -39.52  0.003327393    1.225    0.184
         4 -14.6122    201.6153     30.4227   4.5747006949e+01   3.0832393623e+01     1.571411     1.314023  24.79   0.00134209    1.488    0.328
         5 -11.5420     41.2992     14.5543   8.0363807043e+01   6.8297511695e+01    0.2268741    0.1267641 -16.14  0.001198825    1.805    0.446
         6 -10.6283     74.4382     12.8683   6.6218340658e+01   6.3164406497e+01    0.2706263    0.1541674  62.87  0.001222267    2.783    0.641
         7 -11.1759    156.4901     50.9540   5.9240435112e+01   3.9523983119e+01    0.3330476     0.275063 -71.41 0.0007882325    1.397    0.284
         8 -16.8349     70.9307    147.6150   1.0808319448e+02   3.5984631366e+01     18.44064     9.298875  89.99   0.06370144    3.652    0.726
         9 -13.5855     52.7309    200.3218   1.1888844562e+02   2.6281683486e+01    0.4135778    0.3834129 -72.43  0.001245117    1.337    0.252
        10  -9.8169     32.6083    196.1836   1.2264543213e+02   2.9473000196e+01     0.118666   0.06529303  56.79 0.0004804408    1.593    0.372
        11 -12.5782     25.4778    195.4131   1.2401764001e+02   3.0379122705e+01    0.2090652    0.1604806  74.45 0.0007152231    1.043    0.041
        12 -10.2114     81.9833    194.8924   1.1206949739e+02   2.3518627700e+01    0.2321057    0.1840914  63.78 0.0007187479    1.117    0.105
        13 -11.3919     66.5805    204.0255   1.1637861059e+02   2.3727360492e+01    0.9823743    0.3536201 -48.62  0.001394764    4.578    0.782
        14 -13.5130     62.6484    187.6217   1.1547964488e+02   2.7777883013e+01    0.8056638    0.6642234 -49.84  0.005038119    1.497    0.332
        15 -11.4811     27.0199    203.7315   1.2430677109e+02   2.8479536058e+01    0.3527069    0.1217568  52.64   0.00126524    2.491    0.598
        16 -17.9977     10.3811    241.0543   1.2932004354e+02   2.2975475276e+01     5.040234       3.3751  88.01   0.03931393    1.260    0.206
        17 -10.1324     50.2235    224.4157   1.2140776653e+02   2.1701838611e+01     0.212041    0.1105316  81.42  0.001032084    1.958    0.489
        18  -9.9465     56.0921    223.9469   1.2026741635e+02   2.1067535844e+01    0.1272325   0.09787048  73.82 0.0008694812    1.057    0.054
        19 -13.2806    114.2791    208.1941   1.0679997712e+02   1.5757637580e+01    0.5196834    0.3383847  77.61  0.001938814    1.999    0.500
        20 -10.9882     99.4173    180.8131   1.0620946554e+02   2.3922682649e+01    0.3018207    0.2597511  16.28 0.0005809984    1.452    0.311
        21 -11.7687     49.2466    218.7073   1.2115007792e+02   2.2937930020e+01    0.3265144    0.1748449  67.23  0.001855827    1.714    0.417
        22 -11.6560    145.6908    181.2297   9.5592207030e+01   1.5670852650e+01    0.3613446    0.2810671 -37.06  0.001541661    1.424    0.298
        23 -12.0521    141.0167    174.2081   9.5363913914e+01   1.8008497055e+01    0.6853749    0.4774626  86.32  0.002022496    2.230    0.552
        24 -12.1500     35.2261    209.3339   1.2312425221e+02   2.6448060555e+01    0.3371875    0.1513322  59.08  0.001423338    1.983    0.496
        25 -10.5887    188.4001    174.7262   8.4979358062e+01   8.7040568808e+00    0.4670573     0.252662 -53.60  0.001900767    2.497    0.600
        26 -10.4438    204.5257    175.9710   8.1937933619e+01   5.3986506983e+00    0.3173234    0.2922208 -40.71   0.00100969    1.262    0.208
        27 -10.3176    196.6409    175.3927   8.3411628625e+01   6.9963949869e+00    0.3128293     0.284531  73.75   0.00176302    1.438    0.305
        28 -12.2936     75.1498    173.6220   1.1089180087e+02   2.9239274737e+01    0.3947044    0.2598321 -37.19  0.001934988    2.166    0.538
        29 -12.2841     78.9943    168.9963   1.0932141371e+02   2.9756322746e+01    0.4207891    0.3338084 -29.09  0.001315854    1.734    0.423
        30 -10.5037     46.9930    173.5717   1.1746090586e+02   3.2872908896e+01    0.3297684    0.2716827  73.53  0.001654005    1.078    0.073
        31 -10.4763     54.4899    173.6588   1.1574403093e+02   3.1960520282e+01    0.2913013    0.2076685  63.24  0.001093887    1.315    0.239
        32  -9.9000     55.9138    217.1455   1.1973981265e+02   2.2426774245e+01    0.2756832    0.1198255  80.27  0.001166035    3.260    0.693
        33 -10.5780    229.9933    166.1970   7.5006023269e+01   2.3225594404e+00    0.1951865    0.1495404 -48.98 0.0005629484    1.611    0.379
        34 -10.0926    186.9361    165.4552   8.3349934349e+01   1.0717373875e+01    0.2775045    0.2048789 -53.89 0.0008598939    1.611    0.379
        35 -10.5518    159.4240    162.8028   8.8853404349e+01   1.6787436568e+01    0.3159178    0.2510375 -70.34  0.001545542    1.573    0.364
        36 -12.2125     93.0307    153.3968   1.0329950554e+02   3.1275514028e+01    0.6733522    0.4943531 -19.98  0.003185842    2.037    0.509
        37 -11.4976    133.8788    145.2728   9.1215216559e+01   2.5744027559e+01     1.248849    0.3289576 -54.84  0.002939776    5.763    0.826
        38 -10.6358    174.4686    148.8177   8.2389086667e+01   1.6543409620e+01    0.3148864    0.2806666  67.69 0.0008536693    1.293    0.227
        39  -9.4479    109.2148    147.2896   9.7949259580e+01   2.9964736089e+01    0.1973857       0.1649  80.03 0.0003571191    1.304    0.233
        40 -10.8337     87.3130    146.1044   1.0348514358e+02   3.3931538849e+01    0.3314579    0.2372581 -88.61  0.001612754    1.609    0.378
        41 -11.8464    194.0496    196.6616   8.8106586322e+01   3.8100990430e+00     1.186647    0.6636906 -64.17  0.003855392    5.396    0.815
        42 -11.1868    105.5868    138.6287   9.7132818830e+01   3.2664015252e+01    0.5400324    0.3384362 -32.49  0.002263075    2.101    0.524
        43 -12.3033     93.2024    138.8981   1.0053309811e+02   3.4723070367e+01    0.2851256    0.2572763 -43.85  0.000414322    1.164    0.141
        44 -10.9859    105.9609    130.6869   9.5315142359e+01   3.4488353971e+01    0.3827918     0.310206 -66.99  0.001152265    1.260    0.206
        45 -10.8689    113.6106    129.7793   9.3021827763e+01   3.3286356353e+01    0.3445019    0.2963631 -17.55 0.0006776417    1.352    0.260
        46 -11.2981    135.6943    127.7007   8.6681585972e+01   2.9348625804e+01     0.657463     0.215948 -50.64  0.001956175    3.292    0.696
        47 -10.2677    160.6129    127.5966   8.0502254735e+01   2.3968763797e+01     0.329448    0.2507654 -60.34  0.001497612    1.511    0.338
        48 -11.4717    119.7122    123.5825   8.9900987010e+01   3.3554012462e+01     0.608335    0.4268431  -6.81  0.002471443    2.267    0.559
        49 -11.1292    101.0701    125.6807   9.5549333311e+01   3.6558663312e+01    0.2996535    0.2483186  -9.15 0.0007027966    1.507    0.337
        50 -10.1709    109.2102    118.9478   9.1673019260e+01   3.6667484885e+01    0.2371225    0.2171495  41.75 0.0002938989    1.133    0.118
        51  -9.9235    167.4996    112.4810   7.4997457954e+01   2.5558643847e+01    0.3458679    0.2416189 -79.71  0.001344625    2.331    0.571
        52 -11.7956    118.4055    110.1062   8.6843284851e+01   3.6917764123e+01    0.6393531    0.4678805  64.31  0.002461861    1.695    0.410
        53 -10.1920    205.4752    110.1487   6.6490541040e+01   1.7216790512e+01    0.3147898    0.2188708  39.72 0.0009102711    1.543    0.352
        54 -10.3409    134.5594    104.8336   8.1019720037e+01   3.4678784666e+01    0.5810929    0.1529248 -44.38  0.001582095    3.734    0.732
        55 -12.3332    202.3420    198.7089   8.6836440939e+01   2.0027753951e+00    0.5327826    0.2883239  30.10  0.002510917    1.804    0.446
        56 -11.7601     26.8213    214.3895   1.2505710785e+02   2.6336465365e+01    0.2874223     0.194273  84.60  0.001983084    1.194    0.162
        57 -10.4122     29.2815    210.2656   1.2432404322e+02   2.6904269636e+01    0.1519236     0.115368  70.07 0.0002099527    1.051    0.048
        58  -9.8392     42.3284    209.4116   1.2175389274e+02   2.5628494994e+01     0.258988    0.1695846 -84.20   0.00119817    1.359    0.264
        59 -10.4300     38.8525    199.4719   1.2164798450e+02   2.8091903362e+01    0.1956541    0.1275208  81.62  0.000480882    1.319    0.242
        60  -9.3242    220.4534    228.4682   8.8662453932e+01  -5.3054346961e+00    0.1994669    0.1127154 -45.96  0.001034803    2.525    0.604
        61  -9.3446    156.4641     81.5039   6.8773299141e+01   3.4322149850e+01    0.1561856    0.1536347  -5.45 8.818417e-05    1.007    0.007
        62  -9.5816    184.3173     77.0358   6.1592423832e+01   2.8235879628e+01    0.2191497    0.1972516 -37.88 0.0005740647    1.092    0.084
        63  -9.6480     64.2824     69.9926   9.2558517812e+01   5.5259237183e+01    0.1946447    0.1630626 -37.43  0.000493661    1.053    0.050
        64 -10.3943    250.0000    248.4771   8.6747730937e+01  -1.1872303552e+01    0.2180723   0.05781587 -32.73 0.0009401395    3.978    0.749
        65 -18.4497      1.9506    101.6838   1.2086053926e+02   5.3648025920e+01     16.25132    0.4908578 -72.29   0.02389054   21.631    0.954
        66 -10.0188     44.8626    198.2765   1.2032389824e+02   2.7658077077e+01    0.2687169    0.1646861  69.16 0.0009746795    1.467    0.318
        67 -10.3978    169.0391    235.9323   9.9566603782e+01   1.8433601935e+00    0.1806591    0.1666885  23.65 0.0003830536    1.144    0.126
        68 -11.5977     56.7418    209.7857   1.1893592950e+02   2.3809849586e+01    0.5019506    0.2915854 -75.58  0.002094441    1.649    0.394
        69 -10.6858    189.6645     14.9190   4.2973367110e+01   3.5624085260e+01    0.2588665    0.1897814  82.50 0.0007256249    1.283    0.221
        70 -11.7707     35.1987    228.8637   1.2446218338e+02   2.2606355103e+01    0.1929891    0.1285231  58.92  0.001226919    1.178    0.151
        71 -11.4779     60.2556    232.5448   1.2017621623e+02   1.8903334780e+01     0.206021    0.1456235  68.25 0.0005040711    1.145    0.126
        72 -11.6392    153.7127     56.6206   6.1646661118e+01   3.9343832994e+01    0.3916182    0.3024914 -82.37 0.0007092653    1.649    0.394
