#   1 NUMBER                 Running object number                                     
#   2 MAG_AUTO               Kron-like elliptical aperture magnitude                    [mag]
#   3 X_IMAGE                Object position along x                                    [pixel]
#   4 Y_IMAGE                Object position along y                                    [pixel]
#   5 X_WORLD                Barycenter position along world x axis                     [deg]
#   6 Y_WORLD                Barycenter position along world y axis                     [deg]
#   7 A_WORLD                Profile RMS along major axis (world units)                 [deg]
#   8 B_WORLD                Profile RMS along minor axis (world units)                 [deg]
#   9 THETA_WORLD            Position angle (CCW/world-x)                               [deg]
#  10 FWHM_WORLD             FWHM assuming a gaussian core                              [deg]
#  11 ELONGATION             A_IMAGE/B_IMAGE                                           
#  12 ELLIPTICITY            1 - B_IMAGE/A_IMAGE                                       
         1  -8.5214     97.1219     14.6731   3.5257578312e+01   5.9423264206e+01     0.240231    0.1854642 -34.75 0.0006688453    1.390    0.281
         2  -8.0246     83.4315     10.3098   3.7201941378e+01   6.3176260100e+01    0.1905064     0.124674 -37.07 0.0009445923    1.667    0.400
         3  -8.5682     55.8080      9.9082   4.7704454907e+01   6.9015763852e+01    0.2228746    0.1755867 -47.21 0.0007137993    1.589    0.370
         4  -7.8569     47.6005      9.8204   5.1682322267e+01   7.0489263867e+01    0.1722928    0.1146654 -41.95 0.0005151656    1.665    0.399
         5  -8.2605     90.7129      8.3982   3.4025359376e+01   6.1673192676e+01    0.2081688     0.161301 -66.86 0.0009154521    1.694    0.410
         6  -7.7861    101.3522      7.7452   3.0880543885e+01   5.9123840304e+01    0.1381423    0.1072912 -76.70 0.0003283146    1.602    0.376
         7  -8.0560      5.6972      7.7039   7.8119754274e+01   7.5881019901e+01    0.1236975   0.06933193 -31.05 0.0002396637    1.579    0.367
         8  -8.3658     33.5696      4.8202   5.6543683747e+01   7.3436382319e+01    0.2831379    0.1668161 -54.62  0.001292601    2.807    0.644
         9  -8.3678     79.1963      3.6051   3.5010441094e+01   6.4873804135e+01    0.2683102    0.1555877 -40.39  0.001044576    2.006    0.501
        10  -7.7584     44.6171      2.7915   4.8886234296e+01   7.1974623886e+01    0.1674286    0.1112193 -36.35 0.0004100901    1.591    0.372
        11  -8.0288     15.6199      2.8034   6.7690627613e+01   7.5962299995e+01    0.1598058    0.1041862 -51.35 0.0003692309    1.650    0.394
        12  -7.6526    115.6070      2.2841   2.5294659598e+01   5.5957479817e+01    0.1482381    0.1024568 -69.95  0.000700129    1.759    0.432
        13  -7.7408     88.6672      2.3667   3.1543069910e+01   6.2768159499e+01    0.1413462    0.1028274 -61.42 0.0007033453    1.824    0.452
        14  -8.1632     62.2797      1.3699   3.9796756784e+01   6.8795274120e+01    0.1703466     0.121539  59.06 0.0004172608    1.558    0.358
        15  -7.6005     39.5162      1.4973   5.0837626994e+01   7.3000089372e+01    0.1260648    0.1072797   1.06 0.0008102488    1.032    0.031
        16  -8.5351    139.4740    244.2334   8.0370673931e+01   8.1243709146e+00    0.1314972    0.1100845  85.36 0.0009434971    1.688    0.408
        17  -8.7079    248.9781    249.0666   6.1930125321e+01  -7.1679164372e+00    0.3091677    0.1489517  -4.89  0.001845921    2.387    0.581
        18  -9.4544    246.4837    228.7452   5.9325313600e+01  -4.9753699581e+00    0.3839995    0.1774926 -22.17  0.002243212    2.191    0.544
        19  -9.5983    248.6806    241.6803   6.0914729883e+01  -6.4697275233e+00    0.3116365    0.1872438 -28.58  0.001590014    1.922    0.480
        20  -9.0921    248.0836    234.6179   5.9963768554e+01  -5.7399856377e+00    0.2388357    0.1552799 -31.85  0.001221387    1.964    0.491
        21  -9.3986    210.9038    246.2538   6.7715088710e+01  -2.1370373423e+00    0.2144512    0.1542395 -43.14 0.0008775149    2.195    0.545
        22  -8.3173     94.1428    249.4496   8.9472548600e+01   1.3648223461e+01    0.2111463    0.1015709  59.84 0.0008499178    2.303    0.566
        23  -8.7126     78.0628    242.9944   9.2035676157e+01   1.6740473134e+01    0.3184625    0.1158454  56.45  0.001486437    2.890    0.654
        24  -8.5147     67.5188    244.1101   9.4122164532e+01   1.7882187798e+01    0.1408249    0.1016797 -88.14  0.001023344    1.566    0.361
        25  -7.9731     58.3281    244.6560   9.5888897278e+01   1.8902913012e+01    0.1202967    0.0570691  57.29 5.851198e-06    1.746    0.427
        26  -8.8231    168.8956    243.1158   7.4741019198e+01   4.0422194677e+00    0.1710325    0.1271541  42.19 0.0005914942    1.299    0.230
        27  -8.0872     34.3474    243.6970   1.0028225624e+02   2.1761473754e+01    0.1172445   0.05102221  55.62 0.0007040036    1.692    0.409
        28  -8.9573    194.3744    240.4095   6.9786959171e+01   7.5261495247e-01    0.2669975    0.1885691 -51.17  0.001245238    2.368    0.578
        29  -9.1585    183.2132    240.2232   7.1759577134e+01   2.3499027276e+00    0.3697229    0.2212784  56.14  0.001972964    2.845    0.648
        30  -9.2511    160.0313    240.1094   7.6015990634e+01   5.7065415274e+00    0.2736329    0.2123807  87.20   0.00127574    2.327    0.570
        31  -8.2085    153.4339    242.1789   7.7502441326e+01   6.3907075207e+00    0.1295472    0.1128382 -84.87 0.0009409455    1.723    0.420
        32  -7.7082     88.3400    242.1882   8.9997498165e+01   1.5533995668e+01    0.1406979   0.09555107  83.32  0.000710353    1.761    0.432
        33  -7.8664     49.3220    241.9959   9.7426695516e+01   2.0388040157e+01     0.168789   0.06086355  74.24 0.0007047831    4.273    0.766
        34  -8.4867    213.9875    241.0000   6.6465930256e+01  -1.9965755477e+00    0.1798638    0.1047083  10.76 0.0004299973    1.686    0.407
        35  -8.4383    146.4442    239.7177   7.8537317567e+01   7.7382150602e+00    0.2638974    0.1656506  70.47  0.001110754    3.142    0.682
        36  -9.0661    242.0320    236.9680   6.1269020959e+01  -5.2161137197e+00    0.3169067    0.1416339   8.97  0.001506811    3.295    0.696
        37  -9.1350    230.8804    236.0413   6.2933495603e+01  -3.7089352299e+00    0.2956201    0.1983907 -21.50  0.001474822    1.582    0.368
        38  -8.3351    209.1912    238.2254   6.6896214351e+01  -1.0510960762e+00    0.1391845    0.1159596  29.28 0.0005250902    1.367    0.268
        39  -8.3115    135.3937    238.3326   8.0500393952e+01   9.5426060988e+00    0.1277444    0.1114644  85.32 0.0005386673    1.526    0.345
        40  -8.2219     25.3715    236.5916   1.0163405527e+02   2.3892033183e+01    0.1914692   0.06797604  78.34 0.0009506643    3.148    0.682
        41  -9.3091    217.0252    235.5281   6.5171069611e+01  -1.8231042177e+00    0.2296238    0.1510435  38.94 0.0008697733    1.551    0.355
        42  -9.4512    213.7259    231.6886   6.5176518625e+01  -9.5550442014e-01    0.2636247    0.2175111  55.55  0.001245696    2.059    0.514
        43  -8.8883    203.0570    234.5972   6.7450376520e+01   2.0139370547e-01    0.1992785    0.1609979 -48.86 0.0008884855    2.021    0.505
        44  -9.8180    175.7553    233.2988   7.2207910502e+01   4.2867234795e+00    0.3752367    0.2151161 -53.27  0.002114862    2.812    0.644
        45  -8.4769    170.4635    235.8605   7.3530244695e+01   4.7350577611e+00    0.1361368    0.1162035 -31.69 0.0009198324    1.498    0.332
        46  -9.3200    108.3670    233.8834   8.5333149741e+01   1.4105260794e+01     0.312813    0.1808105  62.25 0.0009903335    2.007    0.502
        47  -8.7346     78.8061    234.4687   9.1247581034e+01   1.8035038934e+01    0.2176998    0.1265871  74.86  0.001291721    2.009    0.502
        48  -8.1221    122.8488    233.9749   8.2474735664e+01   1.2012068787e+01    0.1798345    0.1186921  68.89 0.0007249623    2.020    0.505
        49  -8.1904     99.6938    234.3115   8.7095964235e+01   1.5252299981e+01    0.1958594    0.1064831  57.99  0.001099577    1.864    0.463
        50  -9.9998     67.0416    230.7130   9.3296854325e+01   2.0171407284e+01    0.5940996    0.1954894  58.66  0.002424497    3.706    0.730
        51  -8.4505    194.4417    232.5122   6.8685427036e+01   1.6658634515e+00    0.1742183    0.1518748  68.61 0.0007186362    1.973    0.493
        52  -8.2735     92.4818    231.7051   8.8297441671e+01   1.6669010390e+01    0.3028514    0.1435016  67.15  0.001311598    3.216    0.689
        53  -9.3169    186.3595    230.4071   6.9855803710e+01   3.0941165793e+00    0.2530893    0.2122345 -70.86  0.001431873    2.162    0.537
        54  -7.9091    157.6759    231.5294   7.5392277558e+01   7.2069967588e+00    0.1668489     0.113056 -45.04 0.0006710315    1.914    0.477
        55  -7.9967    132.4385    232.2571   8.0393796203e+01   1.0865111528e+01    0.1379288    0.1134174  87.97 0.0007383909    1.650    0.394
        56  -9.1112    236.0735    230.4457   6.1252238605e+01  -3.8157740733e+00    0.2094522    0.1553427 -18.10 0.0008616059    1.447    0.309
        57  -8.8546      1.8709    230.5090   1.0573426541e+02   2.7179187564e+01    0.2403203   0.06041464  53.02  0.001274122    2.406    0.584
        58  -8.9622    151.2967    228.6451   7.6260390313e+01   8.5712909291e+00    0.2524394    0.1850808  74.80  0.001501125    2.216    0.549
        59  -9.3574    148.7706    224.4625   7.6223813336e+01   9.5621586376e+00    0.2898037    0.2055573  64.53  0.001719596    1.939    0.484
        60  -8.8510    140.1801    230.1563   7.8624257155e+01   1.0024750249e+01    0.2509261     0.119614  47.10 0.0008620888    1.888    0.470
        61  -8.2738    138.2963    227.2799   7.8651407816e+01   1.0735603859e+01    0.1629994    0.1432242  40.34            0    1.148    0.129
        62  -8.2108    229.9688    228.7154   6.1991682151e+01  -2.8361304754e+00    0.1676732    0.1331689 -27.67 0.0008707423    1.642    0.391
        63  -8.7775    162.4284    227.7266   7.3985639571e+01   7.0164330345e+00    0.2828089     0.169701  53.28  0.001385274    2.023    0.506
        64  -8.0213    223.3939    227.2528   6.2868931351e+01  -1.7954136969e+00    0.1296173    0.1005907 -26.30 0.0004037696    1.571    0.363
        65  -7.9464    178.0845    227.1668   7.0936956787e+01   4.7327001849e+00     0.157478    0.1193474  41.43 0.0004226042    1.309    0.236
        66  -8.6288    127.7505    226.9815   8.0723464257e+01   1.2364728772e+01    0.2758828    0.1490469  52.04  0.001447067    1.834    0.455
        67  -7.9161    120.0031    227.4959   8.2340398357e+01   1.3433567084e+01    0.1717439   0.07662727  51.99 0.0005907852    2.310    0.567
        68  -8.5331    206.0514    225.6228   6.5619123519e+01   8.1451528632e-01    0.1849689    0.1606463 -42.08  0.001003525    1.741    0.425
        69  -8.2994    200.0619    226.0548   6.6748523034e+01   1.6270853427e+00    0.1590278    0.1335061  48.65 0.0006016642    1.638    0.389
        70  -8.7250    180.8070    224.2450   7.0015729229e+01   4.7053655218e+00    0.2716142    0.1642759  51.32 0.0009813026    2.064    0.515
        71  -8.8010     94.1062    223.8771   8.7248343326e+01   1.7757404328e+01    0.3541695    0.1570995  58.81  0.001632139    2.695    0.629
        72  -8.7929    216.4442    223.1508   6.3431045777e+01  -3.7721040003e-01    0.1979373    0.1845437 -54.04 0.0008408838    1.887    0.470
        73  -8.6335    104.8215    223.4325   8.5000536649e+01   1.6310776129e+01     0.286304    0.1679778  70.59  0.001434172    2.321    0.569
        74  -7.7478     38.3697    224.2302   9.8577488745e+01   2.4684937352e+01    0.1474436   0.08526344  78.51 0.0005371266    1.638    0.389
        75  -9.4684    225.6426    221.9283   6.1673971163e+01  -1.5218252606e+00    0.2672887    0.2045543  27.26  0.001472953    1.258    0.205
        76  -8.4673    173.2703    222.9454   7.1256566951e+01   6.0221680381e+00    0.2025526     0.169964  68.22 0.0008299203    1.779    0.438
        77  -8.9097    159.2909    220.5085   7.3625662142e+01   8.5168640162e+00     0.282265    0.1756167  54.91  0.001110326    1.983    0.496
        78  -8.0532     49.9398    226.9898   9.6445563420e+01   2.2886089111e+01    0.2888018    0.1032385  58.87  0.001378538    2.659    0.624
        79  -9.5274    239.3330    221.0066   5.9267201015e+01  -3.2706635258e+00    0.2960722    0.2086998 -23.76   0.00136466    1.533    0.348
        80  -9.4267    192.4767    221.2336   6.7412195066e+01   3.3394402110e+00    0.2565693     0.214195  55.50  0.001148726    1.714    0.417
        81  -7.8274    140.4831    222.4739   7.7623196795e+01   1.1130708958e+01    0.1250531   0.09725709  39.62 0.0002955994    1.054    0.051
        82  -8.4097      8.6521    222.2890   1.0424539066e+02   2.8021622715e+01    0.1170802   0.05003585  55.92 0.0007024931    1.661    0.398
        83  -9.1930    120.7653    219.2509   8.1253277055e+01   1.4649027626e+01    0.4865523    0.2129596  57.74   0.00193356    3.563    0.719
        84  -8.1051     73.0016    220.3199   9.1292753343e+01   2.1233512837e+01    0.2390982    0.1156322  70.46  0.001161679    2.647    0.622
        85  -8.2487    202.5247    220.0314   6.5406327900e+01   1.9966929381e+00    0.1525265    0.1108737 -25.82 0.0005143404    1.538    0.350
        86  -7.8772     27.5178    220.0661   1.0051208485e+02   2.6593250693e+01    0.1568455   0.09422951 -88.91  0.001042724    1.621    0.383
        87  -9.4008    248.2110    217.0372   5.7215728149e+01  -4.0217124683e+00    0.3249062    0.2780046 -67.17  0.002077031    3.159    0.683
        88  -8.4772    179.3951    217.2202   6.9265463273e+01   5.8582277878e+00     0.140187    0.1187304 -49.41 0.0005463428    1.643    0.392
        89  -8.7761    169.3495    215.9595   7.1017141772e+01   7.5993009320e+00    0.2477286    0.2000106  88.23 0.0009958972    2.148    0.534
        90  -8.5233    143.0281    216.3497   7.6321180226e+01   1.1680887669e+01    0.2487024    0.1702496  65.12  0.001388743    2.004    0.501
        91  -8.7996     83.1133    220.4240   8.9203170008e+01   1.9870910790e+01    0.2920499    0.1578414  64.24  0.001507846    2.010    0.502
        92  -8.2984     62.1631    217.0756   9.3289708783e+01   2.3202977754e+01    0.2454748    0.1009784  53.89  0.001154034    2.095    0.523
        93  -7.7844     18.6339    216.1877   1.0209566506e+02   2.8195388019e+01    0.1379706   0.08833726 -77.65  0.000918292    1.655    0.396
        94  -9.2550    133.0469    215.9560   7.8316077721e+01   1.3302026645e+01    0.4413691    0.2589653  70.64  0.001974098    3.306    0.698
        95  -8.7732    232.4237    214.1870   5.9314246905e+01  -1.6029114928e+00    0.2523556    0.1877611 -28.75  0.001559988    1.592    0.372
        96  -7.7399     41.6812    215.3607   9.7411564570e+01   2.5943150315e+01    0.1277415   0.06111873  59.76 0.0007042891    1.766    0.434
        97  -8.1816    185.3162    213.9979   6.7660135726e+01   5.3767035208e+00    0.1629165    0.1409764  13.65 0.0005682746    1.138    0.121
        98  -8.6446     93.2668    213.8235   8.6438068681e+01   1.9633115681e+01    0.3163103    0.1520577  57.48  0.001511919    2.221    0.550
        99  -8.4292     76.9774    214.4599   8.9961865015e+01   2.1769187198e+01    0.2558084    0.1068487  46.97  0.001274438    1.885    0.469
       100  -8.9998     72.2943    211.1916   9.0674068094e+01   2.2994359536e+01    0.4157428    0.1781388  64.20  0.001811042    3.006    0.667
       101  -9.4317    213.9399    212.1437   6.2145097942e+01   1.2734239594e+00    0.3002024    0.2275026  45.19  0.001614541    1.651    0.394
       102  -7.9048    225.0023    212.2489   6.0248822641e+01  -3.4189295595e-01    0.1393399    0.1224032 -31.07 0.0004220553    1.621    0.383
       103  -8.4347    161.7784    212.1753   7.1963140873e+01   9.3480664363e+00    0.1867626    0.1495662  50.74 0.0008400708    1.366    0.268
       104  -7.8968    106.4873    212.5179   8.3481512893e+01   1.7937071243e+01    0.1282204   0.09954757  48.98 0.0008093821    1.067    0.063
       105  -9.0781    204.1905    210.4442   6.3612394836e+01   2.9409279119e+00    0.2222694    0.1809586 -37.85 0.0007423574    1.614    0.381
       106  -8.2378    192.4561    210.4608   6.5772818000e+01   4.7412071410e+00    0.1842407    0.1572353  55.97 0.0006315881    1.640    0.390
       107  -9.3745    175.5668    209.9594   6.8916989596e+01   7.4709520326e+00    0.3569908    0.2306563  60.77  0.001537374    2.550    0.608
       108  -8.7311    148.0750    210.3384   7.4474867341e+01   1.1823024970e+01    0.2732807    0.2024501  74.44  0.001368072    2.037    0.509
       109  -8.8867    116.2981    210.0483   8.1101510781e+01   1.6883127714e+01     0.288294    0.1829886  70.83 0.0009326853    2.156    0.536
       110  -9.2648      6.2596    208.2207   1.0424951278e+02   3.0834193264e+01    0.4743953    0.1376084  76.93  0.002078567    3.597    0.722
       111  -8.3186    210.2639    219.0304   6.3875825578e+01   9.8558469086e-01    0.1578238    0.1284854   6.50 0.0005026697    1.138    0.121
       112  -9.1985    236.5516    207.6211   5.7557894224e+01  -1.4446290669e+00    0.3101998    0.2045291 -37.70  0.001599104    1.973    0.493
       113  -8.1272    154.5874    215.2474   7.3836047167e+01   1.0029789853e+01     0.180199    0.1350037  62.85  0.001073646    1.750    0.428
       114  -8.3298     85.4566    209.1652   8.7649877615e+01   2.1584137573e+01    0.2382137    0.1179932  59.30  0.001163943    2.143    0.533
       115  -7.7453     46.4046    209.2222   9.6041817088e+01   2.6566639281e+01    0.1591786   0.09178792  79.15 0.0005801464    1.712    0.416
       116  -9.8409    248.5255    186.1554   5.1913982398e+01  -6.8815711001e-01     0.405772    0.2370969  -5.16  0.001872475    1.734    0.423
       117  -9.3470    246.3762    207.1347   5.5887323984e+01  -2.7377559175e+00    0.2407758    0.1731687 -10.17 0.0005528117    1.227    0.185
       118  -9.6793    249.9479    201.7646   5.4418576848e+01  -2.6387732631e+00    0.4280518    0.1830402 -32.19  0.002054239    2.354    0.575
       119  -9.3057    245.5851    193.2794   5.3644765012e+01  -1.0898745244e+00    0.2749164    0.2320123 -55.90   0.00131661    2.275    0.560
       120  -7.9995    156.5706    207.8080   7.2378305204e+01   1.0848450335e+01    0.1473952    0.1248091 -71.18 0.0006308379    1.662    0.398
       121  -8.3951    139.1445    207.7310   7.5965984363e+01   1.3676391117e+01    0.1950188    0.1694479  78.86 0.0006417551    1.439    0.305
       122  -9.0061     51.4338    216.8672   9.5499351273e+01   2.4542512825e+01     0.247231    0.1456687  77.49  0.001117412    1.687    0.407
       123  -9.1750     99.4409    205.9303   8.4264994115e+01   2.0166028831e+01    0.3590419    0.1996794  67.64    0.0012089    2.387    0.581
       124  -8.6121     56.3063    205.3707   9.3645354063e+01   2.6133049282e+01     0.202936    0.1160791  73.84 0.0007271419    1.777    0.437
       125  -7.8888     12.2990    206.6757   1.0298229530e+02   3.0585294875e+01    0.1199151   0.05621215  59.45 0.0007026065    1.630    0.386
       126  -8.9925    183.8385    203.8367   6.6360098586e+01   7.0156719082e+00    0.2843215    0.2117644  58.52  0.001559805    1.892    0.472
       127  -8.1205    109.0537    205.0173   8.2059806285e+01   1.8884196654e+01    0.1981256    0.1312622  61.72 0.0006010598    1.604    0.376
       128  -8.2372     65.9323    204.5604   9.1480959892e+01   2.5081837011e+01    0.2426062    0.1402088 -46.90  0.001284665    2.533    0.605
       129  -9.3091    194.7505    203.3065   6.4199496552e+01   5.3429274074e+00    0.3094772    0.2365204 -28.01  0.001264948    1.455    0.313
       130  -9.3160    192.4628    197.0414   6.3595182811e+01   6.5775738721e+00    0.2766256    0.2442961 -59.75 0.0008571502    1.693    0.409
       131  -9.4757    163.7429    202.8300   7.0177559525e+01   1.0445237347e+01    0.3884015    0.2364513  54.39  0.001189171    2.020    0.505
       132  -8.5946    131.2319    203.6431   7.7084532824e+01   1.5635691886e+01    0.2536853    0.1791598  69.23 0.0009186583    1.853    0.460
       133  -9.0950    243.1341    200.5026   5.5287800792e+01  -1.5639553807e+00    0.2667524    0.1522332 -27.25  0.001011212    1.720    0.419
       134  -8.3567    210.9568    201.9336   6.1002524035e+01   2.9902765729e+00    0.1644966    0.1509997  62.66 0.0007772262    1.731    0.422
       135  -8.3809     48.6098    202.2629   9.5087784655e+01   2.7660098036e+01    0.2030576    0.1032129  61.74   0.00109937    1.782    0.439
       136  -7.7546     41.3234    202.6650   9.6696023528e+01   2.8414532462e+01    0.1299973   0.06512421  59.80 0.0007050773    1.711    0.416
       137  -8.6780    140.4824    200.7047   7.4697653528e+01   1.4628118240e+01     0.306808    0.1897393  58.49    0.0015298    1.985    0.496
       138  -8.3484     80.0062    201.0637   8.8043167173e+01   2.3875372366e+01    0.2714737    0.1193995  55.88  0.001232471    2.317    0.568
       139  -9.4521    149.7479    198.6088   7.2426687891e+01   1.3441316761e+01    0.3929271    0.2626649  69.14   0.00145474    2.419    0.587
       140  -8.7161    124.0962    199.0460   7.8006828753e+01   1.7590392739e+01     0.291003    0.1993113  76.23  0.001057116    2.071    0.517
       141  -9.4286    112.9471    198.1996   8.0356335531e+01   1.9522564838e+01     0.434395    0.2381442  65.22  0.001650245    2.655    0.623
       142  -9.1075     88.7946    198.3868   8.5791912966e+01   2.3146529408e+01    0.3772215    0.2203248  76.04  0.001877661    2.240    0.554
       143  -9.1708    237.1159    198.1871   5.5870185764e+01  -4.4826831575e-01    0.2636798    0.1460466 -32.07  0.001210253    1.886    0.470
       144  -8.3015    177.0156    198.9430   6.6906207899e+01   8.8413213215e+00    0.1826649     0.150458  63.19  0.000596581    1.674    0.403
       145  -8.2815    202.2888    197.6474   6.1856441165e+01   4.9098426708e+00    0.1906688    0.1502174 -44.19 0.0006958235    1.702    0.412
       146  -8.9337     61.3315    196.9230   9.1844869476e+01   2.7169887157e+01    0.4196306    0.2017729  67.77  0.001614102    2.375    0.579
       147  -8.3166     53.8692    196.7566   9.3507536426e+01   2.8127687493e+01    0.2473819    0.1204497  67.14  0.001227436    2.160    0.537
       148  -8.0117     29.5039    197.4762   9.8936031490e+01   3.0712953879e+01    0.1184288   0.08902745  62.10 0.0001185735    1.017    0.017
       149  -8.4795     12.4049    196.6617   1.0255600561e+02   3.2527197684e+01    0.2212165   0.07147258  79.07 0.0009564695    3.309    0.698
       150  -8.7583    215.9071    195.3956   5.9008554202e+01   3.0629134238e+00    0.2041153    0.1658328 -42.33 0.0008299592    1.696    0.410
       151  -8.9614    185.2829    194.7870   6.4598322419e+01   8.0832554259e+00    0.2253758     0.206768 -87.74 0.0007186356    1.640    0.390
       152  -8.1457    133.0050    195.9166   7.5620809394e+01   1.6688370919e+01    0.2029395    0.1440078  63.04 0.0006641704    1.668    0.400
       153  -7.9903     36.3652    196.2337   9.7361168098e+01   3.0238612543e+01    0.1664627   0.09151424  81.81 0.0009424197    1.759    0.431
       154  -8.6541    224.6385    193.8666   5.7219059398e+01   1.9150550524e+00    0.2440328    0.1325676 -37.11 0.0009222875    2.077    0.519
       155  -7.9754    209.3858    195.2690   6.0153515519e+01   4.1006969488e+00    0.1535733    0.1134912 -39.27 0.0004329607    1.678    0.404
       156  -8.8306    160.7762    194.0023   6.9403261814e+01   1.2335076252e+01     0.272806    0.2285268  75.21 0.0008863004    1.655    0.396
       157  -8.1825    230.9866    194.2227   5.6201758638e+01   9.1716274519e-01    0.1681306    0.1316474  11.54 0.0005167942    1.024    0.024
       158  -8.7738     77.0231    193.7418   8.7973992090e+01   2.5726729058e+01    0.2364118    0.1723169  64.80 0.0005494046    1.262    0.208
       159  -9.0276     43.8193    193.0193   9.5480670737e+01   3.0064015236e+01    0.4221522     0.176708  63.52  0.001971927    2.456    0.593
       160  -8.1756    199.0761    191.6640   6.1428279894e+01   6.2511169316e+00    0.1920688    0.1675644 -30.40 0.0005795228    1.372    0.271
       161  -8.5687    172.7761    191.7260   6.6569192213e+01   1.0652443101e+01    0.2114748    0.1733751 -86.52  0.001200627    1.995    0.499
       162  -9.1398    139.4882    190.4315   7.3387988571e+01   1.6567646231e+01    0.3358907    0.2442992  78.67  0.001469601    2.048    0.512
       163  -7.7510    205.2306    191.6068   6.0275825421e+01   5.2565012122e+00    0.1069157    0.0992109 -60.34 0.0004024028    1.644    0.392
       164  -8.0804    179.0187    191.2885   6.5242128139e+01   9.6579004842e+00    0.1810988    0.1526966  26.84 0.0005841617    1.043    0.042
       165 -10.3606     92.6679    188.7661   8.3795458707e+01   2.4462475838e+01    0.9977171    0.2279339  46.12  0.003217934    3.942    0.746
       166  -8.3813     21.1589    191.0005   1.0040388350e+02   3.2850624325e+01    0.3260253   0.09859268  60.83  0.001377929    3.150    0.683
       167  -8.2286      6.4775    190.5094   1.0356686278e+02   3.4277011554e+01    0.1133737   0.08441306  66.01 0.0003620429    1.004    0.004
       168  -8.3517    237.0948    188.4686   5.4168206208e+01   7.0491908288e-01    0.1786619    0.1364291 -11.88 0.0006431223    1.187    0.158
       169  -8.9138    216.6481    187.8101   5.7543062660e+01   3.9332566375e+00    0.2665335    0.1996551 -49.94  0.001011313    2.022    0.505
       170  -8.3599    148.4817    189.0111   7.1209753470e+01   1.5274871469e+01    0.2132228    0.1706264  70.91 0.0009912612    1.618    0.382
       171  -8.7391    129.3339    188.4553   7.5340564416e+01   1.8643475502e+01    0.2659068    0.2005268  66.68 0.0008129041    1.553    0.356
       172  -9.5767    120.7167    186.1348   7.6950920862e+01   2.0520382622e+01    0.4559721    0.2713067 -77.17  0.002057859    2.705    0.630
       173  -8.7885     34.2353    187.7942   9.7287431279e+01   3.2191351344e+01    0.2949491    0.1390792  70.10  0.001503568    2.085    0.520
       174  -8.7234    191.6392    187.3963   6.2096222631e+01   8.1010355771e+00    0.2707016    0.2150238  74.62  0.001455492    2.205    0.547
       175  -9.2293    156.0927    187.4026   6.9317332596e+01   1.4230953457e+01    0.2883116    0.2339409 -74.32 0.0009379996    1.746    0.427
       176  -8.9957     54.7304    186.6970   9.2468978488e+01   3.0080401699e+01    0.4058975    0.1757363  66.55  0.001565896    2.792    0.642
       177  -8.3789    230.4905    187.0320   5.5010327521e+01   1.8749077650e+00    0.1721711    0.1088442 -27.38  0.001020943    1.564    0.361
       178  -8.7141    165.0160    186.6886   6.7317969151e+01   1.2795275099e+01    0.2560429    0.2030084  82.86  0.001392117    2.002    0.500
       179  -9.1295    109.6248    185.9546   7.9482898908e+01   2.2373842174e+01    0.3642264    0.2149089  65.80   0.00122317    2.221    0.550
       180  -9.0773    210.1219    184.1023   5.8046222335e+01   5.4865572281e+00    0.2341831    0.1693384 -30.84 0.0006259467    1.473    0.321
       181  -8.6154    202.8887    184.4825   5.9445224836e+01   6.6307812774e+00    0.2059596    0.1793326 -47.50  0.000704822    1.568    0.362
       182  -8.5038    182.9172    184.6367   6.3317089128e+01   1.0007444158e+01    0.2187546    0.1785151 -63.83 0.0007587404    1.831    0.454
       183  -9.0805     66.8460    184.2890   8.9383724290e+01   2.9038980517e+01    0.3767997    0.1787881  56.56 0.0009301192    2.063    0.515
       184  -8.7766    224.0687    183.3278   5.5434777916e+01   3.3429879581e+00    0.2392953     0.156899 -36.55 0.0007052004    1.718    0.418
       185  -8.8248    174.2506    183.5364   6.4869746205e+01   1.1690099852e+01    0.2423528    0.2059542  72.79 0.0007471022    1.659    0.397
       186  -9.0138     44.4629    182.0256   9.4491143768e+01   3.2278002446e+01    0.3328244    0.1845172  67.85 0.0009875441    1.718    0.418
       187  -8.1507      1.8202    183.5538   1.0431123932e+02   3.6074395668e+01    0.1612126   0.07363532  45.36 0.0009396224    1.720    0.419
       188  -9.0955    147.5196    180.5804   7.0043085331e+01   1.6922103880e+01    0.3016711    0.2365171  74.92  0.001089867    1.726    0.421
       189  -7.7551     90.3296    181.3119   8.3426751185e+01   2.6325204437e+01    0.1244582     0.104209  -7.05 0.0007042881    1.670    0.401
       190  -9.3961     25.5389    178.5188   9.8695485491e+01   3.5028600125e+01    0.6264282    0.2002875  72.18  0.002224834    4.419    0.774
       191  -8.1057    240.4967    179.9918   5.2073993068e+01   1.2260407844e+00    0.1520601   0.09885518 -48.49 0.0008103438    2.529    0.605
       192  -8.6441    137.7669    179.0880   7.1974997759e+01   1.8918625728e+01    0.3178602    0.2097581  62.11  0.001267978    1.903    0.475
       193  -9.4658    191.5294    178.1467   6.0452972224e+01   9.5004815657e+00    0.2844042    0.2352059  66.28 0.0006445748    1.756    0.430
       194  -8.8244    250.4472    172.3048   4.9067270910e+01   6.6921197811e-01    0.2164646    0.1566554 -21.89 0.0006249356    1.273    0.215
       195  -9.3545    248.9582    177.1758   5.0207687111e+01   3.0544249647e-01    0.2603269    0.2389103  69.50  0.001129564    1.931    0.482
       196  -8.9446    247.3072    173.6829   4.9814968624e+01   9.7138691819e-01    0.1927589    0.1492655 -10.41 0.0006202914    1.114    0.102
       197  -8.7586    231.2029    176.7312   5.3000530202e+01   3.0691929862e+00    0.2681978    0.1500089 -36.64  0.001040911    1.919    0.479
       198  -8.6166    217.6532    177.0836   5.5402076877e+01   5.2081648779e+00    0.2206401    0.1980284 -48.87 0.0009041752    1.593    0.372
       199  -8.6017    205.2836    177.3400   5.7690723584e+01   7.2448871845e+00    0.2740312    0.1852818 -50.23  0.001169253    2.103    0.524
       200  -8.1894    169.4005    178.2456   6.4935755126e+01   1.3412356423e+01    0.1695885     0.131244 -54.32 0.0005103349    1.649    0.393
       201  -8.5764    129.4045    177.3964   7.3613635161e+01   2.0704371230e+01    0.2947391    0.1915504  72.08  0.001126942    2.340    0.573
       202  -8.9581     35.9791    176.5958   9.6089240819e+01   3.4375774128e+01    0.4394489    0.1648452  70.41  0.001721963    3.446    0.710
       203  -7.8415     97.5080    177.4573   8.1190559564e+01   2.6012591282e+01    0.1341845     0.118981  47.04   7.7971e-05    1.067    0.063
       204  -8.7548     89.2700    176.7447   8.3098739722e+01   2.7434450189e+01    0.2925754    0.1813721  63.17 0.0009274804    1.726    0.420
       205  -9.9918     57.4809    173.2620   9.0542969149e+01   3.2606304353e+01    0.8145185    0.3364089  74.48  0.002760807    4.442    0.775
       206  -9.0078     12.7218    175.9406   1.0153279127e+02   3.6757851841e+01    0.3450323    0.1349302  75.90  0.001639349    2.489    0.598
       207  -7.9135    211.5297    176.4775   5.6384858668e+01   6.3106991407e+00    0.1290196    0.1088706  12.02 0.0001047375    1.029    0.028
       208  -8.8990    183.0630    175.8413   6.1700434287e+01   1.1354594937e+01    0.2297721    0.2189315 -62.32 0.0006964002    1.379    0.275
       209  -9.3096    158.6213    174.7338   6.6602240232e+01   1.5960285619e+01     0.357782    0.2724956  84.57  0.001057993    2.113    0.527
       210  -9.3936    104.2493    174.5776   7.9150454669e+01   2.5525741299e+01    0.4975498    0.2426255  61.21  0.001759878    2.993    0.666
       211 -10.6687     75.8276    169.9181   8.5570427427e+01   3.0875994960e+01     1.177395    0.4480038 -78.76  0.003757921    4.849    0.794
       212  -9.6616     81.4364    155.2307   8.2135185402e+01   3.3319159194e+01    0.5257127    0.4888298 -34.05  0.002220052    1.309    0.236
       213  -8.3825    224.4697    173.9995   5.3630969490e+01   4.5072858664e+00    0.1808184    0.1145189 -30.50 0.0006320754    1.575    0.365
       214  -9.4721    175.8769    172.2568   6.2497076353e+01   1.3232043777e+01    0.3004065    0.2625032 -43.88 0.0006973754    1.348    0.258
       215  -8.1008    142.8825    172.5848   6.9717370449e+01   1.9213020154e+01     0.200164    0.1169314  49.12 0.0006608748    1.669    0.401
       216  -8.4019    134.8781    171.4642   7.1362591121e+01   2.0871512595e+01    0.2398122    0.1961568 -85.20 0.0008112277    1.554    0.357
       217  -9.1696     45.2553    170.8438   9.3351278133e+01   3.4605492127e+01    0.3567983    0.1680175  74.62  0.001366272    2.488    0.598
       218  -9.5274    121.3618    170.0423   7.4315261958e+01   2.3552031509e+01    0.3603322    0.2617918 -85.22  0.001007251    1.847    0.459
       219  -8.4994    237.2223    169.3351   5.0603195865e+01   3.0689020761e+00    0.2011906      0.15761 -15.57 0.0006817094    1.165    0.142
       220  -9.1293    230.2912    168.7323   5.1633977074e+01   4.2601221320e+00     0.374687    0.1612667 -41.68  0.001668989    2.795    0.642
       221  -8.4409    205.7930    170.0722   5.6218792202e+01   8.2114300679e+00    0.1822771    0.1754662 -26.51 0.0005611706    1.326    0.246
       222  -8.6807    198.4891    169.9070   5.7560391727e+01   9.5225454134e+00    0.2250716    0.2079054  62.93 0.0007396336    1.453    0.312
       223  -8.5087    149.9523    169.4929   6.7573064677e+01   1.8491001786e+01    0.2422031    0.1981779 -81.93 0.0008744817    1.663    0.399
       224  -8.6320    244.6047    169.0775   4.9368921692e+01   1.9488068173e+00    0.1828623    0.1606784  17.74 0.0005403635    1.256    0.204
       225  -9.0082    167.1420    168.5157   6.3628875878e+01   1.5474070245e+01    0.3184639    0.2193059  61.29  0.001133779    1.939    0.484
       226  -8.3298     88.8368    168.6468   8.2122237045e+01   2.9222430400e+01    0.2610558    0.1600965  76.02  0.001205087    2.108    0.526
       227  -8.4412    218.8221    168.1354   5.3489783107e+01   6.2463338480e+00    0.1798854    0.1656058  -4.67 0.0004416499    1.216    0.178
       228  -8.0030    211.3853    168.1257   5.4816565523e+01   7.5217698420e+00    0.1714434    0.1170004 -42.80 0.0005109144    1.747    0.428
       229  -8.6765    111.6957    167.4687   7.6247145658e+01   2.5750261014e+01    0.3678775    0.1841496  60.84  0.001379695    2.951    0.661
       230  -8.8739    191.8851    166.5592   5.8188346871e+01   1.1227477872e+01     0.232996    0.1899193 -36.15 0.0005584047    1.355    0.262
       231  -8.4738    185.1279    166.3915   5.9495939956e+01   1.2493173952e+01     0.240463    0.1766395 -56.45 0.0006807797    1.885    0.470
       232  -9.6637    137.1131    164.3780   6.9597806915e+01   2.1834948590e+01     0.688538    0.2865245  54.33  0.002138997    3.454    0.710
       233  -9.1024     20.5602    165.9379   9.9092613256e+01   3.8228453065e+01    0.3273414    0.1290277  54.08   0.00157831    2.198    0.545
       234  -8.4233    233.9858    164.7828   5.0253184906e+01   4.1810585585e+00    0.2062738    0.1491624 -39.60 0.0007995504    1.631    0.387
       235  -8.7435    159.5393    164.0442   6.4429916454e+01   1.7690589069e+01    0.2525978    0.2216689  89.03 0.0007999381    1.486    0.327
       236  -8.3254    240.1935    163.8985   4.9071988952e+01   3.2963187430e+00    0.1785871    0.1565614 -19.94 0.0005598643    1.273    0.215
       237  -8.5755    212.9536    163.4451   5.3614702145e+01   7.9244961236e+00    0.2204389    0.1755048 -41.47 0.0005734364    1.500    0.333
       238  -8.3867     57.1502    163.6200   8.9613735521e+01   3.4785359322e+01    0.3987259    0.1866767  14.67  0.001360196    4.702    0.787
       239  -9.5141     33.5259    163.1774   9.5646569584e+01   3.7586820204e+01    0.5272108    0.1797256  51.73  0.002206464    2.667    0.625
       240  -8.8882    246.0474    162.9411   4.7960115666e+01   2.4943985468e+00    0.1870517    0.1532379  -2.89 0.0004746705    1.040    0.039
       241  -8.5826    204.9708    162.5359   5.4895671898e+01   9.4760090080e+00    0.2232068    0.1809446 -43.78 0.0005632921    1.490    0.329
       242  -9.2835      3.4667    162.2273   1.0305902806e+02   4.0463433753e+01    0.4170861    0.1410806  53.19  0.001922065    2.409    0.585
       243  -8.9194    151.8936    160.9099   6.5539334944e+01   1.9719111673e+01    0.3028023    0.2395625  86.49  0.001063624    1.806    0.446
       244  -9.1568    177.4443    160.4538   5.9898000437e+01   1.4917005712e+01    0.2579463    0.2319682 -72.27 0.0006900616    1.471    0.320
       245  -8.6476     60.9361    160.1286   8.8229204360e+01   3.5089973559e+01    0.3994773    0.1745093  55.63  0.001676699    2.426    0.588
       246  -9.3696    245.4268    158.5091   4.7188673215e+01   3.1550696922e+00    0.2289745      0.13566 -18.49 0.0006521647    1.585    0.369
       247  -9.8034    250.2485    157.3620   4.6221438864e+01   2.5403051748e+00     0.318026    0.1669434 -33.40  0.000868628    1.797    0.443
       248  -8.6606    246.7363    155.3350   4.6357224476e+01   3.3528952690e+00    0.1699455    0.1384392 -18.31 0.0005475993    1.154    0.134
       249  -8.7514    227.3731    158.6654   5.0145998584e+01   6.1073173347e+00    0.2871817    0.1753239 -44.17  0.001226548    2.017    0.504
       250  -8.7019    237.1136    158.8416   4.8572516022e+01   4.4548895210e+00    0.1810511    0.1636715 -17.49 0.0006398174    1.261    0.207
       251 -10.0309     95.1212    162.7075   7.9668070981e+01   2.9518573884e+01    0.8090445    0.3906727  68.14  0.002575373    4.414    0.773
       252  -9.6178    105.9385    157.8853   7.6129986996e+01   2.8763938320e+01    0.4834297     0.282595  65.14  0.001182031    2.291    0.564
       253  -8.6247    196.7976    157.7460   5.5479149140e+01   1.1709725515e+01    0.2230884    0.1775092 -64.36 0.0007143711    1.892    0.471
       254  -8.5238    188.0850    157.5102   5.7139144535e+01   1.3385854451e+01    0.2374607    0.1905027 -52.90 0.0006176097    1.574    0.365
       255  -9.0842    167.5130    157.0765   6.1327009195e+01   1.7412785235e+01    0.3221315    0.2589793  88.94  0.001060539    1.867    0.465
       256  -8.6171    217.9383    156.4042   5.1314224156e+01   8.0649054022e+00    0.2493473    0.1698161 -44.91  0.001021768    1.785    0.440
       257  -9.2665     50.0014    155.3361   9.0593749898e+01   3.7548500404e+01    0.4464726    0.1898869  58.99  0.001729273    2.644    0.622
       258  -9.0185    157.6796    155.6319   6.3202802257e+01   1.9587954633e+01    0.3098216    0.2237774 -46.72  0.001580155    1.533    0.348
       259  -9.2517    119.5365    154.8917   7.2154517185e+01   2.6994501105e+01    0.3786833    0.2643244 -90.00   0.00137795    2.059    0.514
       260  -9.8071    241.7500    153.9438   4.6854680508e+01   4.3402264964e+00    0.3067135    0.2383369  72.13  0.001720681    2.363    0.577
       261  -8.1623    204.7795    154.9976   5.3406035774e+01   1.0655667017e+01    0.1979345    0.1506829 -57.34 0.0006840238    1.892    0.472
       262  -8.8860    144.5262    154.5662   6.6010555235e+01   2.2347488779e+01    0.2728766    0.2231374  68.53 0.0007984207    1.440    0.306
       263  -9.6749     67.9859    153.6197   8.5531160174e+01   3.5633890030e+01    0.4341064    0.2355529  64.14  0.001399146    2.129    0.530
       264  -8.5232    232.9587    153.9831   4.8273251265e+01   5.8003313354e+00    0.1800111    0.1566109 -55.61 0.0007676914    1.660    0.398
       265 -10.3159    133.1868    151.5186   6.8132833825e+01   2.5140315154e+01    0.6507359    0.3711536 -51.34  0.001783712    1.928    0.481
       266 -10.4594    148.9753    144.8430   6.2991645689e+01   2.3373258549e+01    0.6298383    0.4316825  88.15  0.001687012    2.727    0.633
       267  -9.6484     29.1883    150.2914   9.5703371387e+01   4.0958942214e+01    0.5317906    0.2032045  67.24   0.00206801    3.255    0.693
       268  -9.2834     20.0366    152.1076   9.8284243160e+01   4.1383021833e+01    0.2111189    0.1115897  63.41 0.0009762013    1.727    0.421
       269  -8.8243      3.2806    150.9140   1.0255822321e+02   4.2982835970e+01    0.3257538    0.1171525  87.71  0.001079096    2.563    0.610
       270  -8.1990    250.5596    140.7406   4.2823917781e+01   4.6195303883e+00    0.1657165     0.146242  -3.50  0.000665203    1.114    0.103
       271  -9.6146    248.9245    149.2278   4.4799594231e+01   3.7866070172e+00    0.3369324    0.1563776 -30.92 0.0007738147    1.937    0.484
       272  -8.9295    247.1712    143.5555   4.3907611539e+01   4.8114797660e+00    0.2372034    0.1742774 -24.42 0.0005186091    1.215    0.177
       273  -8.9197    189.4005    149.8795   5.5297959038e+01   1.4389762793e+01    0.2721126    0.2229382 -62.66 0.0008042936    1.666    0.400
       274  -8.2727    182.6211    151.0927   5.6919717745e+01   1.5508821304e+01    0.2088117     0.176782 -59.47 0.0008417582    1.509    0.337
       275  -8.7122     98.3567    150.5918   7.6883380325e+01   3.1655393420e+01    0.3038034    0.2060087  69.16 0.0007912769    1.742    0.426
       276  -8.8271    243.2352    149.5571   4.5736251976e+01   4.6731268714e+00    0.2424138    0.1522631 -27.72  0.001234535    1.443    0.307
       277  -8.5340    213.0092    149.5266   5.0768813225e+01   9.9668572652e+00    0.2280562    0.1796319 -41.97 0.0005344263    1.452    0.311
       278  -8.1909    162.4404    150.3127   6.1058988692e+01   1.9635914951e+01    0.2373282    0.1725167  61.92 0.0005747651    1.696    0.410
       279  -8.5508    198.7753    148.7176   5.3227207439e+01   1.2768002693e+01     0.242807    0.1816983 -43.55 0.0006239316    1.504    0.335
       280 -10.0884     89.3667    146.1951   7.8572790317e+01   3.4135616830e+01    0.6724149    0.3707813  84.29  0.002416351    3.385    0.705
       281  -9.6836     39.8989    147.6554   9.2529920026e+01   4.0480231816e+01    0.5455928    0.2399402  63.06  0.002084791    2.604    0.616
       282  -8.7890    233.5463    147.3870   4.6826086759e+01   6.6039977764e+00    0.2945085    0.1166751 -30.29  0.001033921    2.410    0.585
       283 -10.4081     55.1145    144.7655   8.7940315747e+01   3.9393857258e+01    0.8911531    0.4305564  71.89  0.003513643    2.907    0.656
       284  -9.6433     57.0838    135.0000   8.6054002449e+01   4.1475046941e+01    0.3478173    0.2097917  14.71  0.001584364    2.348    0.574
       285  -8.4104    223.4813    146.8971   4.8392727615e+01   8.4477400897e+00    0.2175187     0.186454  57.41 0.0007372455    1.518    0.341
       286  -9.1960     77.9248    146.7048   8.1813463784e+01   3.5802523610e+01    0.2651073    0.1952417 -83.31  0.000837579    1.424    0.298
       287  -9.4965     13.2942    145.8871   9.9640509649e+01   4.3373010744e+01    0.3510941    0.1647183  70.09  0.001524468    2.033    0.508
       288  -8.0400    206.7472    146.5246   5.1269877272e+01   1.1593482199e+01    0.1737838    0.1301123  53.36 0.0005444991    1.564    0.361
       289  -8.2941    175.6704    146.1281   5.7312898960e+01   1.7746589396e+01    0.2119212    0.1792559 -60.66  0.000558524    1.474    0.322
       290  -9.7969    139.0202    144.8080   6.5365221131e+01   2.5369592228e+01    0.3778872    0.2742343 -80.13  0.001119721    2.016    0.504
       291 -10.4855    241.2402    143.5208   4.4805934714e+01   5.8114569941e+00    0.4982972    0.3210414   1.56  0.002667443    1.741    0.426
       292  -9.7530    125.0813    142.5953   6.8392457669e+01   2.8559211841e+01    0.5295016    0.3562767  89.19  0.001568854    2.440    0.590
       293 -10.2285    106.7892    144.1287   7.3481462380e+01   3.1630975062e+01    0.7675393    0.4636286  76.19  0.002524515    2.793    0.642
       294  -8.8045    165.6456    143.7945   5.8973052118e+01   2.0194638480e+01    0.2568892    0.2270101 -54.81 0.0006256234    1.298    0.230
       295 -10.9408     69.7595    140.9123   8.3231785977e+01   3.8352558859e+01    0.6028307    0.3618723 -88.21  0.002240392    2.010    0.502
       296  -8.5236    182.0391    141.1469   5.4906772700e+01   1.7333142067e+01    0.2855584    0.1964742 -49.95  0.001005564    1.709    0.415
       297  -9.3968      2.7011    141.4891   1.0221106853e+02   4.5159672766e+01    0.3621219    0.1534323  62.62  0.001390409    2.158    0.537
       298 -10.0733     23.4715    137.9986   9.6214483262e+01   4.4365211122e+01      0.50646    0.2147223  63.83  0.001867143    2.560    0.609
       299  -7.8737    218.5562    138.4754   4.7438471450e+01   1.0587891717e+01    0.1331295    0.1211976  -7.08 0.0005066337    1.075    0.070
       300  -8.3412    207.3194    137.4353   4.9197410282e+01   1.2899854474e+01    0.2232925    0.1595922 -50.76 0.0007943315    1.739    0.425
       301  -8.5673    197.4999    137.2583   5.0985625630e+01   1.4869231267e+01     0.264656    0.2115465 -67.52  0.001004057    1.799    0.444
       302 -10.5346     83.4168    132.9688   7.7960708135e+01   3.8170859492e+01    0.6030067    0.3695041 -71.89  0.001427815    1.810    0.447
       303  -9.0077    248.4459    135.1710   4.1975930918e+01   5.7042288995e+00    0.2690444    0.1914774 -31.91 0.0007316791    1.317    0.240
       304  -9.0675    151.3720    135.7549   6.0461706554e+01   2.4670248772e+01    0.5013655    0.2186335  36.15  0.001798561    2.507    0.601
       305  -7.8855    187.8014    135.6827   5.2525183908e+01   1.7097706573e+01    0.2135333    0.1050774 -45.86 0.0005741008    2.298    0.565
       306  -8.1757    162.6502    136.1432   5.7957191395e+01   2.2241043453e+01    0.2214149    0.1836601 -62.72 0.0007237484    1.455    0.313
       307  -8.8806     38.9470    135.8180   9.1514281432e+01   4.3390857193e+01    0.2610274    0.1749192  57.02 0.0006096783    1.416    0.294
       308  -7.7677    231.3988    134.1680   4.4373976454e+01   8.8379747235e+00    0.1766101    0.1134021 -37.93  0.000478216    1.555    0.357
       309  -8.5735    179.5753    133.8169   5.3777290140e+01   1.9124470162e+01    0.2593016    0.2140927 -69.58 0.0008887341    1.609    0.378
       310  -8.8844    112.7670    133.1458   6.9702456473e+01   3.2977415578e+01    0.3372533    0.2452108  74.42 0.0009038539    1.735    0.424
       311  -9.8779    132.6502    131.3641   6.4072460717e+01   2.9437833048e+01    0.5766003    0.3793913  71.30 0.0009221868    2.269    0.559
       312  -9.2597    143.0837    131.4234   6.1478110396e+01   2.7267752734e+01    0.3156479    0.2750481 -82.02 0.0007639628    1.359    0.264
       313 -10.1529     97.8058    129.4104   7.3115416155e+01   3.6575862249e+01    0.6479307    0.2527242 -52.78  0.002369027    2.593    0.614
       314  -8.8372    250.7209    129.2872   4.0405381140e+01   6.0968120972e+00    0.4454781   0.09704165 -32.09  0.001480939    3.997    0.750
       315 -10.1682     12.9811    128.7290   9.8470208733e+01   4.7412682414e+01    0.5868485    0.2608916  73.49  0.001790319    2.345    0.574
       316  -8.3751    247.0163    129.9942   4.1090362906e+01   6.6393664302e+00    0.1969827    0.1599315 -20.25 0.0006249364    1.081    0.075
       317  -8.1369    204.5006    130.0768   4.8064892224e+01   1.4624286157e+01    0.2085076    0.1323301 -35.18 0.0005519729    1.545    0.353
       318  -8.2024    192.8953    130.1103   5.0256300209e+01   1.6991172433e+01    0.2060979    0.1951291 -67.51  0.000465529    1.268    0.212
       319  -9.1498    168.3350    129.3720   5.5149680560e+01   2.2307211408e+01    0.2956017    0.2413149  87.69 0.0005422439    1.675    0.403
       320  -9.3529    152.9172    128.9858   5.8559162670e+01   2.5679031288e+01    0.3820077    0.2539614 -61.00 0.0009352386    1.959    0.489
       321 -10.2939     73.1319    128.6778   8.0247591386e+01   4.0781880774e+01    0.4798316     0.298912 -84.54  0.001422833    1.935    0.483
       322  -8.7262    172.3707    137.9823   5.6236154773e+01   1.9877188076e+01    0.3319147    0.2353065 -67.05 0.0008661422    2.130    0.530
       323  -7.9574      1.4614    129.9436   1.0188943486e+02   4.7907676283e+01    0.1748149    0.0724263  70.39 0.0008056398    2.337    0.572
       324  -8.1776    211.7228    129.1404   4.6559488635e+01   1.3328454710e+01    0.2152499    0.1479332 -69.06 0.0009339423    2.706    0.631
       325  -7.9543    186.6667    129.3138   5.1298855439e+01   1.8425714690e+01    0.1415714    0.1177768 -83.37 0.0007045706    1.683    0.406
       326  -8.6994    161.5283    129.5171   5.6697304855e+01   2.3735888895e+01    0.1483461    0.1424319  37.84 2.886323e-05    1.046    0.044
       327 -10.9658     60.0610    123.8179   8.3434925051e+01   4.3799299952e+01     1.048275    0.5450583 -83.92  0.004086732    2.485    0.598
       328 -10.8329     45.0730    123.6518   8.8107754029e+01   4.5675651029e+01     1.130206     0.515187  73.19  0.004015069    3.587    0.721
       329  -9.8003    117.9812    125.0396   6.6526239075e+01   3.3766865671e+01    0.5681145    0.3551148  74.28  0.001361339    2.715    0.632
       330  -7.7024    228.4834    124.9756   4.2819714816e+01   1.0702180906e+01    0.1807812    0.1048631 -51.14 0.0006059419    2.340    0.573
       331  -8.9067    179.2295    124.4294   5.1666150719e+01   2.0865474492e+01    0.2777362     0.239034 -67.97 0.0004289117    1.435    0.303
       332 -10.1498    131.3809    118.7258   6.1466786499e+01   3.2383328989e+01    0.6057469    0.3837384  79.80  0.001791969    3.093    0.677
       333 -10.2066     28.6510    122.2450   9.3082746653e+01   4.7687800997e+01    0.7536874    0.3108182  68.95  0.002816498    3.408    0.707
       334  -7.9946    188.5618    123.7596   4.9622838019e+01   1.8980227925e+01    0.1942602    0.1352395 -46.91 0.0004089213    1.573    0.364
       335  -7.4895    243.7027    123.7174   4.0222021316e+01   8.0735403883e+00     0.128295   0.09103053   6.95 0.0002907279    1.543    0.352
       336  -9.1715     85.2688    122.2600   7.5369491696e+01   4.0409634871e+01    0.5177047    0.2709621  19.85  0.001834425    3.206    0.688
       337  -7.8538    203.3275    122.0820   4.6434703222e+01   1.6149623472e+01    0.2036226    0.1202173 -43.66 0.0005154989    1.790    0.441
       338  -8.5187    171.8993    121.2745   5.2453899853e+01   2.3031454018e+01    0.2432461    0.2019951 -49.96 0.0004633578    1.311    0.237
       339  -9.3560    158.6656    121.4595   5.5436365993e+01   2.5904597781e+01    0.3319172    0.2581418  79.98  0.001019321    1.737    0.424
       340 -10.0703    141.6364    117.7373   5.8604008137e+01   3.0382093726e+01    0.6509774    0.3594791 -53.78   0.00183729    2.108    0.526
       341  -9.6631     70.8603    119.0872   7.9207765562e+01   4.3437218770e+01    0.3877973    0.2549357 -83.92   0.00111494    1.770    0.435
       342  -8.1905    118.6347    119.7070   6.5122225888e+01   3.4815870908e+01    0.1551972    0.1217682   4.00 0.0004195785    1.711    0.416
       343  -9.6187      3.1641    117.2372   1.0054746274e+02   5.0798227687e+01    0.5097943    0.1811537  65.62  0.002077569    3.164    0.684
       344  -8.0195    231.1926    117.2276   4.0653270847e+01   1.1307715782e+01    0.1783391    0.1520554 -50.90 0.0006820092    1.368    0.269
       345  -8.3995    185.6133    115.7963   4.8287150104e+01   2.0994321845e+01    0.2071553    0.1336946 -46.37 0.0004017758    1.666    0.400
       346 -10.0106    109.2908    113.9363   6.6390805467e+01   3.7977558291e+01    0.5213646    0.3473605 -78.81  0.001397286    2.181    0.542
       347  -8.4510    192.9503    115.1258   4.6699867781e+01   1.9504012463e+01    0.2152611    0.1973219 -62.24 0.0004880942    1.256    0.204
       348 -10.1062     92.7944    112.3955   7.0952999698e+01   4.1446820124e+01    0.5213126    0.3319224 -74.68  0.001354838    2.023    0.506
       349  -8.7259     78.3889    105.0045   7.3853612005e+01   4.5676436758e+01    0.4246147    0.2591143  13.37  0.001680663    2.639    0.621
       350  -8.5301    167.4770    114.0271   5.1624220574e+01   2.5356610277e+01    0.2263218     0.148859 -39.99  0.000664124    1.548    0.354
       351  -9.2439     26.6064    113.7402   9.2738357922e+01   4.9948356428e+01    0.2879374    0.1736395 -12.81  0.001370149    2.623    0.619
       352  -9.9384    133.6395    109.0289   5.8449895562e+01   3.3946762071e+01    0.6361361     0.321035 -53.68  0.002366894    2.319    0.569
       353 -10.2248    122.1798    112.3582   6.2369457510e+01   3.5700736450e+01    0.7908475    0.4602416 -67.85  0.002892509    2.661    0.624
       354 -10.2372    116.9471    102.2908   6.1245280766e+01   3.9009994253e+01    0.5364526    0.4081202 -65.04  0.001402933    1.496    0.332
       355 -10.1351    108.7550     98.4668   6.2616671408e+01   4.1568858943e+01    0.6917816    0.4286687  71.14  0.001018517    2.644    0.622
       356 -10.3058     66.0239    111.1561   7.9240026286e+01   4.6075364107e+01    0.4775167    0.2956752 -64.42  0.000952286    1.566    0.361
       357  -8.4845    174.8192    111.7322   4.9474685673e+01   2.4122369763e+01    0.2905092    0.1988807 -48.48 0.0006904389    1.584    0.369
       358  -8.7912    159.1877    111.6412   5.2872210031e+01   2.7682598434e+01    0.2596893    0.2037438 -51.13 0.0005803145    1.373    0.271
       359  -9.8722     14.3442    111.0159   9.6459962317e+01   5.1574759276e+01    0.4387349    0.2176854  71.27  0.002088077    2.165    0.538
       360 -11.1228    248.4576    107.7279   3.6030083121e+01   9.3892192586e+00    0.7604383    0.2750522 -34.38  0.003202498    2.352    0.575
       361  -8.6173     42.8219    109.3256   8.6695210572e+01   4.9453475704e+01    0.3132326    0.1359361  12.64   0.00108548    4.121    0.757
       362  -8.1186    189.4010    107.7042   4.5538548850e+01   2.1545455646e+01    0.2662351    0.1358318 -39.49 0.0005898052    1.932    0.482
       363  -9.1624    107.6373     92.6272   6.1343499700e+01   4.3096127133e+01    0.7021931    0.3764286  25.07   0.00236134    3.102    0.678
       364 -10.5083     45.8763    102.2087   8.4429898298e+01   5.0874389210e+01    0.8121659    0.3931642  67.35  0.002931474    3.460    0.711
       365 -10.7230     22.8475    102.3917   9.2585427254e+01   5.3050082481e+01    0.7963497    0.3674853  68.65  0.002300948    2.834    0.647
       366  -9.5189    150.5817    102.8334   5.2574705088e+01   3.1369345564e+01    0.5080765     0.311376 -62.95   0.00155362    2.379    0.580
       367  -9.5627    139.7589    103.9008   5.5524396272e+01   3.3640544603e+01    0.4971331    0.3161069 -48.77  0.001687644    1.655    0.396
       368  -9.9531     79.0320    112.4525   7.5282393888e+01   4.3779585371e+01     0.566725     0.359977  78.30  0.001767315    2.282    0.562
       369  -8.6953    166.7791    103.8347   4.9152134514e+01   2.7411852646e+01    0.2901603    0.2056209 -49.04 0.0005583827    1.511    0.338
       370 -10.1855    128.5319    101.5611   5.7831333800e+01   3.6650469387e+01    0.4592186    0.3195113 -50.86   0.00117826    1.506    0.336
       371  -8.6917      6.9818    102.9688   9.8132439811e+01   5.4000077232e+01    0.2030924    0.1212491  63.52 0.0006381023    1.679    0.404
       372  -7.8612    175.6290    101.8487   4.6759847574e+01   2.5713876375e+01    0.2139972    0.1359599 -47.27  0.000570308    1.676    0.403
       373  -8.3632    159.9479    100.9332   4.9890619996e+01   2.9550335492e+01    0.2406218    0.1873874 -72.81 0.0005832444    1.653    0.395
       374  -9.3106     82.2239     99.9309   7.1389239660e+01   4.6249437223e+01    0.3883805     0.265217 -81.06  0.000980649    1.894    0.472
       375  -9.4352     95.0712     96.8474   6.6416103442e+01   4.4650924656e+01    0.3467378    0.2703661 -73.00 0.0007201447    1.458    0.314
       376 -10.1669     63.8896     95.5396   7.6661257890e+01   5.0195330127e+01    0.5972258    0.3583788  78.38  0.001656166    2.712    0.631
       377  -8.6146      7.2904     97.3585   9.7475878226e+01   5.5341668032e+01    0.1311654   0.07637879 -51.30 0.0004182324    1.688    0.408
       378  -8.2326    151.4138     94.7805   5.0169295794e+01   3.2740032382e+01    0.2166857    0.1509728 -25.65 0.0007843453    1.644    0.392
       379  -8.2943    164.8088     94.0353   4.6935178764e+01   2.9681240666e+01    0.2359961    0.2025385 -64.71 0.0004981195    1.305    0.234
       380  -9.5219    139.3496     91.7519   5.2259321535e+01   3.6189020679e+01    0.6184209    0.3203962 -52.16  0.001675351    2.264    0.558
       381  -9.2130     45.6177     92.4737   8.2672967481e+01   5.3307676178e+01    0.4562545    0.2700171  -6.65  0.001907468    2.885    0.653
       382  -7.7998    188.5126     93.4923   4.2035671506e+01   2.4150233326e+01    0.1483003    0.1422341 -55.23 0.0008090875    1.085    0.078
       383  -8.1904    176.4848     92.9953   4.4219426547e+01   2.7076107959e+01    0.2281219    0.1468784 -38.36 0.0005644467    1.539    0.350
       384  -9.8722    124.6375     90.7194   5.5859748645e+01   3.9801939201e+01    0.4317594    0.3413195 -75.79 0.0009539911    1.571    0.364
       385  -9.1541    120.5223     92.5123   5.7528752035e+01   4.0346769679e+01     0.318414    0.1996168  48.87  0.001087941    1.581    0.368
       386  -8.1019    157.6976     91.5291   4.7806460978e+01   3.1852221231e+01    0.2633929    0.1414111 -37.45 0.0007863269    1.892    0.471
       387  -9.6878     34.8879     89.6931   8.6192105485e+01   5.5126213814e+01    0.4898885     0.256031  87.40  0.001658059    2.620    0.618
       388  -9.5936      4.7866     91.3629   9.7758469701e+01   5.6930897858e+01    0.3370598    0.1855231  64.64  0.001102171    1.929    0.481
       389  -9.0879     22.9727     89.9269   9.0777732736e+01   5.6108308714e+01    0.3355286    0.2518629   5.89  0.001323483    1.630    0.387
       390  -8.1661    151.1502     89.1311   4.8628051810e+01   3.3882381464e+01    0.2176704    0.1850867 -69.38  0.000466116    1.338    0.253
       391  -9.9079     86.4640     86.3900   6.6402219165e+01   4.8665533697e+01    0.4972302      0.34686  79.12  0.001256839    2.136    0.532
       392  -8.5765     87.1562     80.6357   6.4494714085e+01   4.9843866515e+01    0.3357281    0.2100743  10.08  0.001229411    2.941    0.660
       393  -8.5762     64.9784     87.5612   7.4356305380e+01   5.1963381886e+01    0.2787762    0.1900939   5.90  0.001259068    2.095    0.523
       394  -7.9134    163.7863     86.9744   4.5175544488e+01   3.1209829975e+01    0.2038086    0.1252574 -35.77 0.0003735935    1.645    0.392
       395  -8.3881    149.9891    109.9479   5.4590851965e+01   3.0099736739e+01    0.2463363    0.1928626 -84.74 0.0006971728    1.724    0.420
       396  -9.7792     48.5871     83.4149   7.9583189308e+01   5.5174564747e+01    0.6740671    0.4187314 -71.32  0.002657126    1.651    0.394
       397  -7.2661    179.3242     85.6617   4.1649461840e+01   2.7656112636e+01    0.1584832    0.1176429 -69.80 0.0007051172    1.721    0.419
       398  -7.6623    120.0030     85.0298   5.5481064588e+01   4.2035328571e+01    0.1765865    0.1762336  76.06            0    1.015    0.015
       399  -9.8203    104.8775     83.0304   5.9391398994e+01   4.5772135754e+01    0.4723967    0.3410821 -80.88 0.0009019152    2.000    0.500
       400  -8.2162    157.8319     83.6046   4.5501764399e+01   3.3278796720e+01    0.2507446    0.1788253 -42.62 0.0004882675    1.419    0.296
       401  -9.2042    140.8842     82.2170   4.9065639545e+01   3.7686832490e+01    0.4247905    0.2158145 -43.41    0.0010366    2.009    0.502
       402  -7.6773    185.4795     82.4476   3.9608964417e+01   2.6702724819e+01    0.1478591    0.1445066 -54.21 4.327997e-05    1.031    0.030
       403  -8.0509     63.9607     82.3547   7.3395525744e+01   5.3356773657e+01    0.1933672    0.1885849  61.78 0.0005499931    1.070    0.066
       404  -9.5993     24.6310     80.3959   8.8548114607e+01   5.8314527112e+01    0.4290932    0.2387357  84.31  0.001417722    2.231    0.552
       405  -9.2484      9.9123     80.7239   9.4535532266e+01   5.9233886783e+01    0.3505822    0.1589649  55.63  0.001577728    2.700    0.630
       406  -9.0228    119.5795     80.0134   5.4067211102e+01   4.3164417724e+01    0.3824843    0.2681264 -57.62  0.001224378    1.627    0.385
       407  -8.8231     74.7631     80.3094   6.8808476759e+01   5.2125905564e+01    0.3071151    0.2272596 -76.89 0.0009065759    1.650    0.394
       408  -8.2338    166.8885     79.4818   4.2365356808e+01   3.1768894131e+01    0.2323065    0.1995757 -35.30 0.0004483346    1.169    0.145
       409  -8.2521    150.3914     80.2636   4.6197355999e+01   3.5725030298e+01    0.2230167    0.1434299 -47.99 0.0009403302    1.644    0.392
       410  -7.7884    184.2314     78.0278   3.8607207470e+01   2.7727648254e+01    0.1999193    0.1234514 -32.69 0.0005662034    1.604    0.376
       411  -7.5055    174.7150     78.3151   4.0467360248e+01   3.0024823888e+01    0.1543446    0.1172468 -67.45 0.0002287795    1.582    0.368
       412  -7.9406    157.1497     76.1998   4.3454811180e+01   3.4775258835e+01    0.2129467    0.1802908 -69.58 0.0005105468    1.324    0.245
       413  -8.8568    140.4867     75.1186   4.6981481294e+01   3.9124883706e+01    0.3144033     0.212472 -51.31 0.0007752923    1.612    0.380
       414  -9.3394    128.1390     75.1433   5.0160860453e+01   4.2126514214e+01    0.3601843    0.2504695 -57.65 0.0006147876    1.678    0.404
       415 -10.0402     63.0718     73.2727   7.1220377847e+01   5.5620913663e+01    0.5373843    0.3286411 -71.25  0.001131121    2.082    0.520
       416  -8.9182     64.0089     63.7605   6.7912329990e+01   5.7637902698e+01    0.5584258    0.2889345 -27.85  0.002005469    3.155    0.683
       417  -8.2687    163.5604     73.2844   4.1218412817e+01   3.3668092316e+01    0.2862215    0.1434792 -39.95 0.0009906391    1.978    0.494
       418  -9.6901     82.3117     72.1969   6.3603914012e+01   5.2626499432e+01    0.4401905    0.3005068 -69.74  0.000996636    1.920    0.479
       419  -8.5951    115.7620     72.8550   5.2888698672e+01   4.5485938395e+01    0.2813558    0.2091861 -60.51  0.000595033    1.563    0.360
       420  -8.4070     42.7001     72.6185   7.9374962880e+01   5.8464774914e+01    0.2310895    0.1614663 -86.14 0.0009749086    1.716    0.417
       421  -7.8019    175.2089     72.5313   3.8700314399e+01   3.0859969619e+01    0.2145555    0.1375217  44.29 0.0009314943    1.632    0.387
       422  -9.5276    105.6429     71.7403   5.5583309363e+01   4.7986988740e+01    0.2923849    0.2785784 -28.41    0.0011923    1.062    0.058
       423  -9.1709     95.2278     71.1000   5.8747252992e+01   5.0335887457e+01    0.3581301    0.2496289 -63.59 0.0008092091    1.759    0.432
       424  -9.4879     51.4897     69.5039   7.4850487823e+01   5.8130117503e+01    0.4676374    0.2648762 -75.68  0.001466138    2.466    0.595
       425  -9.2414     16.8535     68.7535   8.9717821457e+01   6.1704702940e+01    0.6354319    0.1652315 -70.56  0.002246623    3.387    0.705
       426  -9.1230     29.9367     69.5586   8.4130401034e+01   6.0491912401e+01    0.3947374    0.1978385 -14.24  0.001468875    3.528    0.717
       427  -7.5738    208.9748     69.7525   3.2334605647e+01   2.3055550912e+01    0.1698562    0.1219744  60.53 0.0002458393    1.462    0.316
       428  -9.0289    147.3187     68.0143   4.3114843667e+01   3.8696329085e+01    0.3243267    0.2226613 -55.53 0.0006423425    1.665    0.399
       429  -7.7472    221.5081     66.4529   2.9756194359e+01   2.0641030588e+01    0.1377347     0.127534 -40.17 2.718745e-05    1.008    0.008
       430  -7.4946    203.2942     66.6561   3.2338003696e+01   2.4852395065e+01    0.1529176    0.1043554 -59.97 0.0004268003    1.663    0.399
       431  -8.5469    138.6072     65.8911   4.4483263006e+01   4.1273009533e+01    0.2982869    0.2237718 -63.84 0.0006969725    1.593    0.372
       432  -8.6126    121.6369     65.7720   4.8855667106e+01   4.5477367129e+01    0.2931926    0.2229205 -68.46 0.0006255802    1.649    0.394
       433  -7.9530     83.2897     65.3549   6.0993832262e+01   5.3923513024e+01    0.1528502    0.1154175 -12.00  0.000702671    1.678    0.404
       434  -8.7661     37.4099     64.4515   7.9569257182e+01   6.0977684716e+01    0.2511372    0.2163302  66.40  0.001497314    1.341    0.254
       435  -8.9805    110.1427     63.5299   5.1411734328e+01   4.8609226626e+01    0.3035203    0.2291127 -67.47 0.0006605555    1.677    0.404
       436  -7.8555    158.3783     61.4771   3.8643187449e+01   3.6961455447e+01    0.1500979    0.1481456 -49.74  0.000797243    1.031    0.030
       437  -9.6280     73.3444     59.1241   6.2589899543e+01   5.7078917524e+01    0.4111289    0.2487666 -58.54  0.001095687    1.927    0.481
       438  -9.1679     97.4822     60.4094   5.4313323497e+01   5.2043991071e+01    0.2929668    0.2624663  78.09 0.0007025064    1.277    0.217
       439  -8.1131     89.3698     59.2405   5.6663496416e+01   5.3984106138e+01    0.2119756    0.1377448 -52.71 0.0005929363    1.681    0.405
       440  -7.7521    147.2920     58.6699   4.0088758499e+01   4.0292168857e+01    0.1597824    0.1192908 -68.68 0.0002939218    1.627    0.386
       441  -8.4268    130.8943     57.5468   4.3576950782e+01   4.4678289624e+01    0.3077858     0.192513 -55.07 0.0007079777    1.932    0.482
       442  -9.8473     23.3927     56.1374   8.3957162632e+01   6.4222171168e+01     0.468807    0.2682972  78.74  0.002069669    2.830    0.647
       443  -9.6341      7.5153     56.6071   9.1761253841e+01   6.5133563368e+01    0.3395894    0.1951184 -87.87  0.001263247    1.849    0.459
       444  -8.2012    140.0034     55.7581   4.0759508941e+01   4.2655841400e+01    0.2793469    0.1851512 -49.00 0.0005577539    1.629    0.386
       445  -9.0326    119.1813     54.9073   4.5729701880e+01   4.8049476179e+01    0.4966283    0.2491006 -45.29  0.001499848    2.138    0.532
       446  -8.8955     44.1833     55.0599   7.3725489953e+01   6.2367397949e+01    0.3468478    0.2100294 -65.57  0.001179537    1.815    0.449
       447  -9.2048     62.7121     53.5084   6.4918489505e+01   6.0070211515e+01    0.5950339     0.209598 -52.22  0.001905993    2.953    0.661
       448  -8.9516     53.9940     53.3869   6.8683484726e+01   6.1427861429e+01    0.3973937    0.2061743 -65.64  0.001269154    2.759    0.638
       449  -8.6074    105.7865     52.7644   4.8841867530e+01   5.1626862968e+01    0.2944986    0.2044136 -48.00 0.0006177521    1.544    0.352
       450  -9.4630     92.4648     50.4065   5.2268485183e+01   5.5043239818e+01    0.4138249    0.2528279 -52.76  0.001038301    1.928    0.481
       451  -8.5262     74.9559     51.5823   5.9174560935e+01   5.8338825350e+01    0.3845398    0.2238836  14.96  0.001416487    3.049    0.672
       452  -8.1922    144.6421     48.7946   3.7336299399e+01   4.2558733978e+01    0.2177026    0.1376014 -41.99 0.0006442504    1.622    0.384
       453  -8.4177    129.9883     49.2448   4.0863922904e+01   4.6294607233e+01     0.214402    0.2067399  64.67 0.0006130111    1.027    0.026
       454  -8.3758    120.8037     47.1612   4.2439556740e+01   4.8960046545e+01    0.2253865    0.2090764 -70.28 0.0006249576    1.167    0.143
       455  -8.0329    112.4647     46.9120   4.4636577956e+01   5.1059572912e+01    0.2196438     0.149147 -36.97 0.0005244678    1.506    0.336
       456  -9.0807     82.2105     46.0614   5.4211777460e+01   5.7996917104e+01    0.3750676    0.2429863 -54.33 0.0009190528    1.846    0.458
       457  -8.7798     45.0947     44.5957   6.9657675073e+01   6.4535640672e+01    0.2273318    0.1749133 -58.38 0.0006847083    1.355    0.262
       458  -8.9543     16.9313     44.4780   8.4189066694e+01   6.7383757443e+01    0.2264292    0.1655677 -83.04 0.0006895754    1.539    0.350
       459  -8.0877    102.2325     44.2543   4.6643885244e+01   5.3943948417e+01    0.2399177    0.1112973 -45.77 0.0008830413    2.413    0.586
       460  -8.2794     32.3665     44.3064   7.5970321627e+01   6.6089401134e+01    0.1407528    0.0880907 -26.88 0.0007036563    1.748    0.428
       461  -8.2461    132.8079     43.0919   3.7955007631e+01   4.6527899965e+01    0.2343093    0.2040493 -64.12 0.0004734943    1.248    0.198
       462  -8.6123     92.9631     42.3487   4.8872708088e+01   5.6378971777e+01    0.3126298    0.1917876  -6.68  0.001190076    2.697    0.629
       463  -9.4087     69.7450     41.4332   5.7200626699e+01   6.1274033664e+01    0.3941299    0.2772529 -64.91  0.001168996    2.031    0.508
       464  -8.9344     58.2788     42.2780   6.2528679407e+01   6.3087653496e+01    0.3463857    0.2288736 -67.09  0.001371227    2.258    0.557
       465  -9.6534      5.2737     41.8155   8.9856135957e+01   6.8661378985e+01     0.360301     0.188158 -89.21  0.001567397    2.407    0.585
       466  -8.0846    140.2612     40.9697   3.5528464856e+01   4.4883968080e+01    0.1891354    0.1331445 -31.60 0.0003775608    1.472    0.321
       467  -8.8310    105.8740     41.1120   4.4275999150e+01   5.3604716427e+01    0.2271703    0.2020701 -68.27  0.000577482    1.294    0.227
       468  -8.4616     36.9837     40.5476   7.2231245377e+01   6.6394744720e+01    0.2328617    0.1789786 -67.67 0.0006431797    1.501    0.334
       469  -8.5423     95.7883     38.0588   4.6149653968e+01   5.6461906396e+01    0.2213132     0.199634 -63.42 0.0008023732    1.280    0.219
       470  -8.1008     80.8405     36.7764   5.0812101980e+01   5.9939146972e+01    0.1866783    0.1712654 -67.73 0.0004183016    1.308    0.235
       471  -7.9370    133.2744     35.9846   3.5223057136e+01   4.7440692185e+01    0.1862058    0.1348348 -29.82 0.0006466107    1.444    0.307
       472  -9.4421     26.2319     34.9547   7.5984860702e+01   6.8715964825e+01    0.3401686    0.2025813 -62.89 0.0009588701    1.737    0.424
       473  -8.4800    153.3007     34.9306   3.0844494177e+01   4.2236289564e+01    0.1999795    0.1933048  -9.00 0.0003710054    1.113    0.102
       474  -8.1012    126.1585     35.2052   3.6550803772e+01   4.9414850908e+01    0.2056316    0.1735736 -64.26  0.000524478    1.324    0.245
       475  -8.7263    111.8885     34.5514   3.9902670181e+01   5.3148790944e+01    0.2945306    0.1802499 -47.81  0.000682459    1.868    0.465
       476  -7.4903     88.6628     34.3065   4.6916429509e+01   5.8672783383e+01    0.1432538    0.1169891 -79.35 0.0007041288    1.675    0.403
       477  -8.8353     48.7330     33.3262   6.3252043434e+01   6.6308888197e+01     0.224269     0.204032 -74.29 0.0005936146    1.416    0.294
       478  -8.5028    119.2477     32.5414   3.7178480107e+01   5.1575747155e+01    0.3149945    0.1577334 -42.50 0.0009666589    2.156    0.536
       479  -8.5598     60.7130     32.2355   5.7055537154e+01   6.4581804148e+01    0.2371636    0.2023306 -63.83 0.0006278385    1.503    0.335
       480  -8.5186     72.1833     30.9432   5.1545632656e+01   6.2675889149e+01    0.2048585    0.1895998 -55.96 0.0005731877    1.278    0.218
       481  -8.7721     12.9791     30.1194   8.2089193488e+01   7.0822830826e+01    0.2843621    0.1653821 -75.00  0.001482637    2.028    0.507
       482  -8.5719    101.6729     29.1398   4.0506561790e+01   5.6441082391e+01    0.2300811    0.1780435 -51.69 0.0009594734    1.492    0.330
       483  -8.0112     42.2985     29.6675   6.4921947619e+01   6.7926383243e+01    0.1218222    0.1064151 -89.51 0.0005150493    1.647    0.393
       484  -8.8844     81.6285     27.1896   4.6165804941e+01   6.1324037789e+01    0.3052201    0.2256926 -58.34 0.0009199074    1.798    0.444
       485  -9.0378      3.8902     27.3399   8.6887055927e+01   7.1939640226e+01    0.2495888    0.1581385 -86.08 0.0009966294    1.932    0.482
       486  -8.8087     91.9117     26.2502   4.2216455496e+01   5.9162238007e+01    0.3054011    0.1894077 -46.09 0.0007895657    1.864    0.464
       487  -8.0687     34.9662     23.1880   6.5947029326e+01   7.0117512573e+01    0.1914313    0.1463532  59.72  0.001059728    2.018    0.505
       488  -8.1924    104.4972     22.5432   3.6815212705e+01   5.6644433916e+01    0.1455535    0.1360765  41.70 1.715572e-05    1.013    0.013
       489  -9.0182     63.8055     20.9188   5.0145899094e+01   6.5908531785e+01    0.2966555    0.2027528 -45.84  0.000879869    1.679    0.405
       490  -8.8911     48.3400     21.4287   5.7744783975e+01   6.8529560147e+01    0.2305257    0.2037645 -47.84 0.0007339538    1.339    0.253
       491  -8.0427     19.5078     21.4795   7.4636971686e+01   7.2111428155e+01    0.1240606    0.1041406 -32.35 3.248799e-05    1.019    0.019
       492  -7.9108    120.8111     20.5735   3.1954098774e+01   5.2717839473e+01    0.2012669     0.138463  78.98 0.0006298801    1.615    0.381
       493  -8.8697     74.2267     19.2230   4.5022196882e+01   6.4068809731e+01    0.3134962    0.2163353 -47.67 0.0008092354    1.752    0.429
       494  -8.1312     39.0373     18.2717   6.1121224782e+01   7.0465195648e+01    0.1763353    0.1542557  -6.79 0.0004895858    1.041    0.039
       495  -8.2736     87.8587     17.1548   3.9217610229e+01   6.1327897713e+01    0.2080987    0.1880227 -56.36 0.0005585335    1.308    0.235
       496  -7.9196    113.0070     16.7304   3.2119438941e+01   5.5193565607e+01    0.1858092    0.1204358  61.38 0.0004118504    1.441    0.306
       497  -7.6245      1.6909     16.3408   8.4764487056e+01   7.4373479773e+01    0.1080679   0.08768158  70.63 0.0007044185    1.690    0.408
       498  -8.7127    200.8257    248.8796   6.9789942173e+01  -1.0699103620e+00    0.2939586    0.1146582  21.33   0.00121415    3.811    0.738
       499  -8.1646     29.8523     15.6027   6.5176375851e+01   7.2140895115e+01     0.160311    0.1129591  38.70 0.0007454859    1.672    0.402
       500  -8.0834     17.1357     14.1384   7.2821152342e+01   7.3757561021e+01    0.1463666    0.1451779 -11.93 0.0004723005    1.326    0.246
       501  -7.9393    191.5162    249.5307   7.1491584080e+01   1.1940246034e-01    0.1127889   0.08122399  26.57 0.0001437496    1.040    0.038
       502  -8.9466    175.6679    247.4454   7.4044796222e+01   2.5536289444e+00    0.2470844    0.1869761  66.63  0.001202389    2.307    0.567
       503  -8.7957    156.4982    248.3395   7.7649265754e+01   5.1513857827e+00    0.2156824    0.1530853  60.14 0.0007419991    1.915    0.478
       504  -9.2383    242.9644    246.5134   6.2505914199e+01  -6.2242919956e+00    0.2418831    0.1312039 -20.12  0.001294478    1.869    0.465
       505  -8.8644    218.5118    246.9465   6.6530523674e+01  -3.2047856944e+00    0.2544212    0.1001723 -32.36  0.001377129    2.970    0.663
       506  -9.5769    146.9774    246.4194   7.9199918254e+01   6.7557248255e+00    0.2590346    0.2101142  60.48   0.00188414    1.515    0.340
       507  -8.8894    132.1492    247.6054   8.2113952618e+01   8.7012462502e+00    0.2094191    0.1476161  60.97 0.0005691174    1.660    0.398
       508  -8.0604    113.3217    248.1840   8.5733128573e+01   1.1247333507e+01     0.133393    0.1009248  89.98 0.0007457936    1.768    0.434
       509  -9.1158    103.8049    246.6513   8.7404900735e+01   1.2774949763e+01    0.3239417    0.1852954 -89.99  0.001812593    2.904    0.656
       510  -9.3802    232.8873    246.0212   6.4042663426e+01  -4.9427479698e+00    0.3056582    0.1591852 -16.48  0.001703588    2.072    0.517
       511 -10.0394    223.9125    243.8346   6.5201107422e+01  -3.5910072455e+00    0.3584881    0.2041583 -39.06  0.002313909    2.491    0.599
       512  -9.0794    120.1023    245.1579   8.4154203107e+01   1.0743887287e+01    0.2607373    0.1727764  72.95  0.001565712    2.112    0.527
       513  -8.4605    201.9702    242.8800   6.8789728272e+01  -5.7441364648e-01    0.1895458    0.1516019 -53.81 0.0009830606    2.252    0.556
