#   1 NUMBER                 Running object number                                     
#   2 MAG_AUTO               Kron-like elliptical aperture magnitude                    [mag]
#   3 X_IMAGE                Object position along x                                    [pixel]
#   4 Y_IMAGE                Object position along y                                    [pixel]
#   5 X_WORLD                Barycenter position along world x axis                     [deg]
#   6 Y_WORLD                Barycenter position along world y axis                     [deg]
#   7 A_WORLD                Profile RMS along major axis (world units)                 [deg]
#   8 B_WORLD                Profile RMS along minor axis (world units)                 [deg]
#   9 THETA_WORLD            Position angle (CCW/world-x)                               [deg]
#  10 FWHM_WORLD             FWHM assuming a gaussian core                              [deg]
#  11 ELONGATION             A_IMAGE/B_IMAGE                                           
#  12 ELLIPTICITY            1 - B_IMAGE/A_IMAGE                                       
         1 -13.0663    195.2937     32.0252   6.6258569891e+01   3.2698109865e+01    0.9683266    0.8624472  48.59  0.005989378    1.307    0.235
         2 -13.8957    208.9435     15.0195   6.0656704831e+01   3.1503201259e+01     1.331632    0.9675019  37.69  0.007647646    1.942    0.485
         3 -12.9187      4.2474      8.0327   1.1116293301e+02   7.1211262817e+01     1.287165    0.4387248 -35.20  0.007096699    2.339    0.573
         4 -11.9622    200.0772    246.4238   1.1281948746e+02  -6.8105709597e+00    0.5869229    0.2072096  40.37    0.0020782    2.467    0.595
         5 -10.4245    184.4079    250.3717   1.1646586645e+02  -4.8490879097e+00    0.2658221    0.1425297  35.89   0.00136631    1.605    0.377
         6 -11.5137    149.7514    248.1889   1.2294268097e+02   1.3412607266e+00    0.4456209    0.2972769 -59.16  0.002502816    1.828    0.453
         7 -10.7575    143.2708    249.3465   1.2437859050e+02   2.2402478610e+00    0.2318449    0.1963948  73.35 0.0006543989    1.271    0.213
         8 -10.9533    122.9076    250.1133   1.2846612043e+02   5.5119963738e+00    0.2642232    0.1694686  40.58  0.001481226    1.387    0.279
         9 -11.8264    133.5161    248.8895   1.2623633481e+02   3.9642528726e+00    0.6491766     0.243625  44.83  0.002797554    2.221    0.550
        10 -11.3673    115.3483    250.4682   1.2997570720e+02   6.6868801566e+00    0.4936039    0.2521785  40.84  0.002505606    1.716    0.417
        11 -11.3189    109.7397    247.4126   1.3070319048e+02   8.1603524115e+00    0.5266661    0.3623233 -65.69  0.002298433    1.619    0.382
        12 -11.6227     98.8243    232.5023   1.3109374017e+02   1.2816566070e+01     0.504994    0.2811025 -78.12  0.001509235    2.181    0.541
        13 -10.1670     84.2019    240.9177   1.3492396525e+02   1.3414667593e+01    0.4228025    0.2881307 -88.74   0.00250617    1.473    0.321
        14 -11.2399     96.9112    239.7245   1.3232085309e+02   1.1684594951e+01    0.5239121    0.2971123 -38.08  0.002311014    3.402    0.706
        15 -10.7307     84.8842    234.4123   1.3409240657e+02   1.4611886616e+01    0.4082217    0.2498596  68.89  0.001023275    1.616    0.381
        16 -10.0307     84.8583    229.6265   1.3356461850e+02   1.5594212142e+01    0.2222443    0.2188238 -69.30 0.0009259981    1.376    0.273
        17 -10.9598     99.1946    247.4495   1.3274463226e+02   9.8362444693e+00    0.5267023    0.2965176  74.71  0.002593425    2.225    0.551
        18 -10.2363    102.8752    247.2227   1.3201060437e+02   9.2968368327e+00    0.3669293     0.196435  63.35  0.001811142    2.001    0.500
        19 -10.8991    113.1309    230.3048   1.2790517616e+02   1.0908506383e+01     0.377452    0.2692596  37.61  0.001714116    1.410    0.291
        20 -11.5630    105.7898    228.7193   1.2920745220e+02   1.2449553814e+01    0.5803289    0.3373396  54.02  0.002955454    1.561    0.359
        21 -10.2404     91.3619    241.7747   1.3363264684e+02   1.2150969038e+01    0.2895609    0.2154188  78.09  0.001027095    1.254    0.203
        22 -10.7758     89.8091    238.2250   1.3354521984e+02   1.3090839962e+01    0.2642834    0.2025994 -66.87 0.0009420922    1.415    0.293
        23  -9.8954     73.2973    246.6059   1.3755378342e+02   1.3911943542e+01    0.2273704    0.1359352 -67.53  0.001323928    1.738    0.425
        24 -10.0074     74.4049    242.2702   1.3692907613e+02   1.4600234972e+01    0.2884753     0.240788  66.91  0.001953532    1.105    0.095
        25  -9.1868     63.0179    250.2374   1.3976123262e+02   1.4662890768e+01    0.1697294    0.1391134  42.51 0.0005082798    1.455    0.313
        26 -11.3549     60.0449    245.5528   1.3989374883e+02   1.5979732907e+01    0.4707909    0.3086814 -79.92  0.001639594    1.447    0.309
        27 -10.9529     66.8599    244.1443   1.3851739035e+02   1.5310669586e+01     0.467973     0.255826  32.21  0.002425067    2.335    0.572
        28 -11.3097     32.7440    201.7337   1.4119320006e+02   2.8650296212e+01    0.4065948    0.2232918  37.75 0.0003041937    1.968    0.492
        29 -11.4080     63.3839    221.5151   1.3698030573e+02   2.0442423568e+01    0.9281991    0.3605926 -76.10  0.003828575    2.974    0.664
        30 -12.9126     53.4946    208.5558   1.3763530295e+02   2.4601942113e+01     1.221504    0.7871159  42.41  0.007025906    1.582    0.368
        31 -13.4225     12.0888    205.6251   1.4555484790e+02   2.9975391400e+01     1.405402     1.042646  45.23  0.009853107    1.506    0.336
        32 -12.8727     14.1271    238.8656   1.4743647076e+02   2.2903766977e+01    0.6472662     0.443021  76.62  0.001035481    1.050    0.048
        33 -13.6536     28.0619    247.0574   1.4561753994e+02   1.9742363116e+01     1.447595    0.8697957  67.55  0.009613316    1.288    0.223
        34 -13.5310     41.0723    244.0660   1.4316607078e+02   1.8753092629e+01     1.053397    0.8012139  57.99  0.007464763    1.220    0.180
        35 -13.1563     35.6526    227.8973   1.4288406284e+02   2.2682767927e+01    0.5318304    0.4546298  76.96  0.002377093    1.218    0.179
        36 -14.5531     42.8978    218.7147   1.4073705554e+02   2.3735788819e+01      5.64116     2.216572  71.05   0.02127482    3.833    0.739
        37 -11.6316    248.9877    240.7006   1.0277696147e+02  -1.3411269119e+01    0.4108975    0.1805696 -37.99  0.002090797    2.356    0.576
        38  -9.5192    173.6707    241.2912   1.1717883466e+02  -1.5849425285e+00    0.1279675   0.09624445  63.18 0.0001997856    1.624    0.384
        39 -11.7024    135.3556    236.6476   1.2422011130e+02   5.8832082815e+00    0.4634112    0.3213013  21.16  0.001673288    1.904    0.475
        40 -10.6683    116.6477    238.5044   1.2825100902e+02   8.7123844129e+00    0.4027239    0.2541164 -39.18  0.001808473    2.320    0.569
        41  -9.0961    173.0182    236.0361   1.1648639637e+02  -5.8464043919e-01    0.1871357    0.1520903  70.22  0.001077338    1.537    0.349
        42 -11.9455    122.3792    233.2069   1.2639531191e+02   8.7703554400e+00     0.427648    0.3827508  47.29  0.001757644    1.128    0.114
        43  -8.9039    181.6422    243.3163   1.1591572315e+02  -3.2744208133e+00    0.1286528   0.09660562  64.52 0.0007044323    1.752    0.429
        44  -9.2141     71.6252    236.3124   1.3686958781e+02   1.6193821131e+01    0.2055334    0.1181579  70.39  0.001092455    1.719    0.418
        45 -10.5871    193.9200    245.1794   1.1380949479e+02  -5.6166429677e+00    0.2071828    0.1871553 -40.91 0.0003199037    1.332    0.249
        46 -10.7068     62.9638    233.0234   1.3820685714e+02   1.8090019804e+01    0.1901965    0.1526985  75.11 0.0003314364    1.032    0.031
        47 -10.2101    165.7259    234.8029   1.1776569903e+02   9.0474377108e-01    0.1996426     0.166786 -15.25   0.00117725    1.432    0.302
        48 -10.7827    156.8051    231.6695   1.1909894071e+02   3.0406835006e+00    0.2328118    0.2263382 -67.11 0.0003666926    1.165    0.142
        49  -8.6203     78.1219    233.3815   1.3530936441e+02   1.5838909939e+01    0.1599286    0.1402882 -83.84 0.0006688217    1.224    0.183
        50 -10.9979     87.8743    248.4296   1.3500490808e+02   1.1400872570e+01    0.4635254     0.294357  54.07  0.001136202    1.295    0.228
        51 -10.8207    142.1135    229.7292   1.2183531677e+02   6.0075136005e+00    0.4164986    0.2480477 -36.53  0.001917836    2.299    0.565
        52 -10.0577    222.8313    244.5975   1.0820669574e+02  -1.0124666686e+01    0.1708068    0.1042563  42.58 0.0006975761    1.664    0.399
        53 -10.5476     79.4262    225.7997   1.3422526630e+02   1.7213839849e+01    0.4404041    0.2745628 -77.44  0.001433721    1.609    0.379
        54  -9.7308     77.2889    220.9431   1.3411093344e+02   1.8561918778e+01    0.2103494    0.1513238  62.89 0.0004598731    1.212    0.175
        55 -10.0542     92.5132    225.9369   1.3158361105e+02   1.5167923543e+01    0.2862225    0.1636547  51.90 0.0008468588    1.548    0.354
        56 -12.7791    125.0745    240.6581   1.2683874118e+02   6.8886923113e+00    0.9236737    0.5822961  26.74  0.004639275    2.013    0.503
        57  -8.6746    147.2611    225.3447   1.2009818628e+02   5.9278380646e+00    0.1288826    0.1065086  -5.82 0.0002709253    1.598    0.374
        58 -10.5161    130.9183    223.0619   1.2318796633e+02   9.2910767026e+00    0.5637168    0.3224699  73.91  0.002243551    2.982    0.665
        59 -10.1230    117.2134    224.3004   1.2624872975e+02   1.1428284505e+01    0.2299619     0.199318  86.38 0.0002969265    1.147    0.128
        60 -10.7291     99.1976    223.3686   1.2988659700e+02   1.4631754176e+01    0.4002936     0.260709  52.02  0.001129625    1.358    0.264
        61 -10.6662    161.2620    223.1548   1.1682345395e+02   3.8147402855e+00    0.4400241    0.2723855  12.50  0.001813507    2.841    0.648
        62 -11.3727    142.3951    221.4998   1.2052547210e+02   7.5506998156e+00    0.4345678    0.2969041  45.92   0.00112191    1.311    0.237
        63 -10.5397    137.9736    213.8656   1.2026923749e+02   9.8859410583e+00    0.4822551    0.2961541  31.14  0.001272152    1.807    0.447
        64 -10.7447     69.8053    217.4145   1.3524448500e+02   2.0416564813e+01    0.6923833    0.3271987 -84.26  0.002958103    2.698    0.629
        65 -10.8135     72.9890    209.8102   1.3371005861e+02   2.1621438240e+01    0.4091763    0.2811238  32.78  0.001865886    1.729    0.421
        66  -8.4704    173.2907    219.2813   1.1367040945e+02   2.3461120996e+00    0.1332893     0.104098   7.26 0.0001967587    1.529    0.346
        67  -9.4844    104.8726    218.7445   1.2809001053e+02   1.4669496087e+01    0.2015258    0.1754019 -64.84 0.0002505588    1.257    0.205
        68  -9.1024     99.6679    217.8565   1.2907343467e+02   1.5718288950e+01    0.1957178    0.1662975 -42.12 0.0006749875    1.521    0.342
        69  -8.7162     94.0000    217.9571   1.3028273754e+02   1.6615708943e+01    0.2106187   0.07347083 -61.46 0.0008048568    2.959    0.662
        70  -9.7846    110.7999    221.0050   1.2714395874e+02   1.3199465384e+01    0.3599208    0.1462966 -54.89  0.001341159    2.617    0.618
        71  -8.5477    159.8027    213.9337   1.1559441649e+02   5.8449289388e+00    0.1713245    0.1117227 -47.68 0.0004756725    1.674    0.402
        72  -9.6763     88.0875    212.9094   1.3088910065e+02   1.8646606893e+01    0.2491317    0.1750401 -83.70 0.0007786212    1.426    0.299
        73 -10.6815    245.6423    220.4393   9.9763555876e+01  -1.0082689020e+01    0.3084712    0.1062545 -34.02  0.001265951    2.926    0.658
        74  -9.6731    102.3662    212.3741   1.2775607010e+02   1.6450711657e+01    0.4276128    0.1934114  64.44  0.001454721    3.690    0.729
        75 -12.4787    135.6861    241.0446   1.2476055768e+02   5.0116900462e+00    0.6355619    0.4365641  18.90  0.002549749    2.040    0.510
        76  -9.9290    107.1626    209.5788   1.2632036999e+02   1.6250407443e+01    0.3079361    0.2260405 -26.03  0.001272911    2.193    0.544
        77 -10.3176    112.4784    208.3063   1.2497019452e+02   1.5613958551e+01    0.2504851    0.2249957  64.78 0.0003915991    1.032    0.031
        78  -9.0267    134.5737    208.2101   1.2009960934e+02   1.1681516768e+01    0.1935949    0.1332617 -41.71  0.000633462    1.707    0.414
        79 -11.0402     93.1005    204.6352   1.2870466259e+02   1.9677399424e+01    0.7206423    0.4279383  57.84  0.002208698    1.664    0.399
        80 -11.3901    246.6414    206.6395   9.7006896217e+01  -8.1390491474e+00    0.4195441    0.2775339   9.37  0.002275129    1.689    0.408
        81 -11.8471    134.1144    232.8169   1.2393462732e+02   6.8227103379e+00    0.5299923    0.3176883 -37.77  0.001540456    2.325    0.570
        82  -8.9428    148.8380    204.7689   1.1639190567e+02   9.7416554270e+00    0.2468077    0.1651291  -2.78 0.0009699143    2.954    0.661
        83  -9.0168    125.5231    205.5082   1.2166027532e+02   1.3906789047e+01    0.1434257    0.1291575  65.11 3.742423e-05    1.014    0.014
        84 -10.0281    102.8162    202.7212   1.2628112738e+02   1.8499454630e+01    0.4172783    0.2533736  60.30  0.001275926    1.710    0.415
        85  -9.8887     97.5825    196.3553   1.2651516249e+02   2.0814038954e+01     0.495589    0.2525406  54.48  0.001565553    2.031    0.508
        86  -9.8742    102.7491    195.9519   1.2528081806e+02   2.0037408789e+01    0.2179653     0.193516  78.10  0.000571146    1.018    0.017
        87  -9.3216     74.8671    203.5786   1.3254831899e+02   2.2739445224e+01    0.2925609    0.2237775   4.51 0.0007230407    2.269    0.559
        88  -9.1239    133.0274    202.7372   1.1954183427e+02   1.3129376150e+01    0.1985657    0.1801788  57.66 0.0003285391    1.017    0.017
        89 -10.5062     84.1748    201.7850   1.3028188244e+02   2.1734223640e+01    0.3708978     0.229411 -41.99   0.00127109    2.250    0.556
        90  -9.1234     85.7143    195.6910   1.2910282717e+02   2.2884681804e+01    0.2317313    0.1701481  67.42 0.0002641294    1.312    0.238
        91 -13.3970     11.9625    212.8606   1.4610377346e+02   2.8443752364e+01     1.129689     0.983974 -87.75  0.006028011    1.311    0.237
        92  -8.5859    182.9809    200.2818   1.0821663990e+02   4.1278313597e+00    0.1746508     0.120956  41.00  0.000317535    1.371    0.271
        93  -9.1251    127.9201    199.7245   1.2018363306e+02   1.4724517830e+01    0.1969273    0.1742793  58.14 0.0003798495    1.045    0.043
        94  -9.4018    115.1180    200.1965   1.2314132896e+02   1.6933512539e+01    0.1949381    0.1878161  69.48   0.00028233    1.118    0.105
        95 -10.9287    104.6988    237.9022   1.3056645787e+02   1.0795359610e+01    0.3118083    0.1719835  36.97  0.001556375    1.822    0.451
        96  -9.2771    119.9870    199.4915   1.2193193154e+02   1.6220154412e+01    0.2133528     0.132634  44.88 0.0003613308    1.510    0.338
        97  -9.8273     53.9295    197.7870   1.3637412885e+02   2.6967458100e+01    0.3176744    0.1843615  41.65 0.0008893438    1.745    0.427
        98  -9.8012     57.6374    198.8514   1.3569953879e+02   2.6236554829e+01     0.260348    0.1853928 -89.98 0.0009710588    1.256    0.204
        99 -11.4263     62.5249    194.7493   1.3414974594e+02   2.6515503397e+01    0.3373203    0.2554007 -53.05  0.001185013    1.508    0.337
       100  -9.8777     57.5093    193.8682   1.3514444136e+02   2.7395506074e+01    0.3776455    0.3356133 -31.14  0.002355692    1.590    0.371
       101  -9.2436    134.0161    197.9496   1.1851213723e+02   1.3979986590e+01    0.1729466    0.1620934 -83.02 0.0004386643    1.084    0.078
       102 -13.9342      5.2403    245.3916   1.4926468366e+02   2.2570314403e+01     1.842493    0.7324653 -80.25   0.01059364    2.097    0.523
       103  -8.4750    168.6019    196.4743   1.1057352307e+02   7.6503153091e+00     0.142007    0.1371133  30.60 -1.883646e-05    1.024    0.023
       104 -10.9218     42.0597    190.0098   1.3806771049e+02   3.0225341002e+01    0.4396719    0.2406813  88.07  0.001448876    1.877    0.467
       105  -9.0035     38.5464    192.4405   1.3907874155e+02   3.0080207311e+01    0.1946255    0.1486589 -68.22 7.190536e-05    1.269    0.212
       106 -11.1039    249.5683    194.0360   9.4057094649e+01  -6.5977660263e+00     0.334843    0.2642714   5.34  0.002018409    1.243    0.196
       107 -11.3042    249.9481    187.5689   9.2717900802e+01  -5.6030752345e+00    0.4177994    0.1751134 -38.13   0.00182387    2.182    0.542
       108  -9.8056    113.0873    193.2939   1.2249687125e+02   1.8844049691e+01    0.5067303    0.2502705 -61.36  0.001363343    2.145    0.534
       109 -11.5359    165.2849    241.6131   1.1890067155e+02  -1.9627064935e-01    0.5009857    0.2316173  50.52  0.002198327    2.242    0.554
       110  -8.8718    159.5887    194.4632   1.1217117654e+02   9.8195113433e+00    0.1437029    0.1384374  41.59 7.438141e-05    1.023    0.022
       111  -9.6459    119.9407    193.5257   1.2096237620e+02   1.7559637872e+01    0.2577822    0.2303144 -66.25 0.0009977797    1.147    0.128
       112  -9.5727     72.8912    193.0234   1.3162467942e+02   2.5445660906e+01    0.1976198    0.1752461 -89.91 0.0003599135    1.075    0.070
       113  -9.5361     25.7191    192.3912   1.4175995212e+02   3.1508094558e+01    0.2205629    0.1514094  73.39 0.0008537954    1.277    0.217
       114  -9.8508    191.4829    191.4446   1.0472602719e+02   4.2066711635e+00    0.2467433    0.2354283  16.94 0.0006084672    1.014    0.014
       115  -8.9910     84.9191    192.3023   1.2880283618e+02   2.3792021199e+01    0.1867266    0.1632394  64.71 0.0003352575    1.090    0.082
       116  -9.9841     20.1105    191.4230   1.4282304838e+02   3.2301178304e+01    0.2592976    0.1413866  74.65   0.00141717    1.764    0.433
       117 -11.3013     51.1299    189.5857   1.3604061487e+02   2.9212384625e+01    0.2397067    0.2048836  85.51 0.0003874811    1.058    0.055
       118  -9.1301    135.1204    189.9164   1.1685226370e+02   1.5536745825e+01    0.2186363    0.1863846  73.97 0.0003961208    1.209    0.173
       119  -9.6476    158.1062    242.0912   1.2040815405e+02   9.6077017502e-01     0.196281    0.1685225  17.15 0.0005918748    1.267    0.211
       120  -9.9943     76.5370    188.8677   1.3023309051e+02   2.5874885896e+01    0.2882687    0.2151241  33.95 0.0006441266    1.542    0.351
       121 -11.6936     68.1542    187.3563   1.3194263589e+02   2.7449547937e+01    0.3071735    0.2373246 -50.95 0.0005453884    1.472    0.320
       122  -9.2106    111.1912    187.7759   1.2202613286e+02   2.0443145743e+01    0.2218818    0.1856442  81.60 0.0007399705    1.188    0.158
       123  -9.8381     32.4526    189.8649   1.4010821705e+02   3.1356310766e+01    0.3271726    0.2378958  49.80  0.002062048    1.410    0.291
       124  -9.7936     30.2141    184.0459   1.3999577712e+02   3.2930942641e+01    0.2126737    0.1823205 -74.29 0.0008661633    1.207    0.172
       125  -9.9755    140.7833    183.4786   1.1436246921e+02   1.5875906699e+01    0.4432551    0.2408534  59.32 -0.0001554107    2.342    0.573
       126  -9.3358     38.4806    195.9431   1.3945177996e+02   2.9291596906e+01     0.305074    0.1554647  77.56  0.001114585    2.180    0.541
       127  -9.8776     24.4599    184.1960   1.4124375602e+02   3.3496283553e+01    0.2013109     0.161823  54.60 0.0006090594    1.316    0.240
       128 -12.3838    248.6396    171.6605   8.9743014465e+01  -2.7002970686e+00    0.6945266    0.5398903 -36.44  0.004018474    1.174    0.148
       129 -12.1303    245.0117    162.4012   8.8456119489e+01  -4.4614644540e-01    0.5500223    0.4872907 -34.27  0.003315563    1.060    0.057
       130 -12.3137    247.8932    158.6169   8.7176182825e+01  -2.9025250710e-01    0.9720831    0.6834146 -67.37  0.004774497    2.102    0.524
       131  -8.4486    127.2724    182.2875   1.1729395446e+02   1.8748983630e+01     0.138495    0.1190356 -13.19  0.000203923    1.508    0.337
       132  -8.7151     65.9496    182.0077   1.3172717867e+02   2.9019843741e+01    0.1601511    0.1395235  76.04 0.0003652945    1.072    0.067
       133 -12.0238    239.6803    151.2225   8.7015008794e+01   2.5446896469e+00    0.5773824    0.4809898 -18.53  0.003104765    1.223    0.182
       134 -10.2386     19.9629    179.1307   1.4171276044e+02   3.5098940007e+01    0.1930333    0.1516948 -86.53 0.0002562529    1.021    0.021
       135  -9.6321    115.5359    177.4234   1.1919957501e+02   2.2065118681e+01     0.373172    0.2300914 -62.86   0.00166841    1.682    0.405
       136  -9.0354     47.8169    179.7001   1.3560077617e+02   3.1933166275e+01    0.1719351    0.1062466  47.26  0.000582632    1.636    0.389
       137 -10.4609     19.2898    172.6069   1.4121316869e+02   3.6660005324e+01    0.3843401    0.1995402  58.37  0.002041524    2.014    0.503
       138  -9.2842     12.0155    178.8480   1.4337744711e+02   3.5902693220e+01    0.2403163    0.1732956 -35.76  0.001373607    2.051    0.512
       139 -11.6667     11.8904    173.7075   1.4293300824e+02   3.7079995457e+01    0.7004505    0.2187609 -53.13   0.00288693    3.449    0.710
       140 -11.5077     12.9763    161.9668   1.4154007360e+02   3.9676265740e+01    0.4332739    0.2025685  49.46  0.002260499    2.288    0.563
       141 -10.7851     12.2046    166.8871   1.4220990441e+02   3.8610933730e+01    0.2993974    0.1994772  78.29  0.001171841    1.381    0.276
       142 -10.7964     15.6143    165.8104   1.4133912743e+02   3.8561614656e+01    0.3314337    0.1785165 -80.65  0.001816558    1.556    0.357
       143  -9.3264     92.7055    178.0972   1.2480704700e+02   2.5883280811e+01    0.1931295    0.1685598 -72.41 0.0001916149    1.095    0.087
       144  -8.4328     84.2897    178.0199   1.2681387719e+02   2.7253395295e+01    0.2242267   0.08559717 -43.99 0.0006090301    3.994    0.750
       145  -8.6948    182.3269    176.6882   1.0368135955e+02   8.9739364219e+00    0.1499902     0.120016  85.03  0.000704142    1.664    0.399
       146 -11.5432     77.6821    175.1164   1.2795078204e+02   2.8962895583e+01    0.2893614    0.2552919 -57.06 0.0004805435    1.217    0.179
       147  -9.2652     68.5551    175.9703   1.3026520545e+02   3.0090649111e+01    0.2789065    0.1534175 -67.32 0.0007461508    1.682    0.406
       148 -11.5911     64.6308    173.4208   1.3083448488e+02   3.1248337694e+01    0.4760984    0.2492714 -49.81  0.000998948    2.047    0.512
       149 -10.1746     68.6113    166.7814   1.2887724162e+02   3.2292845623e+01    0.2458461    0.2178013 -79.18 0.0006576906    1.039    0.038
       150 -11.4923    107.8875    172.9131   1.2023723890e+02   2.4513006432e+01    0.2701824    0.2477984 -87.10 0.0002994805    1.025    0.024
       151  -8.7853     90.7658    172.9682   1.2443008411e+02   2.7426633782e+01    0.1906227     0.113979 -60.57 0.0008698847    1.595    0.373
       152  -9.7798     46.0534    172.2344   1.3507642792e+02   3.3909885806e+01    0.4551726    0.2348484 -42.96   0.00202616    2.666    0.625
       153 -10.6817     43.6152    169.1973   1.3526220333e+02   3.4916944747e+01    0.3671229    0.2735867 -45.29  0.001540682    1.583    0.368
       154 -10.2913     44.9125    164.8881   1.3439038070e+02   3.5793369132e+01    0.2377546    0.1771737 -70.66 0.0003334612    1.150    0.131
       155 -10.5482     28.7298    170.4607   1.3886780638e+02   3.6235607242e+01    0.4198744    0.3028922  68.66   0.00196741    1.341    0.254
       156  -8.8406     52.5965    171.1063   1.3338455714e+02   3.3381315795e+01    0.1748157    0.1076923 -57.89 0.0002645064    1.522    0.343
       157  -8.3687    150.7374    170.3000   1.0945012665e+02   1.6834130499e+01    0.1492887    0.1193366  87.28 0.0006916677    1.514    0.339
       158 -12.0846     85.5584    166.5821   1.2463928419e+02   2.9803172214e+01    0.6308821    0.5234402  47.12  0.003478002    1.248    0.199
       159  -9.2162    126.5157    167.5104   1.1466730533e+02   2.2317635620e+01    0.1541505    0.1427256  81.73 0.0008098225    1.053    0.050
       160  -8.7273     58.4935    167.4876   1.3146173333e+02   3.3495634651e+01    0.1379245    0.1168572 -87.27  9.11355e-05    1.036    0.034
       161 -10.6805     24.1239    162.1374   1.3898774818e+02   3.8635512766e+01     0.214515    0.1943259 -80.28 0.0003524689    1.178    0.151
       162  -8.4988    118.6607    162.7254   1.1565292237e+02   2.4952669289e+01    0.1470452      0.12261  -6.14 0.0003205018    1.612    0.380
       163 -10.4487     89.9188    160.1513   1.2241277420e+02   3.0660641073e+01    0.2481096    0.2409213  32.14 0.0003545427    1.186    0.157
       164  -9.0997     73.5314    159.5230   1.2647781028e+02   3.3347752527e+01    0.1428606     0.125681 -84.45 0.0001088714    1.033    0.032
       165  -8.9288    123.9827    157.3390   1.1323311971e+02   2.5206227271e+01    0.2968174    0.1696263 -69.85  0.001065866    2.373    0.579
       166  -8.8719     52.2790    158.3918   1.3166903831e+02   3.6474335251e+01    0.1742276    0.1189008  49.94 0.0008193536    1.546    0.353
       167 -11.5026     31.8435    155.7245   1.3636220082e+02   3.9391855096e+01    0.5640107    0.2496661 -64.18   0.00144685    1.829    0.453
       168 -12.2429     23.1986    154.1577   1.3826876578e+02   4.0592527410e+01    0.5331724    0.4061824  74.20  0.003389767    1.297    0.229
       169  -9.9620     16.7376    158.5871   1.4031376502e+02   4.0135186249e+01    0.1552272    0.1044403  51.05 0.0009274292    1.597    0.374
       170  -8.5712    112.2899    157.6972   1.1624964629e+02   2.7347076053e+01    0.1528282    0.1154612  81.44 0.0002799314    1.567    0.362
       171  -9.2471    228.4026    155.6036   8.9953603420e+01   3.8901932579e+00    0.2648995    0.1271958 -45.24  0.000739188    2.003    0.501
       172 -10.4853     84.1839    155.4174   1.2302694585e+02   3.2731750258e+01    0.3693866    0.2277097  24.35 0.0009383741    2.158    0.537
       173  -9.3968     72.0147    156.2690   1.2631772084e+02   3.4359270167e+01    0.3029142    0.1834628  15.48  0.001282444    2.706    0.630
       174 -12.6146      2.6164    144.9037   1.4216797307e+02   4.4392782836e+01     1.056561    0.3397543 -78.91  0.004311526    2.999    0.667
       175 -12.4866      8.4724    143.1111   1.4055196403e+02   4.4382709251e+01    0.6045958    0.2616983 -58.86  0.003129849    1.843    0.457
       176 -11.7573      4.2975    139.8523   1.4120666700e+02   4.5429753562e+01    0.6678752    0.2316434  51.73  0.002781444    3.923    0.745
       177 -11.1852      9.1568    136.8084   1.3963651687e+02   4.5783071261e+01    0.2781906    0.1566023 -56.57 0.0009225971    1.501    0.334
       178 -11.9632     17.5082    139.1532   1.3780620591e+02   4.4596545779e+01     0.366215    0.2533367  55.20  0.002082232    1.625    0.385
       179 -12.3133     13.2050    153.3783   1.4056906631e+02   4.1641712050e+01    0.5093665    0.3590877 -16.00  0.002861637    2.206    0.547
       180 -11.3650     11.0181    150.0529   1.4072004154e+02   4.2586818090e+01    0.3008123    0.2417269 -71.19 0.0003480895    1.096    0.088
       181 -13.2435    247.7209    101.4095   7.4961645667e+01   9.9477463497e+00     2.045491    0.8789086 -30.61  0.007522811    3.064    0.674
       182 -12.1073    248.2371    113.0900   7.7410914937e+01   7.7913625048e+00    0.9767755    0.6929438  -2.71  0.004565849    2.379    0.580
       183 -12.2517    247.7910    142.2027   8.3732688072e+01   2.6588720260e+00    0.9461319    0.7327579  62.88  0.004898509    1.575    0.365
       184 -13.0816    248.3514    134.3109   8.1958787539e+01   3.9723545769e+00     1.626988    0.6846026 -41.82  0.006722799    2.088    0.521
       185 -10.6379     98.1418    151.1282   1.1857955273e+02   3.1468511312e+01    0.3720105    0.3325265   3.73   0.00199044    1.380    0.275
       186  -9.5702    101.6255    146.3409   1.1669513716e+02   3.2016525173e+01    0.3972611    0.2207208 -30.75 0.0009254312    3.007    0.667
       187  -9.8963     86.3367    150.0020   1.2145758236e+02   3.3708175331e+01    0.2146368    0.1662033 -62.85 0.0004187054    1.203    0.169
       188 -12.3914     68.2755    144.4152   1.2522447903e+02   3.7773299047e+01     0.693697    0.5089625  84.77  0.002291192    1.544    0.352
       189 -11.7271     73.0965    139.0327   1.2291268356e+02   3.8394212869e+01    0.4421327    0.3738353 -37.77  0.001500391    1.285    0.222
       190  -9.6759     76.9777    146.9997   1.2337197519e+02   3.5888313110e+01    0.2093428    0.1892417 -70.74            0    1.015    0.015
       191  -9.8559     39.8253    146.8524   1.3313384423e+02   4.0678155053e+01    0.1822764    0.1395936  75.55 0.0005335831    1.355    0.262
       192 -10.4033    236.0671    145.9305   8.6501105549e+01   4.2075709936e+00    0.2780263    0.2061781  39.05  0.000739141    1.491    0.329
       193 -10.0966     56.2372    149.4811   1.2927935113e+02   3.8137552128e+01    0.3207439     0.204506 -32.23  0.001520789    2.194    0.544
       194  -9.1678     53.1607    146.2041   1.2955394006e+02   3.9310760631e+01    0.1860012    0.1453924  82.24  0.000226752    1.323    0.244
       195 -10.4402    133.3480    141.4721   1.0741193109e+02   2.7051888546e+01    0.6074002    0.2645866 -52.23  0.002140973    2.341    0.573
       196 -10.9953     32.7739    140.7333   1.3407040812e+02   4.2857845864e+01    0.2801291    0.1848313  85.82  0.001136316    1.636    0.389
       197  -8.9558     41.5492    140.4868   1.3171563176e+02   4.2016086950e+01    0.1333243    0.1114635 -67.23 0.0001059067    1.033    0.032
       198  -9.6496     37.0457    140.4827   1.3290910803e+02   4.2489743383e+01       0.1717    0.1299934  33.90 0.0007407555    1.550    0.355
       199 -10.2616     56.0851    138.9008   1.2753748556e+02   4.0714295672e+01    0.2307814    0.1954429 -61.99 0.0003949062    1.057    0.054
       200 -11.2676     60.7148    137.0556   1.2594053629e+02   4.0571598403e+01    0.3671831    0.2770214 -82.02 0.0001596374    1.361    0.265
       201 -10.9814     12.8040    137.2058   1.3875889520e+02   4.5419710133e+01    0.2357033    0.1770364 -62.14 0.0007910131    1.143    0.125
       202  -9.8788    109.8243    136.3661   1.1236239575e+02   3.2911490305e+01     0.347815    0.2670961 -16.06   0.00115534    1.772    0.436
       203 -12.8713     10.7240    126.8947   1.3795976247e+02   4.7947338347e+01    0.6101521    0.3981479 -36.77  0.003689761    1.743    0.426
       204 -12.9694     12.2929    115.3840   1.3588508985e+02   5.0460262362e+01    0.4902182     0.410857  83.24  0.003383592    1.292    0.226
       205 -12.2058      9.1709    120.6026   1.3751605485e+02   4.9490720109e+01     0.399677    0.2443654  15.53  0.002191115    2.161    0.537
       206 -11.1165     33.1655    130.8922   1.3246682391e+02   4.5147851087e+01    0.4495226    0.1604742 -62.79  0.001905855    2.234    0.552
       207 -10.9570     29.9798    126.5358   1.3265167888e+02   4.6469515154e+01    0.2181237    0.2000049  21.62 0.0007759862    1.335    0.251
       208 -11.4359     67.1937    128.5267   1.2248902939e+02   4.1755154371e+01    0.3601254    0.3152798  85.90  0.002079671    1.213    0.176
       209 -10.8599     23.8696    127.8928   1.3454880016e+02   4.6691929595e+01    0.2349227    0.1362987 -59.61 0.0006484857    1.385    0.278
       210  -9.1685    106.0000    127.9441   1.1146591642e+02   3.5614974495e+01    0.2644115   0.08362988 -51.25 0.0001591956    3.033    0.670
       211  -9.8343     59.2149    128.5745   1.2476681087e+02   4.2799015831e+01    0.1732377    0.1364305   8.98  0.000820354    1.615    0.381
       212 -10.4669    209.8903    125.9070   8.6713756144e+01   1.3464473926e+01     0.325651    0.2434954 -40.27 0.0005160666    1.282    0.220
       213  -8.5338     87.9960    125.0050   1.1581220632e+02   3.9456898756e+01    0.1685996    0.1630941 -63.35 0.0009554645    1.038    0.037
       214 -10.0050     54.7025    120.6250   1.2450621403e+02   4.5241736580e+01    0.2817048    0.1761931   7.53  0.001211996    2.390    0.582
       215 -11.7458     30.6035    119.4017   1.3129253292e+02   4.8073982182e+01    0.4014189    0.2654582  47.80  0.002280464    1.803    0.445
       216  -9.9060    231.7933    116.5978   8.0743364412e+01   1.0521227063e+01    0.1872347    0.1385585  70.06 0.0005151161    1.568    0.362
       217 -10.6964     67.6373    115.3359   1.1956429660e+02   4.4804317169e+01    0.4063684    0.2231327  24.66  0.001646197    2.269    0.559
       218 -10.7922    168.0747    113.2026   9.2151977652e+01   2.5607070081e+01    0.3766208    0.2957637 -79.01 0.0007982344    1.534    0.348
       219  -9.1726    203.4113    111.7825   8.4579912911e+01   1.7677134627e+01    0.2114218    0.1430449 -30.64 0.0006057787    1.636    0.389
       220 -11.6340     44.9528    131.4267   1.2929982950e+02   4.3808288010e+01    0.4117978    0.3427086 -72.93   0.00251396    1.079    0.074
       221  -8.9619     29.3217    109.3203   1.2987650372e+02   5.0502272962e+01    0.1332977     0.080337 -38.75 0.0007044576    1.671    0.402
       222 -10.2711     60.8143    105.5753   1.1941937722e+02   4.7953207572e+01    0.4282307    0.2469892  71.97  0.001493949    4.315    0.768
       223  -9.5129     44.7351    105.2359   1.2433724138e+02   4.9928886095e+01    0.1979665    0.1704427  43.75 0.0005157322    1.361    0.265
       224  -9.9652    113.8779    150.6690   1.1440441138e+02   2.8733912628e+01    0.3394263    0.2592136 -65.00 0.0005523415    1.321    0.243
       225 -11.2312     14.7379    104.0077   1.3333531318e+02   5.2844014226e+01      0.23855     0.168281  -5.94  0.001486358    1.798    0.444
       226 -10.7742     17.3599     99.1921   1.3167587111e+02   5.3723572798e+01    0.2159297    0.1838536  83.09 0.0001609267    1.378    0.274
       227 -11.0840    249.5663    151.0434   8.5311142959e+01   7.5231733838e-01    0.5606597    0.3172506 -42.60  0.002705747    1.586    0.369
       228 -10.2484    249.6096    117.7391   7.8208330395e+01   6.6952792885e+00    0.3749772    0.2485003 -30.80  0.001310387    1.560    0.359
       229 -10.8756    169.9359    248.2287   1.1896903767e+02  -2.0913484606e+00    0.3497369    0.2375675   8.63 0.0008339356    2.075    0.518
       230 -10.4141     81.5389    246.6661   1.3601967827e+02   1.2691918035e+01    0.4140993     0.230301 -88.87  0.002152176    2.106    0.525
