#   1 NUMBER                 Running object number                                     
#   2 MAG_AUTO               Kron-like elliptical aperture magnitude                    [mag]
#   3 X_IMAGE                Object position along x                                    [pixel]
#   4 Y_IMAGE                Object position along y                                    [pixel]
#   5 X_WORLD                Barycenter position along world x axis                     [deg]
#   6 Y_WORLD                Barycenter position along world y axis                     [deg]
#   7 A_WORLD                Profile RMS along major axis (world units)                 [deg]
#   8 B_WORLD                Profile RMS along minor axis (world units)                 [deg]
#   9 THETA_WORLD            Position angle (CCW/world-x)                               [deg]
#  10 FWHM_WORLD             FWHM assuming a gaussian core                              [deg]
#  11 ELONGATION             A_IMAGE/B_IMAGE                                           
#  12 ELLIPTICITY            1 - B_IMAGE/A_IMAGE                                       
         1 -13.5147    216.3642     47.8091   3.5856817623e+02   2.6905505092e+01    0.9407783      0.70687  33.83  0.001362997    1.966    0.491
         2 -13.0066    244.9088     25.7082   3.5162390439e+02   2.4268448973e+01    0.8090823    0.5649725 -47.33  0.004688125    1.063    0.059
         3 -10.2901      2.5446      2.5259   4.7112444895e+01   7.9107244591e+01      0.35426    0.1173627 -46.32  0.001567526    2.642    0.621
         4 -10.0233    227.3147      9.5204   3.4914131061e+02   2.9210279664e+01    0.2158794    0.1638124 -56.31 0.0006853816    1.016    0.015
         5  -9.5284    125.4150    238.8954   5.3164812981e+01   9.0029051324e+00    0.1547489    0.1174605 -47.76 0.0004364885    1.565    0.361
         6  -9.3840    101.0040    249.7867   5.9513914341e+01   1.0038308731e+01    0.2372366    0.1421532 -60.43  0.001163054    2.105    0.525
         7  -8.6021     93.6457    250.3237   6.1135810541e+01   1.0776211788e+01    0.1884422     0.113365  50.45  0.001104194    1.746    0.427
         8 -10.1237     75.3452    247.8966   6.4887173572e+01   1.3216302850e+01    0.5164652    0.1646225 -54.68  0.002329336    3.621    0.724
         9 -14.3936     44.3656    235.3489   7.0902365582e+01   1.8806430828e+01     2.491144     1.392202 -71.99   0.01437088    2.043    0.511
        10 -15.4683      5.8699    136.0170   7.5055868120e+01   4.5699802796e+01     10.30338     1.529336 -81.69   0.02403272    6.962    0.856
        11 -13.0288    128.3952    229.7666   5.1437115393e+01   1.0168244700e+01     1.177072    0.3743316  29.03  0.004877178    2.683    0.627
        12  -9.1904    222.3534    224.7525   3.2779549519e+01   4.8735001470e-02    0.1475758   0.07989135 -25.12 0.0004457251    1.580    0.367
        13  -8.9106    195.0238    227.3121   3.7843671876e+01   2.6266351446e+00    0.1567513    0.1204379   2.84 0.0005195206    1.038    0.037
        14 -10.1098    174.9736    223.0398   4.0955336185e+01   5.5550818463e+00    0.1868515    0.1474997  -0.53 0.0005793922    1.041    0.039
        15 -13.4483     54.3325    232.1170   6.8418727069e+01   1.8407960802e+01     1.371917    0.5127858 -66.91  0.003137829    2.961    0.662
        16  -9.7176    210.7796    198.8524   3.0621733446e+01   4.8452800094e+00    0.2138716    0.1540568  -1.74 0.0005277328    1.209    0.173
        17 -10.0717    192.4614    194.0623   3.3070745497e+01   7.8498863223e+00    0.5787549     0.318916 -62.69  0.001709337    8.499    0.882
        18 -11.0535     73.5344    188.9355   5.9671693875e+01   2.5383832576e+01    0.3948523     0.245336 -86.88  0.001543931    2.018    0.504
        19  -8.9997     70.6188    183.2478   5.9786058953e+01   2.7075679677e+01    0.2436994    0.1650506 -63.28 0.0006622185    1.555    0.357
        20  -9.8665     95.5681    183.7798   5.3148900131e+01   2.3593880982e+01     0.432072    0.3200715  31.65  0.001318042    1.248    0.199
        21  -8.6687     78.2905    184.2829   5.7824369677e+01   2.5840101734e+01    0.1334443    0.1057152 -19.45 0.0003284515    1.531    0.347
        22  -9.6368     60.0310    179.3013   6.2268649254e+01   2.9330595288e+01    0.2353836    0.1907852 -59.62 0.0003219394    1.313    0.238
        23 -10.9623    178.8232    165.6518   3.0561362574e+01   1.4541474567e+01    0.6423207    0.4394644 -40.72  0.003545583    1.398    0.285
        24 -10.8800    171.6057    174.6387   3.3689572948e+01   1.4029183842e+01    0.3376428    0.3158119  17.72  0.001196113    1.189    0.159
        25 -10.8711    173.9061    171.1961   3.2587067271e+01   1.4300330810e+01    0.3817068    0.2764286  57.00  0.001636505    2.032    0.508
        26 -10.4054    104.5481    171.5666   4.8911933248e+01   2.5034981989e+01    0.3937501    0.2570342 -82.35  0.001733935    2.244    0.554
        27 -11.2665     91.7989    167.7950   5.1774760302e+01   2.7820321883e+01    0.5412397    0.3064773  32.01  0.002418153    1.678    0.404
        28 -14.3036     55.1758    217.7494   6.7155094442e+01   2.1218400338e+01     1.795853     1.049373  38.17  0.007574643    1.410    0.291
        29 -10.2138    110.6273    167.0864   4.6552101624e+01   2.5111778556e+01    0.2839527    0.2579606 -77.76 0.0005263943    1.230    0.187
        30 -11.3508     85.2306    160.7975   5.2528146495e+01   3.0471887655e+01     1.446073    0.5073227  39.56  0.003619763    2.626    0.619
        31 -11.8003     63.4740    123.5607   5.2937815105e+01   4.3216434909e+01     1.106858    0.5843335  57.09  0.001775994    2.454    0.592
        32 -13.1989     56.8300    124.9866   5.5560103970e+01   4.3755455696e+01     2.008163     1.069463 -85.12  0.001577064    2.591    0.614
        33 -11.7139     77.4036    150.1452   5.3119673521e+01   3.4272406968e+01    0.8759986    0.5148994 -52.54 0.0004633915    1.717    0.418
        34 -12.1151     63.3984    160.8813   5.9009866737e+01   3.3473930381e+01    0.8498712    0.5655664  -9.14  0.002258425    2.163    0.538
        35 -12.1545     68.3647    156.8252   5.6929452548e+01   3.3847730554e+01    0.7728697     0.712458  61.02 0.0008694478    1.046    0.044
        36 -13.0446     69.8248    144.8111   5.4601169860e+01   3.6729079491e+01     1.144874    0.6259382  63.03   0.00410563    2.524    0.604
        37 -12.7729     65.1844    144.8620   5.6094387453e+01   3.7360359613e+01     1.265331    0.6479704  17.36 0.0008899087    2.475    0.596
        38 -14.1747     19.0126    233.3654   7.6498348322e+01   2.1594775468e+01    0.6888597    0.4386517 -75.19  0.003091341    1.756    0.431
        39 -15.2512      9.8505    206.3688   7.7561021293e+01   2.8028572225e+01     1.007279    0.6108501  10.15   0.00381998    1.972    0.493
        40 -11.2161     44.6099    157.0302   6.4308795010e+01   3.6721361281e+01    0.3393649    0.2329841  65.30 0.0007093685    1.493    0.330
        41 -14.9370      5.4093    228.3309   7.9346761759e+01   2.3750593346e+01    0.5609525    0.4525466  60.90  0.002348808    1.089    0.082
        42  -9.2158     61.1968    153.8603   5.8711616921e+01   3.5554071744e+01    0.2229559    0.1886488  66.98 0.0005823375    1.178    0.151
        43  -9.0783     83.1371    153.1217   5.1883995583e+01   3.2676395505e+01    0.2006224    0.1946067 -28.04 0.0002500749    1.086    0.080
        44 -10.9911    133.5158    144.6363   3.6350092451e+01   2.6269662332e+01     1.057767    0.2872526 -54.51  0.002706049    5.354    0.813
        45  -9.8357    122.6543    148.2447   3.9860808112e+01   2.7381877596e+01     0.453467    0.2952081 -86.38  0.001548714    2.923    0.658
        46 -10.1453     43.6343    148.7802   6.3639534145e+01   3.8994281483e+01    0.2513416    0.2104556  55.30 0.0002757705    1.144    0.126
        47 -11.5707     85.0144    144.4794   4.9801303221e+01   3.4553419205e+01    0.6734438     0.475204 -17.79  0.002984054    1.937    0.484
        48 -10.6465    108.9243    145.3394   4.2977133760e+01   3.0419420142e+01    0.2929996    0.2799942  49.92 0.0006560232    1.062    0.059
        49  -9.7658     28.3282    143.2617   6.8071895640e+01   4.2020452019e+01    0.4115282    0.1990121 -70.45  0.001763827    1.917    0.478
        50 -10.3606     36.7715    142.5273   6.5152658286e+01   4.1394027598e+01    0.2972139    0.2350572  85.44 0.0008146067    1.231    0.187
        51 -10.2942     49.1028    142.3922   6.0998931234e+01   4.0064913684e+01    0.2595034    0.2023104 -87.28  0.000325411    1.290    0.225
        52  -9.9727     36.9709    136.6549   6.4361233519e+01   4.2954504984e+01    0.5646995    0.1843095  49.73   0.00177158    3.611    0.723
        53  -9.8424    100.8858    127.9013   4.1624335277e+01   3.6007805938e+01    0.3306869    0.2622258  76.88 0.0009827068    1.543    0.352
        54 -10.7661    105.2553    131.7712   4.1187786607e+01   3.4291595753e+01    0.5730829    0.3836091 -44.76  0.002595855    1.513    0.339
        55 -11.1378    100.5107    132.9955   4.2845688741e+01   3.4834942875e+01    0.7314746    0.4229403   7.06  0.002376423    3.621    0.724
        56 -17.2252      5.6946    217.3473   7.8942493823e+01   2.5992556476e+01     3.449492     1.895457  72.97   0.01595648    1.670    0.401
        57  -9.1695    115.2613    133.7242   3.8781545518e+01   3.2022439952e+01    0.2723768    0.1967122 -13.82 0.0009843153    1.885    0.469
        58  -9.4514     18.8470    134.1179   7.0407998123e+01   4.5296434354e+01    0.2278734    0.1688776  64.78 0.0006379018    1.305    0.234
        59 -11.5380     87.0685    131.8558   4.6719045732e+01   3.7406854307e+01    0.2857834    0.2833036 -53.39 0.0003766126    1.027    0.026
        60 -10.3899     43.9195    130.8047   6.1117011990e+01   4.3782910911e+01    0.3764505    0.2053147 -64.86  0.001624294    1.725    0.420
        61  -9.8699     37.2072    130.1672   6.3422526599e+01   4.4689331865e+01    0.2607404    0.2040553  53.26   0.00050576    1.272    0.214
        62 -10.1993     33.7524    127.7341   6.4342067433e+01   4.5705113600e+01    0.3000631    0.2509361  88.87 0.0005813381    1.147    0.128
        63  -8.5587    219.0523    125.9754   1.5625737461e+01   1.4918173017e+01    0.1508187    0.1234405 -30.96 0.0003467457    1.005    0.005
        64 -10.0928    109.8465    125.9318   3.8552819538e+01   3.4845837614e+01    0.3229606    0.2274463  33.44  0.000578693    1.470    0.320
        65  -9.2245    128.7892    124.8078   3.3132232511e+01   3.1506237207e+01    0.2033693    0.1785188 -89.34 0.0004661318    1.334    0.250
        66  -8.7347    143.5028    123.4394   2.9180224909e+01   2.8945128948e+01    0.1465161    0.1410407 -30.03 0.0001779109    1.007    0.007
        67 -10.1264    115.7192    121.2478   3.5792092384e+01   3.4830814160e+01    0.2956714    0.2398883 -84.30  0.001189778    1.512    0.339
        68 -10.0310     97.1000    121.0354   4.1217370825e+01   3.8364466021e+01    0.3083855    0.2264867  22.95  0.000629476    1.543    0.352
        69  -8.4800     76.2878    120.6285   4.7894043598e+01   4.2036410040e+01    0.1617939    0.1178107  75.38 0.0007020857    1.714    0.416
        70  -9.3869    135.0000    119.0029   3.0168832119e+01   3.1557976344e+01    0.2538715   0.08349989 -46.04 0.0008027472    2.945    0.660
        71  -9.4870     36.4230    118.2187   6.1977222400e+01   4.8032608737e+01     0.215074    0.1351762 -87.94 0.0009504426    1.713    0.416
        72 -11.2372     23.9064    115.4620   6.6432947261e+01   4.9976838285e+01    0.4362762    0.3227297 -89.53 0.0005944377    1.315    0.240
        73  -9.5415    106.7281    116.0250   3.7107881157e+01   3.7776452152e+01    0.2424862    0.2207562  44.02 0.0003632538    1.111    0.100
        74  -8.9802     18.6105    116.2621   6.8600543029e+01   5.0184924744e+01    0.1527958   0.09339375  53.25 0.0006975927    1.697    0.411
        75  -9.5483    243.4733    114.4366   1.0046945292e+01   1.2930982757e+01    0.1197598   0.09296482 -35.58 2.567958e-05    1.036    0.035
        76 -10.6822     53.1146    110.6149   5.4195785105e+01   4.8108068952e+01    0.3833009    0.3228504  71.67 0.0008579273    1.261    0.207
        77 -10.5996     52.4488    104.6274   5.3207607706e+01   4.9797686594e+01    0.3930774    0.2647071  88.64  0.001588115    1.844    0.458
        78 -11.5234     24.0155    104.7461   6.4885886358e+01   5.2905267272e+01    0.5421033    0.3264315  49.33  0.002204411    1.772    0.436
        79 -10.9111     35.5142    111.5117   6.1261821088e+01   4.9961562735e+01    0.4328994    0.2552784 -71.90 0.0007301748    1.626    0.385
        80 -10.8568     32.0056    109.5007   6.2340587192e+01   5.0867977166e+01    0.4278547    0.2471916  40.35  0.001337872    1.761    0.432
        81 -10.1842    114.2991    108.9761   3.3135252086e+01   3.7926319726e+01     0.224515    0.1997619 -43.66 0.0007412976    1.111    0.100
        82 -16.2201     35.0923    177.2700   6.9145553193e+01   3.2583325014e+01     7.992385      3.84402  44.08   0.03650817    1.846    0.458
        83  -8.5067    212.7349    107.3732   1.2570986578e+01   1.8898754659e+01    0.1323638   0.08719918 -55.49 0.0006987406    1.667    0.400
        84  -9.0716    134.3854    105.1935   2.6826929585e+01   3.4622957953e+01     0.226081    0.1378035 -53.78 0.0006840349    1.726    0.421
        85 -10.5427     23.1004     95.6682   6.3847101972e+01   5.5457684023e+01    0.3317653    0.2614643 -45.38   0.00176642    1.252    0.201
        86  -9.3217     26.2320     93.3995   6.2056815730e+01   5.5797978020e+01    0.2002193    0.1279346  35.40 0.0006257759    1.624    0.384
        87 -11.5000     52.2196     91.0430   5.0152171064e+01   5.3404822484e+01    0.7109115    0.3769391  57.23  0.002617164    2.681    0.627
        88 -10.4022     23.8063     86.8323   6.1955360636e+01   5.7779819856e+01    0.4271294    0.1705189  30.58  0.001499912    2.470    0.595
        89 -10.1205     47.5824     92.2047   5.2406538636e+01   5.3735460972e+01    0.2755605    0.2114163  40.22 0.0003531609    1.347    0.257
        90 -10.0705     45.2339     80.0051   5.0357691368e+01   5.7203205757e+01    0.2872449    0.2088862  42.55 0.0008650119    1.449    0.310
        91  -8.6096    161.6878     87.7144   1.6201440603e+01   3.2196502893e+01    0.1387633    0.1140358   8.34 0.0003773064    1.577    0.366
        92 -11.9572    194.0677     62.9117   4.6397376371e+00   2.9322942317e+01    0.6078156    0.4511473  27.04 0.0007918789    1.968    0.492
        93 -12.8254    206.6864     54.7224   1.1615044365e+00   2.7900751044e+01    0.9052032    0.7016606 -45.08  0.003272336    1.085    0.079
        94 -10.1782    125.0691    244.5566   5.3879289900e+01   8.1260797000e+00    0.2978307    0.1355418 -51.66  0.001565493    2.590    0.614
        95  -9.5933     77.2731     66.6416   3.2488562181e+01   5.4960610483e+01    0.2551268    0.2270366  78.08 0.0004688113    1.266    0.210
        96  -8.4537     84.6313     61.2786   2.7857186278e+01   5.4555008469e+01    0.1529786    0.1188555  83.06 0.0007010617    1.686    0.407
        97  -9.2285     63.7722    234.9295   6.6463784809e+01   1.6852861725e+01    0.1673291    0.1513844 -14.76 0.0007748477    1.336    0.251
        98 -11.0623     22.1279     45.3323   5.2050988792e+01   6.8385408241e+01    0.3997355    0.2369743 -78.60  0.001769757    2.394    0.582
        99  -9.3010     68.6390    247.0787   6.6287956148e+01   1.4086152774e+01      0.15006    0.1369234  56.01 0.0004586347    1.188    0.158
       100 -10.1795     14.7489     25.1211   4.8919764732e+01   7.3554275886e+01    0.2322187    0.1747241   7.19 0.0004303249    1.300    0.231
       101 -10.5401      1.9695     23.6012   5.8758275279e+01   7.4916650348e+01    0.3614909    0.1552833 -58.95  0.001465253    2.036    0.509
       102  -9.3973     60.8656     21.1848   1.9271132038e+01   6.6603235591e+01    0.2004811    0.1837673  71.24 0.0006495217    1.219    0.180
       103  -9.0228     71.3806    232.7003   6.4546653141e+01   1.6437433590e+01    0.1833459    0.1555381 -52.60 0.0007953686    1.415    0.293
       104 -10.0520    102.8027    239.1688   5.8084407785e+01   1.1632408774e+01    0.2030767    0.1842236 -37.79 0.0004765124    1.304    0.233
