#   1 NUMBER                 Running object number                                     
#   2 MAG_AUTO               Kron-like elliptical aperture magnitude                    [mag]
#   3 X_IMAGE                Object position along x                                    [pixel]
#   4 Y_IMAGE                Object position along y                                    [pixel]
#   5 X_WORLD                Barycenter position along world x axis                     [deg]
#   6 Y_WORLD                Barycenter position along world y axis                     [deg]
#   7 A_WORLD                Profile RMS along major axis (world units)                 [deg]
#   8 B_WORLD                Profile RMS along minor axis (world units)                 [deg]
#   9 THETA_WORLD            Position angle (CCW/world-x)                               [deg]
#  10 FWHM_WORLD             FWHM assuming a gaussian core                              [deg]
#  11 ELONGATION             A_IMAGE/B_IMAGE                                           
#  12 ELLIPTICITY            1 - B_IMAGE/A_IMAGE                                       
         1 -11.3923     74.8528     21.8594   8.3948203623e+01   5.9139938354e+01    0.3240084    0.2296428 -10.79  0.001315663    1.408    0.290
         2 -11.0574     13.6473     15.9476   1.0423212769e+02   6.8284056708e+01    0.3125982    0.1644715  26.47   0.00139779    1.854    0.461
         3 -11.4996     41.6073     17.9055   9.3567320090e+01   6.4789564810e+01    0.5359363    0.3051425 -15.04  0.003227851    1.684    0.406
         4 -10.0728     37.6932      2.7849   8.8752371917e+01   6.6874215675e+01    0.2943541   0.09368143 -27.15  0.001303767    3.122    0.680
         5 -11.5088     35.0295     12.9964   9.4083597385e+01   6.6209087511e+01    0.3467396    0.2361249 -28.56  0.001959579    1.573    0.364
         6 -11.5659     40.1072      8.7068   9.0359237686e+01   6.5971698964e+01    0.4129194    0.2418194  -3.33  0.001843181    1.647    0.393
         7 -10.7233     22.1118      9.3233   9.7797107079e+01   6.8187097903e+01    0.3194633    0.1714481  14.72  0.001244686    1.713    0.416
         8 -11.9778     30.2206      7.2269   9.3555184589e+01   6.7437665810e+01    0.3366414    0.2513018  10.34  0.001586607    1.083    0.077
         9  -9.9096    175.4862     20.5307   6.3141375295e+01   3.7945642289e+01    0.1249331    0.1073666  75.57 8.585346e-05    1.002    0.002
        10 -11.7630     89.0716     14.3008   7.7318601373e+01   5.7237216024e+01    0.4440005    0.3349354 -42.02  0.001864055    1.758    0.431
        11 -10.2645     26.7740     16.1351   9.8693304300e+01   6.6867191171e+01    0.2322719    0.1709787 -15.70  0.001078847    1.199    0.166
        12 -10.0897    157.2765     12.3304   6.3598472604e+01   4.2842658205e+01    0.1914073    0.1701477  19.15 0.0005465991    1.333    0.250
        13 -10.2417    119.0443     12.0977   6.9910946880e+01   5.1303922541e+01    0.1850118    0.1507789  47.80 0.0003128862    1.018    0.018
        14 -10.5496     56.5246     10.9230   8.5504055057e+01   6.3301380101e+01    0.1945214    0.1462393   0.73 0.0003813095    1.183    0.155
        15 -11.9082     56.5795      4.4588   8.2902530217e+01   6.3871630982e+01    0.4878555    0.2968398   4.13  0.003056506    1.618    0.382
        16  -9.7407     89.8145      2.3555   7.2963342097e+01   5.8062141809e+01    0.1637665    0.1187334  46.20 0.0005929231    1.129    0.114
        17 -10.7052     14.6915      8.6941   1.0074847198e+02   6.9061498553e+01    0.2171641    0.1157666  -3.44 0.0007501559    1.855    0.461
        18 -11.5768     10.4341      6.0652   1.0153003920e+02   6.9792603180e+01    0.4164613    0.3577229  -8.71    0.0031365    1.541    0.351
        19 -10.3913      2.8100      2.6778   1.0360183369e+02   7.0896165082e+01    0.1992911    0.1102542  30.34 0.0008200538    2.028    0.507
        20 -11.4860      4.6185      9.8714   1.0583428005e+02   6.9873577965e+01    0.3321955     0.151683  22.45  0.001616513    2.060    0.515
        21 -11.3875      2.4445      6.2328   1.0531977967e+02   7.0507567994e+01    0.2380464    0.1734962  -8.42 0.0008487906    1.111    0.100
        22 -11.6496    151.1463      7.1757   6.3136915128e+01   4.4664185323e+01    0.2983419    0.2612293  32.97 0.0009260609    1.264    0.209
        23 -10.4432     64.9545      6.6686   8.1176394108e+01   6.2289571925e+01    0.2234365    0.1234806  33.04 0.0008920018    1.492    0.330
        24 -11.0999     71.3479      6.4103   7.9209121127e+01   6.1197173521e+01    0.5600269    0.1553517  45.03  0.002450153    2.720    0.632
        25 -11.7084     80.1997      1.7643   7.5100808271e+01   5.9943690989e+01    0.3522739     0.158006  50.78 0.0009849184    1.802    0.445
        26 -10.7876    194.5970      4.7852   5.7322940952e+01   3.5229868360e+01    0.1592281   0.09794699 -47.84 0.0007561632    1.674    0.403
        27 -10.8059    210.3617      7.3679   5.6336981005e+01   3.1587859674e+01    0.1888995    0.1518437 -89.21  0.001070385    1.013    0.013
        28 -11.2829    130.0809      4.0247   6.5527150159e+01   4.9568187547e+01    0.3016159    0.1729034  53.81  0.001727747    1.404    0.288
        29 -10.6961    120.2284      4.3478   6.7333527560e+01   5.1671221423e+01    0.3771132    0.1250339  50.96  0.001149303    2.274    0.560
        30  -9.8181    235.5557      4.2356   5.3614617242e+01   2.6701078710e+01    0.1329741    0.1082856 -25.48 0.0009515822    1.689    0.408
        31  -9.8361    230.5382      3.4864   5.3864047402e+01   2.7785285793e+01    0.1129807   0.08864033 -82.00 0.0001151199    1.003    0.003
        32 -10.6124    172.8165      3.0744   5.9307074284e+01   4.0178034774e+01    0.2303043    0.1439677  77.90 0.0009141129    1.407    0.289
        33  -9.8494    176.5066      2.4697   5.8741475119e+01   3.9411789363e+01     0.181302     0.150662 -61.65  0.001254383    1.269    0.212
        34 -11.1132    160.3747      2.2156   6.0620824787e+01   4.3015697986e+01     0.280187    0.2115414  80.42  0.001829248    1.190    0.160
        35 -10.4277     20.0510      2.4319   9.5675924791e+01   6.9160575922e+01    0.1932735    0.1248149 -13.42 0.0006691834    1.285    0.222
        36  -8.7610     16.5222      3.4540   9.7659822784e+01   6.9449986241e+01    0.1570836   0.07898727  20.20 3.687315e-05    1.756    0.431
        37  -9.8699    112.7819      3.0239   6.8315590365e+01   5.3349105677e+01    0.1728968    0.1500803  78.13 0.0005506554    1.302    0.232
        38  -9.8619     99.9917      1.6156   7.0442429878e+01   5.6091620296e+01    0.1706582    0.1272095  50.37 0.0003931788    1.112    0.101
        39 -10.9991     92.9531      9.0069   7.4524380238e+01   5.6932923387e+01    0.2914234    0.2078622  -7.60  0.000616449    1.524    0.344
        40  -9.2593    204.3369      1.2909   5.5652028406e+01   3.3452173976e+01    0.1123272   0.07742795  51.06 0.0003015967    1.640    0.390
        41  -9.3814     67.4108      1.4809   7.8446976934e+01   6.2282935103e+01    0.1169162    0.0875214  26.05 0.0001399735    1.043    0.041
        42 -11.1829     11.7547    129.6076   1.3409482989e+02   4.6952004033e+01    0.4609655    0.2514811  72.67  0.002021272    2.953    0.661
        43 -12.6535      4.7406    240.7678   1.4643104711e+02   2.3190682464e+01     1.005885    0.2183201  52.04  0.004183555    4.019    0.751
        44 -10.8376      1.6972    248.6726   1.4741284578e+02   2.1962796078e+01    0.3703807    0.1354336 -76.96  0.002019528    2.356    0.576
        45 -13.2006      8.6736    246.1563   1.4610685113e+02   2.1760164099e+01    0.8470306     0.415148  43.66  0.005307444    1.868    0.465
        46 -13.5896     10.1174    229.5005   1.4474569919e+02   2.4911003312e+01    0.7558002    0.4493425  85.21  0.004113333    1.439    0.305
        47 -10.5408    247.8201    129.2249   7.7227173493e+01   6.4509898967e+00    0.2269317    0.1390905 -71.12 0.0009632222    2.883    0.653
        48  -9.1019     21.3138    126.2874   1.3090979954e+02   4.6972131431e+01    0.1288295   0.08028781 -38.86 0.0002684326    1.584    0.369
        49 -11.7550     23.1533    120.8445   1.2945669829e+02   4.8057975962e+01     0.504772    0.2981675  86.30 0.0007846059    2.657    0.624
        50  -9.6222     35.4729    130.5396   1.2761703957e+02   4.4720687007e+01    0.2333663   0.09174874 -51.52  0.000677558    2.082    0.520
        51  -9.8579     41.6462    113.7417   1.2255910506e+02   4.7925379281e+01    0.2786829    0.1365706 -17.00 0.0009657859    4.278    0.766
        52  -9.5608      2.3116    114.2858   1.3442970707e+02   5.1010595481e+01    0.1232418   0.07047215 -42.07 0.0001950479    1.576    0.366
        53 -10.7672     65.5686    111.2088   1.1466521504e+02   4.5604685435e+01    0.4127312    0.1495565 -50.31  0.001573314    2.443    0.591
        54  -9.7274     20.2260    112.3994   1.2881273725e+02   5.0190991169e+01    0.1460474    0.1157427  37.88 9.619984e-05    1.539    0.350
        55  -9.9681    249.1922    111.6132   7.3386647185e+01   9.1870496903e+00    0.1681789    0.1231773  41.87 0.0007794174    1.643    0.391
        56 -10.8480      4.0221    109.3074   1.3313329299e+02   5.2002411058e+01    0.2697199    0.1279059  30.42  0.001438827    2.530    0.605
        57 -10.3911     57.8665    107.8583   1.1623876981e+02   4.7352214618e+01    0.2163772    0.1691158 -24.93 0.0007843343    1.264    0.209
        58 -11.2052     12.6940    108.1006   1.3031593554e+02   5.1701426920e+01     0.247194    0.1675525  10.52  0.001510817    1.781    0.438
        59  -9.7547     93.3404    104.3343   1.0460052987e+02   4.2778950644e+01    0.1539974    0.1095572  -9.68 0.0006793946    1.753    0.430
        60  -8.9717     33.2595    103.2796   1.2294699123e+02   5.1071165752e+01    0.1280275   0.08197846 -34.26 0.0002340145    1.474    0.321
        61  -9.9307    113.2402    102.5953   9.8517302242e+01   3.9467554741e+01    0.2101199    0.1382829  30.44 0.0009500168    1.630    0.387
        62 -11.1015     57.1752    101.8109   1.1499499135e+02   4.8747179939e+01    0.3048995    0.2282375  30.43  0.001667537    1.461    0.315
        63 -10.6704     24.8778    101.8520   1.2531174473e+02   5.2129474576e+01    0.1952291    0.1423941 -38.24 0.0004309106    1.192    0.161
        64 -10.0579     62.1429     98.1478   1.1249754817e+02   4.8875460354e+01    0.2160527    0.1705606 -29.10  0.001223736    1.162    0.140
        65  -9.3851    129.4910     97.5311   9.2866921481e+01   3.7166554747e+01    0.1482211    0.1418121   6.04 2.388199e-05    1.008    0.008
        66 -10.0088    100.8238     95.9352   1.0015374249e+02   4.3148645300e+01    0.3853116    0.2399733 -65.75  0.001537838    2.716    0.632
        67 -10.9076     78.8510     94.9902   1.0642460408e+02   4.7092548855e+01    0.2142135    0.1920384   4.91 0.0002889094    1.093    0.085
        68 -11.3549     18.0710     94.4950   1.2597196678e+02   5.4248565127e+01    0.2362827    0.2140813 -75.62 0.0009063266    1.313    0.238
        69 -11.0329     27.3864     91.1379   1.2215008393e+02   5.4193840205e+01    0.4550311    0.2664783  46.00  0.002352733    2.447    0.591
        70 -10.9407     58.3992     91.4206   1.1194361315e+02   5.0760473939e+01    0.3055784    0.2201171 -17.52   0.00102565    1.439    0.305
        71 -10.0879     10.6640     91.3029   1.2774141720e+02   5.5448094998e+01    0.2047048    0.1784722  73.51  0.001408039    1.541    0.351
        72 -11.7374     10.7645     85.7147   1.2653467981e+02   5.6601670398e+01    0.4725082    0.2341673 -68.73  0.001734285    2.329    0.571
        73 -11.9157      1.8743     90.0091   1.3036992079e+02   5.6259210435e+01    0.2492519    0.1295699 -56.81 0.0003015416    1.471    0.320
        74 -10.6934     76.3761     89.1209   1.0556691522e+02   4.8651143489e+01    0.2590528    0.2251084 -29.33 0.0005415699    1.072    0.067
        75 -11.4165     98.8467     89.0991   9.8794589169e+01   4.4837857628e+01    0.2670157    0.2124771  16.72   0.00104791    1.298    0.229
        76 -10.3649     17.9192     88.4166   1.2470966110e+02   5.5533584667e+01    0.3632232     0.179871 -26.80  0.001776541    2.258    0.557
        77  -9.8627     43.7094     89.4535   1.1627876384e+02   5.2928550590e+01    0.2312955    0.1189573  33.44  0.001131103    2.163    0.538
        78  -9.4826     33.1628     88.0707   1.1947991335e+02   5.4298639418e+01    0.1755101    0.1291466 -42.69  0.000418255    1.131    0.116
        79  -9.5961    124.1807     86.8661   9.1252348528e+01   4.0264301021e+01    0.2050133    0.1699456   2.52 0.0006720523    1.319    0.242
        80 -11.5369     54.9008     85.1682   1.1140862989e+02   5.2466548783e+01    0.2986116    0.2393699 -58.54 0.0007972257    1.463    0.317
        81  -9.7432     72.2522     84.1607   1.0546111329e+02   5.0248426167e+01    0.2861872    0.1442995 -30.95  0.001219343    2.185    0.542
        82  -9.5479     25.4651     84.9340   1.2134123599e+02   5.5639881169e+01    0.1837534    0.1059267 -54.28  0.000769105    1.524    0.344
        83 -10.6799      3.4993     83.1921   1.2846496065e+02   5.7572898221e+01    0.2642396    0.2228023 -88.24  0.001534879    1.548    0.354
        84 -10.2169    107.6801     89.3178   9.6355782259e+01   4.3132495523e+01    0.1399651    0.1182263 -88.06 0.0007041755    1.661    0.398
        85 -11.3713     64.0095     79.9513   1.0691833719e+02   5.2257760734e+01    0.4283263    0.2930835 -43.47  0.002216622    1.397    0.284
        86 -10.0379    250.3914     80.8246   6.6956772113e+01   1.3899137596e+01    0.1721871     0.112035 -32.68 0.0005630938    1.627    0.385
        87 -10.4238     89.7894     79.3326   9.8607620519e+01   4.8278794055e+01    0.4424015    0.2572432 -23.37  0.001966998    2.046    0.511
        88  -9.5128    124.4677     78.9855   8.8926324553e+01   4.1591928921e+01     0.191495    0.1234376 -61.36 0.0006188943    2.330    0.571
        89  -9.4153     24.1572     78.8442   1.2030163237e+02   5.6976236313e+01    0.1807873     0.118445 -30.77  0.001073175    1.333    0.250
        90 -10.4543    177.0207     76.9696   7.7003166108e+01   3.0187848963e+01    0.3336379    0.1988399  48.12  0.001107064    1.676    0.403
        91 -10.9123     55.1863     75.8483   1.0867749870e+02   5.4227201033e+01     0.269597    0.2265056   6.87 0.0003721046    1.159    0.137
        92 -10.4737     58.6950     74.3177   1.0703790027e+02   5.4046499544e+01    0.2401718    0.2208303  83.49 0.0007144204    1.612    0.380
        93 -10.8994     16.4338     75.5697   1.2222486940e+02   5.8242344595e+01    0.3659675    0.1764784   6.65   0.00184093    2.596    0.615
        94  -9.1509    160.7343     75.0194   7.9621710548e+01   3.4221072475e+01    0.1719883    0.1242751 -37.26 0.0002651139    1.428    0.300
        95 -10.0198     37.6489     74.6875   1.1443648833e+02   5.6506179135e+01    0.2384863    0.1432063 -37.03  0.001319043    1.417    0.294
        96 -10.3843     32.1885     73.1501   1.1595452628e+02   5.7352870767e+01    0.2150526    0.1962626  16.20 0.0006224471    1.315    0.240
        97 -10.4580     35.5343     72.4599   1.1456711622e+02   5.7149460235e+01    0.3508622    0.1815291 -30.19  0.001114725    1.890    0.471
        98 -11.1097      3.4179     73.5457   1.2639408135e+02   5.9511422563e+01    0.2898647    0.1804285   5.84  0.001394522    1.808    0.447
        99  -9.5249    136.5063     74.4729   8.4715832262e+01   3.9752633644e+01    0.1425144    0.1351687  30.32 0.0001027047    1.002    0.002
       100 -11.7449    105.8422     71.7018   9.1682136667e+01   4.6616832722e+01     0.265124    0.2260182  16.58 0.0003949891    1.124    0.110
       101  -9.3909     92.4800     72.4822   9.5736443460e+01   4.9005722949e+01    0.1381397    0.1258216   2.40   0.00031641    1.030    0.029
       102 -10.0722     76.3569     71.2354   1.0030052374e+02   5.1980858183e+01    0.1832113    0.1209007 -45.75 0.0008608637    1.630    0.386
       103  -9.8698     10.3952     68.7732   1.2272288622e+02   5.9995645436e+01    0.2413992    0.1122425 -46.09  0.001319835    1.628    0.386
       104  -9.4663     45.9990     69.0000   1.0984392732e+02   5.6635031588e+01    0.1973706   0.06948371  30.15 0.0006733385    2.992    0.666
       105  -8.9295    114.6722     66.3369   8.7694307207e+01   4.5710635045e+01    0.1365494     0.113041 -81.13 0.0005517623    1.727    0.421
       106 -10.8611     34.4207     65.0516   1.1284157572e+02   5.8637526095e+01    0.2828341    0.2000067 -19.32 0.0005792523    1.259    0.205
       107 -11.6167     38.8509     62.8839   1.1057046324e+02   5.8553186435e+01    0.7054629    0.2756467 -29.63 0.0004005074    3.213    0.689
       108 -10.7804    131.6176     64.3933   8.2953106223e+01   4.2410518069e+01    0.3455493    0.2715096  51.95  0.001289408    1.233    0.189
       109 -10.2135     14.2177     63.6128   1.1995664514e+02   6.0696344096e+01    0.2039569    0.1341655 -59.63 0.0007053381    1.695    0.410
       110 -11.2834      4.4740     62.2387   1.2327484223e+02   6.1617248735e+01    0.3444191    0.2514381  83.52  0.001273557    2.659    0.624
       111 -11.3356      9.8301     60.2746   1.2071926525e+02   6.1629293451e+01    0.4067714    0.1821163 -36.14 0.0002474017    1.830    0.453
       112  -9.6600     72.4113     63.2521   9.9059059573e+01   5.3968106129e+01    0.1704042    0.1208593 -44.00 0.0004206915    1.553    0.356
       113 -11.1932     54.9543     57.8555   1.0320279451e+02   5.7429044437e+01    0.4818321    0.4080771 -78.83  0.002835854    2.123    0.529
       114 -10.3694     62.7428     62.3142   1.0196162258e+02   5.5593155421e+01    0.2937463    0.1945518 -11.01  0.001143169    1.615    0.381
       115  -9.5908     66.5124     60.5634   1.0013199343e+02   5.5323938903e+01    0.1318603     0.110985  -2.97 0.0001159842    1.017    0.016
       116 -10.3546     60.0316     58.2320   1.0156485892e+02   5.6658889900e+01    0.2255059    0.1727699 -36.07 0.0004654577    1.321    0.243
       117  -9.7217    101.0051     61.7156   8.9942657250e+01   4.9159697627e+01    0.1900323    0.1680845  31.92 0.0005602417    1.101    0.092
       118 -13.0171     20.6884     57.7053   1.1582630963e+02   6.1251778635e+01    0.4156334    0.3066934 -47.85  0.002746494    1.378    0.275
       119 -10.0078     20.0197     51.5010   1.1421116550e+02   6.2389731723e+01    0.2934485    0.1379891 -19.08  0.001133665    2.575    0.612
       120  -8.9370    127.2448     61.6788   8.3181278208e+01   4.3767991850e+01    0.1295126    0.1082742 -67.84 0.0001452533    1.525    0.344
       121 -10.0519    118.7806     58.6406   8.4318435689e+01   4.6021579711e+01    0.2580394    0.1773362 -42.72 0.0006775173    1.622    0.383
       122  -9.6551     83.5948     57.1259   9.3550508760e+01   5.3076350685e+01    0.2187657    0.1245776 -37.22 0.0005207865    1.789    0.441
       123 -12.0768     88.3277     53.4921   9.0938212138e+01   5.2774421967e+01    0.4858985    0.3430766  30.14 0.0007811391    1.316    0.240
       124  -9.5565     71.5531     57.1854   9.7368132388e+01   5.5082458777e+01    0.1800234    0.1194768 -33.88 0.0007103487    1.468    0.319
       125 -10.5471    225.2804     54.5875   6.4563650509e+01   2.2807586610e+01    0.3519078    0.2475621 -18.82  0.001922705    2.000    0.500
       126 -12.8060      5.1503     51.5809   1.2013238721e+02   6.3508574141e+01    0.4658733    0.2063854 -26.24 0.0008426741    2.206    0.547
       127 -11.8357     16.0307     45.6961   1.1397484794e+02   6.3704663331e+01    0.6573893    0.3897505  -1.18  0.004024974    1.701    0.412
       128 -10.0247     34.0453     53.6945   1.0948542400e+02   6.0659828228e+01    0.2429194     0.132383 -24.58  0.001299255    1.778    0.438
       129  -9.1871    100.2809     55.3822   8.8137544767e+01   5.0248466508e+01    0.1417972   0.09731793   7.63 0.0007007404    1.723    0.420
       130 -12.0084     66.4763     52.5442   9.7494952986e+01   5.6597350839e+01    0.4600654    0.1995824  33.59  0.001547084    2.284    0.562
       131  -9.1998    176.0051     52.2284   7.0915024752e+01   3.4075270238e+01     0.172756    0.1042858  60.89 0.0003538719    1.546    0.353
       132 -11.8702    114.3974     54.1257   8.4025941275e+01   4.7585156521e+01    0.3193538    0.2781088  33.54 0.0006312893    1.045    0.043
       133  -9.9024     75.4610     50.0284   9.3722550231e+01   5.5526294180e+01    0.2394243    0.1714475   1.71 0.0005944031    1.415    0.293
       134 -10.5566     78.4164     46.0783   9.1453709510e+01   5.5584821814e+01    0.3098416    0.1972203  27.62 0.0005979423    1.486    0.327
       135 -10.8911    102.9179     47.4974   8.4891495013e+01   5.0829105630e+01    0.3636245    0.1937533  35.31 0.0007320805    1.854    0.461
       136  -9.4231     53.6127     48.2247   1.0045248945e+02   5.9135698540e+01    0.1783701    0.1018034 -26.32 0.0009491142    1.670    0.401
       137  -9.0456     47.3174     47.2917   1.0240016596e+02   6.0119890156e+01     0.127002   0.08142833  -5.08 0.0003832785    1.600    0.375
       138  -9.3881    135.5569     46.4140   7.6832611646e+01   4.4051889973e+01    0.1329232     0.121422  51.93 0.0001682461    1.048    0.046
       139  -9.6919     64.9390     46.3083   9.5878847107e+01   5.7759229027e+01    0.1755982    0.1382674  16.29 0.0002588535    1.121    0.108
       140  -9.7496     31.1429     45.4852   1.0789611998e+02   6.2306570974e+01    0.3051778    0.1573936 -16.21  0.001531838    2.260    0.558
       141  -9.5958     91.0416     44.6822   8.7229581333e+01   5.3499581596e+01    0.1816591     0.148759  27.12 0.0004287887    1.077    0.071
       142 -11.2329     26.0726     43.5601   1.0924080560e+02   6.3132195719e+01    0.2472512    0.1998014 -10.86 0.0006217253    1.097    0.088
       143 -10.2694     95.0203     42.2405   8.5301629342e+01   5.3061452927e+01    0.2010705    0.1742105  -2.58 0.0005804715    1.126    0.112
       144 -10.1807     69.4423     41.9141   9.2858711253e+01   5.7658882023e+01    0.2096909    0.1512971  13.74 0.0003720926    1.280    0.219
       145 -10.5538     36.4736     41.2584   1.0436979980e+02   6.2365285088e+01     0.225779    0.1728517 -19.76  0.000859191    1.109    0.098
       146  -9.8185      2.4681     42.3142   1.1848774868e+02   6.5273545555e+01    0.2192357     0.112546  -3.38  0.001276705    2.083    0.520
       147  -9.6517      5.7636     39.3824   1.1618669696e+02   6.5532056224e+01    0.1931535   0.09319214 -31.64            0    1.666    0.400
       148 -10.0760    181.3340     40.8252   6.7258974034e+01   3.4328071893e+01    0.2384822    0.1670948  84.93 0.0006657609    1.504    0.335
       149 -10.6687    139.5282     40.4777   7.4305983964e+01   4.3901845541e+01    0.2585727    0.2224364 -68.57  0.001100046    1.370    0.270
       150  -9.0422    159.6962     40.6734   7.0648855327e+01   3.9299800093e+01    0.1343982   0.09583788  31.36 0.0007033473    1.645    0.392
       151  -9.5446     51.0271     39.8705   9.8443007552e+01   6.0714313561e+01     0.163614    0.1221043 -39.99  0.001016899    1.597    0.374
       152  -9.6063     43.0384     40.3865   1.0156503930e+02   6.1697697978e+01    0.1939391    0.1256633   2.76 0.0007953004    1.504    0.335
       153 -10.3361     12.5715     38.3371   1.1298620365e+02   6.5179566158e+01    0.3315458   0.09783578 -48.71  0.001449923    3.256    0.693
       154 -10.2589    132.2675     38.6687   7.5247858463e+01   4.5733983535e+01    0.3089147    0.2236632  88.01   0.00161494    1.888    0.470
       155 -12.2253    121.7428     36.7987   7.6936955899e+01   4.8250040902e+01    0.5132977    0.4006404  59.95  0.001978967    1.276    0.216
       156 -10.5704     22.7710     38.5847   1.0886210837e+02   6.4230530620e+01    0.2029608    0.1810887   6.15 0.0007456079    1.400    0.286
       157 -11.3452     26.5438     35.2779   1.0615978154e+02   6.4346809680e+01    0.3373731    0.1901227 -18.58  0.001226707    1.660    0.398
       158 -10.6765      1.9653     35.8563   1.1666161614e+02   6.6362632428e+01     0.319407    0.1770407 -18.04  0.001897076    1.596    0.373
       159 -10.0132     91.1359     33.9568   8.3578166516e+01   5.4818195090e+01    0.3222663    0.1600092 -13.29  0.001416602    2.765    0.638
       160  -8.8749     38.5669     35.5152   1.0150087397e+02   6.2950137388e+01    0.2250253    0.1612667  54.35  0.001256635    2.771    0.639
       161 -11.6755     43.6822     29.3073   9.7242198900e+01   6.3133555312e+01    0.4685996    0.2911985  -7.20   0.00245182    1.561    0.359
       162 -11.2585     38.5990     30.9363   9.9788798113e+01   6.3574847209e+01    0.2467975    0.1585967   2.81 0.0002412745    1.451    0.311
       163  -9.5307     15.6760     33.6665   1.1007317848e+02   6.5635238599e+01    0.1930066    0.1091808 -26.07  0.001198437    1.452    0.311
       164 -10.9035     19.5333     31.9444   1.0783722354e+02   6.5535100618e+01    0.4029018    0.2069411  -3.54  0.001662362    2.296    0.564
       165  -9.2061      8.9694     35.7790   1.1364276270e+02   6.5868399627e+01    0.1308636   0.08008343  11.84 0.0003770243    1.600    0.375
       166 -11.1320    134.3357     34.0318   7.3468312815e+01   4.5809921212e+01    0.2190856    0.1591467  46.87 0.0003233984    1.222    0.182
       167  -8.9834     54.6901     34.6289   9.5232433894e+01   6.0906613047e+01    0.1309985   0.08017458   1.48 0.0007034247    1.770    0.435
       168  -9.5612    145.1408     32.8859   7.1090796421e+01   4.3517928539e+01    0.1686112    0.1346187  38.03            0    1.244    0.196
       169  -9.0868     50.4507     33.5199   9.6334346615e+01   6.1659485778e+01    0.1195929   0.09840152   1.60  0.000106013    1.085    0.078
       170 -10.1446    166.3183     31.0987   6.7079334623e+01   3.8899670599e+01    0.1671022    0.1569463 -60.75  0.000402072    1.152    0.132
       171 -10.1669    127.1399     30.7830   7.3959270804e+01   4.7753093067e+01    0.2733095    0.1501098  47.59 0.0009227192    1.581    0.367
       172  -9.8918    204.9924     30.4866   6.1774892972e+01   3.0264621200e+01    0.1910007    0.1101613  70.45 0.0008710884    1.583    0.368
       173  -9.7934    188.2720     29.5388   6.3607420665e+01   3.4091219308e+01    0.1968586    0.1558772  18.84 0.0008371294    1.751    0.429
       174 -10.9808      7.7995     28.5355   1.1162562286e+02   6.7063104041e+01    0.2634925     0.209625  43.25   0.00184675    2.227    0.551
       175 -10.0957    149.1559     29.6489   6.9484638639e+01   4.2964958801e+01    0.2703777    0.1170589  69.89  0.001092163    2.669    0.625
       176 -10.3601     69.6397     26.7194   8.7325393143e+01   5.9514289695e+01    0.4104631    0.1409545 -34.10  0.001797884    3.063    0.674
       177  -9.7466    139.9526     27.1940   7.0430221961e+01   4.5297321230e+01    0.1833762   0.08988423  60.47 0.0007562537    1.805    0.446
       178 -10.4919     76.8655     25.8971   8.4820400272e+01   5.8354106880e+01    0.3377178    0.2166912  23.16   0.00145598    1.455    0.313
       179 -10.9438     78.3875     21.7979   8.2892016221e+01   5.8515334886e+01    0.3472751    0.1984448  -8.75  0.001380693    2.004    0.501
       180  -9.6243    229.5321    248.0318   1.0361875009e+02  -1.0235820459e+01    0.1713905    0.1095895 -31.24  0.001014899    1.544    0.352
       181 -10.4658    100.6274     25.5377   7.8264563243e+01   5.3882842387e+01    0.2095086    0.1989539  32.36 0.0008179632    1.182    0.154
       182  -9.2313     18.3566     26.2933   1.0623936923e+02   6.6453175036e+01    0.1191264   0.06757069  -9.01 0.0007030682    1.691    0.409
       183  -9.7247    153.7449     25.5741   6.7614349066e+01   4.2356363700e+01    0.1774628    0.1129077  74.47 0.0006367306    1.590    0.371
       184 -10.6634    113.9869     24.1527   7.4710560826e+01   5.1268849311e+01    0.2675419    0.2115389   3.76   0.00110919    1.371    0.270
       185 -10.1753     59.4697     24.0783   8.9637588845e+01   6.1470548488e+01    0.2266494    0.1502667   8.43   0.00138048    1.421    0.297
       186 -10.1529    218.4872     24.4986   5.9045363715e+01   2.8040449160e+01    0.1207487    0.1004467 -83.62 8.254649e-05    1.006    0.006
       187  -9.2533    158.7359     23.7204   6.6336571129e+01   4.1415417928e+01    0.1212055   0.08772944  38.63 0.0002103384    1.481    0.325
       188  -9.3662     89.4833     22.9529   8.0231838323e+01   5.6333721506e+01    0.1714555     0.117427 -18.61 0.0009245248    1.552    0.356
       189 -10.1090     21.6711     22.3246   1.0330643176e+02   6.6655452322e+01    0.1820696    0.1376792   4.38 0.0005544535    1.142    0.125
       190 -11.3267     13.2899     20.6915   1.0627648830e+02   6.7697964028e+01    0.2703331    0.1889897 -31.67  0.001124236    1.385    0.278
       191  -8.8927    170.7010    246.6826   1.1483316145e+02  -1.1175235053e+00    0.1298582    0.0939287   2.48 0.0004033258    1.615    0.381
       192 -10.7539      1.9232     21.3459   1.1161625531e+02   6.8558846793e+01    0.2433346     0.140385 -38.68  0.001648775    1.513    0.339
       193  -9.8023     84.9594     21.0601   8.0784360878e+01   5.7380858170e+01     0.203406    0.1189257  26.77 0.0006366195    1.665    0.399
       194  -9.3625    136.4798    245.5498   1.2163049633e+02   4.6137311685e+00    0.1303455    0.1136803  43.87 0.0001092772    1.045    0.043
       195  -9.0729     45.2952    244.3262   1.3950942066e+02   1.8068852089e+01    0.1038989   0.08852194 -45.19 0.0003020108    1.626    0.385
       196 -11.1407     36.9513    241.2910   1.4078794808e+02   1.9663420386e+01    0.3148064     0.127353  54.44  0.001561031    2.323    0.570
       197  -9.4236    202.4418    240.3039   1.0745679778e+02  -5.1039129607e+00    0.2193878      0.11826 -34.47  0.001030318    1.931    0.482
       198  -9.6894     60.8709    241.0101   1.3626103114e+02   1.6762475641e+01    0.2276105    0.1165224  33.36  0.001169583    2.111    0.526
       199 -12.1831      3.8963    232.3393   1.4603631540e+02   2.4935977303e+01    0.4870656    0.2225591  81.54 0.0003946806    2.151    0.535
       200  -9.8503    230.3476     20.1793   5.7050244597e+01   2.6051130332e+01    0.1591896   0.08967587 -49.48 0.0001402621    1.636    0.389
       201 -12.5414     26.2897    235.9265   1.4230436472e+02   2.1940025962e+01    0.3644966    0.2717775 -77.62  0.001565345    1.243    0.196
       202 -10.7703    100.0844     19.1566   7.6266816755e+01   5.4621364588e+01    0.3051638    0.2492296  81.80  0.001225213    1.663    0.399
       203  -9.0598    200.2799    235.6836   1.0708598863e+02  -4.0306849032e+00     0.114223    0.1050849  70.82 0.0006647028    1.575    0.365
       204  -9.4321     58.3685     19.1355   8.8111391138e+01   6.2185555088e+01    0.1552139    0.1000433 -34.50 0.0009372651    1.834    0.455
       205  -8.9677    148.6922     18.7141   6.6583127909e+01   4.4181080002e+01     0.127438   0.08350652  39.78 0.0003062446    1.569    0.363
       206  -9.9335    199.6994     17.0339   5.9436762709e+01   3.2910754191e+01    0.1637042    0.1423183 -78.19 0.0004892676    1.086    0.079
       207 -10.5360     49.2550     16.2323   9.0105576773e+01   6.3886214850e+01    0.2046877    0.1731591  23.40 0.0004765093    1.296    0.229
       208  -9.9120    249.2039    234.0911   9.7605499488e+01  -1.0945814689e+01    0.1822836    0.1337546  -4.26 0.0004434234    1.146    0.128
       209 -10.3751     20.1458     16.8152   1.0175636877e+02   6.7519088476e+01     0.173504    0.1200795   5.36 0.0003127788    1.157    0.136
       210 -10.6055    154.6743     15.0173   6.4675203506e+01   4.3182310266e+01    0.3284308    0.1517408  60.19  0.001159988    1.777    0.437
       211  -9.1147    209.6714    229.6790   1.0418270859e+02  -4.5347651584e+00     0.137424   0.09144053   0.40 0.0007048302    1.689    0.408
       212  -8.5786      1.3306     15.2926   1.0956681477e+02   6.9440889356e+01    0.1118866   0.05988351 -14.06 0.0003133849    1.630    0.386
       213 -10.7078    190.4308     13.8605   5.9760765961e+01   3.5274255638e+01    0.2175217    0.1508651  73.84 0.0006100895    1.236    0.191
       214  -9.5123    132.0019     20.4855   6.9959444202e+01   4.7733270647e+01    0.1945147    0.1072257  57.30  0.000750172    1.534    0.348
       215 -10.0235    162.0197     13.4478   6.3216305251e+01   4.1673560050e+01    0.1894234    0.1040349  65.16 0.0005259279    1.537    0.349
       216  -9.9611     68.6632     13.3146   8.2611455849e+01   6.1061531190e+01    0.2016554    0.1392693  34.79 0.0007156832    1.194    0.163
       217  -9.5552    140.2524    227.3833   1.1811151202e+02   7.3948510982e+00    0.1986495    0.1153231  46.72 0.0009432691    1.671    0.401
       218 -10.2256     33.0547    225.0493   1.4012828205e+02   2.3428988707e+01    0.2866323    0.1067405  48.63  0.001359629    2.479    0.597
       219 -10.3366     25.3696    225.3102   1.4161785881e+02   2.4215055673e+01    0.1698132    0.1297922 -48.15  0.001119573    1.708    0.415
       220 -12.1914      7.8805    217.6605   1.4429331311e+02   2.7562843476e+01    0.3223901    0.2522575 -85.27   0.00234938    1.097    0.089
       221 -10.9803     16.2105    212.2694   1.4228491977e+02   2.7905372844e+01    0.2697963     0.176724 -42.74  0.001610743    2.132    0.531
       222 -10.4873     20.5927    209.7367   1.4120777568e+02   2.8014867575e+01    0.2152155    0.1598304  75.98 0.0002614839    1.174    0.148
       223  -9.3526    246.7787    207.0103   9.3036974459e+01  -6.5423050498e+00    0.1742586   0.09242697 -35.85 0.0008804206    1.697    0.411
       224  -9.6608    124.0481    206.0666   1.1821076289e+02   1.4505000518e+01    0.1901909    0.1758345   5.71  0.001093676    1.179    0.152
       225 -10.9096      3.2555    205.1643   1.4421704609e+02   3.0622485702e+01    0.1719668    0.1641687  25.01  0.001345712    1.455    0.313
       226  -9.7116    195.7733    203.0556   1.0200587912e+02   2.3620341623e+00    0.4297045    0.2722841  66.42  0.001683403    3.348    0.701
       227 -11.6477      9.2387    203.5584   1.4292250047e+02   3.0435993929e+01    0.2241709    0.1996951  55.66 0.0008411748    1.290    0.225
       228  -8.8182    181.3404    199.6534   1.0435411825e+02   5.5653268977e+00    0.1410071     0.116158  82.52 0.0007046713    1.787    0.440
       229  -9.7871     23.0212    197.3092   1.3955578832e+02   3.0496682408e+01    0.1641713    0.1431035  78.97 0.0005390832    1.109    0.098
       230 -10.2781      7.1025    192.2608   1.4238607226e+02   3.3091048008e+01    0.2852801    0.1208496  67.49   0.00126509    3.058    0.673
       231  -9.7160     15.3488    185.1443   1.3998309143e+02   3.3949144006e+01    0.1774072    0.0948066 -83.52  0.000937202    1.732    0.423
       232  -9.6833      1.3707    183.0324   1.4275831843e+02   3.5603316089e+01    0.1746001   0.09013192 -74.92 0.0004678328    1.549    0.354
       233  -9.9770    100.9895    175.9967   1.1842219512e+02   2.5161348201e+01    0.1977383    0.1928341 -62.29            0    1.029    0.028
       234 -11.3403      5.4224    167.9567   1.4043131074e+02   3.8667312140e+01     0.278199     0.205687  65.30  0.001381365    1.407    0.289
       235  -9.9946     14.4882    164.0119   1.3790574473e+02   3.8838192767e+01    0.1859173   0.06790345 -51.16 0.0008104483    2.560    0.609
       236  -9.2920     41.4722    157.5502   1.3040391359e+02   3.7767012387e+01    0.1315331     0.114577 -72.40 0.0008077159    1.028    0.027
       237  -8.8661    247.4802    155.5076   8.2700820930e+01   1.9614481112e+00    0.1347666    0.1158072 -29.59 8.652252e-05    1.001    0.001
       238 -10.6186      2.4817    153.5103   1.3956152258e+02   4.2163311801e+01    0.2071439    0.1199983  23.52  0.001209752    2.163    0.538
       239  -9.9651     31.0371     20.4728   9.8710376686e+01   6.5841046928e+01    0.2073536    0.1216038 -15.28 0.0005821963    1.541    0.351
       240 -10.2445     23.7745    150.4438   1.3390275537e+02   4.1179507248e+01    0.1522668    0.1219297  -9.37 0.0004425506    1.601    0.376
       241  -9.8818     22.0065    143.2579   1.3334250381e+02   4.3004563983e+01    0.2350392    0.1459121 -80.12  0.001269046    1.616    0.381
       242 -11.3512      5.5057    141.9818   1.3744166542e+02   4.4576024579e+01     0.195686    0.1708426  49.54 0.0004702778    1.363    0.266
       243 -11.4936      3.2550    138.5643   1.3758387647e+02   4.5505852995e+01    0.3084865    0.1845375  31.68  0.001840924    2.006    0.502
       244 -11.2727      8.8491    135.5067   1.3571953954e+02   4.5817087285e+01    0.2280588    0.1395804 -66.03 0.0004443045    1.305    0.234
       245  -9.5113    212.3251    133.6989   8.4069527112e+01   1.2417914594e+01    0.1426206    0.1123626 -75.50 0.0003264382    1.636    0.389
