#   1 NUMBER                 Running object number                                     
#   2 MAG_AUTO               Kron-like elliptical aperture magnitude                    [mag]
#   3 X_IMAGE                Object position along x                                    [pixel]
#   4 Y_IMAGE                Object position along y                                    [pixel]
#   5 X_WORLD                Barycenter position along world x axis                     [deg]
#   6 Y_WORLD                Barycenter position along world y axis                     [deg]
#   7 A_WORLD                Profile RMS along major axis (world units)                 [deg]
#   8 B_WORLD                Profile RMS along minor axis (world units)                 [deg]
#   9 THETA_WORLD            Position angle (CCW/world-x)                               [deg]
#  10 FWHM_WORLD             FWHM assuming a gaussian core                              [deg]
#  11 ELONGATION             A_IMAGE/B_IMAGE                                           
#  12 ELLIPTICITY            1 - B_IMAGE/A_IMAGE                                       
         1 -14.8292      8.2858    165.2438   1.2752109428e+02   3.9125542684e+01     4.059813      1.25587 -82.96   0.01863267    2.753    0.637
         2 -18.8441    234.0665     60.3721   5.4249667018e+01   1.8835681974e+01     5.917795     5.325558 -31.79    0.0249094    1.037    0.036
         3 -14.0095    197.1900     34.3174   5.1600550936e+01   3.1431632924e+01     2.247172    0.9366636 -13.18  0.005395912    3.899    0.744
         4 -11.7361    140.6874     19.4454   5.5382048713e+01   4.8144081676e+01     1.269781     0.475467  -9.58  0.003359772    5.165    0.806
         5  -9.6105    143.0000      9.5179   5.1141452111e+01   4.8583404432e+01    0.4520251    0.1348502 -16.04  0.001343456    4.248    0.765
         6 -10.9448    135.0696     18.5231   5.6096418795e+01   4.9701595751e+01    0.5350756    0.2941988  -7.04  0.001352278    2.266    0.559
         7 -13.0463    118.4800      9.7988   5.5862490481e+01   5.4823046419e+01    0.8876979    0.8185687  37.11  0.003918779    1.022    0.021
         8 -10.8809    125.4480     14.5761   5.6430357555e+01   5.2586343017e+01    0.3551598     0.300485  15.98  0.001404109    1.192    0.161
         9 -12.7253     95.1728      4.6946   5.9002294752e+01   6.0865385293e+01      1.01062    0.4694605  38.09  0.003473303    2.160    0.537
        10 -11.9399    105.8984      6.4846   5.7193232830e+01   5.8201504196e+01    0.8007241    0.2960245 -21.13  0.003058487    2.725    0.633
        11 -11.1827     59.6888      2.3411   6.9160758891e+01   6.8382008889e+01    0.3858201    0.1801224  32.81   0.00177395    2.286    0.563
        12 -10.0246    156.4146      8.0600   4.8535386546e+01   4.5180454591e+01    0.2697714    0.2039779  22.62 0.0008008173    1.480    0.325
        13 -13.6408    221.9321    171.7226   8.2825272717e+01   4.5824551712e+00     2.408917     1.528346 -20.11   0.01288648    1.611    0.379
        14 -12.3746    246.7206    244.2325   9.1151182865e+01  -7.6049661317e+00     1.018759    0.5236399 -19.72   0.00660458    2.073    0.518
        15 -11.0341    237.2223    249.4687   9.3386128206e+01  -6.8297887349e+00    0.2834427    0.1528294  28.41  0.001850991    1.394    0.282
        16 -11.7468    189.7811    139.0089   8.1859126241e+01   1.6020675723e+01     1.011924    0.5759145  39.50  0.004483043    1.765    0.433
        17 -12.7698    202.4248    163.4320   8.4699688160e+01   9.4052126445e+00     1.378763    0.8134763  30.58  0.006632298    1.739    0.425
        18 -12.9230    190.9431    157.6481   8.5707283626e+01   1.2565058510e+01     1.268263    0.9680532  24.81  0.004213781    1.308    0.235
        19 -11.0511    152.7496    188.6361   9.9151404484e+01   1.4388550031e+01    0.4797128    0.2486351  65.87  0.001636292    4.486    0.777
        20  -8.8851    200.1307    188.1839   8.9887365261e+01   6.0590026285e+00    0.1682731    0.1445556  49.32 0.0005244548    1.337    0.252
        21 -13.2262     87.9584    180.8609   1.1169776703e+02   2.6562872125e+01     1.079437    0.6582333 -60.64  0.005941111    1.707    0.414
        22 -14.7001    104.7790    162.9440   1.0540548778e+02   2.7695368799e+01     2.362011     1.541515  48.62    0.0123353    1.437    0.304
        23 -13.9270     65.0958    140.3921   1.1162441425e+02   3.8732342506e+01     1.381428     1.246766  15.90  0.003902843    1.454    0.312
        24 -12.0526    138.4209    178.1342   1.0040724665e+02   1.8825861428e+01     0.441727    0.2797241  67.49  0.002084147    2.112    0.526
        25 -12.6270    137.2528    172.7014   9.9748590105e+01   2.0069757708e+01    0.5833963    0.3772572  37.61  0.002685595    1.497    0.332
        26 -10.4478    144.7320    178.7074   9.9170069458e+01   1.7591160484e+01    0.2151744    0.1653608 -46.13 0.0008765486    1.442    0.307
        27 -11.0104    192.7665    178.6160   8.9506936061e+01   8.8162807399e+00    0.4869741    0.4427629  -4.53  0.001922493    1.108    0.097
        28 -10.6812     78.0799    176.6061   1.1333741798e+02   2.8872014687e+01    0.2244489    0.1696718 -66.23 0.0003302868    1.359    0.264
        29 -12.5092    154.9586    151.7387   9.1948754727e+01   2.0790635330e+01     3.943812     2.159227  73.36  0.009819354    7.292    0.863
        30 -12.2783     52.9167    144.4914   1.1528108063e+02   3.9309411315e+01    0.4265622    0.3726983 -84.58  0.000949803    1.098    0.090
        31 -13.6758     81.7225    157.0539   1.0993478911e+02   3.2589926987e+01     1.675139     1.351386 -55.28  0.009937956    1.355    0.262
        32  -9.0065    249.5686    156.5712   7.5096752312e+01   1.8431765306e+00    0.1808007    0.1242464  53.33 0.0007364513    1.910    0.477
        33 -11.3138    133.7836    146.6485   9.5703539884e+01   2.5969114650e+01     1.187894    0.3683628 -57.64  0.003095379    5.601    0.821
        34 -11.1298    134.6827    138.6034   9.3822577078e+01   2.7491942961e+01    0.5445632    0.4194819  28.12  0.002718124    1.473    0.321
        35 -13.7175    177.9903    150.6998   8.6836439848e+01   1.6358452989e+01     1.784618     1.450918  17.48  0.009565536    1.303    0.233
        36 -11.8077    143.1821    148.6420   9.3943605662e+01   2.3732066127e+01    0.6313048     0.486749 -76.65  0.002709281    1.606    0.378
        37 -13.6024    177.1415    219.8592   9.9249512601e+01   5.4239462642e+00     1.784733     1.081224  38.94   0.01060155    1.347    0.258
        38 -10.4296    135.9350    128.1248   9.1196115085e+01   2.9477487189e+01    0.6540908    0.2033203 -48.70  0.002046793    3.279    0.695
        39  -9.7370    135.0085    120.1832   8.9543374462e+01   3.1376051332e+01    0.3853796    0.2017988 -48.44  0.001057902    1.902    0.474
        40 -11.3502    160.8620    128.2732   8.5432013560e+01   2.4201992585e+01    0.4194331    0.3790964 -49.61  0.001847796    1.135    0.119
        41 -10.1201    154.1533    125.8033   8.6354425820e+01   2.6141542670e+01    0.2334631    0.2095466  88.44 0.0009778957    1.257    0.204
        42 -12.7845     61.9539    206.1926   1.1962216555e+02   2.5096689352e+01    0.7186105    0.3186795  66.10  0.003559337    2.430    0.588
        43 -10.3438    155.9491    138.9017   8.8982508833e+01   2.3122155446e+01    0.2358463    0.1843418  89.91  0.001123874    1.728    0.421
        44 -10.8488    165.4906    136.9948   8.6449210687e+01   2.1504686245e+01    0.4172471    0.2468698 -48.52  0.001821466    1.798    0.444
        45 -11.1648    163.6846    140.3353   8.7595840227e+01   2.1235232020e+01    0.2861266    0.2683117 -82.32  0.001311551    1.187    0.158
        46 -11.4810    167.3752    114.9516   8.0684635545e+01   2.5391464904e+01    0.5877922    0.4394484  26.53  0.002738399    1.535    0.348
        47  -9.2460    180.0101    110.9854   7.6973860685e+01   2.3272327639e+01    0.3351169    0.2191246  78.91  0.001282661    2.607    0.616
        48  -8.9832    157.0027    110.7648   8.1912028872e+01   2.8562831015e+01    0.2040595    0.2007849 -23.11 0.0002820163    1.003    0.003
        49  -9.4694    144.9748    105.7942   8.3414068419e+01   3.2280778588e+01    0.2626357    0.2227534 -39.23 0.0004871843    1.164    0.141
        50 -10.9755    154.0760    102.1015   8.0250618066e+01   3.0973739984e+01    0.5725136    0.4442289  38.30  0.002720502    1.352    0.260
        51 -11.8104    167.4218     97.0912   7.5860240973e+01   2.8834669265e+01    0.6342933    0.6026246 -80.79  0.001708613    1.133    0.118
        52 -10.6911    172.9278     94.2918   7.3898377686e+01   2.8049350278e+01    0.2984739    0.2895597   2.74 0.0002930331    1.038    0.036
        53 -11.4074    150.5658     93.9146   7.8759197127e+01   3.3429061195e+01    0.4032571    0.2915924 -48.47 0.0005772242    1.394    0.283
        54 -13.9851     26.3970    154.6487   1.2275342051e+02   3.9828908056e+01     1.191121    0.8478125  43.37  0.005150512    1.481    0.325
        55 -11.1764    161.6543    137.3434   8.7367054452e+01   2.2242311212e+01    0.3693152    0.2788514 -88.07  0.001268498    1.934    0.483
        56  -8.7459    151.9865    137.9862   8.9670403327e+01   2.4124430436e+01    0.1757747    0.1687144 -43.57 0.0003553453    1.063    0.059
        57  -9.9359    116.3739     67.0856   7.9118485007e+01   4.6610563477e+01    0.2394648    0.2186611  53.41 0.0003263478    1.165    0.142
        58 -10.7250    125.2882     45.9548   6.9056244713e+01   4.8363150167e+01    0.3782461    0.1859279 -25.76  0.001368975    2.232    0.552
        59 -10.7917    126.0375     40.1456   6.6638016963e+01   4.9097962610e+01    0.2780987    0.2164031 -27.14 0.0009780598    1.264    0.209
        60 -10.7367    223.1053    142.3176   7.6404353560e+01   8.7199494741e+00    0.2351801    0.2212653  53.53 0.0004929067    1.302    0.232
        61  -9.7279    170.1962     34.8396   5.5754880924e+01   3.8465743449e+01    0.3114264    0.2485799  86.90  0.001036817    1.357    0.263
        62 -10.3108    144.1376     32.4636   5.9660881598e+01   4.5635595656e+01    0.4621391    0.2215241 -12.86  0.001594054    2.925    0.658
        63 -10.5027    124.4338     33.7131   6.4495429035e+01   5.0440254017e+01    0.2905421    0.1356458 -33.42  0.001135565    2.065    0.516
        64 -10.4685    159.8318     27.8285   5.5069113243e+01   4.2111574605e+01    0.2892072    0.2389568 -11.57 0.0005645695    1.285    0.222
        65  -9.7104    126.0281    239.2280   1.1086916252e+02   1.0571415743e+01    0.1595894    0.1390928  54.71  0.000301678    1.140    0.123
        66 -12.3541     90.6077    222.2921   1.1561975332e+02   1.8370323141e+01    0.5097298    0.4639155  -0.90   0.00373246    1.680    0.405
        67 -10.2276    133.0295     24.4297   5.8854501327e+01   4.9525508940e+01    0.2785617    0.1912488 -41.59 7.350826e-05    1.528    0.345
        68  -9.6454    139.9005    131.2038   9.0949471981e+01   2.8012095064e+01    0.2758692    0.2233293  79.96 0.0008759543    1.475    0.322
        69 -11.5074    248.9492    197.4668   8.3157126205e+01  -3.1228835132e+00    0.8537644    0.3241763 -23.12  0.003845619    2.960    0.662
        70  -9.7308    130.7369     18.7106   5.7038733404e+01   5.0788902685e+01    0.2984311    0.1676288 -34.07  0.001312997    1.785    0.440
        71 -11.7229    248.2506    180.6120   8.0134034848e+01  -1.0179038429e+00    0.9865248    0.4524931 -18.70   0.00459796    2.453    0.592
        72 -10.2957    192.3270    193.9169   9.2345361585e+01   6.5796457210e+00    0.7257457    0.3723623 -60.89  0.002232876    7.035    0.858
        73 -11.4932    164.2153    196.4160   9.8123624170e+01   1.1082846510e+01    0.3545782    0.2168224  36.68  0.001902739    1.459    0.314
        74 -13.9368     42.2197    188.2668   1.2208021641e+02   3.0980922665e+01     1.147936    0.5165412  71.36  0.005758088    2.318    0.569
        75 -12.7615    199.4866    174.5484   8.7462046132e+01   8.2176510981e+00     2.194905    0.9330069  56.58    0.0071667    4.574    0.781
