#   1 NUMBER                 Running object number                                     
#   2 MAG_AUTO               Kron-like elliptical aperture magnitude                    [mag]
#   3 X_IMAGE                Object position along x                                    [pixel]
#   4 Y_IMAGE                Object position along y                                    [pixel]
#   5 X_WORLD                Barycenter position along world x axis                     [deg]
#   6 Y_WORLD                Barycenter position along world y axis                     [deg]
#   7 A_WORLD                Profile RMS along major axis (world units)                 [deg]
#   8 B_WORLD                Profile RMS along minor axis (world units)                 [deg]
#   9 THETA_WORLD            Position angle (CCW/world-x)                               [deg]
#  10 FWHM_WORLD             FWHM assuming a gaussian core                              [deg]
#  11 ELONGATION             A_IMAGE/B_IMAGE                                           
#  12 ELLIPTICITY            1 - B_IMAGE/A_IMAGE                                       
         1 -11.5318    221.3679     11.3250   5.3565024739e+01   2.9764662444e+01    0.5079968    0.3373482  57.12  0.003248411    1.767    0.434
         2 -12.2276    244.4529      4.7545   5.0609241392e+01   2.5877090530e+01     0.645672    0.4497954  67.87  0.004604597    1.573    0.364
         3 -11.9776    230.0396      3.4227   5.1410646772e+01   2.8859400165e+01    0.7575998    0.3883847  84.40  0.004541316    1.661    0.398
         4 -11.3499      7.9893      3.4738   9.9069812183e+01   7.1293138926e+01    0.3803478    0.1989768 -22.07  0.002545658    1.654    0.396
         5 -11.5326      3.1414      2.7474   1.0113692950e+02   7.1829306760e+01    0.7845241    0.2230765 -37.14  0.003998584    3.209    0.688
         6  -8.5281      1.2814    242.3178   1.4499698462e+02   2.2096715601e+01    0.1237384   0.08403916  74.92  0.000244635    1.111    0.100
         7 -10.1830    249.3492    248.7504   9.6333804206e+01  -1.4469212008e+01    0.4597531    0.2520986 -21.40  0.002599585    1.756    0.431
         8  -7.6470    128.4535    244.4377   1.1978772711e+02   4.3029918752e+00    0.1346546    0.1187803  50.78 9.440848e-05    1.044    0.042
         9  -9.0133     78.5181    243.4230   1.3020075472e+02   1.2318537426e+01    0.2224559    0.1821279  74.14 0.0006297674    1.090    0.082
        10  -8.0898     25.3500    244.3065   1.4077287522e+02   1.9102251761e+01    0.1061669   0.08933683 -48.85 0.0007042618    1.706    0.414
        11  -8.2756     44.0780    243.7877   1.3716415815e+02   1.6952245942e+01    0.1572165   0.08777452  42.45 0.0006006509    1.670    0.401
        12  -8.2170     71.4945    241.4523   1.3143645800e+02   1.3754959027e+01    0.1302677    0.1103096  69.29 0.0002643585    1.013    0.013
        13  -7.8178     20.2974    236.3332   1.4112923018e+02   2.1373346211e+01    0.1097117   0.08505379 -55.73 0.0007030034    1.646    0.392
        14  -8.2628    140.5117    230.9833   1.1517232841e+02   5.0086105282e+00    0.1958166    0.1141248 -29.44 0.0008104789    2.573    0.611
        15  -8.3992     82.3014    229.9934   1.2783421826e+02   1.4674603782e+01    0.1876539    0.1615606  76.11  0.001108667    1.041    0.039
        16  -9.1114     23.4335    228.1916   1.3989514501e+02   2.2808001903e+01    0.2331559    0.1420191  53.16 0.0006893687    1.482    0.325
        17 -10.0579      4.7989    228.5978   1.4349370385e+02   2.4668168764e+01    0.1728843    0.1360993  85.75 0.0005466219    1.091    0.083
        18 -10.6139    207.3087    225.7486   1.0018822075e+02  -5.0249327005e+00    0.4209295    0.2514945  55.91  0.001871757    2.781    0.640
        19  -8.3164    149.4782    226.5198   1.1248558718e+02   4.3928977984e+00    0.1389864     0.130588  35.90 0.0005270097    1.013    0.013
        20  -8.0241     11.7145    226.3327   1.4202707518e+02   2.4469865006e+01    0.1274133    0.0702708  71.25 0.0002754456    1.619    0.383
        21  -7.9536    122.9891    224.0412   1.1798243479e+02   9.4475239924e+00    0.1664624    0.1579024  65.68 0.0004426256    1.028    0.027
        22  -9.5729    196.5001    228.0283   1.0276576085e+02  -3.7384408860e+00    0.1955294    0.1277013 -42.10 0.0004729627    1.552    0.356
        23  -7.9958     45.4604    223.4699   1.3499327118e+02   2.1262053954e+01    0.1304352    0.1073764  80.67 0.0008085729    1.003    0.003
        24 -10.7955     27.9815    208.8748   1.3727308090e+02   2.6712574701e+01    0.6373929    0.4802932 -59.65  0.002681612    1.416    0.294
        25 -11.1869     36.3417    217.0758   1.3628463180e+02   2.3846058129e+01    0.5685776    0.5183578  39.07  0.002941684    1.369    0.269
        26 -10.2180     34.2225    212.3848   1.3627838913e+02   2.5184516335e+01    0.3310634    0.2489182  40.29  0.001694811    1.453    0.312
        27 -11.0959    216.4701    216.9829   9.6790257257e+01  -4.8835255398e+00    0.4223114    0.2883384 -51.12  0.002246577    1.700    0.412
        28 -11.1330    219.1024    211.9972   9.5353415257e+01  -4.3981636790e+00    0.4393358    0.1782153 -38.97  0.001835022    2.324    0.570
        29  -7.8423    123.7015    217.6984   1.1683008722e+02   1.0718212156e+01    0.1379913    0.1132458 -11.91 0.0002864331    1.581    0.368
        30  -8.1095    114.6946    217.3287   1.1883072966e+02   1.2335805195e+01     0.148275    0.1060449  72.55 0.0007036519    1.653    0.395
        31  -7.9911    135.6667    215.2697   1.1370586928e+02   9.1747412263e+00    0.1456808    0.1082401  66.48 0.0002770241    1.590    0.371
        32  -7.7579    103.5099    214.4886   1.2097058190e+02   1.4849681856e+01    0.1411261    0.1328635  71.32  0.000620977    1.035    0.034
        33  -8.3314     80.2552    210.6359   1.2579288870e+02   1.9433776391e+01    0.1819446    0.1327896  28.92 0.0009132721    1.582    0.368
        34  -8.2714    118.5126    209.4619   1.1670073398e+02   1.3471571244e+01    0.1459067    0.1354537  68.03 0.0003423257    1.036    0.035
        35 -10.0385    227.3126    208.4429   9.3127420150e+01  -5.0215176556e+00    0.2394303    0.1253805  31.79  0.001137013    2.055    0.513
        36 -11.8955    225.7997    199.8759   9.1778797748e+01  -3.2426197125e+00     0.447376    0.3819195  21.78  0.002714928    1.222    0.182
        37  -8.6224     88.7500    205.4339   1.2307368416e+02   1.9360281433e+01    0.2664163    0.1269035  42.20  0.001112088    2.017    0.504
        38  -7.8958    102.1005    204.0000   1.1969133236e+02   1.7537352962e+01    0.2391434    0.0807654  36.86 0.0008025662    2.943    0.660
        39 -12.6511    233.3814    189.5786   8.8389882101e+01  -2.5442997095e+00     0.758589     0.561695 -10.30   0.00419442    1.479    0.324
        40 -11.8628    239.3825    193.2900   8.8037650088e+01  -4.1442115091e+00    0.6120585     0.344554 -21.63  0.002823989    2.170    0.539
        41  -8.8317    120.0500    199.5022   1.1466577358e+02   1.5516846770e+01    0.2254302    0.1440741  38.29 0.0005543003    1.557    0.358
        42 -11.0582     53.4403    193.2197   1.2977416077e+02   2.7434890684e+01     0.573366    0.2801646  44.20  0.002604461    2.040    0.510
        43  -9.0527    126.0193    193.5264   1.1217629519e+02   1.5855991741e+01    0.2290983    0.1463953  39.00 0.0005633841    1.561    0.359
        44  -9.4070    132.3735    187.9637   1.0961372705e+02   1.6003478384e+01    0.2786238    0.2207023  41.13 0.0004580091    1.263    0.208
        45  -7.7421    156.6650    182.6962   1.0283017628e+02   1.2618707683e+01    0.1552984    0.1206691  -6.90 0.0002939488    1.664    0.399
        46  -8.6773      9.1115    182.7982   1.3893198235e+02   3.4783506147e+01    0.1878393    0.1404273  80.03 0.0006288117    1.194    0.162
        47 -10.5893    101.0043    176.0055   1.1519076152e+02   2.4565458020e+01     0.212915    0.2016453 -82.31            0    1.004    0.004
        48 -11.9546    246.1171    171.8771   8.2711359690e+01  -1.2966320108e+00    0.5416277    0.3832102 -37.28  0.003064684    1.198    0.165
        49  -7.8595    131.0362    172.0000   1.0680484200e+02   2.0070910212e+01    0.2531873   0.08873049  39.61 0.0007974345    2.908    0.656
        50 -10.6263    249.7662    160.7808   7.9933366054e+01   1.5883502837e-01    0.3358358    0.2037737 -58.72  0.001637351    1.979    0.495
        51  -7.5523    130.3281    165.6640   1.0567310189e+02   2.1737889693e+01    0.1634138    0.1231109  82.33 0.0007051884    1.725    0.420
        52  -8.4519    204.7664    164.9749   8.8777312672e+01   7.2130476852e+00    0.1960022    0.1141687 -43.32 0.0004115443    1.579    0.367
        53  -8.0452      8.0081    148.7623   1.3551465011e+02   4.3100299892e+01    0.1332667    0.1095029  24.98 0.0003381032    1.520    0.342
        54  -7.9371     58.3240    137.6947   1.1963973236e+02   4.0744759933e+01    0.1434242    0.1076589  75.45 0.0003404287    1.643    0.391
        55  -8.5835     42.5119    131.0181   1.2305458230e+02   4.4285778025e+01    0.2881043    0.1432352 -25.90  0.001041501    3.550    0.718
        56  -8.4642     62.7633    125.9869   1.1591257612e+02   4.3021638757e+01    0.1910481    0.1106861 -55.92 0.0003767805    1.558    0.358
        57  -8.4306     68.7144    124.3346   1.1373856756e+02   4.2586517652e+01    0.1431285    0.1124157  84.85 0.0001975723    1.624    0.384
        58  -8.0367     56.6959    123.3289   1.1720059863e+02   4.4462559097e+01    0.1398416    0.1084903  80.50 0.0004457737    1.651    0.394
        59  -8.7223     15.0397    122.4920   1.2982480446e+02   4.8876295007e+01    0.1620367    0.1282388  21.19 0.0006342409    1.528    0.345
        60  -8.5181     43.5043     96.5021   1.1535767811e+02   5.2206228594e+01    0.1340636     0.116462 -38.01 2.391669e-05    1.017    0.017
        61  -9.8606    222.9588     92.8295   7.0031675181e+01   1.7673737668e+01     0.193606     0.187528 -46.41 0.0005153713    1.245    0.197
        62 -10.5107    167.0213     73.7139   7.4809295957e+01   3.3370433357e+01    0.5177801    0.3143095 -85.92  0.002072469    2.654    0.623
        63  -8.4276     67.2796     74.6643   1.0119483592e+02   5.3522318091e+01    0.1233263    0.1088704 -83.94 0.0002741903    1.614    0.380
        64 -11.0463    184.5001     60.3234   6.8483921474e+01   3.1484602578e+01    0.4285816    0.2521815  58.04  0.001743328    1.629    0.386
        65 -11.5015    180.2191     56.4128   6.8217710856e+01   3.3047566234e+01    0.4682416    0.3721198 -65.11  0.001607038    1.232    0.189
        66  -8.1013    124.1785     58.1683   7.9605698108e+01   4.5531692883e+01    0.1759052    0.1552478  81.36 0.0002764055    1.262    0.208
        67  -9.7026    186.1427     42.3322   6.3995418338e+01   3.3669118548e+01    0.2093247    0.1889606  -5.42 0.0005407143    1.520    0.342
        68  -9.8509    187.9448     37.9982   6.2748726921e+01   3.3828870968e+01    0.2269422    0.2208268   3.35 0.0004820958    1.366    0.268
        69 -10.0268    205.5746     40.8659   6.1160425204e+01   2.9530516225e+01    0.2322635    0.2031048 -84.86 0.0004844762    1.093    0.085
        70  -9.3006    180.1741     36.7939   6.3526461123e+01   3.5740567604e+01    0.2279914    0.1920543 -32.65 0.0006825248    1.423    0.297
        71 -10.0013    181.6283     32.5849   6.2338233446e+01   3.5933873439e+01    0.2487242    0.2039925  60.81 0.0005247212    1.236    0.191
        72 -10.4590    199.3579     34.7887   6.0589336269e+01   3.1691764325e+01    0.2494685    0.2249521 -86.77 0.0004926029    1.147    0.128
        73  -9.9996    214.2652     32.9171   5.8508809079e+01   2.8686768217e+01    0.2364346    0.1958865  85.58 0.0006086447    1.119    0.106
        74 -10.3930    207.2820     26.2100   5.7867854955e+01   3.1022255080e+01    0.2464904     0.219074  77.29 0.0005824257    1.244    0.196
        75  -8.5553     19.7834    249.4357   1.4215721088e+02   1.8662518791e+01    0.1374089    0.1099407  32.95 0.0004830565    1.642    0.391
        76  -8.5898     34.2328    247.3715   1.3934457540e+02   1.7411311581e+01    0.1703258   0.08961233  49.69 0.0009456357    1.635    0.388
        77  -9.8967      7.1654    246.6238   1.4422246892e+02   2.0605905945e+01    0.1968473     0.108373  26.12 0.0005325064    2.621    0.619
        78  -9.7060      3.3240    244.3420   1.4475904009e+02   2.1471617874e+01    0.2017441    0.1201276 -40.97  0.001053744    3.387    0.705
