#   1 NUMBER                 Running object number                                     
#   2 MAG_AUTO               Kron-like elliptical aperture magnitude                    [mag]
#   3 X_IMAGE                Object position along x                                    [pixel]
#   4 Y_IMAGE                Object position along y                                    [pixel]
#   5 X_WORLD                Barycenter position along world x axis                     [deg]
#   6 Y_WORLD                Barycenter position along world y axis                     [deg]
#   7 A_WORLD                Profile RMS along major axis (world units)                 [deg]
#   8 B_WORLD                Profile RMS along minor axis (world units)                 [deg]
#   9 THETA_WORLD            Position angle (CCW/world-x)                               [deg]
#  10 FWHM_WORLD             FWHM assuming a gaussian core                              [deg]
#  11 ELONGATION             A_IMAGE/B_IMAGE                                           
#  12 ELLIPTICITY            1 - B_IMAGE/A_IMAGE                                       
         1 -12.9651    236.0001     40.0873   4.1457666877e+01   2.2242392693e+01     1.067405     0.463683 -57.83  0.004482876    2.612    0.617
         2 -14.5349    245.6287     21.9735   3.6572349195e+01   2.2429440267e+01     3.915989     1.297942 -33.41    0.0169814    2.743    0.635
         3  -9.2252    140.2183      9.3927   4.5544410820e+01   4.8706684863e+01    0.1826265    0.1188743  76.96  0.000425035    1.555    0.357
         4 -10.1677     18.7261      9.0404   8.5517585832e+01   7.1751660636e+01    0.1624957    0.1162365 -17.97 0.0003068817    1.069    0.065
         5  -9.7242      2.0000      8.9866   9.5144069999e+01   7.3137042368e+01    0.1785962   0.05077213 -49.55 0.0008064435    2.970    0.663
         6  -9.9447    110.9683      4.9521   4.9519029243e+01   5.6046922468e+01    0.1960971    0.1657215  42.58  0.000303968    1.018    0.018
         7 -10.3986     18.7916      4.4303   8.3122035243e+01   7.2396261199e+01    0.2198506    0.1306469  -3.21 0.0009456545    1.590    0.371
         8 -10.2676     12.2447      4.9950   8.7150190088e+01   7.2951433043e+01    0.1808904    0.1294558 -12.12 0.0005046146    1.053    0.050
         9 -10.1344     14.7356      1.9803   8.4126603130e+01   7.3141075952e+01    0.2152087    0.1411805  -6.66 0.0003653097    1.248    0.199
        10  -9.3514     51.0338      3.3502   6.6894086410e+01   6.8195518072e+01    0.1892166    0.1356394   3.05 0.0003568616    1.203    0.169
        11  -9.6181    116.8532      5.3001   4.8419608872e+01   5.4655131981e+01    0.1880277    0.1782846 -32.20  0.000334536    1.222    0.182
        12  -8.6097    121.7476      1.9865   4.6245566886e+01   5.3773537587e+01    0.1464425     0.112362 -12.41 0.0003067549    1.467    0.319
        13  -8.5789    229.6726    228.3468   8.3136445639e+01  -6.1940199747e+00    0.1047904   0.09929354  57.12  0.000688884    1.752    0.429
        14  -8.8598    225.6235    249.8078   8.7379175694e+01  -8.3738600326e+00    0.1432097    0.1047069 -37.51 0.0009462027    1.772    0.436
        15  -9.6983    210.6971    249.6595   9.0065794525e+01  -6.2883977672e+00    0.2537154    0.1658542  -7.90  0.001554848    1.623    0.384
        16 -10.2853    195.0741    249.5258   9.2951382248e+01  -4.0200700234e+00    0.4135615    0.1746184  31.06  0.002011302    2.060    0.515
        17  -9.5971    168.0196    249.6314   9.8127535518e+01   1.1150803113e-02    0.1788711    0.1255423  31.41 0.0004556054    1.157    0.136
        18  -8.6024    228.6596    222.3339   8.2282138837e+01  -5.2314142077e+00    0.1076127    0.1009526  60.62 0.0007051314    1.752    0.429
        19  -8.9458    240.3347    221.6805   8.0066880468e+01  -6.8128940944e+00    0.1025362   0.09940315  43.14 0.0007049263    1.701    0.412
        20  -9.2115    193.8077    220.1986   8.8551572815e+01   4.4700812347e-01    0.1997548    0.1464603  74.00 0.0009555689    2.874    0.652
        21  -9.2442    248.4255    218.5314   7.8090857963e+01  -7.5184044848e+00    0.2381245      0.20577 -85.44  0.001408388    2.771    0.639
        22  -8.7751    240.7670    209.1669   7.7739186899e+01  -5.1647276496e+00    0.1767456    0.1469235 -85.67 0.0009574218    2.861    0.651
        23  -8.6124    188.3268    204.6475   8.6941190703e+01   3.8941480952e+00    0.1289141    0.1092611  74.99 0.0007047481    1.766    0.434
        24  -8.6086    173.2227    203.9453   8.9954453656e+01   6.6208153764e+00    0.1681073    0.1129223 -43.44 0.0006107685    1.624    0.384
        25  -8.5541    176.3809    197.6962   8.8167932683e+01   7.1925618560e+00     0.138049     0.108819  67.53 0.0007023898    1.780    0.438
        26  -8.6552    224.6552    193.3133   7.7683200400e+01  -3.3025970966e-01    0.1181861    0.1094599  87.58 0.0007046976    1.710    0.415
        27  -8.7163    247.2676    194.4064   7.3826160902e+01  -4.0146199700e+00    0.1611775    0.1159483  41.10 0.0009465194    1.659    0.397
        28  -8.2350    238.3073    188.3330   7.4221554191e+01  -1.7406872818e+00    0.1370655    0.0890796  -1.67 0.0006151223    1.667    0.400
        29  -8.9843    230.5180    188.0258   7.5567456512e+01  -4.5069760583e-01    0.1769534     0.111831 -55.03 0.0008103678    2.626    0.619
        30  -9.6486     77.6639    185.6737   1.0879302238e+02   2.6271363431e+01    0.2435635    0.2089552  70.02 0.0005740645    1.066    0.062
        31  -8.7484    224.4991    184.5533   7.5992395007e+01   1.0922092344e+00    0.1341585    0.1171638  -2.77 0.0001213911    1.052    0.049
        32  -9.1008    197.6328    182.7971   8.0887249344e+01   6.0691333364e+00     0.193512    0.1290674 -47.43 0.0008965716    1.700    0.412
        33  -8.9438    241.9779    181.9743   7.2316639355e+01  -1.3453736484e+00    0.1847028    0.1665748 -64.68  0.001134039    1.708    0.415
        34  -8.7731    219.7719    178.6242   7.5688266170e+01   2.8710829258e+00    0.1808255    0.1263762  45.80 0.0009404983    1.632    0.387
        35  -8.9306    198.0225    177.0524   7.9647522841e+01   7.0282355280e+00    0.2075532     0.181723 -85.26  0.001019829    1.658    0.397
        36  -8.7271    210.6576    176.2489   7.6957887964e+01   4.8791699157e+00    0.1949355    0.1209998 -28.86  0.000936774    1.593    0.372
        37  -9.4508    224.0012    174.0493   7.3957118452e+01   2.9034265370e+00    0.2313521    0.1413793 -55.90  0.001006622    2.607    0.616
        38  -9.3244    188.3751    173.1230   8.0840542742e+01   9.5506567499e+00     0.203887    0.1337107 -50.83 0.0009446417    1.765    0.433
        39  -8.3374    228.3302    171.6938   7.2671603443e+01   2.5476847158e+00    0.1242726    0.1111102 -73.24 0.0005507015    1.659    0.397
        40  -8.8543    237.5182    170.0785   7.0687993767e+01   1.2529399557e+00    0.2052287    0.1191692 -34.72 0.0007712612    1.569    0.363
        41  -9.4871    205.6123    169.7410   7.6601753412e+01   6.9452511770e+00    0.2980667    0.2197483 -61.98  0.001444849    1.977    0.494
        42  -9.2403    246.1931    169.6880   6.9106475294e+01  -1.1166601852e-01    0.2357514    0.1191429  48.68  0.001076916    2.536    0.606
        43  -9.7735    219.0101    169.0612   7.3857712130e+01   4.6262954021e+00    0.2185516    0.1979185  -5.77 0.0009858884    1.062    0.058
        44  -8.9829    212.1892    169.1997   7.5194829444e+01   5.8336134456e+00    0.1846297    0.1681722 -54.01 0.0007382683    1.364    0.267
        45  -9.2147    180.2889    169.6631   8.1849488143e+01   1.1756481939e+01    0.1404495    0.1194605 -86.95 0.0007020543    1.636    0.389
        46  -8.6127     67.5014    166.9886   1.0874011334e+02   3.2031597473e+01    0.2014126    0.1252731 -66.81 0.0004311551    1.508    0.337
        47  -8.9564    191.7861    166.6017   7.8757850056e+01   1.0130915875e+01    0.2011589    0.1364397  49.69 0.0009469536    1.641    0.391
        48  -9.6467    213.2220    163.6284   7.3813294821e+01   6.6267163182e+00    0.3221404      0.24812 -47.85   0.00151578    1.464    0.317
        49  -9.6126    205.6345    162.6421   7.5087161465e+01   8.2235868236e+00    0.2819366    0.2240952 -53.03  0.001473663    1.499    0.333
        50  -9.7413      2.5441    159.9482   1.2386258151e+02   4.0256913317e+01    0.1797878   0.09342756 -78.72 0.0003570318    1.525    0.344
        51  -9.3225    237.8849    159.1883   6.8346288765e+01   2.9645152848e+00     0.198787    0.1826617 -41.64 0.0009559471    1.290    0.225
        52  -9.7259    197.0759    157.1260   7.5612736415e+01   1.0894828286e+01    0.3762504    0.2157758 -35.54  0.001659788    1.711    0.416
        53  -9.2484    216.6703    156.5673   7.1628658236e+01   7.2360041300e+00    0.2392453     0.167257 -52.71  0.001053775    1.744    0.426
        54  -9.0846    212.3046    155.6853   7.2269304349e+01   8.2174706923e+00    0.1354263    0.1157313 -72.40 0.0003119673    1.621    0.383
        55  -9.2015    233.8285    154.1758   6.7982718555e+01   4.5102490035e+00    0.2059347    0.1887648 -47.94  0.001235243    1.302    0.232
        56  -9.6162    205.6182    153.8207   7.3162793084e+01   9.8433232900e+00    0.2595849    0.2003944 -84.71  0.001202375    2.185    0.542
        57  -8.7276    242.2837    153.6645   6.6419577736e+01   3.1111728528e+00    0.1285434    0.1028654 -56.24 0.0003296731    1.622    0.383
        58  -9.4122    157.3946    153.1671   8.3481172757e+01   1.9666915564e+01    0.2197592    0.1445719 -56.42 0.0009490672    1.740    0.425
        59  -8.8782    221.2199    152.1573   6.9812329284e+01   7.1620639440e+00    0.1865939    0.1691715 -56.28  0.001020578    1.337    0.252
        60  -9.6825    211.8608    151.3386   7.1394825586e+01   9.0877743270e+00    0.2033309    0.1731643 -38.52 0.0006502251    1.182    0.154
        61  -9.6022    244.5029    149.9990   6.5265478594e+01   3.3268669039e+00    0.2292033    0.1991504  72.05  0.001091484    1.650    0.394
        62  -9.2967    215.6647    149.1816   7.0190609632e+01   8.7444464795e+00    0.2918603    0.1185772 -45.15  0.001074808    2.585    0.613
        63 -10.2218    235.5838    147.7934   6.6294744586e+01   5.2700121802e+00    0.4131075    0.3315886 -79.15  0.001905876    1.991    0.498
        64  -9.3559    230.6195    141.8784   6.5851354977e+01   7.1902859744e+00    0.3186505    0.1713449 -50.58  0.001188767    2.257    0.557
        65  -8.7063    229.3420    148.3085   6.7496882391e+01   6.3212419903e+00    0.1453931    0.1028225   1.82 0.0007043941    1.692    0.409
        66  -9.4077    223.8075    146.9199   6.8181853495e+01   7.5946660459e+00    0.2503725    0.1962316  86.13  0.001230186    2.103    0.525
        67  -9.6934    208.0741    145.6453   7.0848057548e+01   1.0869815213e+01     0.259356    0.1971682 -45.29 0.0008681301    1.353    0.261
        68  -8.8165    176.4614    146.5012   7.7613835561e+01   1.7145570928e+01    0.1513107    0.1454967  -9.34 0.0002933544    1.020    0.020
        69  -8.9159    200.4168    145.1996   7.2258112056e+01   1.2485266256e+01    0.2140213    0.1341144 -48.78 0.0009461117    1.726    0.421
        70  -8.7709    247.6281    144.2919   6.3529529458e+01   3.7157034967e+00    0.1279266    0.1048434 -67.29 0.0007024455    1.725    0.420
        71  -8.7195    219.3358    144.6770   6.8498482143e+01   8.8435427222e+00    0.1398008    0.1143797 -71.53 0.0007050721    1.712    0.416
        72  -8.9982    214.4385    143.1764   6.9071758351e+01   1.0065540217e+01    0.2084927    0.1287606 -47.26  0.000943746    1.711    0.415
        73  -9.8283    181.9713    141.9867   7.5361214354e+01   1.6909837700e+01    0.3337025    0.2075172 -62.88  0.001297802    2.444    0.591
        74  -8.8079    166.4733    140.4873   7.8470595507e+01   2.0477982317e+01    0.1523187     0.149936 -19.04 9.610869e-05    1.044    0.042
        75  -9.3272    218.7880    138.4521   6.7190437457e+01   1.0061980856e+01    0.2744387    0.2254096 -59.66  0.001452219    1.474    0.322
        76  -9.4535    209.0332    138.0568   6.8924855228e+01   1.2078855488e+01    0.2844267    0.1889536 -37.67  0.001352535    1.414    0.293
        77 -10.3193    171.6133    137.2846   7.6540348186e+01   2.0055482506e+01    0.5025864    0.3237606  80.44  0.001709203    3.450    0.710
        78 -10.3006    199.4686    136.4816   7.0427346080e+01   1.4333601768e+01    0.3088818     0.182169 -41.94  0.001350665    1.637    0.389
        79  -9.8951    198.4606    131.9442   6.9554967431e+01   1.5408427546e+01    0.3055143    0.1389801 -43.72  0.001156145    2.156    0.536
        80  -8.9593    192.7524    136.7225   7.1845884536e+01   1.5688583235e+01    0.2698658    0.1809969 -35.86 0.0009860512    1.440    0.305
        81  -8.8441    248.8553    135.8487   6.1507480764e+01   4.8773226954e+00    0.1830004    0.1485896 -47.58 0.0007644658    1.313    0.239
        82  -9.8368    242.4911    134.9145   6.2316134651e+01   6.1754510878e+00    0.3233434    0.1115105 -41.95  0.001198563    2.674    0.626
        83  -9.6806    234.6613    135.8394   6.3813031066e+01   7.4680386311e+00    0.2751913    0.2041903 -58.88  0.001414201    1.712    0.416
        84  -9.1878    188.1516    136.1717   7.2672258016e+01   1.6765184290e+01    0.2081905    0.1819269 -64.19 0.0007411892    1.331    0.249
        85  -8.7711    163.2351    135.9963   7.8154397716e+01   2.2110756627e+01    0.2091831    0.1285197 -42.74 0.0006556827    1.610    0.379
        86  -9.1973    225.1597    133.6553   6.4953778280e+01   9.6647567985e+00      0.25623    0.1811024 -42.93  0.001144777    1.363    0.266
        87 -10.2813    179.5471    131.8543   7.3475112075e+01   1.9463550676e+01    0.3809344    0.1459305 -43.38  0.001290323    2.563    0.610
        88  -9.2641    133.3327    133.6698   8.4976574570e+01   2.8875163159e+01     0.160364    0.1252096  84.90  0.000705203    1.722    0.419
        89  -9.6209    248.8171    130.1859   6.0276955741e+01   5.8096451016e+00     0.306356    0.1929536  62.17  0.001496169    2.268    0.559
        90  -9.2817    220.9717    129.4736   6.4732007406e+01   1.1232043596e+01    0.1874556    0.1315705  81.11 0.0008090872    2.462    0.594
        91  -9.3039    192.3595    128.8561   7.0044742979e+01   1.7298694964e+01    0.2801981     0.185449 -31.89 0.0008779888    1.506    0.336
        92  -9.1903    171.7715    128.9953   7.4495775942e+01   2.1731525676e+01    0.2152961    0.1264609 -41.04 0.0008829365    1.668    0.400
        93  -8.4279    185.7130    128.3691   7.1305892720e+01   1.8826651416e+01    0.1556216    0.1210021 -71.14   0.00047489    1.706    0.414
        94  -9.8612    240.9032    126.0821   6.0606848006e+01   7.9451650933e+00    0.4071994    0.1647551 -44.22   0.00160731    2.388    0.581
        95 -10.6813    199.8331    125.7321   6.7792168319e+01   1.6297526071e+01    0.3547412    0.2247334 -57.61  0.001498904    2.018    0.504
        96  -9.4439    164.9756    125.6078   7.5204388495e+01   2.3919400922e+01    0.4899999    0.2007538 -53.24  0.001491399    3.345    0.701
        97  -9.3397    227.9112    125.3271   6.2568498334e+01   1.0580875271e+01    0.2605538      0.18108 -44.25  0.001271882    1.382    0.276
        98 -10.0809    179.5401    123.8107   7.1498035410e+01   2.1081840193e+01     0.456829     0.149878 -39.05  0.001416055    3.029    0.670
        99  -8.8359    249.4914    124.4802   5.8920028638e+01   6.6200810828e+00    0.1367434     0.117242 -30.83 0.0001907777    1.018    0.018
       100  -9.3122    235.4448    123.2719   6.0848134579e+01   9.4605642281e+00    0.2207612     0.178084 -89.24  0.000829754    1.746    0.427
       101  -9.7094    221.2302    121.9151   6.2922765166e+01   1.2522000225e+01     0.410673    0.2198502 -56.85  0.001566505    2.737    0.635
       102  -9.2878    212.6669    122.5065   6.4588843744e+01   1.4183783577e+01    0.2692856    0.1286401 -37.56  0.001078111    1.943    0.485
       103  -9.1125    188.3786    123.2189   6.9483441001e+01   1.9257747614e+01    0.2244371    0.1373337 -47.84 0.0009492505    1.683    0.406
       104  -8.8053    231.4325    120.2263   6.0804836751e+01   1.0766082109e+01    0.2015812    0.1206964 -44.93 0.0006437571    1.598    0.374
       105  -9.3442    248.0471    119.0439   5.7933921480e+01   7.7745508389e+00    0.2153517    0.1548349 -59.39 0.0008872551    1.685    0.406
       106  -9.1688    173.5035    118.9819   7.1599918131e+01   2.3392600885e+01    0.2470521    0.1506121 -40.37  0.001036084    1.599    0.375
       107  -9.7027     18.5721    119.0290   1.1548473807e+02   4.8806513152e+01    0.2115526    0.1633094  54.64 0.0006059492    1.461    0.315
       108  -9.3951    212.7661    116.2577   6.3071366493e+01   1.5294435216e+01    0.3402805    0.1467662 -49.14  0.001211787    2.668    0.625
       109  -8.6002    199.5967    116.8082   6.5655666437e+01   1.8029521870e+01    0.2217079    0.1338852 -46.90  0.000951861    1.669    0.401
       110  -8.9744    190.6602    117.6977   6.7642604842e+01   1.9825527618e+01    0.1566855     0.119153   8.14 0.0007038174    1.672    0.402
       111  -8.3995    235.3461    115.3046   5.9040786249e+01   1.0831342498e+01    0.1413134    0.1061631   4.91 0.0002955921    1.692    0.409
       112  -9.6146    185.8458    114.4161   6.7798162386e+01   2.1531516906e+01    0.2673693    0.1784629 -33.79  0.001191072    1.483    0.325
       113  -8.8818    173.5194    113.9677   7.0307847518e+01   2.4397590329e+01    0.2394539    0.1505827 -39.82 0.0006840326    1.550    0.355
       114  -9.9352    218.8749    110.7465   6.0674349864e+01   1.4983832746e+01    0.5202651    0.1428507 -43.29  0.001593297    3.496    0.714
       115  -8.9327    247.6070    112.7594   5.6597266221e+01   8.8838884781e+00    0.1973375    0.1106341 -43.29 0.0007488848    1.603    0.376
       116  -9.5854    183.3974    108.6734   6.6828524021e+01   2.3194518986e+01    0.3111354    0.1389555 -43.60  0.001130946    2.193    0.544
       117  -9.1730    160.6894    107.5373   7.1512261524e+01   2.8613317902e+01    0.2944197    0.1414912 -40.77  0.001085712    2.044    0.511
       118  -8.9504    248.4008    107.1912   5.5235393069e+01   9.6375474927e+00    0.2058976    0.1075947 -44.70 0.0009480055    1.745    0.427
       119  -8.9467    205.6253    105.2886   6.1663655777e+01   1.8822177674e+01    0.2917999    0.1301039 -41.09   0.00111444    2.091    0.522
       120  -8.8030    222.4713    104.9480   5.8679487072e+01   1.5234320656e+01    0.2282679    0.1312475 -37.07   0.00102873    1.583    0.368
       121  -9.8190    229.5308    102.9856   5.7082561514e+01   1.4091224858e+01    0.2270524    0.1276595 -36.76 0.0006545421    1.598    0.374
       122  -9.0122    200.6421    102.8049   6.1948578578e+01   2.0383088756e+01    0.2211638    0.1291446 -45.68  0.000721862    1.680    0.405
       123  -9.4941    140.3754    118.1695   7.9309218648e+01   3.0875032873e+01    0.2329156     0.145909 -54.39 0.0007946076    1.748    0.428
       124  -8.5539    209.3060     99.3378   5.9524598115e+01   1.9066262708e+01    0.1489683    0.1151811   5.33 0.0005348769    1.676    0.403
       125  -9.1842    202.6059     97.7554   6.0307428858e+01   2.0847901797e+01    0.2907789    0.1401402 -33.47  0.001129365    2.068    0.517
       126 -10.1256    212.8061     96.1189   5.8125162512e+01   1.8851861471e+01    0.5036538    0.1852087 -52.37  0.001439472    4.358    0.771
       127  -9.3639    210.8030     91.0170   5.7184714539e+01   2.0175843192e+01    0.2983973     0.191356 -56.21  0.001350843    1.740    0.425
       128  -9.3751    194.5224     96.9972   6.1596599992e+01   2.2828130065e+01     0.236274    0.1434193 -37.52  0.001026766    1.575    0.365
       129  -9.0887    176.1571     97.1254   6.5276206482e+01   2.7074800538e+01    0.2159929     0.181903 -67.14 0.0006612795    1.337    0.252
       130  -9.9220    234.9563     94.7634   5.4327959775e+01   1.4334555002e+01    0.3389125    0.2159079 -53.91  0.001549441    1.644    0.392
       131  -9.5492    231.3062     90.7130   5.3907528235e+01   1.5758132671e+01    0.3495577    0.1754756 -36.84  0.001148143    1.784    0.440
       132  -9.1976    236.4877     89.9932   5.2992144617e+01   1.4792030303e+01    0.2782189    0.1463937 -45.19 0.0008084005    1.736    0.424
       133  -9.9825    234.3728     86.3605   5.2439027845e+01   1.5816588749e+01    0.4267663    0.1977291 -26.65  0.001671317    2.563    0.610
       134  -8.6931    183.4710     95.5077   6.3344702147e+01   2.5665235557e+01    0.1518702    0.1470883 -38.93 6.377332e-05    1.002    0.002
       135  -8.8671    170.6747     95.1884   6.5912317005e+01   2.8729327523e+01     0.224281    0.1419992 -30.07 0.0009405667    1.682    0.406
       136  -8.8888    242.0110     92.9654   5.2906436336e+01   1.3185567655e+01    0.1791924    0.1380058 -38.45 0.0009971992    1.140    0.123
       137  -9.1500    247.5362     92.0667   5.1948918976e+01   1.2225619046e+01     0.211033    0.1178821 -36.34 0.0006933837    1.559    0.358
       138  -9.3259    171.5853     90.6948   6.4477426474e+01   2.9360394069e+01      0.29039    0.1501148 -33.65  0.001116617    2.000    0.500
       139  -8.1432    203.3220     89.6665   5.8112020376e+01   2.2105141241e+01     0.154931    0.1115429 -67.90 0.0007050073    1.704    0.413
       140  -9.4895    249.4717     87.9216   5.0760032998e+01   1.2493441880e+01     0.209487    0.1157857 -37.49 0.0005871208    1.557    0.358
       141 -10.1645    246.4765     84.4808   5.0370836961e+01   1.3625209863e+01    0.3116498    0.1627272 -18.43  0.001209757    3.069    0.674
       142  -9.0890    197.4820     86.5320   5.8323269175e+01   2.3996949148e+01    0.2671539    0.1447734 -24.52  0.001034701    2.274    0.560
       143  -8.9138    163.6869     86.4696   6.4991784619e+01   3.2025185060e+01     0.286677    0.1402209 -37.43   0.00108396    2.029    0.507
       144  -9.8866     30.4994     86.6500   1.0597762309e+02   5.5593169798e+01    0.2249339    0.1883301 -34.44 0.0006726974    1.153    0.132
       145 -10.1861     25.0286     90.5383   1.0873206767e+02   5.5127269427e+01    0.2403696    0.2074624 -41.42 0.0004377962    1.119    0.107
       146 -10.1657    230.0607     80.1659   5.1576573309e+01   1.7720411060e+01    0.5079871    0.1348974 -43.30  0.001649229    3.378    0.704
       147  -8.5046    200.3242     82.7065   5.6827032305e+01   2.3989817528e+01    0.1506848     0.111676 -70.83 0.0005200324    1.618    0.382
       148  -9.1907    159.2943     81.7957   6.4616872222e+01   3.3936397302e+01    0.3226672     0.124426 -43.70  0.001078203    2.644    0.622
       149  -8.8409    209.6300     80.2502   5.4653750985e+01   2.2249988163e+01    0.2064734    0.1342431 -26.71 0.0009497195    1.649    0.394
       150 -11.3209    243.4910     76.6387   4.8966603507e+01   1.5440448865e+01    0.3151796    0.2061701 -23.74  0.001275482    1.701    0.412
       151  -8.9063    201.3024     77.7912   5.5378248549e+01   2.4584151797e+01    0.3063337     0.109888 -42.06  0.001068928    2.612    0.617
       152  -8.8779    166.6905     77.4817   6.1768727245e+01   3.2930128987e+01    0.2798129    0.1384076 -35.81   0.00107863    2.023    0.506
       153  -9.3036    183.5246     76.5678   5.8183706864e+01   2.9017397055e+01    0.2783636    0.1250799 -45.93  0.001026273    2.298    0.565
       154  -8.5155    174.4861     77.4849   6.0179789193e+01   3.1042915940e+01    0.1498575    0.1467324 -65.71 0.0002635412    1.013    0.013
       155 -10.3180    239.0000     75.9649   4.9384905736e+01   1.6476225727e+01    0.2584848    0.1522636 -30.48 0.0007971947    1.674    0.403
       156 -10.9042    248.3897     73.7173   4.7700940226e+01   1.4882127200e+01    0.3292133     0.158874 -37.99  0.001137839    1.777    0.437
       157  -9.3281    157.5676     74.6888   6.2908904349e+01   3.5627587510e+01    0.2989593    0.1520725 -30.87  0.001141826    2.134    0.531
       158  -8.4664    206.3159     73.6814   5.3498303363e+01   2.4084239578e+01    0.1512482    0.1062145 -66.85 0.0007039421    1.654    0.395
       159 -10.3635    176.5267    247.7941   9.6230593447e+01  -1.0111838068e+00    0.2904663    0.1921614  54.05  0.001647466    1.926    0.481
       160 -11.0694    249.7431     53.7671   4.3102992639e+01   1.7486363325e+01    0.9652878    0.1153993 -39.54    0.0028778    4.725    0.788
       161  -8.9839    206.4126    226.2526   8.7118975751e+01  -2.4510725901e+00    0.1548136    0.1191577 -41.87 0.0007766664    1.605    0.377
       162  -8.5863     26.7215     33.6653   9.2177407336e+01   6.6978202917e+01    0.1288139   0.07428569 -24.40 0.0002185826    1.610    0.379
       163  -9.1065      1.5143     31.4271   1.0396896497e+02   6.9213231481e+01    0.1156352   0.08611846 -36.70 0.0001157139    1.015    0.015
       164 -10.4967    226.8523     56.6518   4.6369069753e+01   2.1986195810e+01    0.3879194    0.1587902 -34.00  0.001598103    2.297    0.565
       165  -8.6164    125.9958     30.4921   5.5637027713e+01   4.9914196276e+01    0.1849983    0.1226893  89.78 0.0008064105    2.315    0.568
       166  -8.8531      8.4670     67.4673   1.1022262886e+02   6.1440998760e+01    0.1228239   0.09621367 -51.81 0.0001531118    1.017    0.017
       167 -10.1847     30.5865     28.1344   8.8089266392e+01   6.7548579498e+01    0.2750133    0.1850397 -11.33  0.001068415    1.367    0.269
       168  -8.8851     42.3946     27.7265   8.2366510539e+01   6.6232064530e+01    0.1669382    0.0999224 -27.63 0.0003674917    1.489    0.328
       169  -9.0314    136.8156     24.8880   5.1383212456e+01   4.7969796413e+01    0.2049138    0.1723197  29.44 0.0002953836    1.213    0.176
       170  -8.5931    118.2662     24.0347   5.5083043659e+01   5.2487647150e+01    0.1647753     0.119899 -19.83 0.0004850109    1.476    0.323
       171  -9.7432      3.1706     23.5835   1.0041600872e+02   7.0575313465e+01    0.1533325   0.08844397 -11.05  0.000944018    1.693    0.409
       172  -9.1659     84.9763     21.4712   6.3149195551e+01   6.0020553718e+01    0.2016105    0.1634466 -10.53 0.0005492996    1.208    0.172
       173 -10.8684    192.6311     60.0171   5.2067713567e+01   2.9476750909e+01    0.5169126    0.2366511 -34.05  0.002079346    2.153    0.536
       174  -9.4877      9.4813     18.4768   9.4967224488e+01   7.1057328027e+01    0.1996827    0.0914159 -46.85  0.001108055    1.824    0.452
       175 -10.2784      8.7179     15.0042   9.3911663531e+01   7.1691332285e+01    0.1872646    0.1167001 -24.08 0.0003302009    1.270    0.212
       176  -9.5597    215.3768     16.7838   3.8077291912e+01   2.9703888027e+01    0.1666664    0.1229078 -17.66 0.0005773205    1.699    0.412
       177  -9.7867     23.3598     15.3042   8.6052950215e+01   7.0352688397e+01    0.2045489    0.1380862 -14.92 0.0006316287    1.223    0.182
       178  -9.3717      2.4984     15.5403   9.7673585266e+01   7.2021827554e+01    0.1151114   0.08184116 -27.82 2.012655e-05    1.023    0.023
       179  -8.6624    168.4889     36.4922   4.9333851683e+01   3.8735991535e+01    0.1408519    0.1316522  81.51 0.0008104549    1.020    0.020
       180 -10.0058     29.8908     12.8816   8.1516464306e+01   6.9991794974e+01    0.1844742    0.1262622  -6.38 0.0002977439    1.249    0.199
       181  -8.7902    250.2912    244.9902   8.2287575111e+01  -1.1027767297e+01    0.1580641    0.1149897  -1.18 0.0004192759    1.085    0.078
       182  -9.5250    177.4791    241.8798   9.5191566240e+01  -2.8983351287e-01    0.1965245     0.124363 -47.47 0.0006814016    1.978    0.495
       183  -8.8191    240.1889    240.2212   8.3253567462e+01  -9.1575729672e+00    0.1460367    0.1265351  20.19 0.0008060233    1.419    0.295
       184  -8.4258    219.5369    239.5294   8.6847744533e+01  -6.2298980234e+00    0.1201557   0.09645995  14.34 0.0008075795    1.078    0.073
       185 -10.0721    192.7307    237.5515   9.1579256952e+01  -1.9960011718e+00     0.501856    0.2903213  58.60  0.002146038    3.660    0.727
       186  -9.4454    207.7085    237.9970   8.8798060500e+01  -4.3091845864e+00    0.2646603    0.1789135  61.25  0.001303673    3.113    0.679
       187 -10.3442    203.8125    232.7496   8.8689455859e+01  -2.9919970422e+00    0.2131629    0.1955335 -12.69 0.0004903515    1.291    0.225
       188  -8.5203    244.2932    236.6298   8.1939297810e+01  -9.2612684699e+00   0.09694017   0.09383012  -9.88 0.0006353524    1.724    0.420
       189  -8.6748    149.4839     33.9982   5.1932919849e+01   4.3778241453e+01    0.1960191    0.1412733 -27.84 0.0003706099    1.487    0.327
       190  -9.0488    216.6681    235.3357   8.6693988546e+01  -5.2596051552e+00    0.1083726   0.09625168  54.14 0.0007052168    1.735    0.423
