#   1 NUMBER                 Running object number                                     
#   2 MAG_AUTO               Kron-like elliptical aperture magnitude                    [mag]
#   3 X_IMAGE                Object position along x                                    [pixel]
#   4 Y_IMAGE                Object position along y                                    [pixel]
#   5 X_WORLD                Barycenter position along world x axis                     [deg]
#   6 Y_WORLD                Barycenter position along world y axis                     [deg]
#   7 A_WORLD                Profile RMS along major axis (world units)                 [deg]
#   8 B_WORLD                Profile RMS along minor axis (world units)                 [deg]
#   9 THETA_WORLD            Position angle (CCW/world-x)                               [deg]
#  10 FWHM_WORLD             FWHM assuming a gaussian core                              [deg]
#  11 ELONGATION             A_IMAGE/B_IMAGE                                           
#  12 ELLIPTICITY            1 - B_IMAGE/A_IMAGE                                       
         1 -16.9321    216.4581     80.5982   7.7908785700e+01   2.0191827350e+01     4.205452     2.176214 -32.40   0.01384059    2.113    0.527
         2 -15.7020    246.4523     60.5306   6.9074885724e+01   1.6526181245e+01     2.192407     1.695352 -41.34  0.009703129    1.282    0.220
         3 -17.6024    182.7693     87.7840   8.5745677052e+01   2.7106033919e+01     4.560587     3.508613  49.73   0.02000131    1.312    0.238
         4 -14.3463    174.0926     35.1511   7.2927162969e+01   3.7547362091e+01     1.151421     0.926194  -3.96  0.004217139    1.598    0.374
         5 -12.9757    123.4531     37.2771   8.3663684191e+01   4.9362403890e+01    0.6012372    0.4381089  45.13  0.002029223    1.251    0.201
         6 -11.6981    148.1009     30.6959   7.6250545070e+01   4.4463303837e+01    0.3929203    0.3814498 -77.24    0.0016688    1.116    0.104
         7 -12.7335    194.5601      3.7759   6.1953142030e+01   3.6039433154e+01    0.6050429    0.3517191  46.44  0.003132455    1.973    0.493
         8 -12.7320    189.9854      3.7134   6.2450689110e+01   3.7146931239e+01    0.4620503    0.3496943  71.19  0.002819799    1.133    0.117
         9 -11.7263      2.7110      2.2222   1.1251561097e+02   7.2080200708e+01    0.3249484    0.1998818  11.38  0.002072913    1.538    0.350
        10 -12.2686     12.2739      1.5404   1.0756423886e+02   7.1389987004e+01    0.5148905    0.1357507  29.59  0.002478011    3.831    0.739
        11 -10.5620    100.7354      1.7424   7.6592217568e+01   5.7939166397e+01    0.2365278    0.1486428  82.29  0.001179992    2.575    0.612
        12 -13.9552    237.5157    168.8756   9.4554004655e+01  -3.4297014125e-01    0.9470117    0.8779202 -48.68  0.003571573    1.209    0.173
        13 -14.9282    243.8710    233.5851   1.0589981640e+02  -1.1415063358e+01     2.748876     1.140307 -31.86   0.01316056    2.532    0.605
        14 -15.3710    184.3497    243.9470   1.1866808471e+02  -3.1551083060e+00     1.614803     1.120676  38.62  0.007142602    1.207    0.171
        15 -17.1994    181.5724    211.0402   1.1380277451e+02   2.8123136434e+00     5.217446     3.247761  29.51   0.02428921    1.709    0.415
        16 -17.1454     81.2513     65.5122   1.0507377957e+02   5.3208956968e+01     3.827132     2.972421 -70.99   0.02030195    1.920    0.479
        17 -19.7308     55.1477    157.5694   1.3342883425e+02   3.6441580588e+01     20.86051     6.410927 -69.73   0.07022892    3.643    0.726
        18 -16.4184    106.2567    209.1290   1.2924546507e+02   1.7039815132e+01     2.557821     1.753014  64.45   0.01372812    1.401    0.286
        19  -9.5802    100.8867    160.8747   1.2278067711e+02   2.8836039848e+01    0.1934334    0.1798039 -58.12  0.000321343    1.146    0.127
        20 -11.3918      1.2431    160.3464   1.4604460984e+02   4.1122994238e+01    0.2417476   0.07265574 -72.71  0.001099571    2.462    0.594
        21  -9.7270    139.7551    156.2298   1.1241022869e+02   2.2508355997e+01    0.1935247    0.1803022   1.42 0.0004161687    1.251    0.201
        22 -12.2355     90.4406    155.2663   1.2434455341e+02   3.1918806462e+01    0.3035854    0.2335701 -35.42 0.0009574348    1.607    0.378
        23 -10.0014    104.1620    155.2232   1.2091206111e+02   2.9597670694e+01    0.2145808    0.1921076 -45.46   0.00116923    1.217    0.178
        24 -11.6533    133.7746    144.5826   1.1133046083e+02   2.6400059933e+01     1.117023    0.2545739 -54.56  0.002342893    6.981    0.857
        25 -13.7245    240.0683    160.4980   9.2321917636e+01   6.3806184696e-01    0.9387581    0.7331766 -58.62  0.004271098    1.546    0.353
        26 -11.0040     69.2305    144.2780   1.2777583317e+02   3.7741715737e+01    0.4976272    0.2835206  71.55  0.002077086    2.616    0.618
        27 -10.8973    113.8162    138.6984   1.1506027609e+02   3.1723167579e+01    0.4495465    0.2189531 -39.28  0.001641698    2.521    0.603
        28 -11.1907    102.9772    139.1919   1.1797968780e+02   3.3601119442e+01    0.2387652    0.2318806 -52.17 0.0003650724    1.100    0.091
        29 -15.9217    165.7622    120.7212   9.7977513118e+01   2.4641069078e+01     3.655936     2.111961  35.98   0.01424097    2.055    0.513
        30 -12.9118    135.4591    123.7525   1.0601620537e+02   3.0778192174e+01     0.942834    0.2438962 -49.34  0.002531113    4.060    0.754
        31 -12.2653    125.2935    127.4938   1.0952119613e+02   3.2057084442e+01    0.4276603    0.2928319  70.86  0.001809372    1.951    0.488
        32 -11.0487      2.3232    245.4711   1.5149923716e+02   2.3597614852e+01     0.113447   0.08118436  63.47 0.0007419888    1.247    0.198
        33 -11.1289    113.0396    118.9472   1.1067430042e+02   3.6438057121e+01    0.2293704    0.2223447 -52.67 0.0004085675    1.025    0.024
        34  -9.7814     18.4309    237.0369   1.4850086381e+02   2.3489966489e+01    0.1338581   0.08336396 -83.23 0.0003280929    1.340    0.254
        35 -10.7415    106.0913    130.6887   1.1530064335e+02   3.5037269408e+01    0.3738283    0.2856339 -65.33  0.001272098    1.327    0.246
        36 -10.4221    107.0527    125.9593   1.1396079190e+02   3.5960786336e+01    0.2572571    0.2100075 -35.45 0.0005983592    1.314    0.239
        37  -8.5895     93.5326    173.7211   1.2676298674e+02   2.7062812435e+01    0.3950207    0.1818149 -43.18  0.001478585    2.989    0.665
        38 -11.9006    118.9301    129.6466   1.1168059736e+02   3.2838689140e+01    0.3286267    0.3024937  18.80  0.001356031    1.223    0.182
        39 -11.6841     11.3131     66.8122   1.2966513971e+02   6.0748223725e+01    0.4559504    0.1866922 -44.97  0.001982405    1.865    0.464
        40 -12.5263     10.0886     58.7145   1.2816986215e+02   6.2398202701e+01    0.5402379      0.34899 -44.74  0.002148126    1.167    0.143
        41 -13.4165    121.3552     53.6859   8.9578436433e+01   4.7492278232e+01     1.251038    0.7559621  70.60   0.00520351    2.540    0.606
        42 -12.4579    149.6961     47.2985   8.0986521200e+01   4.1904816165e+01     0.517661    0.4056426  88.81  0.002520355    1.507    0.336
        43 -12.2894     35.2364    212.5817   1.4380864345e+02   2.6493808471e+01    0.2435041    0.1699936  34.32  0.001178148    1.836    0.455
        44 -12.6184    178.4577     28.0824   7.0301082686e+01   3.7340147152e+01    0.5051053    0.4023403  -3.49  0.001467309    1.650    0.394
        45 -10.0279     12.0210    204.2065   1.4742169566e+02   3.0733945014e+01    0.2274015     0.117045 -73.46   0.00137894    1.596    0.373
        46 -13.0652    150.7965     35.8318   7.7290446471e+01   4.3181096088e+01    0.9743873    0.4164585  57.60  0.004006854    2.076    0.518
        47 -10.8744     77.8901    201.5424   1.3420726217e+02   2.3206975885e+01    0.2610561    0.1590435 -51.82  0.001344022    1.908    0.476
        48 -11.9945    141.6929     25.7742   7.5975307034e+01   4.6561797033e+01    0.6931967    0.3970113  66.93  0.002977921    1.742    0.426
        49  -9.8977      7.0700    195.3301   1.4768925619e+02   3.3065772848e+01    0.1852692   0.08977888 -50.40 0.0009637148    2.924    0.658
        50  -9.7497      7.8833    191.0430   1.4722018178e+02   3.3901106445e+01    0.2521588    0.1122524  82.08  0.001301417    2.177    0.541
        51  -9.6530      1.0000    188.9537   1.4836122200e+02   3.4951268077e+01    0.1777188   0.04913476 -75.82 0.0007814412    2.799    0.643
        52 -10.2121     95.7328    169.6380   1.2556638673e+02   2.7651554416e+01     0.258208    0.1819614 -46.45  0.001058454    1.578    0.366
