#   1 NUMBER                 Running object number                                     
#   2 MAG_AUTO               Kron-like elliptical aperture magnitude                    [mag]
#   3 X_IMAGE                Object position along x                                    [pixel]
#   4 Y_IMAGE                Object position along y                                    [pixel]
#   5 X_WORLD                Barycenter position along world x axis                     [deg]
#   6 Y_WORLD                Barycenter position along world y axis                     [deg]
#   7 A_WORLD                Profile RMS along major axis (world units)                 [deg]
#   8 B_WORLD                Profile RMS along minor axis (world units)                 [deg]
#   9 THETA_WORLD            Position angle (CCW/world-x)                               [deg]
#  10 FWHM_WORLD             FWHM assuming a gaussian core                              [deg]
#  11 ELONGATION             A_IMAGE/B_IMAGE                                           
#  12 ELLIPTICITY            1 - B_IMAGE/A_IMAGE                                       
         1 -15.1816    244.7129    116.6848   6.3044094598e+01   1.0537021378e+01     8.167889     3.357975 -28.27   0.03717346    2.077    0.519
         2 -15.9822    248.9810     41.6786   4.4789141841e+01   1.9245766236e+01     2.549047     1.289398 -44.48    0.0130162    1.680    0.405
         3 -14.4748    232.3963      4.4045   3.6563250709e+01   2.6641525390e+01     9.267591      2.93988  55.79   0.03624236    3.829    0.739
         4 -14.9238    224.7615     86.0027   5.8493819970e+01   1.8437088340e+01     5.722635     1.873217 -48.45   0.01681571    4.951    0.798
         5 -14.9073    220.9554     25.0713   4.2817605288e+01   2.7068490424e+01     4.465809      2.33653   7.93   0.01643576    3.862    0.741
         6 -10.1257    133.1964     18.2595   5.1033831701e+01   4.9850928481e+01    0.4987305      0.31172 -29.15  0.001254105    1.550    0.355
         7  -9.4460    125.7425     14.7091   5.0867047515e+01   5.2194224042e+01    0.2506714    0.2098524 -29.21 0.0009327483    1.183    0.155
         8  -9.6398    201.0030     12.1566   4.0810864516e+01   3.3093217185e+01     0.411458    0.2385851  38.14  0.001184109    2.295    0.564
         9 -16.5106    247.2029     61.9078   4.9902998414e+01   1.7180494518e+01     6.535336     2.107708  52.82  0.007789605    3.519    0.716
        10  -8.5549    204.6440      6.6665   3.8932721552e+01   3.2756224418e+01    0.3773179     0.220726 -81.15  0.001862575    1.823    0.452
        11 -10.8686    119.1246     10.1817   5.0095299889e+01   5.4393366423e+01     0.719273    0.4633509  44.48  0.003241768    1.584    0.369
        12  -7.7209    158.7400      2.6791   4.1608357047e+01   4.4683406709e+01    0.1380988    0.1028239  31.79 0.0002550363    1.549    0.354
        13  -8.9387    213.4307    167.4819   7.8379425461e+01   8.8134559258e+00    0.2077791    0.2023604  31.99 0.0005421957    1.406    0.289
        14  -8.3476    193.0033    250.4592   9.4578184374e+01   1.6000905237e+00    0.1581929   0.07698173  33.47  0.001021677    1.568    0.362
        15 -10.0904    110.0814    249.4328   1.0861168373e+02   1.2084047676e+01    0.1663686    0.1429196  44.25  0.000171207    1.146    0.127
        16  -7.5412    127.7391    166.3513   9.4976723150e+01   2.3317303651e+01    0.1297435    0.1015227  79.50 0.0003667601    1.611    0.379
        17 -12.1291     18.6142    157.1955   1.2054880083e+02   3.9824334615e+01    0.8194746    0.4589892  87.16  0.004014349    1.561    0.359
        18 -10.9536     23.5716    155.7823   1.1919879988e+02   3.9695411110e+01    0.6310032    0.2749465 -87.90   0.00269766    2.175    0.540
        19 -10.1253      3.1065    146.3920   1.2387228655e+02   4.3547258835e+01    0.3801028    0.1337209 -64.96  0.001751677    2.650    0.623
        20 -11.4516      6.6065    158.5855   1.2360653013e+02   4.0515917179e+01    0.5063893    0.2440123 -88.82  0.002759402    1.770    0.435
        21  -8.3821    222.9799    226.9672   8.6687208934e+01   3.5177109175e-01    0.1561169      0.11829  12.77 0.0003595756    1.061    0.057
        22  -9.0631    164.7822    158.5930   8.5658940081e+01   1.8361899170e+01    0.1948376    0.1204878  50.68 0.0009556958    1.779    0.438
        23  -8.1837    146.5059    153.5191   8.8522872336e+01   2.2521883938e+01    0.1347193    0.1282865  51.90 -6.128283e-05    1.095    0.087
        24  -9.5864    221.3926    209.3445   8.4289354420e+01   2.4525090803e+00     0.209919    0.2016133  36.95 0.0009637215    1.683    0.406
        25  -9.9221    133.7469    146.4806   9.0013757253e+01   2.6178908387e+01    0.6704358    0.1927031 -53.12  0.002041466    4.308    0.768
        26 -10.9086     47.3894    145.9541   1.1202646198e+02   3.9504858030e+01    0.3442305    0.3117429  44.92 0.0007598219    1.222    0.182
        27 -13.0846     59.3659    141.5961   1.0821645696e+02   3.9077172783e+01     1.848518     1.383082  11.19  0.007427372    1.845    0.458
        28  -8.4522    222.3740    137.0643   7.0769794022e+01   1.1579043024e+01    0.2646007    0.1945885 -66.90 0.0008214834    2.465    0.594
        29  -8.9963    221.1646    133.3956   7.0168369807e+01   1.2310079844e+01    0.2358027    0.1804685 -37.66 0.0007649206    1.340    0.254
        30  -8.6608    180.3269    135.3272   7.7748927845e+01   1.9510953151e+01      0.14458    0.1040545   4.18 0.0007050234    1.700    0.412
        31  -8.6155    140.6650    132.9490   8.5612010978e+01   2.7601684218e+01    0.2032212    0.1786122 -48.76 0.0007591613    1.154    0.134
        32  -8.9554    186.4523    120.1625   7.3098370925e+01   2.0888155926e+01    0.4198183    0.2492017 -59.85  0.001699651    2.742    0.635
        33  -9.6733    184.2425    129.1030   7.5599502594e+01   1.9814280170e+01    0.3165338    0.2265917 -49.44  0.001200917    1.562    0.360
        34  -9.5550    185.1036    124.8802   7.4462380160e+01   2.0359451566e+01    0.3399066    0.2493749 -23.02  0.001635127    1.356    0.262
        35  -9.7775    160.6816    128.9345   8.0282776130e+01   2.4470183619e+01    0.3436202    0.2907513  42.59  0.001569298    1.198    0.165
        36  -9.6996    197.6064    133.8031   7.4208130842e+01   1.6505402659e+01    0.4656825    0.2882057 -39.98   0.00235295    1.596    0.373
        37  -9.1293    174.7162    126.4379   7.6829430589e+01   2.2142715963e+01    0.3709536    0.1130715 -43.55  0.001212358    3.344    0.701
        38  -9.8437    237.5656    190.1926   7.8613227567e+01   2.4567865502e+00    0.1985661    0.1377279  27.30  0.000646125    1.328    0.247
        39  -8.5758    210.1063    125.7971   7.0265691843e+01   1.5421407962e+01    0.2404997    0.1829896  32.80 0.0009520929    1.363    0.267
        40  -7.5391    192.2842    125.6602   7.3318821869e+01   1.8827410246e+01    0.1344635    0.1078791 -62.24 0.0005404421    1.632    0.387
        41  -7.8534    131.0408    189.5231   9.7846046066e+01   1.8547807509e+01    0.1729462    0.1096891  38.51 0.0001978431    1.386    0.278
        42  -9.7918    145.5940    122.4995   8.2105024699e+01   2.8721216692e+01    0.4148069    0.2566921  38.82  0.001326062    1.679    0.404
        43  -9.4104    202.6941    120.2348   7.0226083114e+01   1.7682967665e+01    0.2294909    0.2026078   2.02 0.0003267882    1.090    0.082
        44  -7.6537    108.7347    117.2918   9.0062594713e+01   3.7023238142e+01     0.143333    0.1132896  86.77  0.000155249    1.504    0.335
        45  -9.4124    163.1137    116.2430   7.6754881197e+01   2.6344656775e+01    0.2730931    0.1867086 -63.87  0.000829215    2.003    0.501
        46  -9.7282    169.0357    115.3823   7.5320888351e+01   2.5275150727e+01    0.2849381    0.2403258  65.63 0.0008431643    1.390    0.281
        47  -8.8103    175.2686    113.5909   7.3633892757e+01   2.4302710396e+01    0.4239468    0.2350671 -47.15   0.00182926    1.904    0.475
        48  -9.4423    194.6282    111.2579   6.9466318578e+01   2.0717186379e+01    0.3140613    0.2720693  85.73 0.0005190896    1.513    0.339
        49  -9.3926    146.3004    105.8835   7.7804148765e+01   3.1881575332e+01    0.2773984      0.21818  38.80 0.0006725455    1.332    0.249
        50  -8.1010    166.0181    138.0164   8.1194356797e+01   2.1768941070e+01    0.2040439    0.1722999 -83.91 0.0004566952    1.601    0.375
        51 -10.2497    154.8180    102.1400   7.4907784747e+01   3.0771858202e+01    0.4020328    0.3253843  32.42  0.001647186    1.335    0.251
        52  -9.1828    199.1800    100.3614   6.5963591524e+01   2.1535397108e+01    0.2035755    0.1426788  51.40 0.0004771124    1.568    0.362
        53  -9.9821    196.8688     96.8595   6.5450151403e+01   2.2578550954e+01    0.4247065    0.2584623 -35.97  0.001893125    1.489    0.328
        54 -11.0730    169.1537     96.8227   7.0489255915e+01   2.8604999592e+01    0.6364728     0.477355  31.63  0.002375054    1.497    0.332
        55  -8.3630     91.9912     97.0479   8.9922820042e+01   4.4781909207e+01    0.2140253    0.2028047 -66.59            0    1.015    0.015
        56 -10.8124    152.9486     93.4700   7.2936740206e+01   3.2836829626e+01    0.5126115     0.392475  17.19 0.0005524869    1.646    0.392
        57  -9.6825    128.0050     81.7477   7.5353616262e+01   4.0756432470e+01    0.3053099    0.1562036  47.34  0.001191643    2.036    0.509
        58  -9.6329    155.3082     73.0691   6.6391564922e+01   3.6034185150e+01    0.2279882     0.189614 -41.72 0.0009508074    1.140    0.123
        59 -10.1914    108.0867     76.9090   7.9230341494e+01   4.6128371186e+01    0.2676876    0.2471083 -38.90            0    1.062    0.059
        60  -9.0617     63.8892    184.0903   1.1191904996e+02   2.9096400926e+01    0.1739825    0.1500122  64.47            0    1.047    0.045
        61 -10.2303    178.8556    190.0648   8.8510814940e+01   1.1032387892e+01     0.214873    0.1941667  17.04 0.0003524695    1.109    0.098
        62 -11.6239    125.2261     38.1692   6.0641499076e+01   4.9261951851e+01    0.7124566    0.5397151 -26.29  0.002163938    1.314    0.239
        63  -9.6309    159.1040     39.8713   5.4741944033e+01   4.0360869490e+01    0.2298042    0.1921396 -56.54 0.0004246708    1.194    0.163
        64 -10.0319    209.7353    203.9567   8.5337575165e+01   4.6580893872e+00    0.2298327    0.1550264  38.64 0.0008638538    1.503    0.335
        65  -7.7570    171.6373     35.2721   5.1274551449e+01   3.7776947345e+01    0.1554191    0.1041166 -63.54 0.0004478878    1.657    0.397
        66 -11.0875    122.3571     28.3447   5.7281459933e+01   5.1397648056e+01    0.7912444    0.2952776 -22.62  0.002596986    3.098    0.677
        67 -10.0533    210.4526    199.1961   8.4453568271e+01   5.1379260646e+00    0.2261793    0.1759467  19.68 0.0003611794    1.093    0.085
        68  -8.0111    112.5159     29.5388   6.0030981795e+01   5.3708055662e+01    0.1469459    0.1421926   4.37 6.779224e-05    1.036    0.035
        69  -8.6748    161.1183     22.6609   4.8432398849e+01   4.2032166366e+01    0.2605655    0.2033035 -10.72 0.0006558401    1.388    0.280
        70 -10.5355    240.8354    201.7894   8.0060884758e+01   7.4927782217e-01    0.2750055    0.2090461 -33.58 0.0003599873    1.699    0.411
        71  -7.9708    164.9439     20.5248   4.7183314314e+01   4.1281130162e+01    0.1984253     0.140535  71.05 -5.443078e-05    1.436    0.304
        72 -10.2015    192.6271    194.6570   8.6771077185e+01   8.3035093530e+00    0.6642563    0.3547475 -58.78   0.00242579    6.050    0.835
        73 -10.2509    211.0130    194.2497   8.3545962138e+01   5.6716893939e+00    0.2655451    0.1686661  27.02 0.0004118019    1.383    0.277
        74  -7.4344    112.7597    235.3291   1.0684942486e+02   1.3755736308e+01      0.10315      0.07154  60.38 0.0001571932    1.534    0.348
        75  -9.7105    185.2450    170.0575   8.3845027432e+01   1.3001980584e+01    0.4756719    0.1953628 -42.36   0.00209786    2.605    0.616
        76  -8.2382     64.6189    168.8095   1.1017746849e+02   3.2222265501e+01    0.1667406    0.1371616  81.64 0.0005976114    1.116    0.104
