#   1 NUMBER                 Running object number                                     
#   2 MAG_AUTO               Kron-like elliptical aperture magnitude                    [mag]
#   3 X_IMAGE                Object position along x                                    [pixel]
#   4 Y_IMAGE                Object position along y                                    [pixel]
#   5 X_WORLD                Barycenter position along world x axis                     [deg]
#   6 Y_WORLD                Barycenter position along world y axis                     [deg]
#   7 A_WORLD                Profile RMS along major axis (world units)                 [deg]
#   8 B_WORLD                Profile RMS along minor axis (world units)                 [deg]
#   9 THETA_WORLD            Position angle (CCW/world-x)                               [deg]
#  10 FWHM_WORLD             FWHM assuming a gaussian core                              [deg]
#  11 ELONGATION             A_IMAGE/B_IMAGE                                           
#  12 ELLIPTICITY            1 - B_IMAGE/A_IMAGE                                       
         1 -10.2978    227.4148      6.9148   3.4895122068e+01   2.8069192979e+01    0.5038082     0.180542 -28.72  0.002189348    2.922    0.658
         2  -9.5108    224.0480      2.5431   3.4175770152e+01   2.9270802200e+01    0.3310983    0.1484977  68.07  0.001654121    2.057    0.514
         3 -11.1833    236.0081     10.9882   3.5125545206e+01   2.5741957107e+01    0.5005842    0.3838423 -23.69  0.002805535    1.581    0.367
         4  -9.6147    247.6237      5.3757   3.3097021013e+01   2.3878417783e+01     0.229389    0.1911265 -20.69 0.0008799339    1.564    0.361
         5  -9.3486     43.7521    249.9816   1.2186250147e+02   1.7368479784e+01    0.1812405    0.1242665 -83.11  0.001125261    1.430    0.300
         6  -8.9835    136.4241    250.2094   1.0456671871e+02   4.6097121691e+00     0.239373    0.1454004  39.22  0.001394862    1.336    0.251
         7  -9.6555    138.6275    247.7641   1.0384190882e+02   4.6663938382e+00    0.3653406    0.2188257  62.92  0.001893523    2.267    0.559
         8 -10.2290    129.2357    248.0483   1.0570195748e+02   6.0488304799e+00     0.354007    0.2765444  24.75  0.002296617    1.337    0.252
         9 -10.7692    129.9683    241.9246   1.0482325934e+02   6.9580255301e+00    0.4264506    0.2716795  31.96  0.002442332    1.464    0.317
        10 -10.9173     95.1666    246.0495   1.1207392281e+02   1.1406028757e+01    0.4061269    0.3338175 -59.86  0.002814552    1.475    0.322
        11 -11.1516    100.9563    246.7168   1.1102873966e+02   1.0461496565e+01    0.5271377    0.4288791 -73.85  0.003642125    1.399    0.285
        12 -11.0397     79.9921    248.7496   1.1519671999e+02   1.3027134865e+01    0.6044996    0.2593056  37.14  0.003109324    2.070    0.517
        13 -11.3189     32.3756    244.4405   1.2351802256e+02   1.9670426664e+01    0.5653726    0.3128644 -84.94   0.00366387    1.682    0.405
        14 -11.1424      9.7402    226.6197   1.2653507365e+02   2.5388889433e+01    0.5539193    0.2955343 -56.92  0.003350816    2.440    0.590
        15 -12.2870     13.5764    246.8677   1.2684639406e+02   2.1203973439e+01     1.252203    0.7102981  47.94  0.008815676    1.444    0.308
        16  -9.8627     93.3260    236.6528   1.1148846516e+02   1.3368646369e+01    0.2658213    0.1552537  59.43  0.001469409    1.655    0.396
        17  -8.6517    244.8696    244.0753   8.3442013917e+01  -1.0391014663e+01    0.1598234    0.1314221  10.53 0.0004099187    1.244    0.196
        18 -10.2002    194.2014    238.9977   9.1837143959e+01  -2.5694774500e+00    0.3568127    0.2118307   8.63  0.001821616    2.148    0.534
        19  -8.6388    215.7740    233.4859   8.6899858775e+01  -5.0292910826e+00    0.1992579     0.178027  -5.39 0.0005430611    1.255    0.203
        20 -10.5846     49.0173    249.0357   1.2087161794e+02   1.6918113208e+01     0.601469    0.2235112  66.63  0.002667926    3.336    0.700
        21 -10.1417      4.3528    219.3244   1.2713508897e+02   2.7325014572e+01    0.3878171    0.2354028 -43.50  0.002291703    2.950    0.661
        22 -10.2328    213.7602    215.4958   8.4204212317e+01  -2.1529964512e+00    0.3548342    0.3382241  81.72  0.001753853    1.617    0.382
        23 -10.0246      4.8729    211.7786   1.2666153701e+02   2.8796318569e+01    0.2891754    0.1825682  65.87  0.001990254    1.244    0.196
        24 -10.5345    202.6560    210.2808   8.5413461232e+01   4.2748216039e-01    0.4168893    0.3062046  39.44  0.001081261    1.371    0.271
        25 -10.6973    203.8128    205.8850   8.4393506923e+01   9.3932837559e-01    0.5186419    0.2769632  40.60 0.0004034207    1.810    0.448
        26 -11.0514    204.1387    201.1720   8.3461526218e+01   1.6499931914e+00    0.6289787    0.3009105  35.39  0.000623338    1.975    0.494
        27  -8.8063      4.1574    204.7616   1.2642512357e+02   3.0303204162e+01    0.2039875    0.1135437 -58.77   0.00123761    2.066    0.516
        28  -7.7242    230.9577    197.2204   7.7631624721e+01  -2.0994220382e+00    0.1773996    0.1468323   6.48 0.0002871976    1.050    0.048
        29 -10.1729    234.0774    209.2068   7.9310833804e+01  -4.3467416133e+00    0.2193052    0.1835882   9.61            0    1.107    0.096
        30  -7.9683    123.9827    195.0014   9.9551293433e+01   1.6837675324e+01    0.1944966    0.1863298  60.71 0.0003644917    1.041    0.039
        31  -9.3750    199.3391    189.6764   8.2229273725e+01   4.4148594694e+00    0.2220565     0.138462 -41.22  0.001094915    1.667    0.400
        32  -9.9959    171.8316    196.1685   8.9158158293e+01   8.1497840196e+00    0.2499975    0.2390113   2.86 0.0003639334    1.081    0.075
        33  -8.9520     56.4770    187.6268   1.1409068552e+02   2.8583393248e+01    0.2096832    0.1928191 -86.92 0.0006140601    1.156    0.135
        34  -9.2236    193.2417    180.8263   8.1720371908e+01   7.0852616046e+00     0.271811    0.2144842  -1.27 0.0002184004    1.330    0.248
        35  -9.0203    178.6457    178.1243   8.4246650746e+01   1.0308232593e+01    0.2450597     0.194516  46.94 0.0008839911    1.320    0.243
        36  -8.6200     57.5850    172.0106   1.1200150165e+02   3.2073710849e+01     0.211348    0.1819213  53.56 0.0001569615    1.180    0.153
        37  -7.0376    120.7466    171.6131   9.6343461005e+01   2.2507377994e+01    0.1467221    0.1121104 -24.85 0.0004192053    1.673    0.402
        38  -7.2550    125.7736    167.6745   9.4382368201e+01   2.2490613438e+01    0.1410939    0.1125116 -25.37 0.0002056723    1.510    0.338
        39  -7.1203    212.7384    157.2907   7.2875069911e+01   7.7135136862e+00    0.1301598    0.1128437 -65.04 0.0003453352    1.496    0.331
        40  -8.3672    167.9861    157.5124   8.2281638017e+01   1.6512912482e+01    0.2132538    0.1301121  18.34 0.0007836978    2.430    0.589
        41  -7.6987    151.4825    152.4244   8.4999818354e+01   2.0930038268e+01    0.1512909    0.1467852  12.75 3.623599e-05    1.020    0.020
        42  -9.5049    197.1347    127.0975   6.8965124497e+01   1.6522310656e+01    0.2509004    0.2419957  37.16 0.0002599303    1.099    0.090
        43  -8.9987    140.6268    128.0146   8.1987696256e+01   2.8589742462e+01    0.2774804    0.2275923  42.31  0.000184994    1.238    0.192
        44  -7.7866    202.0252    123.9799   6.7251289559e+01   1.6067701282e+01    0.2374699    0.1794745   0.04 0.0005093815    1.660    0.398
        45  -9.5631    103.4344    121.5012   9.0476107652e+01   3.7447255976e+01    0.2983881    0.2431591 -36.14 0.0006161099    1.259    0.206
        46  -9.5035    103.4835    113.4829   8.8486143441e+01   3.9334384974e+01    0.2747253      0.20049 -75.00  0.001227023    1.747    0.427
        47  -8.4138    132.8168    110.1296   7.9404262595e+01   3.4230479573e+01    0.3405823    0.1895917 -63.06  0.001174608    2.730    0.634
        48  -9.3558     86.9759    101.3552   9.0369993714e+01   4.5069828408e+01    0.3100191    0.2067566 -45.71 0.0001205893    1.398    0.285
        49  -7.5166    144.1877    102.1255   7.4273758815e+01   3.3449950758e+01    0.2087231    0.1851233  85.77 0.0003766825    1.306    0.234
        50 -10.8680    120.6336     87.2572   7.6207089380e+01   4.1736621131e+01    0.4589064    0.4052261 -16.26  0.001668877    1.167    0.143
        51 -10.3806    103.5519     81.3716   7.9411480849e+01   4.6463754986e+01    0.3586747    0.2997942 -25.43 0.0004206653    1.188    0.158
        52  -8.5724    199.7964     79.6797   5.6381783937e+01   2.4593343777e+01    0.3439136    0.2075715 -28.74  0.001155495    1.756    0.431
        53  -9.2845    114.9147     79.8810   7.5564600419e+01   4.4449231147e+01    0.2373295    0.2002083  -0.84 0.0004842582    1.300    0.231
        54  -9.2621     96.8957     74.0852   7.9172247225e+01   4.9238376342e+01    0.2811194    0.1996664 -34.90  0.001361664    1.364    0.267
        55  -7.1447    174.5537     69.4188   5.8102172747e+01   3.2398859489e+01     0.146427    0.1445597  42.39  5.79718e-05    1.050    0.048
        56 -10.1678    240.6896     57.1089   4.5066626344e+01   1.8868422327e+01    0.5254679    0.2957661 -15.26  0.002205228    2.937    0.660
        57  -7.8444     91.6533     55.6882   7.4559963223e+01   5.3712582481e+01    0.1506689    0.1065023   5.54 0.0002519196    1.711    0.416
        58  -8.1698      7.5009     55.5308   1.0788570363e+02   6.4161213603e+01    0.1233585   0.09175576 -45.06 0.0008096035    1.037    0.036
        59  -8.0774    150.0501     56.4040   5.9148882060e+01   4.0532349457e+01    0.2248046    0.1945594 -33.65 7.550498e-05    1.182    0.154
        60  -7.2572    131.7602     34.9612   5.6039013676e+01   4.8047861441e+01    0.1724273    0.1206014 -25.26 0.0003651059    1.521    0.343
        61  -6.9549    170.2585     27.4277   4.6527041291e+01   3.9456846010e+01    0.1414632     0.101522  25.26 0.0001681013    1.782    0.439
        62  -7.9246    162.4966     26.9204   4.7582988141e+01   4.1453578980e+01    0.1875797    0.1384193 -28.55 0.0003544101    1.460    0.315
        63  -8.5748    130.0177     22.7184   5.2122093484e+01   4.9929405933e+01    0.2429668      0.19081 -15.49 0.0005991707    1.391    0.281
        64 -10.9786    103.3379    240.1508   1.0988097494e+02   1.1278544919e+01    0.5294545    0.2599888  45.50  0.001602982    1.678    0.404
        65 -10.5044     59.5229    248.8362   1.1897220192e+02   1.5671062810e+01    0.4572619    0.1846161  41.54  0.002449187    1.990    0.498
        66 -11.2823     58.7238    244.5277   1.1879779465e+02   1.6555374450e+01    0.7157443    0.1649812  45.34  0.003040161    3.057    0.673
