#   1 NUMBER                 Running object number                                     
#   2 MAG_AUTO               Kron-like elliptical aperture magnitude                    [mag]
#   3 X_IMAGE                Object position along x                                    [pixel]
#   4 Y_IMAGE                Object position along y                                    [pixel]
#   5 X_WORLD                Barycenter position along world x axis                     [deg]
#   6 Y_WORLD                Barycenter position along world y axis                     [deg]
#   7 A_WORLD                Profile RMS along major axis (world units)                 [deg]
#   8 B_WORLD                Profile RMS along minor axis (world units)                 [deg]
#   9 THETA_WORLD            Position angle (CCW/world-x)                               [deg]
#  10 FWHM_WORLD             FWHM assuming a gaussian core                              [deg]
#  11 ELONGATION             A_IMAGE/B_IMAGE                                           
#  12 ELLIPTICITY            1 - B_IMAGE/A_IMAGE                                       
         1 -15.6593     22.2645    132.8184   1.2386369286e+02   4.5254388173e+01     4.821292      3.23885  32.22   0.02997568    1.559    0.359
         2 -11.9693    174.5169     48.1896   6.1635322672e+01   3.5010375502e+01     1.132455    0.7631857  13.52  0.003662623    2.003    0.501
         3 -11.7939    185.1424     39.0132   5.7006362106e+01   3.3479431962e+01     1.336728    0.8093383 -37.14  0.005992959    1.572    0.364
         4 -11.9293    192.8520     28.6054   5.2678898773e+01   3.2743727048e+01    0.9884538    0.7240735 -13.96  0.001863344    1.446    0.308
         5  -9.9675     17.5313      2.9740   9.9185546516e+01   7.6061994210e+01    0.3461884    0.1643362   0.57  0.001415211    3.723    0.731
         6 -10.5778      3.8222      3.9909   1.1099852170e+02   7.6817136271e+01    0.3678129    0.3405455 -10.56  0.002728923    1.236    0.191
         7 -10.6735      7.4763     11.7054   1.1115026560e+02   7.4951391482e+01    0.3832783    0.1817936  16.04  0.002002457    2.432    0.589
         8  -9.5774    212.0635      7.7028   4.4401012609e+01   3.0021189023e+01    0.2571732    0.1981648 -13.87 0.0006066823    1.360    0.265
         9  -7.8010    171.7484      4.0014   4.7057807898e+01   4.0990794888e+01    0.1989004    0.1762439 -28.70            0    1.149    0.130
        10  -9.7174    210.7512      1.9932   4.2847721768e+01   3.0874321260e+01    0.3723549    0.2470508  86.83  0.001684003    1.537    0.349
        11  -7.3928    138.2411      3.0255   5.1122233971e+01   5.0371451798e+01    0.1827231    0.1264202 -17.76 0.0005215402    1.519    0.341
        12 -11.3804     40.7957    202.0063   1.2376989155e+02   2.9377594988e+01    0.2910663    0.1336669 -71.13  0.001725446    2.361    0.576
        13 -11.3241    241.0644    192.4673   8.3996125411e+01   2.0197182633e+00    0.8885496    0.5849686  50.71  0.005357352    2.286    0.563
        14 -13.2041    245.3335    238.3643   9.0232361293e+01  -2.6416977814e+00     2.428551     1.004718 -24.18   0.01550238    2.652    0.623
        15 -15.2061    120.4566    234.0851   1.1069828809e+02   1.4452423112e+01     3.601626     3.246242  26.11    0.0299059    1.299    0.230
        16 -14.7921     73.1545    246.8407   1.2017648871e+02   1.8606762032e+01      0.75276    0.4973745  32.13  0.005700645    1.446    0.308
        17 -12.9547     56.5486    220.4069   1.2168911098e+02   2.4515780055e+01     1.159925    0.4234625  54.25  0.006305453    2.218    0.549
        18 -18.3540     35.7469    239.0313   1.2638190367e+02   2.3807932049e+01     3.614063     1.398777  44.25     0.023493    1.651    0.394
        19 -14.7775     65.9211    229.5183   1.2045888615e+02   2.1997979041e+01    0.5896323    0.3001546  43.16  0.003895082    1.387    0.279
        20 -11.6753     47.4419    198.1060   1.2218248200e+02   2.9361616066e+01     0.571019     0.248429  32.10  0.002248808    2.108    0.526
        21 -10.2689     62.2207    202.8937   1.1944340499e+02   2.6818290910e+01    0.1358157    0.1139013  61.10  0.000254579    1.133    0.117
        22 -10.9466     17.8359    201.6043   1.2835709431e+02   3.1704920222e+01    0.2356919     0.081366  56.50  0.001310472    2.108    0.526
        23 -11.7874     57.9569    199.5185   1.2008919534e+02   2.7916911888e+01    0.1677417    0.1378459  62.25 0.0003533016    1.108    0.097
        24 -10.5501     20.5488    196.9446   1.2764476770e+02   3.2293843449e+01    0.1264314   0.08755838  83.16 0.0002137356    1.319    0.242
        25 -11.1983     24.4349    197.5056   1.2687967552e+02   3.1827928478e+01    0.1726193    0.1166155  43.73 0.0001111142    1.245    0.197
        26 -10.8279     26.6192    194.8493   1.2631962777e+02   3.2103631716e+01    0.3343048     0.132792  67.53   0.00180532    2.286    0.563
        27 -13.7948     78.9696    234.8975   1.1838859704e+02   1.9641487295e+01     0.441259    0.3018986  41.37  0.003322021    1.140    0.123
        28  -9.0644     90.0599    196.8887   1.1313578518e+02   2.4321719116e+01    0.1669345    0.1356945  48.60 0.0003406646    1.053    0.050
        29  -9.9717     57.8698    193.7110   1.1969795121e+02   2.8977419059e+01    0.1476057    0.1044912  53.63  0.000339929    1.088    0.081
        30 -10.4998     11.8159    191.2696   1.2921969089e+02   3.4113664545e+01    0.1643711   0.09164417  63.34  0.001040946    1.347    0.258
        31 -10.5805     49.5478    189.4487   1.2118392477e+02   3.0721105161e+01    0.1837557    0.1383516  25.99  0.001245417    1.558    0.358
        32 -11.2996     35.4507    189.4702   1.2420650462e+02   3.2226310425e+01    0.2788373    0.1253549  34.43  0.001583155    1.922    0.480
        33  -9.1741    228.0128    186.4633   8.5063531620e+01   4.5402839074e+00    0.3162542    0.1793318  49.63  0.001365296    2.309    0.567
        34  -8.5058     69.7192    187.5814   1.1665219690e+02   2.8668990209e+01    0.1089635   0.09223815  67.19 0.0003171563    1.111    0.100
        35 -10.5221     17.6653    186.8841   1.2785089077e+02   3.4418527569e+01   0.08912513   0.06212313  28.26 0.0002110741    1.604    0.376
        36 -10.2273     10.0187    185.9730   1.2941922017e+02   3.5254768279e+01    0.1119237   0.08050007  61.73            0    1.003    0.003
        37 -10.4669     44.0169    183.0808   1.2196798546e+02   3.2540307269e+01     0.300348    0.1603137  67.92  0.001293855    1.716    0.417
        38 -10.8016     32.2649    183.3600   1.2456175125e+02   3.3709012523e+01     0.194352    0.1689713  24.93 0.0007708468    1.480    0.324
        39 -10.3921      6.3647    183.8144   1.3011513109e+02   3.5964797189e+01     0.120186   0.09156805  69.23   0.00021977    1.093    0.085
        40  -9.0946    228.4405    181.0989   8.4076377958e+01   5.0637767185e+00    0.2681646    0.1612835  21.45 0.0009002339    1.470    0.320
        41  -8.5656    229.5123    176.7598   8.3143216313e+01   5.3824450200e+00    0.1642485    0.1431763 -17.45  0.001170975    1.387    0.279
        42  -9.3492     10.0000    180.7901   1.2925224613e+02   3.6241496219e+01    0.1403523   0.05212525 -84.98 0.0007345583    2.492    0.599
        43  -8.7107     50.8780    180.3405   1.2025046743e+02   3.2309320474e+01    0.1042447   0.06421178  82.72 0.0002038653    1.591    0.372
        44  -9.8421     83.7536    174.0102   1.1216023676e+02   2.9389312764e+01     0.579105    0.3108223 -35.26  0.002402143    4.056    0.753
        45  -7.9857    238.3032    176.3325   8.1664040527e+01   4.0917010692e+00    0.1231725   0.07324801  10.37 0.0007036278    1.657    0.396
        46  -9.8004    104.6927    173.2732   1.0726814522e+02   2.6470272609e+01    0.4580878    0.1898161 -53.41   0.00208914    2.765    0.638
        47  -9.8581    196.4581    172.7988   8.8139044856e+01   1.1207083252e+01    0.3296493     0.213792 -36.92   0.00110833    1.767    0.434
        48  -9.6716    175.1945    172.3545   9.2083672074e+01   1.4893472833e+01    0.2895885    0.2465486  33.94 0.0007367362    1.092    0.084
        49  -8.4283     40.0181    172.2449   1.2214895634e+02   3.5099900792e+01    0.1136271   0.08389224  47.26 0.0002076418    1.178    0.151
        50  -8.7809     97.3282    164.9592   1.0788903763e+02   2.9181494731e+01    0.1733096    0.1526238  72.45 0.0004132034    1.115    0.104
        51  -9.3498     98.3612    153.7903   1.0608940159e+02   3.1252075028e+01    0.3761771    0.2564456  79.50  0.001370968    1.787    0.440
        52  -9.4100     92.1004    163.1118   1.0889245803e+02   3.0330814354e+01     0.285908    0.2479923  -0.63 0.0005466825    1.551    0.355
        53  -9.3740     95.2946    158.0047   1.0743886568e+02   3.0873212851e+01    0.3932928    0.2676808  73.21  0.001622294    1.673    0.402
        54  -8.0304     89.6481    240.0848   1.1680061915e+02   1.7590962010e+01    0.1267828   0.09452744  46.81 0.0003717295    1.062    0.058
        55  -8.0435    108.0963    141.0858   1.0163658066e+02   3.2269766992e+01    0.3812839    0.2080201 -34.34  0.001541386    2.978    0.664
        56  -9.3304     96.4033    141.0359   1.0463028052e+02   3.4215705098e+01    0.4290886    0.2792767  77.26 0.0005693705    1.977    0.494
        57  -7.5963    100.4669    140.3655   1.0346803017e+02   3.3697163764e+01    0.1984181    0.1682454  72.15 8.097621e-05    1.168    0.144
        58  -8.2492    182.7803    138.2594   8.4084036612e+01   1.8710930989e+01    0.1895348    0.1479255  12.04 0.0005639761    1.327    0.246
        59  -7.2472    217.2386    156.6733   8.1473340677e+01   9.7743712094e+00    0.1073424   0.09789902 -44.35 0.0003357037    1.527    0.345
        60  -9.0536    104.5954    133.1630   1.0114411332e+02   3.4531075192e+01    0.2406759     0.194087  47.58 0.0002431639    1.145    0.127
        61  -8.0357    161.3180    128.0588   8.6348352818e+01   2.4699500675e+01    0.3804635     0.248786 -81.47  0.001396126    3.646    0.726
        62  -8.1120    125.0722    127.1006   9.4682869605e+01   3.2082807624e+01    0.2611096    0.2071108  72.98 0.0003669742    1.462    0.316
        63  -7.1451    114.6764    153.2455   1.0203470566e+02   2.8705141723e+01    0.1349641   0.09330383  60.71 0.0001974006    1.531    0.347
        64  -8.0234     89.8183    125.0965   1.0370422355e+02   3.8754234106e+01    0.2130986    0.1741667  75.17 0.0004454339    1.238    0.192
        65  -7.7355    132.7639    149.1805   9.7065619996e+01   2.6327879188e+01    0.1973746    0.1610076  43.49  0.001124135    1.096    0.088
        66  -7.3396    122.2927    115.7134   9.2944312070e+01   3.4968176038e+01    0.1438258    0.1128309  77.84 0.0002338056    1.542    0.351
        67  -7.7050    168.5174    114.4840   8.1665499326e+01   2.5578433685e+01    0.1438662    0.1381379  30.51 0.0008096608    1.052    0.050
        68  -7.4130    162.0432    111.9963   8.2464946669e+01   2.7411306219e+01    0.1753384    0.1569246  38.55 0.0003068853    1.069    0.064
        69  -8.3302    216.4533    108.9788   7.1348227512e+01   1.6327694323e+01    0.1946945    0.1753545  18.33 1.576449e-05    1.074    0.069
        70  -8.9653    197.0724    106.5459   7.4098842243e+01   2.0726446916e+01    0.3094522    0.2693369   3.64  0.001356635    1.111    0.100
        71  -8.2480    133.5637    144.6304   9.6049466928e+01   2.7041775289e+01    0.2887516      0.13419 -59.24 0.0009521429    3.017    0.669
        72  -7.4520    181.1100    104.7805   7.6685822051e+01   2.4480140697e+01    0.1978143    0.1599075  17.64 0.0003553386    1.306    0.234
        73  -8.4422    216.9099    101.7953   6.9551440201e+01   1.7232936090e+01    0.2072426    0.1694536  17.45 0.0004061018    1.207    0.171
        74 -12.4628     67.9084    144.0708   1.1256498130e+02   3.7744685825e+01     1.126266    0.5379232  59.52  0.003353996    2.329    0.571
        75  -8.1662    123.0494     96.0706   8.7957989112e+01   3.8925890011e+01     0.228638    0.2190952  79.49 0.0006121135    1.058    0.054
        76  -7.5180    126.9791    147.9281   9.8200646147e+01   2.7603852755e+01    0.1558104    0.1427749  46.48 0.0003174661    1.023    0.022
        77  -7.8484    112.5147     88.9028   8.8988416382e+01   4.2642679143e+01    0.2215152    0.1481863 -46.99  0.001003883    1.507    0.337
        78  -7.8567    104.8542     86.1232   9.0495841875e+01   4.4800360919e+01    0.2011937    0.1762459 -23.65 0.0002786418    1.292    0.226
        79  -7.9674     59.9958     85.7416   1.0539854878e+02   5.2459621940e+01    0.1814329    0.1736064 -86.98 0.0002203261    1.058    0.055
        80  -8.4882    109.8798     83.9325   8.8371949751e+01   4.4254877878e+01    0.2157909     0.211913  86.67 0.0003186158    1.002    0.002
        81  -8.6281    157.3215     82.9817   7.5801434373e+01   3.3706735075e+01    0.2128905    0.1906511 -24.83 0.0003690815    1.134    0.118
        82  -8.5711     80.3356     78.4592   9.6364600766e+01   5.1086076724e+01    0.3735529    0.2294758 -34.62 0.0009176839    2.041    0.510
        83  -7.6873     95.4685     77.4874   9.0987396514e+01   4.8551372116e+01    0.1485744    0.1428087 -81.29 0.0001729604    1.032    0.031
        84  -8.4803    138.5920     74.1559   7.7569142434e+01   3.9799192091e+01    0.2068047     0.149388 -24.14 0.0003052708    1.563    0.360
        85  -7.5779    214.9825     54.9716   5.7599690642e+01   2.3995632551e+01    0.2221335    0.1630266  16.43 0.0008153756    1.617    0.382
        86  -9.2870    183.8927     53.8825   6.1849939514e+01   3.1783898977e+01     0.232428    0.2035665  23.37 0.0005214503    1.220    0.180
        87  99.0000      4.2453    203.7272   1.3106363291e+02   3.2511592006e+01     0.778773    0.3983932 -78.50  0.005321617    2.026    0.506
        88  -9.9243     86.2535    230.6908   1.1674607492e+02   1.9373188930e+01    0.1478253    0.1069242  51.22 0.0003603811    1.071    0.066
        89  -8.4870     81.7765    223.2440   1.1704218392e+02   2.1063847818e+01    0.1171678   0.08904141  45.02 0.0001873482    1.090    0.082
        90  -8.1167     39.9679     26.0484   9.5955637164e+01   6.8891349744e+01    0.1995216    0.1725827 -37.43 0.0003224406    1.018    0.018
        91  -7.2807     43.7134     22.6968   9.2324193102e+01   6.9088764049e+01    0.1346591    0.0948581 -21.37 0.0002548166    1.562    0.360
        92 -11.7852     74.7774    220.5390   1.1819136554e+02   2.2352544921e+01    0.2306976    0.1765834  13.25 0.0005633715    1.867    0.464
        93 -10.6175    241.5976    209.4037   8.6614353954e+01   3.1998401328e-01    0.3199217    0.2706447  13.15 0.0005331686    1.378    0.274
        94 -11.6730     68.5088    213.7717   1.1893986817e+02   2.4211754343e+01     0.171198    0.1282978  51.52 0.0002885914    1.020    0.019
        95  -9.2415    106.0647    154.5997   1.0432530851e+02   2.9860475677e+01    0.3362886    0.2218988 -55.49  0.001150467    1.680    0.405
        96  -7.2804    154.3568     49.7409   6.5940413866e+01   4.0053684063e+01    0.1572154    0.1196319 -75.70 0.0003314545    1.619    0.382
        97 -12.4245     59.7030    210.0040   1.2043495978e+02   2.5885632813e+01    0.2498941    0.2008379 -27.39  0.001159395    2.107    0.525
        98  -9.5130     54.1765    208.1709   1.2142437157e+02   2.6833054362e+01   0.07935892   0.06737208  46.66 -0.0006383859    1.238    0.192
        99  -8.7641     76.9077    205.3562   1.1661875823e+02   2.4590441982e+01    0.1226628   0.09414605  47.93 0.0002234711    1.058    0.055
