#   1 NUMBER                 Running object number                                     
#   2 MAG_AUTO               Kron-like elliptical aperture magnitude                    [mag]
#   3 X_IMAGE                Object position along x                                    [pixel]
#   4 Y_IMAGE                Object position along y                                    [pixel]
#   5 X_WORLD                Barycenter position along world x axis                     [deg]
#   6 Y_WORLD                Barycenter position along world y axis                     [deg]
#   7 A_WORLD                Profile RMS along major axis (world units)                 [deg]
#   8 B_WORLD                Profile RMS along minor axis (world units)                 [deg]
#   9 THETA_WORLD            Position angle (CCW/world-x)                               [deg]
#  10 FWHM_WORLD             FWHM assuming a gaussian core                              [deg]
#  11 ELONGATION             A_IMAGE/B_IMAGE                                           
#  12 ELLIPTICITY            1 - B_IMAGE/A_IMAGE                                       
         1 -15.2022     10.8954    142.9749   1.4050315156e+02   4.4482056750e+01     10.03957       3.1799 -82.14   0.03322858    4.636    0.784
         2 -13.7220      4.1022     48.7645   1.2564751607e+02   6.4930682099e+01      1.81156    0.5335153 -60.97  0.007415335    3.826    0.739
         3 -11.0053      2.4786      4.0207   1.1069953132e+02   7.2035534169e+01    0.3514161    0.1664954 -42.32  0.002247874    2.035    0.509
         4 -13.3634    215.5502     10.7929   5.9672935997e+01   3.0411126714e+01    0.9186494    0.7922457  61.36   0.00612331    1.339    0.253
         5 -12.8726      2.1463     11.0984   1.1386449599e+02   7.1115532821e+01     1.257343    0.3217134 -46.76  0.005773402    3.666    0.727
         6 -13.4160    199.7205     28.9634   6.5612592906e+01   3.2026597708e+01     1.406676     1.235194  48.88  0.007319276    1.335    0.251
         7 -10.5253    185.6705    239.4567   1.1540506298e+02  -3.0134629193e+00    0.2227783    0.1633655 -82.90  0.001139111    2.433    0.589
         8 -11.7220    162.2884    248.4167   1.2133715674e+02  -4.6055145614e-01    0.4425127    0.2486283  54.98  0.002203536    1.922    0.480
         9 -11.1241    138.4985    250.3374   1.2622504550e+02   3.2655169023e+00    0.3479655    0.2272516 -69.45  0.001923254    1.965    0.491
        10 -12.7813    143.0296    249.5286   1.2523951622e+02   2.6372332685e+00    0.9130613     0.395594  40.56  0.004217066    1.971    0.493
        11 -11.0827    123.5537    250.1506   1.2908653236e+02   5.8016392548e+00    0.4352871    0.1461412  37.34  0.001676977    3.030    0.670
        12 -10.6450     65.4524    248.9017   1.3981535192e+02   1.5004564872e+01    0.2650593    0.1738085  81.36  0.001515578    1.369    0.270
        13 -11.2836     46.1401    248.4097   1.4318126326e+02   1.7690333481e+01    0.3503749    0.2559524  87.97  0.001559115    1.178    0.151
        14 -11.4297     29.2434    248.7278   1.4607192961e+02   1.9711115693e+01    0.3301784    0.2166264  68.46  0.002310948    1.132    0.117
        15 -12.6713     35.9477    245.0248   1.4468643139e+02   1.9618924769e+01    0.6788561    0.5443406  86.52  0.004880117    1.212    0.175
        16 -12.6473      8.0567    228.2565   1.4833086918e+02   2.6052073226e+01    0.7406122    0.4788824  68.35  0.005240795    1.196    0.164
        17 -12.5850      6.1496    248.2149   1.4977734619e+02   2.2371984163e+01     1.077951    0.4842518  42.75  0.006734692    2.090    0.521
        18 -12.5689     11.8339    239.1579   1.4835553699e+02   2.3507595393e+01     1.092035    0.2147855  45.53  0.004971159    3.406    0.706
        19 -10.8490     52.7390    237.8698   1.4115895642e+02   1.8894412389e+01    0.2637209    0.1582391  55.31  0.000688923    1.385    0.278
        20 -11.7122     22.5469    235.4478   1.4631966139e+02   2.3069174526e+01    0.4031091    0.1611456  69.98  0.001980255    2.536    0.606
        21 -14.2403    105.5771    229.6390   1.3008611582e+02   1.2671482404e+01     4.993115          nan  45.59  0.008710566   13.455    0.926
        22 -13.7540     35.0748    223.9774   1.4324146005e+02   2.3953570205e+01     0.707743    0.5421757  77.31  0.002386751    1.032    0.031
        23 -12.0398    245.8479    247.1318   1.0543719161e+02  -1.3594995782e+01    0.4676996    0.3701749 -42.65  0.003145266    1.729    0.421
        24  -9.5782    228.4950    228.0157   1.0526371564e+02  -8.3626449145e+00     0.179936    0.1191925 -35.94 0.0008570396    1.578    0.366
        25 -12.6141     44.8147    213.4136   1.4046454089e+02   2.5004352309e+01     0.791719    0.5806767 -71.99  0.003815966    1.319    0.242
        26 -10.7405      1.8255    216.3259   1.4866890868e+02   2.9081935121e+01    0.3631707    0.1111054 -78.84  0.001719455    2.687    0.628
        27 -12.7897     29.7341    230.6958   1.4472893486e+02   2.3202331619e+01    0.3016129    0.2460635 -87.61 0.0007390217    1.246    0.197
        28 -10.7744      6.8097    215.1950   1.4771972210e+02   2.8837757502e+01    0.2254802    0.1781628 -60.82 0.0005141983    1.629    0.386
        29 -12.4964     10.1764    207.0563   1.4655017180e+02   3.0216570353e+01    0.6861913    0.4765452  36.96  0.002983131    1.757    0.431
        30  -8.5542    152.5216    212.9808   1.1783675010e+02   7.6905530817e+00    0.1850451    0.1403806 -52.20 0.0003221239    1.443    0.307
        31 -10.4117     54.6364    204.6429   1.3760183487e+02   2.5666057372e+01    0.4025584    0.1727256  54.70  0.001836887    2.292    0.564
        32  -9.4760     34.8441    202.4206   1.4141188705e+02   2.8602094620e+01    0.1994808    0.1340641  88.62 0.0003718254    1.234    0.190
        33 -11.6017     57.6204    197.4957   1.3617798414e+02   2.6874187242e+01    0.3365107     0.237391 -67.31 0.0005658868    1.341    0.255
        34  -9.2018    192.4993    194.0077   1.0595608264e+02   3.7283536746e+00    0.2050497    0.1267846 -66.92 0.0008097374    2.776    0.640
        35 -11.7380     64.2167    189.1202   1.3371952011e+02   2.7894952321e+01    0.2693911    0.2404713 -70.67 0.0004839392    1.214    0.176
        36 -12.0228     14.5989    122.7431   1.3690825279e+02   4.8837682527e+01    0.5263988    0.2785817  51.27   0.00263239    2.368    0.578
        37 -13.1640     61.4974    174.3328   1.3236875966e+02   3.1734285717e+01    0.5409883    0.2823801 -46.61  0.001966249    2.306    0.566
        38 -10.7263     74.9965    176.4275   1.2948336627e+02   2.9326696647e+01    0.2450289    0.2173325 -88.19 0.0003538161    1.034    0.032
        39  -9.8057     94.3631    171.4022   1.2402405986e+02   2.7468859545e+01    0.3461758    0.1945072  50.34  0.001500288    1.806    0.446
        40 -11.7853     82.6869    167.1651   1.2616656235e+02   3.0369289388e+01    0.7303598    0.5699354 -55.58  0.003959309    1.278    0.218
        41  -9.9981     96.0269    151.6869   1.1999898508e+02   3.1919421399e+01    0.3006991    0.2673938  49.21 0.0007524602    1.171    0.146
        42  -9.1990     99.0667    147.7096   1.1841681332e+02   3.2351004298e+01    0.2282233    0.2086396 -60.40 0.0003977215    1.069    0.064
        43 -11.9439     84.4773    150.8179   1.2283045581e+02   3.4031824531e+01    0.3061759     0.250605 -48.16 0.0006851391    1.258    0.205
        44 -12.1379     67.3651    143.4835   1.2599181951e+02   3.8347095568e+01    0.6917344    0.4457463  65.62  0.003308529    1.908    0.476
        45  -9.5943    108.3696    137.0941   1.1370539952e+02   3.3205622203e+01    0.4297478    0.2904329 -17.69  0.001454175    2.466    0.595
        46 -10.4218     95.4059    134.2815   1.1656772403e+02   3.6201194757e+01    0.2634635    0.2403683 -32.56 0.0004652923    1.190    0.160
        47 -11.0530     25.9351    128.5072   1.3467704542e+02   4.6590442861e+01    0.2640127    0.2072031  60.97   0.00167364    1.442    0.306
        48  -8.6301     73.8803    127.6278   1.2111451257e+02   4.1219001384e+01    0.1881903    0.1272057  50.00 0.0005214881    1.650    0.394
        49  -8.9934    105.9783    123.7114   1.1125733386e+02   3.6788559208e+01    0.1944916    0.1853903  48.99 0.0002716167    1.092    0.084
        50 -10.0816    167.7106    112.7539   9.2987842176e+01   2.5901175035e+01    0.3454221    0.2706885 -81.05 0.0008461692    1.549    0.355
        51  -8.6773    203.2990    111.6815   8.5464991496e+01   1.7774488069e+01    0.1558985    0.1156068 -73.77 0.0002298665    1.617    0.382
        52 -11.0040    242.4906     93.5126   7.4836110770e+01   1.2343231556e+01     0.305275    0.1260976 -39.26   0.00122417    2.212    0.548
        53  -9.5574     62.4890     79.9127   1.1297901863e+02   5.3402413842e+01    0.2219379    0.1783818  48.53   0.00063453    1.525    0.344
        54  -8.4219     59.3054     76.7043   1.1313276840e+02   5.4467630448e+01    0.1941845    0.1435764  80.99 0.0005260261    2.463    0.594
        55  -9.0275     55.8919     74.8577   1.1376339567e+02   5.5272583068e+01    0.1763166     0.155956  82.07 0.0004413218    1.573    0.364
        56  -9.8489    159.0068     77.3035   8.5362553879e+01   3.4817264051e+01    0.2182012    0.1938151  60.11 0.0005004933    1.091    0.084
        57 -11.0540    198.8584    247.0476   1.1407124083e+02  -6.3931718464e+00    0.2519793    0.2213136 -73.61  0.001626029    1.652    0.395
        58 -11.2638    104.6634    245.3111   1.3214730086e+02   9.7768078572e+00    0.2908667    0.1909176 -81.90  0.001644037    1.725    0.420
        59 -11.0613    126.2404    245.1214   1.2793783936e+02   6.2569604082e+00    0.2721109    0.1406343  60.22  0.001253951    2.193    0.544
        60 -11.7233     97.8956    245.4768   1.3346167515e+02   1.0822753704e+01    0.3853284    0.2487206  49.28  0.001386588    1.301    0.231
