#   1 NUMBER                 Running object number                                     
#   2 MAG_AUTO               Kron-like elliptical aperture magnitude                    [mag]
#   3 X_IMAGE                Object position along x                                    [pixel]
#   4 Y_IMAGE                Object position along y                                    [pixel]
#   5 X_WORLD                Barycenter position along world x axis                     [deg]
#   6 Y_WORLD                Barycenter position along world y axis                     [deg]
#   7 A_WORLD                Profile RMS along major axis (world units)                 [deg]
#   8 B_WORLD                Profile RMS along minor axis (world units)                 [deg]
#   9 THETA_WORLD            Position angle (CCW/world-x)                               [deg]
#  10 FWHM_WORLD             FWHM assuming a gaussian core                              [deg]
#  11 ELONGATION             A_IMAGE/B_IMAGE                                           
#  12 ELLIPTICITY            1 - B_IMAGE/A_IMAGE                                       
         1 -12.0051    121.1561     36.7203   6.3353940732e+01   5.0337251856e+01    0.6559848    0.3749072 -43.64  0.002886905    1.991    0.498
         2 -11.1364     13.7221     16.0539   9.6121810313e+01   7.0983574166e+01    0.2469603    0.2176673 -27.92 0.0008767092    1.319    0.242
         3 -10.7418    200.5408     16.9940   4.3057316700e+01   3.2663331365e+01    0.3965267    0.1071431  52.91  0.001301729    3.729    0.732
         4  -9.9957     76.1760     15.7951   6.8051187858e+01   6.2593303369e+01     0.325056     0.128374 -42.03  0.001001907    3.490    0.713
         5 -11.5011    234.6526     14.9893   3.9162532563e+01   2.4663897182e+01    0.2636015    0.1965501 -59.62 0.0001396759    1.177    0.150
         6 -11.6464     34.8810     12.8169   8.3726597766e+01   6.9400179518e+01    0.3105249    0.2429487 -33.77 0.0008452319    1.391    0.281
         7 -11.6573     30.2754      6.8777   8.3020464984e+01   7.0787238246e+01    0.3905847    0.3363487  11.10  0.002863305    1.359    0.264
         8 -10.8538     88.3625     12.8514   6.2783475050e+01   6.0527104753e+01      0.45398    0.2650624  67.31  0.002077162    2.499    0.600
         9 -10.5018     92.4590     10.1074   6.0370822756e+01   5.9957908402e+01    0.2779229     0.178331  29.23  0.000424106    1.470    0.320
        10 -10.5085     64.6962     12.0603   7.0442677255e+01   6.5110035198e+01    0.3220674    0.2692096 -77.50  0.001720155    2.282    0.562
        11  -9.9344    203.2345     12.0247   4.1443771753e+01   3.2532100070e+01    0.1841625    0.1624485 -60.48 0.0004520854    1.104    0.094
        12 -10.1347     99.1403     11.4001   5.9080329983e+01   5.8386447753e+01    0.2971942    0.2161522  71.08  0.001221228    1.706    0.414
        13 -11.1552    126.4911     10.7176   5.2387129164e+01   5.2100290073e+01    0.3632614    0.1741011  44.11    0.0015947    1.926    0.481
        14 -10.4397     22.5620      9.1451   8.8181914992e+01   7.1298778663e+01    0.3195982    0.1820432  -7.52  0.001850969    1.826    0.452
        15 -10.1614     36.9984      6.5717   7.9537664113e+01   6.9998536427e+01    0.2998666     0.190028 -48.62  0.001643511    2.545    0.607
        16  -9.5868     15.2608      8.9151   9.2031055001e+01   7.2013693065e+01    0.1799138   0.08991987 -25.90  0.000381673    1.758    0.431
        17 -10.5727    224.1547      7.8447   3.8390696714e+01   2.7901238940e+01    0.2064203    0.1522372 -65.81 0.0006523788    1.213    0.176
        18 -10.2887    211.2068      6.6194   3.9259386954e+01   3.1136517074e+01    0.2637742    0.1527175  10.78  0.001090622    3.431    0.709
        19 -10.9138    204.1529      6.4393   3.9894603705e+01   3.2885264056e+01    0.2734687    0.1379521 -47.39 0.0007293306    1.923    0.480
        20 -10.8484    107.3800      5.5172   5.4542271902e+01   5.7097102764e+01    0.3151591    0.2212706   5.17 0.0009123203    1.523    0.344
        21 -11.4524    101.3196      2.2439   5.4629640154e+01   5.8752061529e+01    0.3745905    0.2774146  74.11  0.000193383    1.603    0.376
        22  -9.4925     88.5663      6.9947   6.0108229958e+01   6.1084715186e+01    0.1838318    0.1215443 -16.72 0.0008224406    1.541    0.351
        23 -10.6882     70.7816      6.0193   6.5303752102e+01   6.4694211524e+01    0.3177035    0.2455328 -35.94  0.001945729    1.589    0.371
        24  -9.9014     65.1600      7.1768   6.7886041179e+01   6.5589507485e+01    0.1564665     0.146324  -8.82 0.0005685794    1.334    0.250
        25 -10.6086    151.3957      6.2072   4.6368300519e+01   4.6294892403e+01      0.18402    0.1213694 -38.60 0.0003770128    1.654    0.395
        26  -9.6300     41.4572      6.0092   7.7138535381e+01   6.9472869401e+01    0.1815595    0.1009483 -26.80  0.001033329    1.607    0.378
        27 -10.0749      8.8114      5.5334   9.4050081470e+01   7.3064088407e+01    0.2047535    0.1192355  31.97  0.001054423    2.227    0.551
        28  -9.6289      2.4805      6.5115   9.8212377727e+01   7.3349920267e+01    0.1942058   0.09748806  12.27 0.0007505218    2.113    0.527
        29 -11.7572     56.9528      3.0224   6.8924962182e+01   6.7449858687e+01    0.4166143    0.2685031  15.47   0.00245516    1.433    0.302
        30  -9.6127    120.8163      4.3599   5.1137174195e+01   5.4045561656e+01    0.1963156    0.1028894  52.24 0.0003256576    1.606    0.377
        31  -9.9889    176.1773      2.3170   4.1800147073e+01   4.0318875548e+01    0.2178788    0.1873169  18.99  0.001297088    1.394    0.282
        32 -10.1931    130.1694      3.1788   4.8888524641e+01   5.1873760856e+01    0.1808156    0.1558614 -79.85  0.000496062    1.327    0.246
        33  -9.5530    112.6784      3.5018   5.2519955564e+01   5.6045819829e+01    0.1826125     0.124082  75.78 0.0004336358    1.694    0.410
        34 -11.5273     20.7199      1.8646   8.5418629611e+01   7.2531978676e+01    0.2073155    0.1440678   5.83 0.0005392251    1.266    0.210
        35  -9.1096      1.2253      3.0515   9.7353785735e+01   7.3985291480e+01    0.1466597   0.06879718 -44.33 0.0008777948    1.670    0.401
        36 -10.1984    243.9554      1.9871   3.5508066082e+01   2.3990086269e+01     0.181004    0.1439304  42.60  0.001130067    1.708    0.414
        37  -9.9531    156.0504      7.5422   4.6094661319e+01   4.4986795551e+01    0.2048348    0.1230318  67.62 -2.943534e-05    1.488    0.328
        38 -10.1628    167.0042      1.9788   4.2831879487e+01   4.2687973153e+01     0.161775    0.1510677  79.44   0.00100198    1.063    0.059
        39 -11.5369     80.3828      1.7064   6.0107094921e+01   6.3254498821e+01    0.3110814    0.1568287  50.04 0.0008602653    1.765    0.434
        40  -9.6249    153.8244      1.2878   4.4401497259e+01   4.6104906127e+01    0.1936461     0.101171  61.38 0.0003410559    1.619    0.382
        41  -9.0300     67.2699      1.3390   6.4219858900e+01   6.5811354374e+01    0.1303158   0.07953172  16.43 0.0006987255    1.602    0.376
        42  -9.6289     10.4450      1.4794   9.1060567611e+01   7.3548149925e+01    0.1614933    0.0936201  31.07  0.001021064    2.128    0.530
        43  -9.4668     96.0378    133.9520   9.9520508198e+01   3.5488871897e+01    0.1776478    0.1660152 -74.42 0.0005224482    1.011    0.011
        44 -12.1614     16.2459    248.9555   1.2921555151e+02   2.1230030366e+01    0.5154454    0.1984287  32.06  0.002749668    3.321    0.699
        45 -12.0951      8.8856    245.2664   1.3021714869e+02   2.2615410790e+01    0.4278845    0.2203661  29.03  0.002661278    2.767    0.639
        46 -12.9842      5.1991    240.7508   1.3061449791e+02   2.3769790154e+01    0.7322745    0.5718196 -32.51  0.005309748    2.816    0.645
        47 -10.4302      2.2620    133.1487   1.2475027912e+02   4.6371744271e+01    0.2446336    0.1584451  48.63  0.001566272    1.671    0.401
        48 -11.0053     11.6888    129.5205   1.2198877132e+02   4.6579708299e+01     0.283215    0.1858917  69.98  0.001718319    1.536    0.349
        49 -10.7236    248.4182    129.1951   6.4455225107e+01   4.8202055908e+00    0.2000258    0.1163896 -42.00 0.0004599401    1.639    0.390
        50 -11.0721      8.0343    121.2919   1.2207896723e+02   4.8751836544e+01    0.2590505    0.1665401  69.55 0.0007355308    1.620    0.383
        51  -8.8947     68.2478    122.6981   1.0513054400e+02   4.2471926020e+01    0.1360691    0.1027522  85.51 0.0001678738    1.495    0.331
        52 -11.7030     23.7059    120.9196   1.1770309844e+02   4.7701749399e+01    0.4482498    0.2464851  78.87  0.001158023    2.166    0.538
        53  -9.9551     17.7224    121.9879   1.1950911046e+02   4.7913467257e+01    0.1737849    0.1315704 -73.51 0.0003969032    1.052    0.049
        54  -9.6797     41.9831    117.0435   1.1183741345e+02   4.6968667066e+01    0.1605992      0.13338 -69.10 0.0003449025    1.019    0.019
        55 -10.8540     65.5961    110.7077   1.0348971344e+02   4.5736816827e+01    0.2997163    0.2307958 -89.08 0.0007899482    1.482    0.325
        56  -9.2176    102.7327    109.2835   9.1955753637e+01   4.0167182095e+01    0.1449343    0.1185372  88.89 0.0001955157    1.493    0.330
        57  -9.5363     35.4404    109.1961   1.1248620270e+02   4.9494468102e+01     0.185244    0.1114306 -77.79 0.0004408672    1.616    0.381
        58 -11.8447      3.6517    108.7329   1.2188721388e+02   5.1942263662e+01    0.3687392    0.2396328 -11.47  0.001749664    2.177    0.541
        59 -11.4785     58.0079    107.3044   1.0512674602e+02   4.7527888866e+01    0.3578958    0.2398476 -27.17  0.001032262    1.893    0.472
        60  -9.7477     50.6746    108.3008   1.0761637770e+02   4.8150408613e+01    0.1350313   0.09918308  75.46 0.0003509877    1.636    0.389
        61  -9.7777     88.8450    105.1688   9.5062240798e+01   4.3571226682e+01    0.2142553    0.1731735 -28.21  0.001088317    1.347    0.258
        62 -10.0728    186.9383    103.0652   6.9120434920e+01   2.2809180498e+01    0.2304866    0.2284901 -49.94 0.0005456118    1.031    0.030
        63  -9.4115    246.6321    101.6899   5.8374464947e+01   9.6308372005e+00    0.1427531     0.105972  10.17 0.0004311213    1.762    0.432
        64 -10.9415     18.9858     86.3437   1.1378391568e+02   5.6203461396e+01    0.2972305    0.1647951 -63.23 0.0004219738    1.418    0.295
        65 -12.4953     20.7608     92.8455   1.1434241567e+02   5.4570166766e+01    0.5047971    0.2679708 -57.93 0.0005382809    1.467    0.318
        66 -10.6658     24.0785     88.2915   1.1241206694e+02   5.5387560200e+01    0.3039898    0.1701267 -67.66 0.0003709458    1.519    0.341
        67  -9.6793     36.6474     96.6653   1.0982406427e+02   5.2369969876e+01    0.1411889   0.08371484 -37.77 0.0007045427    1.788    0.441
        68 -11.7431     10.3182     91.4823   1.1753209043e+02   5.5564134942e+01    0.4352089     0.238179 -62.96 0.0001744696    1.383    0.277
        69 -10.0543     11.3084     85.3032   1.1620954039e+02   5.6928812158e+01    0.2219188    0.1335176 -59.12 0.0005663479    1.272    0.214
        70 -10.4105      3.3167     94.7575   1.2023539179e+02   5.5192796170e+01    0.2846007    0.1582882  65.01  0.001530809    2.289    0.563
        71 -11.4175    125.1727     93.2894   8.1153876423e+01   3.9239859150e+01    0.2639936     0.250312 -40.85 0.0002273386    1.042    0.040
        72  -9.6178     78.9188     94.0266   9.5314122166e+01   4.7768200646e+01    0.2201113    0.1636712 -21.51 0.0003759551    1.584    0.369
        73 -10.1519     29.2909     92.5608   1.1146635524e+02   5.3980934996e+01    0.2290741    0.1688921 -59.40 0.0006373209    1.102    0.093
        74 -11.0301     57.7809     91.7514   1.0171161776e+02   5.1246806166e+01    0.2689917    0.2205975 -26.16 0.0006871306    1.290    0.225
        75 -10.1676     44.0093     90.7860   1.0614394909e+02   5.3033283494e+01    0.3800659     0.214077 -77.64  0.001715327    2.249    0.555
        76  -9.7788     76.3060     89.1250   9.4854776152e+01   4.9294155177e+01    0.2065931    0.1666174 -49.25 0.0009849473    1.136    0.120
        77  -9.9434     64.9464     88.5102   9.8485273045e+01   5.1070481193e+01    0.2284269    0.1674066 -52.06 0.0006022692    1.217    0.179
        78 -11.0800     55.4483     85.7510   1.0102747906e+02   5.2921283048e+01    0.2522546    0.2332941  52.07 0.0002238256    1.264    0.209
        79  -9.3621    113.7132     85.7222   8.2160897284e+01   4.3277149660e+01    0.1503652    0.1195662  -1.76 0.0004287762    1.516    0.340
        80  -9.6935    124.5910     82.7653   7.8158791096e+01   4.1561134842e+01    0.2776827    0.1496481 -37.49  0.000283554    1.869    0.465
        81  -9.7513    124.4737     79.1037   7.7052261782e+01   4.2324458737e+01    0.2321574    0.1505295 -41.02 0.0007503242    1.523    0.343
        82 -11.1029      3.1643     82.5170   1.1851235863e+02   5.7998218832e+01     0.301152    0.2259026 -64.08  0.001595869    1.014    0.014
        83 -11.3746      4.8563     77.3019   1.1708354353e+02   5.9093918168e+01    0.3979254    0.1435828 -48.29  0.001314087    2.180    0.541
        84  -9.9001     42.0273     81.9657   1.0480809162e+02   5.5276553231e+01    0.1892141    0.1592346 -51.64  0.001163873    1.018    0.018
        85  -9.7022    250.2656     80.9952   5.3006773548e+01   1.2146831481e+01    0.1810114    0.1077203 -35.56 0.0004672458    1.482    0.325
        86  -9.2705     86.0220     79.0000   8.8723838468e+01   4.9966760843e+01    0.3190019   0.08379903  38.82 0.0006940892    4.052    0.753
        87 -10.4037     64.5704     80.1601   9.6366397157e+01   5.3014211108e+01    0.2955135    0.2476346 -47.03  0.001281352    1.075    0.070
        88 -11.2260     10.2345     79.3611   1.1555362444e+02   5.8345219091e+01     0.335352    0.1861326 -67.25  0.001359889    1.437    0.304
        89  -9.6112     48.0609     78.9867   1.0191130452e+02   5.5316838271e+01    0.2116088     0.139192 -28.41 0.0005384506    1.648    0.393
        90 -10.3689     28.0937     77.0794   1.0869786054e+02   5.7649693069e+01    0.1857603    0.1529302 -50.97 0.0003628698    1.021    0.020
        91 -10.2004    161.1750     76.5447   6.7102711284e+01   3.4088265433e+01    0.2463925    0.2076972 -49.10 0.0004980532    1.219    0.179
        92 -10.7318     54.8686     75.6830   9.8569878208e+01   5.5264987265e+01    0.3808084    0.2633799 -38.33  0.001170538    1.317    0.241
        93  -9.6904    176.7805     76.6064   6.3814705601e+01   3.0174225242e+01    0.2209778     0.150775  67.93 0.0009245804    1.650    0.394
        94  -9.9828     42.0206     75.5896   1.0323691310e+02   5.6721438285e+01    0.2180564    0.1500398 -54.22 0.0005637685    1.236    0.191
        95 -10.2129     37.2028     75.3891   1.0496007433e+02   5.7237581585e+01    0.2499637    0.2183138  65.70 0.0008549389    1.442    0.307
        96 -10.8252     34.0513     72.9780   1.0553540916e+02   5.8066782445e+01     0.631284    0.3130004 -12.87  0.002543819    3.599    0.722
        97 -10.6479     19.9881     73.5549   1.1090371775e+02   5.9048282892e+01    0.4031122     0.170943 -47.29  0.001586398    1.898    0.473
        98 -10.6867     14.8618     75.1853   1.1311850412e+02   5.9016163187e+01    0.2330951    0.2087906  82.40  0.001170707    1.318    0.241
        99  -9.4315     70.4516     75.4515   9.2946480181e+01   5.3215249943e+01    0.1413794    0.1260181 -33.90 6.576502e-05    1.001    0.001
       100  -9.6586     89.5960     80.8224   8.8108066206e+01   4.8954487238e+01    0.2690297    0.1427604 -52.07 0.0005215056    1.921    0.479
       101  -8.9870     81.2960     73.3406   8.8554547918e+01   5.1967299092e+01    0.1499249    0.1063303 -16.89 0.0007031725    1.659    0.397
       102  -9.5149    216.8483     72.2014   5.5542246871e+01   2.1032757083e+01    0.1867766     0.170053   7.40 0.0004222742    1.264    0.209
       103 -10.6129    106.1117     72.0498   8.0125634203e+01   4.7641526697e+01    0.2558938    0.2170586  44.18 0.0004357801    1.232    0.188
       104 -10.2471     91.7587     71.3397   8.4425005067e+01   5.0557367315e+01    0.3658964    0.1954723 -56.38  0.001229972    2.411    0.585
       105 -10.0552    100.0032     70.5734   8.1531141248e+01   4.9152466919e+01    0.2116183    0.1856101 -32.76  0.000333256    1.091    0.083
       106 -11.0881     46.6767     69.0704   9.9748054346e+01   5.7669082590e+01    0.2767852    0.2353651   2.20 0.0005468772    1.276    0.216
       107 -11.9044     10.7449     68.3874   1.1327607625e+02   6.0775536466e+01    0.5251258    0.2328064 -44.57   0.00273692    1.865    0.464
       108 -13.6431     20.2638     58.1235   1.0716195471e+02   6.2411196269e+01    0.5369316    0.2595136 -50.55   0.00106054    1.569    0.363
       109 -12.4904      4.2758     66.2625   1.1529831596e+02   6.1577475695e+01    0.6886353    0.4246083 -63.36  0.001208789    1.255    0.203
       110 -11.4633     11.0981     60.0530   1.1133689288e+02   6.2577319865e+01    0.3626445    0.2529508  44.61  0.001859767    1.929    0.482
       111  -9.5677     63.5637     66.4826   9.2661645490e+01   5.6115340060e+01    0.2008193    0.1701394  -3.49 4.430664e-05    1.209    0.173
       112 -10.4092     62.5745     62.7243   9.1823033174e+01   5.7032433669e+01    0.3674336    0.1595587 -42.99  0.001548181    2.050    0.512
       113  -9.3397    133.6618     65.6493   7.0256514481e+01   4.2762493568e+01    0.1650273    0.1190837  13.15 0.0007045162    1.793    0.442
       114 -10.0504     34.7472     64.5923   1.0309324411e+02   5.9846981307e+01    0.2544093    0.1498958 -52.96  0.001374882    1.402    0.287
       115  -9.8969     96.9463     64.0949   8.0324145066e+01   5.1015204377e+01    0.2146593    0.1961679  -0.61 0.0002969453    1.047    0.045
       116 -10.5366    101.2458     60.9365   7.7871130895e+01   5.0762138119e+01     0.330201     0.222326 -58.37  0.001470437    1.990    0.498
       117  -9.9077     39.3695     61.3442   1.0035304682e+02   6.0098093045e+01    0.2291832    0.2166755  78.33  0.001521568    1.369    0.270
       118  -9.3890     55.8443     60.8119   9.3750107536e+01   5.8325857044e+01    0.1610891    0.1526954 -59.62            0    1.262    0.208
       119 -10.7266     49.2540     59.5889   9.5915944406e+01   5.9388889828e+01    0.2839712    0.2375556 -73.75 0.0007681667    1.547    0.354
       120 -10.2048    194.0302     58.9126   5.5571380421e+01   2.8741684534e+01    0.3078301     0.206081  68.36  0.001064806    1.553    0.356
       121 -10.7791     83.8162     56.6506   8.2078347018e+01   5.4863932450e+01    0.2948993    0.2675992 -75.06  0.001213352    1.452    0.311
       122 -11.2843     87.8223     52.9491   7.9369518103e+01   5.4817432440e+01    0.4838279    0.3303925  19.20  0.002353717    1.665    0.399
       123 -10.1843     79.2014     67.7932   8.7494013357e+01   5.3465497089e+01    0.3631145    0.1998259  38.73  0.001636159    1.937    0.484
       124 -10.4794      8.6550     56.4082   1.1148394060e+02   6.3493463672e+01    0.2364721    0.1108024  19.06   0.00127676    2.561    0.609
       125  -9.9562     71.6852     56.2426   8.6245968293e+01   5.6972213198e+01     0.228391    0.1466063 -42.81 0.0006010017    1.458    0.314
       126 -10.1726     32.3929     56.4510   1.0172943377e+02   6.1792587722e+01    0.3645628    0.2255066 -22.64  0.001999001    1.726    0.421
       127 -11.6967    114.4209     54.0021   7.1479851772e+01   4.9205701887e+01    0.3426008     0.285367  30.02 0.0005892997    1.179    0.152
       128 -12.3438     65.1075     52.4629   8.7352676394e+01   5.8701310107e+01    0.4711154    0.2435553  39.69  0.001574315    2.136    0.532
       129  -9.9321    149.5390     52.0234   6.1968772741e+01   4.1155410727e+01    0.2870971    0.2066221  73.49 0.0006081496    1.603    0.376
       130 -10.0410    122.1166     51.5491   6.8480074413e+01   4.7873368571e+01    0.2467144    0.2050696  54.58   0.00102753    1.243    0.196
       131  -9.3743    106.0060     52.7905   7.3508132678e+01   5.1232868017e+01    0.1950938    0.1152787  46.25 0.0007445148    1.691    0.409
       132  -9.5064     19.9607     44.6791   1.0349680360e+02   6.5219162485e+01    0.2525061    0.1500869  -4.99  0.001346681    1.953    0.488
       133 -11.3246      6.0273     34.6748   1.0684819269e+02   6.8081451561e+01    0.5189559    0.2855119   5.49  0.003139054    2.091    0.522
       134 -11.0781      5.0576     50.9442   1.1168971387e+02   6.4832091201e+01    0.4033091    0.1978696 -14.23  0.002157225    2.504    0.601
       135  -9.8326     12.5109     36.9865   1.0449860346e+02   6.7250923844e+01     0.223499    0.1447427 -51.35 0.0008010285    1.266    0.210
       136 -10.2090     12.8156     40.5994   1.0547626855e+02   6.6519764046e+01    0.2623286    0.1645553  48.99  0.001047201    2.600    0.615
       137 -11.3211     14.5058     46.8167   1.0653729314e+02   6.5159061627e+01    0.6474658    0.1658576 -46.78  0.002754115    2.653    0.623
       138 -10.6904      8.5018     45.0012   1.0868240272e+02   6.5885067193e+01    0.3862992    0.2547711 -75.61  0.002339426    1.807    0.447
       139  -9.8260     76.3697     48.8777   8.1853180884e+01   5.7577529676e+01    0.2667917    0.1765382 -32.14  0.001361711    1.412    0.292
       140 -10.9557     77.4973     45.4132   8.0127193477e+01   5.7994984231e+01    0.4035276     0.226858  46.81 0.0004673912    2.036    0.509
       141  -9.8855    154.8378     47.5274   5.9371082884e+01   4.0496569071e+01    0.2094642    0.2015204 -24.30 0.0003427618    1.078    0.072
       142 -11.4790     56.8206     46.4793   8.8397043142e+01   6.1008314932e+01    0.3716591    0.3077347 -27.67 0.0008845188    1.057    0.054
       143  -9.8204     38.8103     48.3959   9.6509731297e+01   6.2809376242e+01    0.1619024    0.1359054 -15.34 0.0002967598    1.124    0.110
       144  -9.8346     67.0416     46.8038   8.4528367819e+01   5.9459881457e+01    0.3720492     0.150183  33.82  0.001510203    2.685    0.628
       145 -10.2631     31.1005     45.8965   9.8981878126e+01   6.4058372876e+01    0.2586253    0.1897331 -74.19 0.0009075211    1.964    0.491
       146 -10.2509     26.7292     44.1198   1.0031592031e+02   6.4795668195e+01    0.5451038    0.2180767 -38.35  0.002545289    2.187    0.543
       147  -9.3804    135.5499     46.4399   6.3287653057e+01   4.5479734566e+01    0.1475084    0.1414792  36.81 0.0001042854    1.022    0.021
       148  -9.5810     46.4052     44.2129   9.1832231747e+01   6.2767938137e+01     0.164493     0.113077 -52.29 0.0003721672    1.557    0.358
       149 -10.9465     69.4361     42.1668   8.1830301625e+01   5.9900924854e+01    0.2371326    0.2184698  27.45 0.0006374988    1.252    0.201
       150 -10.3411      3.3454     42.3092   1.1026367391e+02   6.6695778206e+01    0.2363427    0.1307644 -27.32  0.001421738    1.732    0.423
       151 -10.2810      5.7452     39.0276   1.0826684384e+02   6.7237392063e+01    0.2447006    0.1323767 -58.80   0.00144422    1.529    0.346
       152 -11.0393    140.2509     40.7276   6.0228377594e+01   4.5154024958e+01    0.3049903    0.2466925  67.04  0.000731497    1.283    0.220
       153 -10.1202     42.7586     40.6291   9.2056831276e+01   6.3864849708e+01    0.2177939    0.1530212 -39.44 0.0006818355    1.232    0.188
       154 -10.2288     35.3530     41.4607   9.5592043009e+01   6.4509381707e+01    0.3108212    0.2103691  -0.77  0.001734958    1.591    0.371
       155  -9.8874     39.2064     35.3896   9.1610688213e+01   6.5222960454e+01    0.3713807    0.1943104  11.69  0.001795514    2.448    0.591
       156 -11.0398     38.4848     30.9824   9.0174833623e+01   6.6081845630e+01    0.3351631    0.2143281 -15.76  0.001160037    1.544    0.352
       157 -10.7259    128.1565     38.7760   6.2360248276e+01   4.8387593739e+01    0.2413946    0.2139749  41.85 0.0003315185    1.062    0.058
       158  -9.7261    229.6924    248.0158   9.0858467651e+01  -9.0181673215e+00    0.1558743    0.1221979   8.50  0.000630169    1.110    0.099
       159  -9.0431    152.6611     38.7208   5.6928827205e+01   4.2302705886e+01    0.1546141    0.1067787  32.74 0.0003250994    1.620    0.383
       160  -9.7460     22.2308     38.2143   1.0037698515e+02   6.6317600974e+01    0.1420709    0.1348231 -36.43 0.0005559777    1.312    0.238
       161 -11.0976     26.9851     34.5528   9.6871643404e+01   6.6607155512e+01    0.4146433    0.2290847 -26.51  0.001434905    1.726    0.420
       162  -9.2116     25.5527     29.5292   9.5643419778e+01   6.7653012051e+01    0.2148841    0.1440337 -23.26  7.99856e-05    1.283    0.221
       163 -10.0357     16.6352     32.7410   1.0112354223e+02   6.7785992093e+01    0.2204492    0.1383892 -18.82 0.0007077975    1.531    0.347
       164 -10.1503     21.0178     31.0201   9.8392974518e+01   6.7770406891e+01    0.2969283    0.1770366 -16.89 0.0009894052    1.692    0.409
       165  -9.3944    185.1694     35.3826   5.0231428330e+01   3.4363979341e+01    0.1995505    0.1322306  81.57 0.0001139118    1.618    0.382
       166  -9.4835    134.0190     34.1439   5.9322798165e+01   4.7593481868e+01    0.2190714    0.1513129  29.88 0.0004528651    1.571    0.363
       167  -9.5371     90.8095     35.6111   7.1680914066e+01   5.7100845253e+01    0.1857262    0.1310883  54.08 0.0004561891    1.630    0.387
       168  -9.7989     72.8824     32.8066   7.6729516967e+01   6.0853600177e+01    0.2175616    0.1604747   1.70  0.001096981    1.354    0.262
       169  -9.2406    144.5285     32.4959   5.6481551655e+01   4.5188256307e+01    0.1446196    0.1369969  85.79  0.000118628    1.115    0.103
       170 -11.0444     96.9763     34.6899   6.9361429041e+01   5.5984731817e+01    0.3045086    0.1888204 -32.92  0.001485383    1.622    0.383
       171  -9.9925    128.9555     30.9277   5.9323785073e+01   4.9247778571e+01    0.2440049    0.2092994 -44.05 0.0008960182    1.294    0.227
       172 -10.5580     77.3451     30.9687   7.4336221971e+01   6.0343240704e+01    0.2411617    0.1800788  33.37  0.001359922    1.295    0.228
       173  -9.9150     43.9741     30.5380   8.7526639459e+01   6.5508665249e+01    0.2346217    0.1471893 -25.57 0.0006801794    1.425    0.298
       174 -11.0400     45.0088     26.8271   8.5485116008e+01   6.5992812965e+01    0.4230793    0.2774309  20.70  0.002485038    1.538    0.350
       175 -10.6473      7.8201     28.6845   1.0404087957e+02   6.9128787810e+01    0.3049893    0.2001545  43.40  0.001878318    2.376    0.579
       176 -10.1841    147.1230     26.8005   5.4021691461e+01   4.5234764182e+01    0.3204395     0.183823 -39.35  0.001445094    1.859    0.462
       177 -10.1108     69.2553     27.0828   7.5626630326e+01   6.2332300896e+01     0.351182    0.1982298 -41.05  0.001743098    1.933    0.483
       178 -10.0966    164.2092     27.0519   5.1034776565e+01   4.0820971417e+01     0.213793    0.1848692  35.31   0.00034268    1.220    0.181
       179 -11.1180    113.7641     25.6782   6.1048687662e+01   5.3500794666e+01    0.3411792    0.2729169 -24.92  0.001820654    1.305    0.234
       180  -9.8503    100.8239     26.6945   6.4981415642e+01   5.6262382300e+01    0.2332202    0.1564193  33.77  0.001179307    1.420    0.296
       181  -9.9507     77.1491     25.9883   7.2268076122e+01   6.1093267636e+01    0.3799164    0.1513465 -22.90  0.001410643    3.183    0.686
       182  -9.0325     58.2838    248.3088   1.2222265757e+02   1.6522610432e+01   0.08788101   0.08638224  82.95 0.0003291723    1.567    0.362
       183  -9.1016     18.6408     25.3004   9.7378148018e+01   6.8997369345e+01    0.3299041   0.09393247 -40.82  0.001422052    2.723    0.633
       184 -11.1055     14.0107     21.2129   9.8115833323e+01   7.0076302880e+01      0.31115    0.2211949  30.05  0.002095193    1.808    0.447
       185 -10.1239     58.9853     23.6727   7.8127278214e+01   6.4499818502e+01    0.2211419    0.1527041 -14.71  0.001040856    1.337    0.252
       186  -9.6777     58.2557     19.4362   7.6480586100e+01   6.5217664051e+01    0.1640014    0.1567052 -67.88  0.001077324    1.645    0.392
       187 -11.2153     85.9180     19.4881   6.6471153909e+01   6.0260277985e+01     0.364567    0.2234577  15.19  0.000412628    1.868    0.465
       188 -10.8753      2.0663     22.0481   1.0468374842e+02   7.0680047173e+01    0.2304741    0.1386212 -57.69 0.0007121309    1.569    0.363
       189  -9.2330     91.4631     22.4795   6.6021494315e+01   5.8768246475e+01    0.1364814      0.11945  16.13 0.0008091317    1.014    0.013
       190 -10.7685     75.2441     21.1920   7.0823828115e+01   6.2089229134e+01    0.2879375    0.2087693   3.06 0.0007998192    1.340    0.254
       191  -9.4433     35.0232     22.0505   8.7975858431e+01   6.7967986361e+01    0.1465649    0.1121437 -20.66 0.0003720668    1.041    0.039
       192 -10.6070     30.3139     21.0257   8.9792288126e+01   6.8647597900e+01     0.239914    0.1826213   3.67  0.001026589    1.237    0.191
       193  -9.3939    164.9641     21.0207   4.9011675404e+01   4.1321779378e+01    0.1662575    0.1618895  83.16 0.0006469892    1.064    0.060
       194 -10.7919     41.4333     20.3134   8.4188940932e+01   6.7474255285e+01    0.3726796    0.2023732  12.05  0.001876065    2.237    0.553
       195 -10.7503    140.6382     18.1162   5.2271017192e+01   4.7852735141e+01    0.2599798    0.1800173  53.65 0.0003982703    1.293    0.226
       196  -9.8879    225.1401    246.8257   9.1473743054e+01  -8.2295403875e+00     0.167305    0.1106731  12.10  0.001068403    1.351    0.260
       197 -11.3240      3.0696    249.1275   1.3126852677e+02   2.2515068241e+01    0.4069697    0.1914139  52.89  0.002869962    1.527    0.345
       198 -10.2116     20.4402     17.0188   9.2995762435e+01   7.0263309462e+01    0.1830834    0.1228726 -21.04  0.000633366    1.212    0.175
       199  -9.5928     60.7734    241.1572   1.2127552223e+02   1.7466272508e+01    0.2056862   0.06361335  40.14 0.0009597425    2.636    0.621
       200  -9.4687    108.5248     16.0660   5.8566667787e+01   5.5803663720e+01    0.1822252    0.1322959 -17.80 0.0002967901    1.440    0.305
       201  -9.9137     82.9887     16.0005   6.5868696162e+01   6.1257177856e+01    0.1620431    0.1371694   6.77 0.0003837689    1.055    0.052
       202  -9.5496     30.7883     16.2081   8.7364072988e+01   6.9362501938e+01    0.1659544    0.1128012 -10.22  0.001037161    1.300    0.231
       203 -10.0405    154.3406     15.1098   4.8825922305e+01   4.4686664645e+01    0.2383014    0.1711312  55.30 0.0005054855    1.258    0.205
       204  -9.5229    202.3996    240.2342   9.4563063649e+01  -4.0021597433e+00    0.1365775    0.1164185 -38.47 0.0007494921    1.537    0.349
       205  -9.3265    117.6861    239.3134   1.1054968268e+02   9.6820017532e+00    0.1253428   0.07939743  63.33  0.000389449    1.638    0.389
       206 -11.1811     14.0726    238.7878   1.2910639110e+02   2.3243831317e+01    0.1794101    0.1130029  81.83 0.0005516417    1.234    0.190
       207  -9.6945     91.0234    237.0336   1.1537812600e+02   1.4078742456e+01    0.1575717    0.1440982 -19.49 0.0007666515    1.663    0.399
       208  -9.5992    191.4844     13.5492   4.3170594661e+01   3.5321458229e+01    0.1365549    0.1227979  77.91 8.011109e-05    1.054    0.052
       209  -9.8585     71.8847     13.0163   6.8262077789e+01   6.3718075195e+01    0.2584729    0.1381237  24.39  0.001228778    2.042    0.510
       210 -11.8652     26.0952    235.8727   1.2696497489e+02   2.2516717330e+01    0.2676714    0.2172433  50.78  0.001185705    1.383    0.277
       211  -9.1955    204.5130    235.4542   9.3431866143e+01  -3.7041268497e+00    0.1236938   0.09860546  24.90 0.0003632134    1.041    0.039
       212  -9.9598    249.3376    234.0548   8.5196066971e+01  -1.0191523943e+01    0.1885815     0.123874  18.25 0.0004158902    1.214    0.176
       213 -12.0528      4.1076    232.6521   1.3045752880e+02   2.5329278436e+01    0.2522399    0.1427334  62.95  0.001824614    1.276    0.216
       214 -12.3831      9.6047    227.8509   1.2933918272e+02   2.5687272826e+01    0.3820585    0.2589141  85.62  0.001673362    1.185    0.156
       215  -9.3029      3.7092     10.7371   9.9367926098e+01   7.2574624104e+01    0.1121619   0.06123896 -26.52 0.0002336343    1.498    0.332
       216 -10.1696    114.9686     17.3458   5.7486882568e+01   5.4180144876e+01    0.2015051    0.1523169  50.94 0.0003360373    1.207    0.172
       217  -9.5431    209.5194    229.5278   9.1554413815e+01  -3.7031987800e+00    0.1258869    0.1000242  20.32 4.621672e-05    1.003    0.003
       218 -10.1109    140.7030    228.4888   1.0473348645e+02   7.8182903516e+00    0.2585908    0.1172006 -52.22  0.001224515    2.649    0.622
       219 -10.0276    223.2021    226.8050   8.8586418333e+01  -5.4841196248e+00     0.175041    0.1195097  11.74 0.0004338867    1.350    0.259
       220 -11.0992      1.7314    225.7836   1.3055846795e+02   2.6816356235e+01    0.2457278    0.1034387  86.65  0.001096928    1.976    0.494
       221 -10.8695      2.3283    219.8135   1.3019999795e+02   2.7884921257e+01    0.2292133    0.1068807  68.24  0.001440222    1.669    0.401
       222 -10.5399      9.3115    218.1801   1.2892524884e+02   2.7546910129e+01    0.1821638    0.1637907 -44.20  0.001458399    1.834    0.455
       223 -10.6331      4.3566    212.1198   1.2949421904e+02   2.9182990792e+01    0.2956886    0.0797385  58.07  0.001375595    3.097    0.677
       224  -9.9857     20.1941    209.8552   1.2652131722e+02   2.8115297853e+01    0.1789196    0.1094318  67.66 0.0007016957    1.286    0.222
       225  -9.3237    209.6384    211.2746   8.8432590883e+01  -1.1578433370e+00    0.1202743   0.09965947  57.69 0.0007005014    1.660    0.398
       226  -9.7587     10.1544    203.3967   1.2799867112e+02   3.0384592683e+01    0.1513355   0.07635231  51.33 0.0004061352    1.666    0.400
       227  -9.0562    193.5035    201.5729   8.9845851407e+01   3.1317351858e+00     0.136311    0.1165413  22.11 8.931592e-05    1.012    0.012
       228  -9.8521     23.4877    196.9856   1.2506468378e+02   3.0414992453e+01     0.172293    0.1679843  15.70  0.001252892    1.551    0.355
       229 -10.8254     13.8918    192.7168   1.2665641479e+02   3.2235697615e+01    0.2056741    0.1347985  72.37 0.0005425649    1.207    0.171
       230 -10.0470      6.3538    191.5924   1.2804515042e+02   3.3147399150e+01    0.1901336     0.121376  70.08  0.001015717    1.238    0.192
       231  -9.1809     20.6345    189.1944   1.2508651296e+02   3.2341208729e+01    0.1533468   0.08713705 -70.87 0.0003554939    1.581    0.367
       232  -9.5321     22.5079    179.9695   1.2401717508e+02   3.4153399209e+01    0.1706997   0.09575006 -77.96 0.0004429771    1.489    0.328
       233 -10.2566      5.3875    167.4909   1.2672183850e+02   3.8393585787e+01    0.2409103    0.1405744  78.07  0.001486829    1.438    0.305
       234  -9.5540    226.5119    164.0260   7.5966357116e+01   3.2521010886e+00    0.2070447    0.1289968 -31.77 0.0006702839    1.532    0.347
       235  -9.7275     14.6445    163.6790   1.2442576597e+02   3.8483790204e+01     0.115524   0.07856403 -50.77 0.0007046052    1.758    0.431
       236  -9.4312     41.0297    157.9739   1.1774936528e+02   3.7260246776e+01    0.1565429    0.1224317 -83.19 0.0003702408    1.074    0.069
       237  -9.1669    247.4703    155.4926   7.0422906751e+01   8.0878396426e-01    0.1373275    0.1165254 -10.12 0.0001637462    1.012    0.012
       238 -10.2628      2.9900    153.4993   1.2624204283e+02   4.1688665776e+01     0.236093    0.0907179  35.09  0.001230355    2.680    0.627
       239  -9.9025     23.0000    150.9599   1.2135083967e+02   4.0667637788e+01    0.2044244   0.05810035 -72.74  0.000796114    2.899    0.655
       240  -9.4077    237.9978    149.7414   7.0795049004e+01   3.4477117952e+00     0.164822    0.1181149  39.97 0.0003701573    1.467    0.319
       241  -9.6211     24.6148    139.1357   1.1969377325e+02   4.3297594199e+01    0.1835585   0.08936904 -62.18 0.0009348492    1.713    0.416
       242  -8.9109     51.2118    136.0056   1.1223608810e+02   4.1369379009e+01    0.1680999   0.09546044 -66.91            0    1.536    0.349
       243 -10.2669    212.6260    133.9204   7.1801631941e+01   1.1231706771e+01    0.2639108    0.2191001  56.83 0.0006241153    1.371    0.271
