#   1 NUMBER                 Running object number                                     
#   2 MAG_AUTO               Kron-like elliptical aperture magnitude                    [mag]
#   3 X_IMAGE                Object position along x                                    [pixel]
#   4 Y_IMAGE                Object position along y                                    [pixel]
#   5 X_WORLD                Barycenter position along world x axis                     [deg]
#   6 Y_WORLD                Barycenter position along world y axis                     [deg]
#   7 A_WORLD                Profile RMS along major axis (world units)                 [deg]
#   8 B_WORLD                Profile RMS along minor axis (world units)                 [deg]
#   9 THETA_WORLD            Position angle (CCW/world-x)                               [deg]
#  10 FWHM_WORLD             FWHM assuming a gaussian core                              [deg]
#  11 ELONGATION             A_IMAGE/B_IMAGE                                           
#  12 ELLIPTICITY            1 - B_IMAGE/A_IMAGE                                       
         1 -14.8310      6.0397    135.6578   1.1424947871e+02   4.5927013250e+01     3.460312     1.528005 -78.32   0.01188005    2.017    0.504
         2 -12.9209      6.4020     54.1492   9.9524065897e+01   6.5079221888e+01       1.0953     0.622612 -52.85   0.00452531    1.456    0.313
         3 -13.4405     14.6140     42.1281   9.1743575683e+01   6.6861059815e+01     1.019634    0.9052443  32.01   0.00498916    1.517    0.341
         4 -12.9490    233.8841     31.1635   3.3016522018e+01   2.4546227724e+01    0.8626384    0.6461607  85.39   0.00576777    1.259    0.206
         5 -13.2751    219.6584     39.2757   3.6040651445e+01   2.6440521382e+01     1.559298      0.91614 -76.88  0.008304916    1.802    0.445
         6 -11.8213     29.5868     30.7219   7.9818452447e+01   6.7345580210e+01    0.7070785     0.425292 -44.26  0.004026938    1.787    0.440
         7 -13.0305     54.7016     28.5451   6.7577797266e+01   6.4101980180e+01     1.565043    0.9240438  30.91  0.008510911    1.548    0.354
         8 -12.3047    150.6474     12.9089   3.7735005869e+01   4.5172869650e+01    0.7266501    0.5388814 -47.80  0.003924157    1.447    0.309
         9 -12.5660    130.7462      7.9534   3.9251297623e+01   5.0304521607e+01    0.6553279    0.3711359  83.19   0.00327511    1.939    0.484
        10 -10.6328     98.4001      5.9147   4.4681732286e+01   5.7864310435e+01    0.4028272    0.2141535  75.80  0.001896847    2.351    0.575
        11  -9.8527      2.1136      2.1025   8.1705731854e+01   7.4344844881e+01    0.1770437    0.1120166 -10.48 0.0009638753    1.250    0.200
        12 -10.8002     47.5809    235.3149   1.1354350592e+02   1.7988464382e+01    0.4173849    0.2566775  77.34  0.001732799    1.629    0.386
        13 -11.2871     30.8026    230.3001   1.1665035282e+02   2.0983664371e+01     0.544827    0.2789477  57.90  0.002506932    1.746    0.427
        14 -11.8992     77.9194    236.4191   1.0715132661e+02   1.3849771313e+01    0.6123266    0.4212381  83.41  0.003229165    1.626    0.385
        15 -10.7668     64.5244    224.1637   1.0883923025e+02   1.8263048038e+01    0.4348079    0.2790318  56.24  0.001918897    1.451    0.311
        16 -12.2446     60.4499    217.6191   1.0908540020e+02   2.0249043135e+01    0.7520753    0.5004857  55.13   0.00290136    1.386    0.279
        17 -11.2542     57.2012    212.0807   1.0925517919e+02   2.1925434121e+01    0.4371573    0.2734135  51.59   0.00178812    1.481    0.325
        18 -11.4129     41.8279    213.8243   1.1293971177e+02   2.3390429550e+01    0.7245278    0.3141704  61.95  0.003055628    2.660    0.624
        19 -14.2520     11.9313    203.3444   1.1875538184e+02   2.8902453136e+01     1.564889     1.141614 -79.14  0.009973779    1.219    0.180
        20 -12.5948     28.5536    191.3146   1.1396178742e+02   3.0139990648e+01     1.538355     0.675756 -83.42  0.006671288    2.333    0.571
        21 -11.5116    131.8317    247.6926   9.6809881928e+01   3.8577276124e+00    0.2676247    0.2209564 -80.49  0.001292289    1.586    0.370
        22 -12.1557     48.1989    199.2121   1.1002324465e+02   2.6057392371e+01    0.7235957    0.4894195  41.36  0.002421255    1.432    0.302
        23 -11.2372     41.4738    180.0020   1.0957024539e+02   3.1542180939e+01    0.2700826    0.2462052 -44.95  0.000464428    1.266    0.210
        24 -13.0279     11.1115    122.5999   1.1106569123e+02   4.8876838944e+01      1.09878    0.6563559 -60.35  0.004626574    1.359    0.264
        25 -11.4496     49.5210    173.3792   1.0664138511e+02   3.2280771165e+01    0.2620054     0.255783 -25.15 0.0003725176    1.197    0.165
        26 -10.3833     62.7387    163.2946   1.0156310437e+02   3.3196096103e+01     0.245193    0.2257599 -55.32 0.0003053797    1.105    0.095
        27 -13.1948     47.6288    157.4721   1.0497047194e+02   3.6580366815e+01     1.205459    0.5176582 -65.52     0.004895    2.091    0.522
        28 -10.4775     77.1320    158.3537   9.6648827949e+01   3.2441019538e+01    0.3692658    0.3120876 -67.59  0.001131418    1.137    0.120
        29 -11.4975     71.4723    156.8407   9.8008539703e+01   3.3655635402e+01    0.5887706     0.448261 -32.37  0.001522096    1.519    0.342
        30  -8.5935    132.4303    158.5467   8.1487914331e+01   2.2832003672e+01    0.1532158    0.1507887 -76.17  0.000297473    1.060    0.056
        31 -11.0001    245.6329    156.3987   5.7519094944e+01   2.5673955763e+00     0.287864    0.1815539 -25.82  0.001535667    1.514    0.340
        32 -10.0556     33.0360    152.6728   1.0848244456e+02   3.9386649614e+01    0.3339842    0.1573488 -59.76  0.001486025    1.814    0.449
        33 -11.9655     67.9225    143.6053   9.6665466916e+01   3.7578772367e+01    0.7895342    0.4505353  60.14  0.002885318    2.423    0.587
        34 -10.8023     88.3199    143.7928   9.0583844278e+01   3.4421713821e+01    0.3026337    0.2707901 -43.79 0.0008735094    1.101    0.092
        35 -11.8428     94.0506    141.6863   8.8447032517e+01   3.3996466976e+01    0.8465949    0.4408416  41.61  0.002965858    1.980    0.495
        36 -11.4622     97.2965    137.1332   8.6489585496e+01   3.4578038224e+01    0.5625342    0.4277298  45.31  0.002667934    1.377    0.274
        37 -11.3403     76.0334    141.5551   9.3808484363e+01   3.6927444659e+01    0.3321028    0.2740713 -54.50  0.000352527    1.142    0.124
        38 -11.8444     33.6869    140.0800   1.0651890424e+02   4.2568771183e+01    0.5430102     0.404405 -30.37  0.002358607    1.545    0.353
        39 -11.8027    240.4925    139.3910   5.4859086562e+01   6.3390635487e+00    0.3925822    0.2654385  54.45  0.002142849    1.882    0.469
        40 -11.3847    248.7790    135.8982   5.2901263385e+01   5.5834377680e+00    0.3183264    0.2060797 -49.23  0.001686295    1.447    0.309
        41 -10.4794    104.8618    131.4001   8.2942881517e+01   3.4632470217e+01    0.4758129     0.330921  17.08  0.001975311    1.809    0.447
        42 -10.8541     69.5935    130.7884   9.3601872726e+01   4.0636830091e+01    0.3761919    0.2631461 -79.42  0.001713727    1.707    0.414
        43 -11.3949     90.2455    128.4855   8.6639179755e+01   3.7957793201e+01    0.4978719    0.3663734 -80.61 0.0007217159    1.744    0.427
        44 -12.3403     37.0944    117.0828   1.0155540820e+02   4.8117168032e+01     1.046394    0.5097507 -48.25  0.004624587    1.826    0.452
        45  -9.1061    102.5143    119.8691   8.0819501976e+01   3.7864218814e+01    0.2238743    0.1510057 -49.46 0.0003607935    1.439    0.305
        46 -10.5914     26.9874    112.4433   1.0416734084e+02   5.0222183600e+01    0.3731964    0.1745164 -64.57   0.00165303    1.847    0.459
        47  -9.3375     57.2953    110.6575   9.3249510392e+01   4.7394105774e+01    0.1446497    0.1133573  78.77 0.0007031484    1.662    0.398
        48 -10.1184     25.4109    105.3818   1.0341536116e+02   5.2106272586e+01    0.3254938    0.2225432 -61.75  0.001761971    1.264    0.209
        49 -10.0190     79.3422    106.3167   8.4664840667e+01   4.5190563500e+01    0.2521525    0.1765113 -19.96  0.001124865    1.746    0.427
        50  -9.4278     55.3270    106.3005   9.2919786767e+01   4.8717778375e+01    0.1516669    0.1030854 -26.62  0.000528335    1.639    0.390
        51 -10.8016     39.0688    104.0266   9.8216883013e+01   5.1163225161e+01    0.3347821    0.2476856 -16.65  0.001778879    1.500    0.333
        52 -13.3375    243.0003     96.2137   4.5501172820e+01   1.3270279251e+01      1.13909     0.674894 -55.67  0.005965336    1.629    0.386
        53  -9.4452     54.9361    206.1976   1.0916171607e+02   2.3577023385e+01    0.2167731    0.1593637  62.56  0.000862896    1.277    0.217
        54 -10.5369     53.0527     90.4506   8.9758248230e+01   5.2769172974e+01    0.4680351    0.1917071 -55.97  0.001808149    2.368    0.578
        55 -10.7589     36.7494     97.2271   9.7559535811e+01   5.3047842383e+01    0.4508085    0.2788463  -8.74  0.002133323    2.050    0.512
        56 -12.5912     36.1075     79.8238   9.3510619696e+01   5.7152153729e+01     1.136176    0.8162131 -46.71  0.005145653    1.213    0.176
        57 -10.7771     31.0373     67.8699   9.2280493891e+01   6.0267333187e+01    0.4932095     0.340075 -40.46  0.002798498    1.233    0.189
        58 -10.4025     12.3770     79.6894   1.0316907819e+02   5.9168895909e+01    0.3701937     0.245538 -36.73  0.001533216    1.319    0.242
        59 -11.0998     55.4287     77.5797   8.5191773914e+01   5.5311631859e+01    0.4601412    0.3258428  61.46  0.002186065    2.240    0.554
        60 -10.6169     50.8175     70.4056   8.4803109885e+01   5.7443206414e+01    0.3939409    0.2703593  -3.16  0.002011087    1.641    0.391
        61 -10.9426     30.3973     44.1320   8.4734053734e+01   6.4988430879e+01    0.7349706    0.7054663  38.15  0.005052832    1.484    0.326
        62  -9.4273     41.4973    248.4557   1.1579092673e+02   1.6010293334e+01    0.2305087    0.1238765  40.57 0.0008195798    1.589    0.370
        63 -12.0664     15.9944     51.3630   9.4110396666e+01   6.4977905272e+01    0.5346773    0.4578057 -58.15  0.002635214    1.392    0.281
        64  -9.3946     37.8094    248.4071   1.1651413584e+02   1.6446158612e+01    0.1698118    0.1346212  49.32  0.000880136    1.159    0.137
        65 -11.6121     58.2563     50.5600   7.4965805072e+01   6.0137129756e+01    0.8035852    0.4308988  41.05  0.003847005    1.965    0.491
        66 -11.8983     47.6578     46.2759   7.7744802651e+01   6.2447009427e+01    0.9991331    0.3691033  31.14  0.004089553    2.770    0.639
        67  -9.7328     59.5055    246.0127   1.1196400356e+02   1.4313087881e+01      0.21874    0.1157775 -79.86 0.0009963698    2.101    0.524
        68 -12.2526    213.9828     47.4166   3.8441714229e+01   2.6557310260e+01    0.6181166     0.409303  87.49  0.003292551    1.539    0.350
        69 -10.1123     59.4909    240.9579   1.1152833843e+02   1.5342017590e+01    0.2829745    0.2372806 -36.16   0.00180935    1.636    0.389
        70 -11.3806     82.4114     32.7352   5.9336511161e+01   5.8474833352e+01    0.6101862    0.3926669  44.22  0.003217848    1.401    0.286
        71  -9.9526     68.0268     45.5211   6.9280020826e+01   5.9350426370e+01    0.2427531    0.1936392 -47.62  0.001179891    1.546    0.353
        72 -14.5821    114.0823    231.0926   9.8488139904e+01   9.6966510234e+00     2.893554      1.03929  33.20   0.01121423    2.591    0.614
        73 -10.3115     33.4926     29.9960   7.7609630517e+01   6.6982044322e+01    0.3954768    0.1783884 -39.33  0.001593372    2.117    0.528
        74 -13.1328     85.2728    231.6158   1.0500841411e+02   1.3828586944e+01      1.30859    0.5720981  46.02  0.005844504    2.068    0.516
        75 -11.9666     85.0397     38.7234   6.0805893132e+01   5.7149214454e+01    0.6158059    0.5063434  -3.17  0.003628721    1.227    0.185
        76 -11.1004    125.4882     20.0028   4.4003720516e+01   5.0410141458e+01      0.35546    0.2034066  82.73  0.001636137    2.227    0.551
        77 -12.0204     83.2529    223.3975   1.0451342754e+02   1.5870802986e+01     1.038012    0.4200132  40.41  0.003312165    2.152    0.535
        78  -9.1981     69.4420    241.2169   1.0945361410e+02   1.4002212768e+01    0.1685784    0.1114405  86.98 0.0009393893    1.662    0.398
        79  -9.7765     42.5139    239.3358   1.1491256599e+02   1.7748480626e+01     0.284713    0.1614005  58.65  0.001596987    1.563    0.360
