#   1 NUMBER                 Running object number                                     
#   2 MAG_AUTO               Kron-like elliptical aperture magnitude                    [mag]
#   3 X_IMAGE                Object position along x                                    [pixel]
#   4 Y_IMAGE                Object position along y                                    [pixel]
#   5 X_WORLD                Barycenter position along world x axis                     [deg]
#   6 Y_WORLD                Barycenter position along world y axis                     [deg]
#   7 A_WORLD                Profile RMS along major axis (world units)                 [deg]
#   8 B_WORLD                Profile RMS along minor axis (world units)                 [deg]
#   9 THETA_WORLD            Position angle (CCW/world-x)                               [deg]
#  10 FWHM_WORLD             FWHM assuming a gaussian core                              [deg]
#  11 ELONGATION             A_IMAGE/B_IMAGE                                           
#  12 ELLIPTICITY            1 - B_IMAGE/A_IMAGE                                       
         1 -12.8824    119.7960     10.3083   7.7941413727e+01   5.4177643443e+01      3.36641     1.308257  63.77   0.01196259    2.993    0.666
         2 -14.3290    223.2453     41.6899   7.1470780271e+01   2.3961891017e+01     5.285932       1.7599 -39.56   0.01794606    2.962    0.662
         3 -12.0847    206.7835     55.0547   7.7790111290e+01   2.6416808753e+01     1.751058     1.319101 -27.15  0.008698723    1.261    0.207
         4 -13.9745    241.7759     82.5979   8.0264832000e+01   1.4695524700e+01     5.277361     1.480656 -26.61   0.01766206    3.157    0.683
         5 -13.1621    238.8364     37.1865   6.8298609803e+01   2.0686760118e+01     1.595869     1.073652  80.75  0.006768337    1.828    0.453
         6 -12.1429    210.0438      4.7497   6.1835983629e+01   3.1091835315e+01    0.7869776    0.4757599 -29.51  0.003499935    1.568    0.362
         7 -15.3747    240.7361      5.1596   5.9194308015e+01   2.3366296751e+01     5.520905          nan  61.53   0.01278168    8.015    0.875
         8 -14.6295    247.2457     20.5868   6.2853618744e+01   2.0400941775e+01     1.164011    0.9528953 -21.81  0.006739529    1.115    0.103
         9 -10.0474     54.6355     18.5334   1.0287410990e+02   6.5761434736e+01     1.043621    0.2217036 -47.01  0.002787988    6.101    0.836
        10 -11.4633    183.5179      3.9719   6.4530513987e+01   3.8185174576e+01    0.7359215    0.3340244 -35.84 0.0009819719    2.166    0.538
        11 -10.6713      8.0515      8.5206   1.2103562706e+02   7.2425664478e+01    0.2362261    0.1985259   2.96  0.001782619    1.439    0.305
        12  -9.6434     52.1718      2.6749   9.5757806746e+01   6.8675551993e+01    0.3976676    0.1516977 -39.15  0.001579051    2.398    0.583
        13 -14.5517    192.7813    106.3193   9.4663512331e+01   2.2303885492e+01     8.188771     6.497893 -86.35   0.04002943    1.930    0.482
        14  -7.9299    177.4559      4.4959   6.5480427273e+01   3.9768300748e+01    0.1435269    0.1418254  -0.25 -9.16231e-07    1.043    0.041
        15  -8.9142    172.0436      2.6613   6.5538666086e+01   4.1382445734e+01    0.3192519     0.173828 -35.86 0.0008463076    1.860    0.463
        16  -9.4237    199.3522      2.2501   6.2149824663e+01   3.4108817350e+01    0.2970242    0.2623733  61.82  0.001657944    1.126    0.112
        17 -14.4155    154.7770     48.6265   8.5209454824e+01   4.0445406509e+01     6.395577     4.210609 -87.23  0.009732625    2.660    0.624
        18 -10.2788     95.6054      2.0285   8.0144190336e+01   6.0645113374e+01    0.3921903    0.1981308  68.83   0.00156225    2.975    0.664
        19  -7.9865    139.2894      1.3561   7.0077204850e+01   5.0187287440e+01    0.1605426    0.0985079  28.03 0.0003490946    1.680    0.405
        20  -8.2705    203.5480    160.7475   1.0475747949e+02   1.2214255044e+01     0.153773    0.1225025 -40.21 0.0004539028    1.532    0.347
        21 -11.0531     63.0217    247.2897   1.3941860329e+02   2.1033856247e+01    0.3733954    0.1289501  51.27 0.0004204005    2.008    0.502
        22 -11.3188    160.9985    128.7472   1.0642863961e+02   2.5336902267e+01    0.5657229    0.3719619  41.74   0.00251769    1.441    0.306
        23 -12.1780    177.2627     76.9981   8.9653341470e+01   3.0510602505e+01     1.367402    0.9922084  47.74  0.002756957    1.377    0.274
        24  -8.6648    126.4797    126.0683   1.1346827881e+02   3.2421377476e+01    0.2089141    0.1752202  34.05  0.001198254    1.232    0.188
        25  -9.1334    135.9985    129.0273   1.1191672982e+02   3.0116065849e+01    0.2992768    0.1328893 -46.58  0.001249874    2.344    0.573
        26 -10.3477    228.4512    121.4858   9.2011223155e+01   1.2554637712e+01     0.300212    0.2645314 -44.94  0.001674787    1.453    0.312
        27  -8.5958    121.7964    135.5351   1.1638225345e+02   3.1426306100e+01    0.2029923    0.1681945  86.32 0.0006412833    1.352    0.260
        28  -9.1313    134.9956    120.2071   1.1026933669e+02   3.1969310800e+01    0.2510124    0.1785853 -29.96  0.001148794    1.632    0.387
        29 -10.9816    168.1807    113.8997   1.0149240894e+02   2.6411115820e+01    0.4245356    0.3999245  88.43  0.001109049    1.253    0.202
        30  -9.0095    134.6505    113.2724   1.0878868168e+02   3.3361797536e+01    0.4657981    0.2588027 -54.76  0.002035612    2.061    0.515
        31 -10.2103    135.0715    106.5320   1.0709279622e+02   3.4576170587e+01    0.5019748    0.3371052 -37.81  0.002450949    1.532    0.347
        32 -12.0283     63.0565    238.7372   1.3893364240e+02   2.2193428940e+01     0.496024    0.3157597  29.36  0.003703673    2.127    0.530
        33  -9.7453    147.1779     98.3480   1.0218778722e+02   3.3643944106e+01    0.3267952    0.2604058  29.65 0.0007449649    1.315    0.239
        34  -9.4661    119.9359     97.5918   1.0859105975e+02   3.9267866814e+01    0.4352781    0.1849424 -57.35  0.001475714    3.328    0.700
        35  -9.2234    133.9049     95.4323   1.0456438494e+02   3.6951281352e+01    0.2716594    0.2542371  64.62 0.0007031405    1.140    0.123
        36 -10.1871    157.1839     90.5588   9.7811226654e+01   3.2880495763e+01    0.5332593    0.3481147  24.49  0.002010825    1.913    0.477
        37  -9.0352    129.4378    141.1056   1.1571977204e+02   2.9050027886e+01    0.2102849    0.1684453  45.65 0.0001579473    1.176    0.149
        38 -10.6903    164.4261     85.2167   9.4716618975e+01   3.2169958502e+01    0.8618035    0.5100328 -68.91  0.002565073    4.088    0.755
        39 -11.3233    155.0040     79.9576   9.5258774885e+01   3.5239317695e+01    0.3743171    0.2958215 -29.40 0.0006111563    1.243    0.195
        40  -9.9166    140.8206     87.4190   1.0071214733e+02   3.7031007010e+01    0.2935188    0.2787326  39.74 0.0006639422    1.075    0.070
        41  -7.9054    202.6484     80.2916   8.5847643759e+01   2.3948925897e+01    0.1478309    0.1182435 -66.23 0.0007028856    1.675    0.403
        42  -9.8268      1.7279     76.1626   1.3881321887e+02   5.8275731313e+01    0.2817527   0.06960797 -72.15  0.001210418    2.821    0.645
        43 -10.6894    185.3691     41.6273   7.7026556452e+01   3.3613539601e+01    0.7090952    0.4758256 -34.38  0.001631923    1.462    0.316
        44  -8.6262     40.8960    225.4290   1.4161786836e+02   2.6471186554e+01    0.1284183    0.1077975  71.45 0.0003790367    1.291    0.225
        45 -10.9631    207.6324     66.4513   8.1030919820e+01   2.4692116552e+01     0.868654    0.4435669 -61.90  0.002494758    4.957    0.798
        46  -8.6745    223.0337     74.5293   8.0882655809e+01   1.9945474899e+01    0.2744964    0.1457385  57.35 0.0007001318    2.018    0.505
        47  -7.4632     71.6297     71.3178   1.1542004401e+02   5.2838820985e+01    0.1358455    0.1020805  83.50 0.0007035179    1.790    0.441
        48  -9.7038    201.9079     64.4850   8.1398598180e+01   2.6361631614e+01    0.2162671    0.1501644  56.87 0.0007847066    1.510    0.338
        49 -10.5776    188.2072     66.4590   8.4392574202e+01   2.9459037658e+01    0.3876266    0.2623715  32.37  0.001747202    1.571    0.363
        50 -10.7264    193.4046     62.8252   8.2357008442e+01   2.8695647289e+01     0.424982    0.3010175  19.57  0.001509495    1.581    0.368
        51  -8.5013     42.3048    247.2842   1.4243698317e+02   2.3221266771e+01   0.07177807   0.06371317  50.54  0.000283121    1.560    0.359
        52  -9.5129    142.5274     66.3630   9.3950435724e+01   4.0475998033e+01    0.4249397    0.2271344 -53.06 0.0009470614    2.517    0.603
        53 -12.9054     12.4364    202.2132   1.4507246433e+02   3.2788611542e+01    0.7410349    0.4622606  72.14  0.004178905    1.161    0.138
        54 -12.1858     17.2075    199.7234   1.4418602268e+02   3.2777453614e+01    0.5638302    0.2236756  88.08  0.003068598    2.332    0.571
        55 -11.1252     69.8398    162.5115   1.3166947180e+02   3.3878142523e+01    0.9125368    0.8892217  48.45  0.007079205    1.334    0.250
        56  -9.0715    134.1138    147.9101   1.1594300882e+02   2.6991721255e+01    0.3099183    0.1461367 -61.35  0.001249903    3.139    0.681
        57 -10.5008    186.6231     48.7020   7.9116032938e+01   3.2359658590e+01    0.5651116    0.3822381 -56.86  0.001493952    1.875    0.467
        58  -9.3130     72.2492     55.5575   1.1058678078e+02   5.6089844481e+01      0.55253    0.1813824 -53.82  0.001910028    3.219    0.689
        59 -13.5735     46.0327    177.3685   1.3775021166e+02   3.3846321991e+01     1.566973     1.283848 -24.01  0.001981207    2.153    0.535
        60 -10.9119     68.0828    144.3771   1.2993380463e+02   3.7637752468e+01     0.609978    0.3222199  64.83  0.002757515    2.178    0.541
        61 -10.9350    134.8848     50.5550   9.0442130613e+01   4.4928770135e+01     0.426393    0.3166941  69.28  0.001998204    1.693    0.409
        62  -8.8656    191.9373    144.1103   1.0355582068e+02   1.6742319945e+01     0.188881    0.1798275  47.66 0.0004000637    1.225    0.184
        63  -8.9723    197.2088     43.8887   7.5842067398e+01   3.0269773399e+01    0.3509083    0.1572069 -49.97  0.001165588    3.095    0.677
        64  -9.9113     93.5243     41.2550   9.8482888853e+01   5.5299037598e+01    0.3075063    0.1687765  30.52  0.001304465    2.279    0.561
        65  -8.2748     12.4725    152.4780   1.4258510201e+02   4.1630472684e+01    0.1043303   0.07803757  81.10 0.0002814332    1.014    0.014
        66  -8.6649     60.8344     43.3638   1.1052776167e+02   6.0202483273e+01     0.219887    0.1581094 -53.31 0.0005353897    1.311    0.237
        67  -8.7155    171.7040     35.1218   7.7182104848e+01   3.8003518416e+01    0.2602531    0.1794308 -25.26 0.0008985775    1.406    0.289
        68  -9.2955     58.1228     34.6249   1.0832865862e+02   6.2304093593e+01    0.3710232    0.1672908 -50.64   0.00124974    2.078    0.519
        69  -9.9489    184.3037    194.4109   1.1396990608e+02   1.1221408129e+01     0.199262    0.1662785  35.74 0.0003091813    1.073    0.068
        70 -10.9609    218.0725    189.8479   1.0749519035e+02   6.1462355292e+00    0.6979954    0.3071648  55.01  0.002864654    3.757    0.734
        71 -12.6259     54.7552    169.4414   1.3540514520e+02   3.4350684967e+01    0.7147461     0.565338  87.01  0.002540557    1.108    0.097
        72  -8.3766    189.7890    180.7957   1.1082384816e+02   1.2038117913e+01    0.1658508    0.1274407  50.28 0.0005132945    1.354    0.262
        73  -9.5132    221.9708    177.6038   1.0471662746e+02   6.8614707932e+00    0.3150179    0.2084218  66.83  0.001529795    3.103    0.678
        74  -9.1550    191.6081    192.6709   1.1243378570e+02   1.0224510529e+01    0.3895657     0.206537 -57.92  0.001610927    4.841    0.793
        75  -7.9600    241.6621    171.7150   1.0041940008e+02   4.1557801820e+00    0.1295383   0.07583594  18.85 0.0004260572    1.630    0.386
        76  -9.6938    219.9879    169.9950   1.0365486131e+02   8.0894918320e+00    0.3433596    0.1746078  59.56    0.0013711    3.788    0.736
        77  -9.8713    230.6390    167.4724   1.0140081442e+02   6.5128654936e+00    0.3696938    0.1957001 -47.49  0.001644732    3.496    0.714
        78 -10.2780    240.5395    161.7478   9.8681254665e+01   5.4250218746e+00    0.3208996    0.1463023  39.93  0.001588069    1.909    0.476
