#   1 NUMBER                 Running object number                                     
#   2 MAG_AUTO               Kron-like elliptical aperture magnitude                    [mag]
#   3 X_IMAGE                Object position along x                                    [pixel]
#   4 Y_IMAGE                Object position along y                                    [pixel]
#   5 X_WORLD                Barycenter position along world x axis                     [deg]
#   6 Y_WORLD                Barycenter position along world y axis                     [deg]
#   7 A_WORLD                Profile RMS along major axis (world units)                 [deg]
#   8 B_WORLD                Profile RMS along minor axis (world units)                 [deg]
#   9 THETA_WORLD            Position angle (CCW/world-x)                               [deg]
#  10 FWHM_WORLD             FWHM assuming a gaussian core                              [deg]
#  11 ELONGATION             A_IMAGE/B_IMAGE                                           
#  12 ELLIPTICITY            1 - B_IMAGE/A_IMAGE                                       
         1 -14.7181    188.3967     42.2327   4.8836308113e+01   3.2959168896e+01     1.275232    0.9473472  27.16  0.004164455    1.700    0.412
         2 -14.5117    212.8241     11.3446   3.7704593494e+01   3.0691996138e+01    0.8729301    0.7999894 -67.87  0.003949587    1.095    0.087
         3 -12.3994     60.5511      2.7753   6.3902015147e+01   6.6737334409e+01    0.3238178    0.1240558  33.96  0.001415461    2.561    0.610
         4 -12.4990     58.3273    220.6736   1.1795534220e+02   2.1312424656e+01    0.3752119    0.1723651  33.01  0.001888066    2.316    0.568
         5 -12.8807    248.6681    244.8852   8.4232336987e+01  -1.0900020574e+01    0.3497384     0.205465  -9.27  0.002175732    1.616    0.381
         6  99.0000     58.9551    228.4434   1.1848736955e+02   1.9708007615e+01     10.38312     5.902929  36.49   0.06093944    1.739    0.425
         7 -11.5540     56.3145    217.6748   1.1809402091e+02   2.2164223302e+01    0.2528933    0.1366563  68.73 0.0008770995    1.854    0.461
         8 -11.7636     93.6197    205.6146   1.0905482148e+02   1.9554789546e+01    0.2642447    0.2110564  24.07 0.0008838118    1.491    0.329
         9 -10.3542     44.2183    221.5226   1.2075983101e+02   2.2838331221e+01    0.1657116    0.1117835  67.80 0.0008906822    1.224    0.183
        10 -10.6515     43.9933    205.7480   1.1955136072e+02   2.6093360095e+01    0.1488307    0.1134743  86.95 0.0009801004    1.122    0.109
        11 -10.8916     66.2877    204.6150   1.1481294535e+02   2.3600377611e+01     0.258333    0.1673812 -49.98 0.0009835023    1.896    0.472
        12 -11.8196    191.9839    192.9296   8.5656977842e+01   5.1825676545e+00    0.5783193    0.3109877 -61.93  0.001892842    4.917    0.797
        13 -11.3098     57.6493    201.0923   1.1628964500e+02   2.5454130252e+01     0.183487    0.1595881 -49.45 0.0003319051    1.469    0.319
        14 -10.7994     81.8873    194.7766   1.1029177863e+02   2.3582229592e+01    0.2222817    0.1757176  79.77 0.0006527138    1.212    0.175
        15 -10.2283     44.6594    195.2807   1.1849676734e+02   2.8261059185e+01    0.1300629   0.07559042  64.82 0.0007009372    1.627    0.385
        16 -12.1163     61.5749    193.2597   1.1463293234e+02   2.6664359724e+01    0.3251275     0.225069 -40.34  0.001293289    2.020    0.505
        17 -12.3468    151.1190    193.2433   9.4448069763e+01   1.2501739041e+01    0.3044422    0.2497846  51.43   0.00168294    1.237    0.191
        18 -13.2280    148.1502    187.3545   9.4064712491e+01   1.4207822300e+01    0.4378466    0.3411939 -73.54  0.002257522    1.642    0.391
        19 -12.4374     75.2069    249.1799   1.1715935166e+02   1.3799420529e+01    0.3061675    0.1355687 -60.53   0.00166938    2.567    0.610
        20 -12.4567     94.5203    187.5206   1.0644267785e+02   2.3301604173e+01    0.4649356    0.3741257  86.25  0.001562389    1.263    0.208
        21 -12.6583     99.3394    180.9040   1.0433388038e+02   2.4023589249e+01    0.3704727    0.2917404 -26.02  0.001957907    1.702    0.413
        22 -11.5187     28.2556    184.8493   1.2109002263e+02   3.2310272836e+01    0.1864215    0.1307738  55.81 0.0006888843    1.320    0.242
        23 -11.7487     71.6289    182.6736   1.1111570227e+02   2.7713833881e+01     0.510994    0.2941073  37.76  0.002591187    1.737    0.424
        24 -12.6447     71.5829    177.8199   1.1050123017e+02   2.8831853798e+01    0.7490957    0.4426914  34.78  0.002983189    1.773    0.436
        25 -13.3704    113.6520    173.9303   9.9759611577e+01   2.3226861855e+01     0.390381     0.350876  33.68   0.00220779    1.150    0.130
        26 -11.9328    186.9914    175.4281   8.3227562139e+01   9.2480171526e+00    0.3541669    0.3111515 -39.07  0.001051576    1.217    0.179
        27 -13.1162    104.3135    172.0810   1.0171987560e+02   2.5218813066e+01    0.4178341    0.3426012  56.27  0.001860728    1.195    0.163
        28 -12.4986     97.1237    168.9945   1.0297906587e+02   2.7099399616e+01    0.4134443    0.2887295  65.20  0.002038203    1.598    0.374
        29 -12.2581    148.1194    174.8690   9.1743454339e+01   1.6776272734e+01    0.5069233     0.307171 -75.55  0.001657576    3.281    0.695
        30 -10.0780     48.1423    172.3556   1.1538836404e+02   3.3037946157e+01    0.2137838    0.1271198  18.34  0.001052662    2.420    0.587
        31 -13.2000     71.9697    162.5494   1.0827669360e+02   3.2365907183e+01    0.5852152    0.3667037  73.36  0.002012609    1.927    0.481
        32 -10.6583      2.9249    161.8729   1.2483963709e+02   3.9658795348e+01    0.1718842    0.1301614  82.49 0.0004179566    1.081    0.075
        33 -11.8257     91.8212    156.4617   1.0219190410e+02   3.0897432725e+01    0.2590017    0.2356193 -54.01 0.0002554599    1.126    0.112
        34 -12.1942    133.9214    146.0679   8.9226925500e+01   2.5826987100e+01     1.088688     0.238527 -53.59  0.002265013    7.223    0.862
        35 -11.2026     52.3905    250.1676   1.2130183430e+02   1.6498720290e+01    0.1422023   0.09253562 -86.81 0.0007130731    1.494    0.331
        36 -10.5928    108.6614    147.2904   9.6032106206e+01   3.0271570541e+01    0.1533478    0.1149739  73.75 0.0003500103    1.643    0.391
        37 -18.5265     18.9818     96.6529   1.1307904443e+02   5.3945152750e+01     14.18129     2.160854 -68.10   0.03755985    6.041    0.834
        38 -12.4859     96.9713    136.6153   9.6995833828e+01   3.4843928377e+01    0.3943181    0.2840825 -60.71  0.000409716    1.357    0.263
        39 -12.0406    108.6554    136.7242   9.3806030391e+01   3.2786389190e+01    0.4690971    0.2539658 -37.04  0.001817834    2.230    0.552
        40 -12.0868    105.9291    130.7715   9.3233704703e+01   3.4696411172e+01    0.3952198    0.3307211 -65.16  0.001186316    1.214    0.176
        41 -12.8413     97.3284    150.2587   9.9614730535e+01   3.1495661789e+01    0.5534236    0.4042828 -24.67  0.002612244    1.837    0.456
        42 -11.2125    115.2988    128.3197   9.0075781059e+01   3.3549468092e+01    0.2695728    0.2322453 -21.00 0.0007244362    1.282    0.220
        43 -11.3750    103.2794    123.8164   9.2377028610e+01   3.6831060365e+01    0.2728111    0.2338869  -7.81 0.0006129827    1.358    0.264
        44 -10.6328    120.6420    122.6795   8.7244580191e+01   3.3832378715e+01    0.1629936    0.1233891  -7.30 0.0007044607    1.764    0.433
        45 -10.5043    110.6801    117.9220   8.8837571212e+01   3.6864363964e+01    0.2131959    0.1927075 -50.33 0.0003934572    1.070    0.065
        46 -12.7475     63.9818    114.0054   1.0191875107e+02   4.5302170784e+01    0.3102993    0.2620448  86.05 0.0006917167    1.320    0.242
        47 -10.8410    231.1621    113.9267   6.0725112049e+01   1.1603136212e+01    0.2275962    0.2145068  38.20 0.0007318634    1.175    0.149
        48 -10.8047    167.1991    112.1615   7.2731896226e+01   2.6075058466e+01    0.2205739    0.1913993 -74.85 0.0006153907    1.365    0.267
        49 -12.1638    119.0100    110.8170   8.4648251503e+01   3.6879990804e+01    0.3861579    0.2815662  67.80  0.001687038    1.832    0.454
        50 -10.7088    205.6863    110.0908   6.4231533355e+01   1.7727089833e+01    0.2181784    0.1873293 -31.67 0.0006233991    1.093    0.085
        51 -11.6111     69.9727    103.2588   9.7589984561e+01   4.7092478328e+01    0.2267754    0.1974488 -79.23  0.001254858    1.260    0.206
        52 -11.5835     89.8551    212.4259   1.1068059613e+02   1.8711975451e+01    0.2430235    0.1884544  75.21 0.0005075373    1.249    0.199
        53 -13.3660    173.2775     56.0426   5.5379673113e+01   3.4766611024e+01     0.448925    0.4408647  82.03 0.0007579704    1.002    0.002
        54 -11.2876     62.0707    244.5405   1.1917832656e+02   1.6312635687e+01    0.1943063     0.129701 -75.35  0.001109632    1.565    0.361
        55 -13.3554    193.4022     36.3640   4.6475257833e+01   3.2487092279e+01    0.5157224     0.455921  49.52  0.001232811    1.204    0.169
        56 -10.8404     71.4519    242.5115   1.1729834646e+02   1.5476840725e+01     0.140219    0.1033024 -62.30 7.202474e-05    1.613    0.380
