#   1 NUMBER                 Running object number                                     
#   2 MAG_AUTO               Kron-like elliptical aperture magnitude                    [mag]
#   3 X_IMAGE                Object position along x                                    [pixel]
#   4 Y_IMAGE                Object position along y                                    [pixel]
#   5 X_WORLD                Barycenter position along world x axis                     [deg]
#   6 Y_WORLD                Barycenter position along world y axis                     [deg]
#   7 A_WORLD                Profile RMS along major axis (world units)                 [deg]
#   8 B_WORLD                Profile RMS along minor axis (world units)                 [deg]
#   9 THETA_WORLD            Position angle (CCW/world-x)                               [deg]
#  10 FWHM_WORLD             FWHM assuming a gaussian core                              [deg]
#  11 ELONGATION             A_IMAGE/B_IMAGE                                           
#  12 ELLIPTICITY            1 - B_IMAGE/A_IMAGE                                       
         1 -13.8898     13.0169     48.4395   6.7780619534e+01   6.5882733211e+01    0.8899341    0.3922215 -44.86  0.001085369    1.805    0.446
         2 -12.2246      4.6576     50.3421   7.2208521767e+01   6.6065740360e+01    0.6937886    0.4781365 -60.86  0.004520082    1.414    0.293
         3 -12.2547     56.3361     36.8699   4.4493489161e+01   6.2904653330e+01    0.7965573    0.3659565 -27.57  0.003549415    2.552    0.608
         4 -11.2186      7.0126     27.0777   6.3597142742e+01   7.0152578723e+01    0.5423018    0.2686011 -63.67  0.002610729    3.392    0.705
         5 -12.4904      3.9512     13.8881   5.9976072275e+01   7.2480555892e+01    0.4722383    0.3936727 -24.52  0.002173703    1.242    0.195
         6 -11.3762     14.5536     17.7295   5.5773831235e+01   7.0999947634e+01    0.4413468    0.2639274  16.08  0.002823427    1.593    0.372
         7 -11.1870     10.6138     11.2093   5.4993415215e+01   7.2309880708e+01    0.4912528    0.3861234  39.74  0.003532356    1.926    0.481
         8 -10.9046     82.0425     19.9553   2.8690727408e+01   6.0512019018e+01    0.5660058    0.2050253 -30.59  0.002429098    2.943    0.660
         9  -8.2515     54.0267     13.6649   3.5571223825e+01   6.6338513936e+01     0.529568    0.3849241  22.91  0.003441013    1.192    0.161
        10 -11.9565    248.9745     20.5316   3.3015429257e+00   2.2488746513e+01    0.3513634    0.1787804 -52.18 0.0003953075    1.576    0.366
        11 -12.0216     28.7295     19.8365   4.9458658097e+01   6.9181869931e+01    0.2849706    0.1861651   8.13  0.000282378    1.459    0.314
        12 -11.0904     32.7595     15.3745   4.5496809229e+01   6.9283975035e+01    0.2958935    0.2570734  26.60  0.001392037    1.382    0.276
        13 -11.3711    133.1941     18.1399   1.6073646042e+01   4.9354295238e+01    0.4301956    0.2783772 -77.77  0.001374846    1.962    0.490
        14 -11.4351    164.4524     12.8054   9.7535064078e+00   4.2396823321e+01    0.6252871    0.2854363  78.24  0.002798188    2.144    0.534
        15 -10.4919    155.4418     13.8014   1.1240914945e+01   4.4463116101e+01    0.2305524    0.1827801  38.38 0.0008460492    1.483    0.326
        16 -11.1379    160.1589      8.8651   9.2390096275e+00   4.3818742038e+01    0.2876555     0.219162  79.17 0.0003386498    1.110    0.099
        17 -11.1086    154.3965      8.1659   9.8032414551e+00   4.5266112717e+01    0.3546989    0.2330632 -89.92  0.001412187    1.481    0.325
        18 -11.4555     82.2272      7.0188   2.3417375458e+01   6.1765066465e+01    0.2126297    0.1634093  39.54 0.0002685058    1.094    0.086
        19 -12.0663     75.1177     11.4783   2.7328032823e+01   6.2760910936e+01    0.6100857    0.4100249  19.51  0.002552066    1.536    0.349
        20 -12.7511    240.4646     14.6827   2.7920337769e+00   2.4928473465e+01    0.4740826    0.2486614 -43.96  0.001051261    1.683    0.406
        21 -12.5188    243.1545      4.1285   5.7631167068e-01   2.5587711944e+01      1.23486    0.4606003 -71.83  0.005480959    2.991    0.666
        22 -11.4064    232.3161     12.8828   3.0426023542e+00   2.6842950718e+01    0.3524314    0.1460918 -46.87  0.001241628    2.012    0.503
        23 -12.1475    235.1228      9.9296   2.2459252082e+00   2.6591829096e+01     0.335416    0.2045675 -85.41 0.0008072605    1.397    0.284
        24 -12.1181     65.2389     11.8597   3.0689812083e+01   6.4582199291e+01    0.2346494     0.187715  19.74 0.0003448462    1.092    0.084
        25 -10.4228     60.1666     11.8924   3.2483545967e+01   6.5485003806e+01    0.3439789     0.170744 -30.61  0.001722192    2.137    0.532
        26 -10.8063    226.9478     12.3172   3.3422065986e+00   2.8053461324e+01    0.3157255    0.2326413 -47.75  0.002070475    1.337    0.252
        27 -10.6564    228.1717      6.1370   1.9933942378e+00   2.8486486145e+01     0.194792    0.1697721 -28.89 0.0007131232    1.592    0.372
        28 -10.6992    176.7435     12.0993   8.0712507469e+00   3.9529378832e+01    0.3873302    0.2486185  64.07 0.0002743107    1.408    0.290
        29 -10.6596    145.6322     12.4095   1.2274438801e+01   4.6959127602e+01    0.3308896    0.1374764 -41.08  0.001478424    2.563    0.610
        30 -11.0316    145.5031      8.0140   1.1003672718e+01   4.7407758317e+01    0.2975731    0.1788901  67.24  0.001611888    1.396    0.283
        31 -10.1548    139.1325     10.5863   1.2737790247e+01   4.8687224684e+01    0.2003603     0.170436 -67.23 0.0007625329    1.251    0.200
        32 -10.1050    119.9946      9.9621   1.5857811760e+01   5.3243602313e+01    0.2632396    0.1843818  -5.12 0.0008321081    1.812    0.448
        33 -10.2756     28.2445     10.6062   4.5419497272e+01   7.0468196761e+01    0.2312763    0.2184281   9.38  0.001787084    1.502    0.334
        34 -10.2961    101.3676      8.9662   1.9379431664e+01   5.7538747534e+01     0.377223    0.2772948  -0.32    0.0015331    1.599    0.375
        35 -10.2783     36.0340      7.6116   4.0276026578e+01   6.9784704727e+01    0.4004887    0.2094519 -11.38  0.002134038    2.301    0.565
        36  -9.8958     90.2593      8.1755   2.1752899368e+01   5.9999962460e+01     0.244935    0.1568284  28.77  0.001383608    1.603    0.376
        37 -11.0623     28.0316      3.4825   4.1991295305e+01   7.1341309668e+01    0.2764416     0.249031  83.76  0.001934021    2.329    0.571
        38 -10.0025     22.2128      1.5997   4.3948698843e+01   7.2292426422e+01    0.2408324    0.1277487  19.38 0.0008636907    1.815    0.449
        39 -10.5500     16.4481      7.7118   5.0103879897e+01   7.2205869342e+01    0.3383615    0.1695483 -27.61  0.002018197    1.826    0.452
        40  -9.0393     19.7525      8.3375   4.8642243732e+01   7.1764421525e+01    0.1557714    0.1259393  -9.65 0.0002951391    1.148    0.129
        41  -9.4486     20.2903      4.6808   4.6536240692e+01   7.2159422099e+01    0.1644646    0.1184567  15.80  0.000523362    1.193    0.161
        42  -9.7289     17.4828      2.5194   4.6928358785e+01   7.2741918659e+01    0.1671503     0.124371  21.79 0.0007447829    1.307    0.235
        43  -9.6725     14.2592      2.0186   4.8437413418e+01   7.3157736916e+01    0.1833066     0.132837  22.46 0.0001938767    1.355    0.262
        44 -10.2225    223.0283      5.2997   2.2029858264e+00   2.9682343205e+01    0.1937492    0.1454985 -54.86  0.001295808    1.241    0.194
        45 -11.5491    179.4043      3.7389   5.6884072013e+00   3.9738397336e+01    0.3279606    0.2106974  68.34 0.0002104929    1.358    0.264
        46 -11.1431    164.5393      4.7876   7.6014917134e+00   4.3159700795e+01    0.2547053    0.1878207 -78.81 0.0003698494    1.272    0.214
        47 -10.5837     97.3532      3.9981   1.8443968525e+01   5.8840663483e+01    0.3280205    0.1976861  10.56  0.001602654    2.150    0.535
        48  -9.9246     68.3913      5.3908   2.6820684879e+01   6.4624075877e+01    0.2193724    0.1600906  33.65 0.0007821437    1.148    0.129
        49  -9.1335     64.6965      4.2683   2.7517219058e+01   6.5415203681e+01    0.1843981    0.1030221  58.68 0.0005154774    1.964    0.491
        50  -9.3483    110.1456      4.8629   1.6029834926e+01   5.5937377342e+01    0.1841043    0.1249688  41.46  0.001071101    1.386    0.278
        51 -10.1552     58.4169      5.3677   3.0160230235e+01   6.6447053407e+01    0.2815036    0.1132069  47.46 0.0009728058    2.135    0.532
        52  -9.5080    169.1920      3.2147   6.6537377597e+00   4.2200396402e+01    0.1870475   0.07527815 -40.07 0.0008632088    2.484    0.597
        53 -10.4315    127.0709      2.5842   1.2194310220e+01   5.2236884114e+01    0.3555392    0.1690527  52.62  0.001770106    1.792    0.442
        54 -10.6550     73.9385      1.5808   2.3487562004e+01   6.3885561436e+01    0.2905282     0.124266  55.58 0.0008027435    2.040    0.510
        55 -10.1205     34.8614      1.8810   3.7953254569e+01   7.0574511988e+01    0.1684652    0.1181199  14.34  0.001153497    1.191    0.160
        56 -10.4422    230.2467      1.3974   9.0130882079e-01   2.8560883595e+01    0.2004233   0.09299377  74.28 0.0006970241    1.909    0.476
        57  -9.6873    173.9968      1.4908   5.6920840338e+00   4.1224202970e+01    0.1874267    0.1036755  73.44 0.0003857414    1.506    0.336
        58  -9.8462     91.1329      2.1323   1.9181299818e+01   6.0326059965e+01    0.1816194    0.1355223  36.75  0.000272561    1.205    0.170
        59  -9.7230     86.1541      1.3081   2.0077167740e+01   6.1437425366e+01    0.1657122    0.0997927  65.16 0.0004291545    1.648    0.393
        60  -9.7857     60.6174    192.1426   7.8841103843e+01   2.7018640756e+01    0.2503183    0.1642062  25.04  0.001248824    1.891    0.471
        61 -11.8673    248.0788    248.9479   4.7759323058e+01  -1.2800511037e+01    0.5898883    0.3435075  -1.31  0.003544943    1.792    0.442
        62 -11.8923    225.9255    246.3577   5.1225125785e+01  -9.6712197332e+00    0.6258453    0.2840189 -24.84  0.003024003    2.651    0.623
        63  -9.6997    109.9198    250.1630   7.4667144921e+01   7.1684327441e+00    0.1992602    0.1455738  56.49 0.0006255037    1.232    0.188
        64 -10.4230     91.4962    249.6079   7.8361644300e+01   1.0050054516e+01    0.2123432    0.1737887 -87.62 0.0008078782    1.290    0.225
        65 -11.5816     22.2584    248.7901   9.1750333871e+01   1.9298433671e+01    0.4153081    0.1817424  50.31  0.001767809    1.749    0.428
        66 -10.9015      8.1833    248.8574   9.4284440023e+01   2.0805674516e+01    0.3576384    0.2288312  27.86  0.001697988    2.072    0.517
        67  -9.3842     13.3056    249.6666   9.3414574324e+01   2.0107144027e+01    0.1558051   0.08630015  75.75 0.0006933453    1.460    0.315
        68 -10.4214    187.3962    189.7704   4.8774243594e+01   5.6647368827e+00    0.2006479     0.127868 -32.68 0.0008040018    1.666    0.400
        69  -9.7933    145.1851    190.1113   5.8115228130e+01   1.3399485177e+01    0.2192928     0.197099  -3.25 0.0006275845    1.258    0.205
        70 -10.6572    244.6928    188.0408   3.7694507299e+01  -3.5263880852e+00    0.1829259    0.1449135 -24.82 0.0004485823    1.082    0.076
        71 -10.5655    226.0102    188.0351   4.0948359805e+01  -6.3438989778e-01    0.2113552    0.1475135  -7.40 0.0005219804    1.650    0.394
        72  -9.3717    211.5462    187.4746   4.3525978563e+01   1.8572864509e+00    0.1390397    0.1195906  -8.15 8.509296e-05    1.113    0.101
        73  -9.7558     61.9782    184.7084   7.7589558352e+01   2.8632109968e+01    0.1942757    0.1712045  71.90  0.001144539    1.052    0.049
        74 -11.3919    249.6283    179.7050   3.5296952308e+01  -2.9067819701e+00    0.3601854    0.1340724 -44.72  0.001504299    2.621    0.618
        75  -9.9635      1.4819    180.4803   9.1658942440e+01   3.6252722439e+01    0.1984128   0.09745505 -78.49  0.001050329    1.647    0.393
        76 -10.3304      4.3652    179.3173   9.0918310173e+01   3.6287375194e+01    0.1853017    0.1277909 -50.47 0.0008324085    1.732    0.423
        77 -10.9101     22.8435    180.0599   8.6651706715e+01   3.4415944605e+01    0.4227481    0.1652715  60.91  0.001679115    2.971    0.663
        78  -9.8702     96.1061    178.1639   6.8006175091e+01   2.5006672764e+01    0.2149132     0.198556 -36.47 0.0004478442    1.267    0.211
        79  -9.5791    186.5220    193.5088   4.9666311265e+01   5.1018489287e+00    0.1398309    0.1301276   3.48 5.533693e-05    1.015    0.015
        80 -10.0020     54.0509    175.3856   7.8394322926e+01   3.1986903966e+01    0.2548336    0.1712024 -56.53 0.0008261299    1.507    0.336
        81  -9.6371    171.9973    175.4920   4.9251326784e+01   1.1419916566e+01    0.2031715    0.1270154  64.55 0.0008082032    2.384    0.581
        82 -11.7481      8.0178    172.5616   8.9538345294e+01   3.7582355566e+01    0.3120805    0.1773643 -59.52  0.001295071    1.704    0.413
        83 -11.2918     17.1223    171.9231   8.7284335531e+01   3.6931416714e+01    0.4229024    0.1770093  68.46  0.001721935    2.932    0.659
        84  -9.5172     24.7262    169.6826   8.5183087733e+01   3.6749017582e+01    0.1261254   0.08859224 -51.87 0.0002612556    1.566    0.361
        85 -11.0859      1.4921    165.9633   9.0572238075e+01   3.9681120572e+01    0.4304467    0.1066473 -79.31  0.001520173    3.644    0.726
        86  -9.0705     93.3058    166.7419   6.6798519520e+01   2.8285987237e+01    0.1500185    0.1087014  69.00 0.0002165702    1.517    0.341
        87 -10.2000     67.5031    165.5176   7.3481944947e+01   3.2622210996e+01    0.2892545    0.1335632 -65.01  0.000710306    2.049    0.512
        88 -10.4542      7.8926    163.5379   8.8802759256e+01   3.9759958350e+01    0.2914001    0.1816317 -25.40  0.001515206    2.580    0.612
        89  -9.0216     15.6567    163.7166   8.6873994443e+01   3.9058598919e+01    0.1236659   0.08789491 -46.79 0.0003273042    1.638    0.390
        90  -9.8767     51.3762    160.8239   7.7140209453e+01   3.5973568700e+01    0.2024967    0.1128476 -58.20 0.0003304472    1.667    0.400
        91 -10.0221      7.2635    157.7590   8.8442125569e+01   4.1207830961e+01    0.3097163    0.1379399  86.80  0.001384837    2.318    0.569
        92 -11.0927    247.1433    157.6857   3.1402094210e+01   1.1659409460e+00    0.2250099    0.1915749 -50.45 0.0008269819    1.234    0.190
        93  -9.3252     19.6339    157.8140   8.5251184622e+01   4.0149795043e+01    0.1562183    0.1450751 -79.07  0.001033323    1.176    0.150
        94 -10.0747    185.8501    165.8505   4.4306300801e+01   1.0721526354e+01    0.2016539    0.1806308 -88.75  0.001079788    1.320    0.242
        95 -10.5300    215.7604    154.2707   3.6019500402e+01   7.2678193094e+00    0.3569591    0.2792786  44.36  0.001560422    1.390    0.280
        96 -10.2234    158.9008    153.5807   4.7608082958e+01   1.8791135731e+01    0.3657769    0.2596294  30.39  0.001113615    1.596    0.373
        97 -10.2433     11.0082    153.0518   8.7022916023e+01   4.2056183999e+01    0.3906097    0.1628776  53.23  0.001741655    2.634    0.620
        98  -9.1196    235.6787    153.7081   3.2450311388e+01   3.7847506989e+00    0.1329659    0.1004928  -5.63  0.000701314    1.609    0.378
        99 -10.0370     40.8003    151.7727   7.8781673679e+01   3.9515690625e+01    0.2303924    0.1607927 -61.17 0.0005022783    1.307    0.235
       100 -10.2791    144.3847    149.6564   5.0198550672e+01   2.2693617334e+01    0.5195938    0.2668273 -67.05  0.001414414    3.341    0.701
       101  -9.0991    177.3025    150.6173   4.2847181636e+01   1.5616091760e+01    0.1580044    0.1196308 -81.17 0.0007021703    1.781    0.439
       102  -9.8844     81.7951    150.3698   6.6993126619e+01   3.4285518560e+01    0.2051556    0.1453848  22.30 0.0009477217    1.739    0.425
       103 -11.7989     13.8625    147.7124   8.5704638241e+01   4.3133918066e+01    0.3196326    0.1882557 -82.30 -0.000430966    1.473    0.321
       104 -11.9434     17.5360    143.5356   8.4222234191e+01   4.3859145120e+01    0.3566924    0.2232746  52.34  0.001863986    1.700    0.412
       105 -10.8057     13.9985    140.0442   8.4806154399e+01   4.5009040220e+01    0.2760005     0.123776 -57.86 0.0003577786    1.898    0.473
       106 -10.7541     40.5104    145.9693   7.8041229829e+01   4.1011989788e+01    0.3294346    0.1826525  35.64            0    1.918    0.479
       107 -10.8675    217.3952    145.1609   3.3792145623e+01   8.6826971480e+00    0.3744368    0.1747533  35.62  0.001443638    2.864    0.651
       108 -10.7964      6.8507    145.2734   8.7346588246e+01   4.4274285136e+01    0.3173184      0.15929  28.03   0.00151043    2.281    0.562
       109  -8.9581    181.7026    145.6792   4.0814679747e+01   1.5743039311e+01    0.1509347    0.1200161  -5.39 0.0007020779    1.619    0.382
       110 -13.4161     37.4375    134.9131   7.7282892199e+01   4.4128624171e+01    0.6320853    0.3730294 -65.70  0.003160179    1.466    0.318
       111 -10.2412    235.9226    138.0410   2.9171972554e+01   6.5450007761e+00    0.2080647    0.1817385 -44.31 0.0004729192    1.037    0.036
       112 -10.1578    189.0369    139.7326   3.7966723252e+01   1.5443195375e+01     0.257331    0.2068729 -45.27 0.0004435372    1.187    0.158
       113  -9.5559    144.1702    136.8106   4.7334813866e+01   2.5691732762e+01    0.2144532    0.1887702  -9.70  0.000370808    1.354    0.261
       114 -10.1426    239.9173    140.0642   2.8963143236e+01   5.4680650520e+00    0.2228142    0.2051827  70.25 0.0005819892    1.282    0.220
       115 -10.7860     20.8416    135.3266   8.2258825840e+01   4.5609999643e+01    0.3003045    0.1633235 -76.61  0.001455272    1.634    0.388
       116 -11.2391     16.6410    131.0796   8.2940152741e+01   4.7005230486e+01    0.3802091    0.2464541  24.35  0.001805279    1.836    0.455
       117 -11.5685     53.7489    132.7528   7.1987828665e+01   4.2780714414e+01    0.4437284    0.3190951  43.16  0.001305383    1.482    0.325
       118 -10.2681     59.3470    131.3095   7.0013186333e+01   4.2415223481e+01    0.2465555    0.1861125   7.26  0.001240432    1.726    0.420
       119 -11.7370     74.0963    128.6924   6.4983579604e+01   4.0950720753e+01    0.3931053    0.3419273 -20.84  0.001094948    1.339    0.253
       120 -10.0267     64.5000    131.0660   6.8391757213e+01   4.1768772023e+01    0.2263765    0.1336572 -60.76  0.000919932    1.559    0.359
       121 -11.1684      4.6887    130.2294   8.6339594344e+01   4.8082451702e+01     0.235569    0.1797306 -70.80 0.0002984008    1.069    0.065
       122 -11.2384      4.6633    125.2063   8.5765339663e+01   4.9299059784e+01    0.4082797    0.1193981 -65.91  0.001692702    2.462    0.594
       123 -10.0467    216.8478    129.2065   3.0422237863e+01   1.1808728699e+01    0.1919881    0.1658984 -13.57 0.0004179691    1.323    0.244
       124 -11.0309     24.7287    127.8815   8.0066248169e+01   4.7114901467e+01    0.3283407    0.1926574 -72.60  0.001684789    1.491    0.329
       125 -12.5673     81.4950    124.4968   6.1821668013e+01   4.0816415181e+01    0.9302859    0.5488415 -54.46  0.002883565    1.597    0.374
       126 -10.0480     55.5070    127.4273   7.0462714259e+01   4.3893932940e+01    0.1417094    0.1286432 -59.63 0.0001293909    1.048    0.046
       127 -10.0735    229.5055    124.9988   2.7421673110e+01   1.0103572805e+01    0.2214499    0.1230046 -42.32  0.001030506    1.586    0.370
       128 -11.6319     47.1569    124.3338   7.2500782518e+01   4.5694568057e+01    0.2834212    0.2410724  36.39 0.0002822064    1.299    0.230
       129  -9.9095      7.7677    118.7746   8.4019935047e+01   5.0648536207e+01    0.1900112    0.1478905 -59.59 0.0006104326    1.123    0.109
       130  -9.6970     14.3786    124.8373   8.2794638758e+01   4.8710663609e+01    0.2148151    0.1436866 -54.60   0.00105335    1.337    0.252
       131 -11.2500     10.8650    122.1715   8.3512801962e+01   4.9615788291e+01    0.4030696    0.2557397 -73.91   0.00228025    1.320    0.242
       132 -10.1286    117.4749    123.9788   5.1218935976e+01   3.4281519521e+01    0.2435186    0.1518964 -48.91  0.000875485    1.578    0.366
       133 -10.4974     30.5080    124.0463   7.7691711229e+01   4.7533408098e+01    0.1860881    0.1732419 -72.82 0.0003650924    1.084    0.077
       134  -9.6660    225.8479    123.1224   2.7597528877e+01   1.1157741107e+01    0.2105776    0.1779535 -67.54  0.000706095    1.229    0.186
       135 -11.0043     57.0552    121.6463   6.8845050017e+01   4.5133417596e+01    0.3238637    0.1974616 -78.87 0.0007039891    1.957    0.489
       136 -10.8279     61.0807    121.6308   6.7563422615e+01   4.4598220838e+01    0.2757936    0.2108394 -46.78 0.0006243548    1.268    0.211
       137 -11.5654     69.0179    121.8008   6.5094029426e+01   4.3427299949e+01    0.3887911     0.278767  32.86  0.001560805    1.506    0.336
       138  -9.5098     65.2370    119.6280   6.5822322767e+01   4.4512362351e+01    0.2015032    0.1640936 -31.84 0.0004468674    1.345    0.256
       139 -10.5393     23.7300    119.4097   7.9095309609e+01   4.9287080020e+01    0.2896912    0.2143321 -29.15   0.00155074    1.564    0.361
       140 -11.1855      2.1388    118.3458   8.5700551439e+01   5.1104446472e+01    0.3413601     0.205395 -65.37   0.00115527    1.316    0.240
       141 -11.0726    249.1714    117.4331   2.2919945773e+01   7.7645899064e+00    0.3224306    0.2122885 -23.73  0.001650111    1.852    0.460
       142 -12.2046     16.3316     96.7961   7.7771277977e+01   5.5286011297e+01     0.992608    0.6070184  54.65  0.005237191    2.134    0.531
       143 -10.9475    182.0821    114.6668   3.3495145695e+01   2.2072937644e+01    0.4657757    0.2655087  43.46  0.001514489    1.929    0.482
       144 -10.5539     70.2962    114.9734   6.3177393076e+01   4.4909787469e+01    0.3941335    0.2037577  36.47  0.001673333    2.032    0.508
       145 -10.6389     75.5198    112.3107   6.0884993866e+01   4.4746589576e+01     0.263062    0.2541946  26.18 0.0007227544    1.101    0.092
       146 -10.0967    225.1807    110.9067   2.5025508962e+01   1.3514632693e+01    0.2083631     0.167968 -61.61 0.0003093805    1.195    0.163
       147  -9.1198    101.4872    111.3585   5.2628490859e+01   4.0408307013e+01    0.1486693    0.1449605  61.33 1.326914e-05    1.044    0.042
       148 -11.3596     55.2402    109.7428   6.6931955925e+01   4.8284521376e+01    0.2811143    0.2313228 -57.42 0.0006244674    1.107    0.097
       149 -11.5331     32.1132    107.6045   7.4299116814e+01   5.1398118379e+01    0.4874826    0.3205045  40.69  0.002623941    1.724    0.420
       150  -9.6193      3.3572    107.7120   8.3929534412e+01   5.3561916504e+01    0.2221603    0.1660685  67.20 0.0005229737    1.517    0.341
       151 -10.3668      3.9583    105.0000   8.3349344103e+01   5.4166483372e+01    0.3096177    0.1646447  28.12  0.001486644    2.193    0.544
       152  -9.2353     70.3126    107.7037   6.1468414684e+01   4.6655098614e+01    0.1436179    0.1124631  76.45 0.0002439662    1.599    0.375
       153 -10.5370     62.9255    106.8343   6.3705088601e+01   4.7943846230e+01    0.2392271    0.1897273 -53.10 0.0003365241    1.162    0.139
       154  -9.7403     81.9075    105.3283   5.7119055788e+01   4.5355039193e+01     0.390389    0.2038603 -69.75  0.001353344    3.087    0.676
       155 -10.0642     59.0873    105.8475   6.4761451510e+01   4.8709676064e+01    0.2091683    0.1875597  87.89 0.0003656895    1.226    0.185
       156 -11.6759     51.0127    103.6529   6.7005574253e+01   5.0277569807e+01    0.2627629    0.2453204 -43.02 0.0004813138    1.047    0.045
       157 -10.4957     75.0111    104.0440   5.9026196761e+01   4.6787037237e+01    0.2179184    0.2025471 -49.20 0.0003171977    1.018    0.018
       158 -10.1833     76.6636     97.6840   5.6836778474e+01   4.7987234022e+01     0.311461    0.1990671  -3.03   0.00105338    2.716    0.632
       159 -11.1641     69.4708    100.9853   6.0089248170e+01   4.8362372806e+01    0.3382173    0.2797003  71.99 0.0005852053    1.465    0.317
       160  -9.9300     67.0093     97.7946   6.0107607378e+01   4.9470147049e+01     0.190874    0.1333321  19.30  0.000924697    1.672    0.402
       161 -11.2498     61.8562     99.5836   6.2318435431e+01   4.9802620642e+01    0.5443547    0.2394521 -44.86  0.002178573    2.202    0.546
       162  -9.6588    108.8322    100.6139   4.7621036740e+01   4.1388829489e+01    0.2089891    0.1418973  55.51 0.0003078701    1.615    0.381
       163  -9.5923     40.7914     99.3955   6.9614816758e+01   5.2469404038e+01    0.1910223    0.1572512 -60.95 0.0006146378    1.116    0.104
       164 -11.2650     20.1419    108.5971   7.8514428750e+01   5.2204160175e+01    0.6834494    0.2739807 -35.36  0.002633247    3.414    0.707
       165 -10.1355     57.1321     96.1445   6.3099534427e+01   5.1247968485e+01    0.1973831    0.1700116 -48.88 0.0002692195    1.065    0.061
       166 -11.8842     57.5173     90.3605   6.1485812759e+01   5.2512978286e+01    0.5198951    0.3458918 -19.66 0.0007248318    1.904    0.475
       167 -10.1611     52.3285     97.2933   6.5065409103e+01   5.1607588123e+01    0.2437697    0.1508631 -26.54 0.0009217407    2.021    0.505
       168 -10.2691     52.2227     93.6481   6.4212111681e+01   5.2461930899e+01    0.2750604    0.2021998 -64.56 0.0003043958    1.388    0.280
       169  -9.6017     38.1465    103.4763   7.1409794850e+01   5.1784333040e+01    0.2366242    0.1463399 -64.71  0.001140377    1.489    0.328
       170 -10.1938    226.1418     93.1242   2.0945448577e+01   1.6462256695e+01    0.2318635    0.1869106 -80.56 0.0003906813    1.270    0.213
       171  -8.9892     63.2698     93.3468   6.0241455410e+01   5.1033401905e+01    0.1460754    0.1013238 -28.16 0.0006639768    1.618    0.382
       172  -9.5992     31.7642     92.7727   7.1403930042e+01   5.4930573479e+01    0.1693144    0.1612366 -40.55 0.0003787233    1.102    0.093
       173 -10.3470     35.8742     90.7066   6.9434687655e+01   5.5001641792e+01    0.2883853    0.2212047  65.65  0.001614393    1.694    0.410
       174 -11.7830     15.8592    115.3350   8.0984776366e+01   5.0910057147e+01    0.2979879    0.2499249  86.74 0.0003981256    1.208    0.172
       175 -12.4410     14.3168    110.1189   8.0692031211e+01   5.2278959384e+01    0.4897786    0.3154133 -72.32 0.0002463371    1.346    0.257
       176 -11.1780     10.8330     91.0196   7.8699329247e+01   5.6998630599e+01     0.251623    0.1977893  37.46 0.0005275984    1.524    0.344
       177  -9.8930    231.5104     91.4789   1.9835647787e+01   1.5633517188e+01    0.1373504    0.1188957 -57.87 -4.25794e-06    1.022    0.022
       178  -9.7134    105.4602     91.0051   4.5911706620e+01   4.4149023302e+01    0.2276493    0.1464883 -46.32 0.0006563758    1.548    0.354
       179 -11.1826     23.3446     90.1836   7.3944664776e+01   5.6272603815e+01    0.3146616    0.2071335  -8.81  0.001720911    1.853    0.460
       180 -11.2689    109.8630     86.5192   4.3322315233e+01   4.4170791546e+01    0.4180741    0.3121978 -84.25  0.001891392    1.900    0.474
       181 -10.1282     97.5126     89.4726   4.7866588678e+01   4.6055058298e+01    0.2646796    0.1465674  38.49 1.326609e-06    1.866    0.464
       182  -9.5335     94.4718     88.5020   4.8528007979e+01   4.6846822046e+01    0.2488962    0.1446695  43.25 0.0006463606    1.745    0.427
       183  -9.2596     73.9802     89.0250   5.5376464754e+01   5.0357137635e+01    0.1712988    0.1513398 -43.21 0.0009504179    1.079    0.073
       184  -9.3536     83.0332     88.4936   5.2194643459e+01   4.8945480708e+01    0.1884785    0.1271075   6.65 0.0003968587    2.190    0.543
       185  -9.6184     46.6648     87.8251   6.4763838937e+01   5.4466146038e+01    0.1857102     0.119261 -64.65 0.0001598964    1.639    0.390
       186 -10.5657     29.5325     85.4918   7.0600927137e+01   5.6798719816e+01    0.2588633     0.210698  41.39 0.0007533235    1.449    0.310
       187 -10.4578     30.1828     81.6892   6.9457125847e+01   5.7587403883e+01    0.2559144    0.2125519 -51.64 0.0007726926    1.075    0.070
       188  -8.7810     21.2848     86.3006   7.3896691135e+01   5.7323226118e+01    0.1315037    0.0801138 -38.04 0.0001933519    1.553    0.356
       189  -9.7101    239.4830     85.4905   1.7498789854e+01   1.5018105655e+01    0.1360568    0.1122523 -60.03 -2.43822e-05    1.027    0.026
       190  -8.9112    184.7243     85.2954   2.5700460795e+01   2.7094354303e+01    0.1489141     0.108257 -72.73 0.0001982834    1.527    0.345
       191 -10.0528     65.1530     84.5694   5.7190531741e+01   5.2702342644e+01     0.314452    0.1647343 -65.48  0.000955837    2.779    0.640
       192  -9.9150    116.9494     83.4915   4.0429911001e+01   4.3264759101e+01    0.2307693     0.146271  47.49 0.0005289928    1.558    0.358
       193 -10.7406     21.1928     82.0071   7.2998736147e+01   5.8294428546e+01    0.2195684     0.175066 -50.70  0.000741463    1.054    0.051
       194 -10.5394     76.4428     81.9147   5.2487198096e+01   5.1476047052e+01    0.3630925     0.197237  41.56  0.001608919    1.911    0.477
       195 -11.1028     50.5073     78.0012   6.0700868585e+01   5.6145121212e+01    0.3528348    0.1903197 -57.03  0.001646879    1.875    0.467
       196 -10.0668     61.5905     72.7211   5.4995044477e+01   5.5719369618e+01    0.3791099    0.1536855 -45.79  0.001540409    2.303    0.566
       197 -10.4982     58.5211     73.4878   5.6368519557e+01   5.6008010862e+01    0.1974744    0.1292174  18.09 0.0009816771    1.743    0.426
       198 -10.0217    100.6451     81.3504   4.4507652681e+01   4.7111886794e+01    0.3732796    0.1797053  37.34  0.001447284    2.248    0.555
       199  -9.9562      7.8838     80.5362   7.7825409071e+01   5.9547562459e+01    0.2145511    0.1296175 -51.66 0.0004714514    1.320    0.242
       200 -12.8297     88.4118     77.2797   4.7096700948e+01   5.0301118955e+01    0.3632341    0.3173687  19.35  0.000520842    1.173    0.147
       201 -10.6506    203.4990     77.7866   2.0745104525e+01   2.4051574079e+01    0.2444254    0.2186149 -76.81 0.0003685849    1.025    0.025
       202  -9.7534    112.3423     78.1732   4.0122128597e+01   4.5300786753e+01    0.2814834    0.1923503  22.85 0.0009420179    1.922    0.480
       203 -11.6882     23.4040     75.5295   7.0626222346e+01   5.9538300768e+01     1.085092     0.533324   5.64  0.005019195    2.755    0.637
       204 -14.1231     16.6898     67.3186   7.1343966681e+01   6.1821277008e+01    0.5346205    0.3868819 -39.84  0.001154227    1.159    0.137
       205 -11.4673      2.8462     62.8155   7.6119968499e+01   6.3644943614e+01    0.5863553    0.3319213 -38.66  0.002917258    1.496    0.332
       206 -10.0398     83.9227    248.4902   7.9784139799e+01   1.1374260879e+01    0.1897503    0.1036905  42.13 0.0004555534    1.527    0.345
       207 -10.1216    182.7859    246.6300   5.9414705394e+01  -3.5689804568e+00    0.1847982    0.1008613  42.02 0.0009573376    1.721    0.419
       208 -11.6351    167.9130     73.4703   2.5724930974e+01   3.3196575333e+01    0.3811639    0.2522017 -53.91 0.0004122261    1.549    0.354
       209 -10.6810    167.5708     69.5499   2.4732149503e+01   3.3948617261e+01     0.285924    0.2279521 -77.86  0.001179561    1.313    0.238
       210  -9.7104     40.7572     79.6351   6.4865827003e+01   5.6956922129e+01    0.1793492    0.1179975  36.89 0.0009531664    1.707    0.414
       211 -10.2262     99.6934     76.1740   4.3212845158e+01   4.8325623319e+01    0.2442927    0.2010158  55.63 0.0006896026    1.291    0.226
       212  -9.7764     37.3791     76.1417   6.5248212406e+01   5.8079282024e+01    0.2566281    0.1558838 -16.09  0.001252623    2.084    0.520
       213  -9.5916     74.6375     75.0468   5.1031222202e+01   5.3191235657e+01    0.3053093    0.1829737   8.21  0.001195691    2.882    0.653
       214  -9.4947    235.9765     75.0000   1.5689233795e+01   1.7436359888e+01    0.2044391   0.07406446  62.09 0.0008100433    2.995    0.666
       215 -11.6641     45.9948     60.7026   5.7252063647e+01   6.0236184921e+01    0.4402616    0.3329907  13.33 0.0008879521    1.355    0.262
       216 -10.1040     44.6689     74.5340   6.1959303617e+01   5.7600473944e+01    0.2035753    0.1586166  42.50  0.001172759    1.503    0.335
       217 -11.0332     44.9723     70.7280   6.0744345108e+01   5.8358412745e+01    0.2370198    0.1805844 -45.42  0.000269032    1.198    0.165
       218 -11.7571     50.2964     68.2197   5.7904696465e+01   5.8201377086e+01    0.3126135    0.2534698 -13.21 0.0004707761    1.221    0.181
       219 -10.9591     50.5122     63.5519   5.6359303462e+01   5.9098512734e+01     0.312498    0.2393335  -7.06 0.0009282024    1.361    0.265
       220 -10.1261      6.7327     73.4581   7.6839700305e+01   6.1168002070e+01    0.3005706    0.1761143  -4.01  0.001282215    2.022    0.505
       221  -9.5370    206.8166     73.2211   1.9164243081e+01   2.4059686659e+01    0.1691417    0.1626965 -26.72 0.0003242296    1.276    0.217
       222 -10.7181    106.8891     71.8669   3.9733715898e+01   4.7656832350e+01    0.2547953    0.2082677  48.60 0.0004481226    1.207    0.172
       223 -11.2700    102.9956     69.5827   4.0151057017e+01   4.8894797554e+01    0.5067092    0.3238715 -35.73 0.0005283393    1.632    0.387
       224  -9.2426    159.9789     71.9722   2.6868510200e+01   3.5371925034e+01    0.1771633     0.165482  86.80 0.0004060536    1.003    0.003
       225 -11.1771     92.4560     68.1880   4.2925771629e+01   5.1278286705e+01    0.4434121    0.3579873  -7.21  0.001582146    1.407    0.289
       226 -11.4542    147.1605     65.7950   2.7777179792e+01   3.9516977994e+01     0.345342    0.2300834 -51.27  0.001212856    1.584    0.368
       227 -10.9346      6.4423     68.1464   7.5808469954e+01   6.2324147077e+01    0.2084241    0.1801518 -54.35 0.0003682066    1.118    0.106
       228  -9.1049    199.4981     68.4643   1.9101930497e+01   2.6520549958e+01    0.1423438    0.1261558 -75.50  0.000153722    1.006    0.006
       229 -10.5464    122.9488     67.4690   3.3973666425e+01   4.4918995484e+01    0.2729249    0.2169814 -39.65 0.0006603366    1.305    0.234
       230 -12.8274     30.2610     63.4672   6.4605943005e+01   6.1450467604e+01    0.4184641    0.3778885 -32.89  0.001077424    1.097    0.088
       231 -11.5011    110.6461     63.3629   3.5964228086e+01   4.8372962760e+01    0.5911763    0.4939247   4.94  0.003153261    1.387    0.279
       232 -10.6655    159.3747     64.1202   2.4806138006e+01   3.6839038472e+01    0.3726013    0.2240871 -29.16  0.001284822    1.975    0.494
       233 -10.4116     81.6735     64.8930   4.5364868332e+01   5.3922323366e+01    0.2419941    0.1800108  27.85 0.0005565801    1.373    0.272
       234 -10.5783    209.9903     63.1392   1.6348571443e+01   2.4959872511e+01    0.2189318    0.1799379 -56.03 0.0003658191    1.115    0.103
       235  -9.4209    179.7304     63.9958   2.1099710492e+01   3.1925796695e+01    0.1959601    0.1705813 -62.15  0.000334346    1.098    0.089
       236 -10.3656    155.2413     63.0262   2.5311939194e+01   3.8021196433e+01      0.20651    0.1923195 -85.37  0.001160349    1.032    0.031
       237  -9.0506     62.6539     63.6772   5.1728107216e+01   5.7339519132e+01    0.1422815   0.09891143  -9.09 0.0006804185    1.738    0.425
       238  -9.7147    202.1248     61.5806   1.7059343075e+01   2.7007516787e+01    0.2178658    0.1915004 -26.20  0.001256178    1.399    0.285
       239  -9.2579    193.5229     62.5322   1.8540991264e+01   2.8869678563e+01    0.1425794    0.1256522 -78.41   5.1965e-05    1.006    0.006
       240  -9.3421    168.4902     61.3910   2.2353309969e+01   3.5063526906e+01     0.144928    0.1300765  85.54 -0.0001933136    1.028    0.028
       241 -10.8184    119.2622     60.9284   3.2875278713e+01   4.6871666716e+01     0.271759    0.2431054 -34.41 0.0002622434    1.174    0.148
       242 -11.2864    115.8492     55.3457   3.1967175238e+01   4.8549281122e+01    0.3874712    0.2691304  71.03  0.001854682    1.737    0.424
       243 -11.2024     89.2111     52.4382   3.8649655295e+01   5.4653599624e+01    0.6103114    0.2870972 -39.01  0.002641847    2.193    0.544
       244 -10.0829     90.0550     61.0387   4.1330048012e+01   5.3036271671e+01    0.2084803     0.197078  19.90 0.0003703624    1.023    0.022
       245 -10.3147     93.3751     58.7812   3.9524672076e+01   5.2771590265e+01    0.3462435     0.236751 -30.43  0.001218707    1.544    0.352
       246 -10.1336     80.4344     61.5315   4.4660815482e+01   5.4759463346e+01    0.2494459    0.1245499  31.44  0.001029313    2.299    0.565
       247  -9.7004    150.9872     60.2627   2.5377688235e+01   3.9498862891e+01    0.3059192    0.1493999  41.49  0.001163813    2.515    0.602
       248 -10.4420    136.5525     58.9546   2.8080416580e+01   4.3176303686e+01    0.3797928    0.2454077  79.85  0.001655432    2.039    0.510
       249 -10.1914    171.5846     57.7838   2.0837240825e+01   3.4878143384e+01    0.1951527    0.1255025 -51.35  0.000328285    1.566    0.362
       250  -9.8039    119.1424     65.1135   3.4228222335e+01   4.6189327727e+01    0.2116881    0.1925542  15.19 0.0003391709    1.186    0.157
       251  -9.3682     57.9920     58.7614   5.1860363543e+01   5.8962354755e+01    0.1702543    0.1073457  32.33 0.0008794002    1.606    0.377
       252 -10.5979     79.6071     56.6514   4.3273381905e+01   5.5769713569e+01    0.4131579    0.2682469   1.13  0.001223728    2.284    0.562
       253 -10.6841     82.5105     48.9852   3.9592576224e+01   5.6502218332e+01    0.3948956    0.2775603 -45.43 0.0009902187    1.582    0.368
       254  -9.4896     78.5143     47.4571   4.0378662897e+01   5.7491330701e+01    0.1338572    0.1209249  12.85 6.806919e-05    1.007    0.007
       255  -9.2245     38.6859     57.7258   5.9307998017e+01   6.1689625549e+01    0.1286618   0.08654561 -18.03 0.0002961775    1.560    0.359
       256  -9.8597    186.2528     64.2294   2.0093493565e+01   3.0324828826e+01    0.2275041    0.1136455  74.02 0.0008863608    2.420    0.587
       257  -9.8778    176.9778     55.8797   1.9429151051e+01   3.3862391542e+01    0.2409456    0.2008341 -46.63  0.001132944    1.225    0.184
       258 -11.4285    148.6294     52.6881   2.3649369845e+01   4.1246006190e+01    0.6091463    0.3657327  49.82  0.002682391    1.626    0.385
       259 -11.3353    141.5401     48.9972   2.3988692938e+01   4.3506704046e+01    0.5013313    0.2517343 -42.49 0.0004193571    2.085    0.520
       260 -11.3665    104.9785     52.4640   3.3953022761e+01   5.1396297767e+01    0.2679898    0.2478605  79.61 0.0003254813    1.212    0.175
       261 -10.5475    126.8234     51.1322   2.7893673836e+01   4.6685264248e+01    0.3163184    0.2460991  82.47   0.00163885    1.480    0.324
       262 -10.7189    133.2542     50.2346   2.6142405604e+01   4.5305776461e+01    0.3145403     0.229151  89.56 0.0008798548    1.697    0.411
       263 -10.0147     73.3706     49.8712   4.3036057196e+01   5.8028438156e+01    0.2931081    0.1232466 -40.00  0.001233063    2.404    0.584
       264 -11.7649     84.4068     36.5259   3.4391654142e+01   5.7986330205e+01     0.692207    0.4230955   4.43  0.003109174    2.495    0.599
       265 -11.8898     75.0259     35.2504   3.6979318691e+01   5.9951773600e+01    0.4797924    0.4718612 -88.08  0.001500854    1.295    0.228
       266 -11.7881     61.8501     39.2654   4.3290940019e+01   6.1661542923e+01     0.841643    0.2263352 -42.89  0.002938243    4.072    0.754
       267 -11.8342     65.4399     36.7476   4.0964212885e+01   6.1439401952e+01      0.38405    0.3233422  55.75 0.0002697476    1.495    0.331
       268 -10.3717     50.3590     42.7911   4.9194680685e+01   6.2860478067e+01    0.3501604     0.212806 -31.34  0.001908159    1.587    0.370
       269 -11.8153     54.8957     48.8311   4.9595602940e+01   6.1189597463e+01    0.4969684    0.3273841  22.81 0.0005737695    1.546    0.353
       270 -11.8008     45.5175     45.7352   5.2304032307e+01   6.3031062465e+01    0.7598736    0.3724339 -51.34   0.00358569    2.385    0.581
       271 -10.5679     44.9295     38.3048   4.9751172661e+01   6.4343511507e+01    0.2506314     0.184324 -41.00            0    1.418    0.295
       272 -10.8714     58.9756     44.7119   4.6472374921e+01   6.1261124387e+01     0.237341    0.2138701  10.37 0.0008505153    1.086    0.079
       273  -9.4746    168.9981    250.5049   6.2710386989e+01  -2.0819322141e+00    0.1776811   0.09835087  16.82 0.0006531675    2.441    0.590
       274 -10.0602    180.8758     48.2568   1.6826616392e+01   3.4049612229e+01    0.4375767    0.1864768 -56.90   0.00124042    3.016    0.668
       275  -9.5079    164.1451     48.1544   1.9488397556e+01   3.8131139343e+01    0.1963873    0.1537047 -75.14 0.0003611252    1.310    0.236
       276 -10.2095    163.3408     44.2169   1.8533799032e+01   3.8884961295e+01    0.2421158    0.1993896  86.53 0.0003514509    1.146    0.127
       277  -9.4775    222.1939     45.8638   1.0939523300e+01   2.4798351901e+01    0.1558774    0.1479124  85.01 0.0002350215    1.283    0.221
       278 -11.7314     39.1627     49.9954   5.6526025182e+01   6.3078039383e+01     0.494567    0.2996012 -31.41  0.001694322    1.557    0.358
       279  -9.9720    112.2355     45.2252   2.9552723358e+01   5.0893825157e+01    0.2002561    0.1774429  25.96 0.0006154603    1.150    0.130
       280 -10.9400    108.7640     40.8438   2.8960068524e+01   5.2284890347e+01    0.3618655    0.2331276  73.34  0.001204549    2.037    0.509
       281  -9.7456    236.9064     44.3421   9.0921814910e+00   2.1846189576e+01    0.2082589    0.1324899 -76.53 0.0009915533    1.494    0.331
       282  -9.1599    154.6554     44.7539   2.0200822197e+01   4.0930429579e+01    0.1399041    0.1003073  41.23 0.0003708209    1.572    0.364
       283 -10.9685     72.4979     42.6521   4.0683203522e+01   5.9328352993e+01    0.2992528    0.2398418 -47.12  0.000117146    1.472    0.321
       284 -10.8796    246.1569     41.8273   7.7104130889e+00   2.0284578391e+01    0.3062114    0.1564608 -55.95  0.001234124    1.663    0.399
       285 -11.5511    248.0173     36.3549   6.4579302257e+00   2.0649958301e+01     0.260506    0.2138598  68.78 0.0003114223    1.443    0.307
       286 -10.0595    131.0625     41.7678   2.3969138058e+01   4.7032018293e+01    0.2783436    0.1759539 -31.89  0.001366766    1.740    0.425
       287 -10.4109    121.1976     42.1051   2.6304485367e+01   4.9295078336e+01    0.3623729    0.2496615 -69.04  0.001296967    2.002    0.500
       288 -10.1736    117.4727     39.4839   2.6321743022e+01   5.0508584473e+01    0.4092937    0.2744084   5.33  0.001921917    2.202    0.546
       289 -11.2408     96.7967     41.8488   3.2599571928e+01   5.4724650911e+01    0.3698404    0.2629335  33.87  0.001575741    1.387    0.279
       290 -10.1877    143.9179     42.2950   2.1493768824e+01   4.3879823273e+01    0.1963549    0.1642183  64.97 0.0002854504    1.091    0.083
       291 -10.4869     89.5203     41.4786   3.4635473629e+01   5.6271514260e+01     0.272579    0.2256379  63.83 0.0005200233    1.398    0.285
       292 -10.5833     92.4811     35.4339   3.1529147412e+01   5.6506633092e+01    0.3929863    0.2253436 -19.14  0.001835294    2.156    0.536
       293 -12.6719     27.6898     37.6154   5.7224137057e+01   6.6534542399e+01    0.4235789     0.267926  -8.05  0.000315834    1.670    0.401
       294 -11.2469     24.3654     34.8144   5.7749047706e+01   6.7348614506e+01    0.4132928    0.2434651  -8.89 0.0004235592    1.893    0.472
       295  -9.8728    187.1979     41.0219   1.4072575582e+01   3.3544603169e+01    0.1842111    0.1600008 -76.59  0.001100639    1.042    0.041
       296 -11.1501    233.9366     39.4984   8.3688797723e+00   2.3141301722e+01    0.3840333    0.1817482  85.79  0.001120829    2.444    0.591
       297 -11.2614    226.0326     39.3463   9.1152324755e+00   2.4861620408e+01    0.3131492     0.173546 -40.39  0.001525448    1.712    0.416
       298  -9.6359    169.9296     40.5542   1.6465374677e+01   3.7780088227e+01    0.2095381    0.1236158  64.28 0.0007559701    1.549    0.354
       299  -9.8620    148.3192     39.7286   1.9895320701e+01   4.3159186424e+01    0.2568119    0.1542366 -47.65 0.0009446064    1.781    0.438
       300  -9.3191    102.5480     40.5516   3.0519334438e+01   5.3684499226e+01    0.1350693    0.1238576  38.73 4.575631e-05    1.009    0.009
       301 -10.1189    221.8677     37.1208   9.0563691640e+00   2.6075478546e+01    0.2160493    0.1473912 -66.42 0.0006435195    1.283    0.221
       302  -9.4776    164.8618     36.8571   1.6251573872e+01   3.9505488211e+01     0.196499     0.149574 -77.70 0.0007696042    1.330    0.248
       303 -10.8251      7.0989     41.0005   6.8319601957e+01   6.7693077710e+01    0.3329931    0.1829245 -25.52  0.001173494    1.704    0.413
       304  -9.7318    140.6142     34.8934   1.9890154875e+01   4.5651953822e+01    0.3442414    0.2099063  -6.31  0.001499381    2.699    0.630
       305 -11.0437    129.3170     35.8221   2.2451665370e+01   4.8231577849e+01    0.2374072    0.1969668  47.94 0.0002535057    1.147    0.128
       306 -11.2238    110.9481     34.7994   2.6321430049e+01   5.2602386849e+01    0.3844704    0.2228917  43.90  0.001441378    1.625    0.385
       307  -9.1584     97.6515     36.3047   3.0363971145e+01   5.5309229533e+01    0.1308223    0.1057039 -84.86 0.0007041441    1.698    0.411
       308  -9.6393    194.2972     35.6648   1.1824755613e+01   3.2575452644e+01    0.1425759   0.08800743 -68.09 0.0004163709    1.650    0.394
       309 -10.0451    241.4436     34.4796   6.6499071931e+00   2.2242793819e+01     0.124948   0.09800418 -68.99 5.326985e-05    1.013    0.013
       310  -9.7971    146.1723     34.0168   1.8593885816e+01   4.4419378870e+01    0.2007949    0.1487859  16.87 0.0004751233    1.879    0.468
       311  -9.6573    117.1658     33.3125   2.4322381173e+01   5.1379992536e+01    0.3165576    0.1191041  45.27  0.001211258    2.611    0.617
       312 -10.4050     15.9874     32.0218   6.0815045922e+01   6.8603859097e+01    0.2046085    0.1568281 -34.47 0.0006034075    1.157    0.136
       313 -10.2183     19.4092     31.1902   5.8788843417e+01   6.8433423975e+01    0.2092615    0.1738536 -15.55 0.0006801192    1.079    0.073
       314 -10.9258     12.1552     29.1598   6.1690601321e+01   6.9406691337e+01    0.2242055    0.1496504 -13.35 0.0003438118    1.347    0.258
       315  -9.8501      1.3123     24.0792   6.5549113846e+01   7.1045697699e+01    0.2456316    0.1034548 -44.77  0.001390098    1.854    0.461
       316 -10.1838     11.0021     24.4424   6.0467530947e+01   7.0274768035e+01    0.2837757    0.1301965 -27.14 0.0008936364    2.165    0.538
       317 -10.3313      8.4895     32.4505   6.4778421245e+01   6.9129185661e+01    0.1887475    0.1766527 -62.85  0.001172884    1.496    0.331
       318 -12.4476     74.7381    239.8824   8.0823224163e+01   1.4402318553e+01    0.7186382    0.4389561 -56.09  0.003975937    1.938    0.484
       319  -9.2304    102.4762    243.5065   7.5449886244e+01   9.5681808535e+00    0.1309794     0.107773  54.61 0.0002109497    1.019    0.019
       320 -10.5383     88.8932    240.9349   7.7996059929e+01   1.2127269861e+01    0.1798911    0.1755578  17.98  0.001218604    1.331    0.249
       321  -9.9820     59.6578    240.8517   8.3987960677e+01   1.6291072630e+01    0.1732712    0.1423275  52.73   0.00114263    1.162    0.139
       322 -10.3602     98.0513     32.3115   2.8803846469e+01   5.5743283819e+01    0.2953771    0.1584786  58.46  0.001313763    1.885    0.470
       323  -9.4487      2.4530     32.2648   6.7829085137e+01   6.9568041686e+01    0.1487024    0.1000453 -62.89 0.0005968515    1.770    0.435
       324  -9.7644     34.0456     33.7689   5.2791766606e+01   6.6455525198e+01    0.1639911    0.1352244 -11.47 0.0007135565    1.016    0.016
       325 -10.0986    101.4574     28.5999   2.6543413933e+01   5.5467786742e+01    0.2723982    0.1991996 -65.15  0.001445781    1.915    0.478
       326 -10.9622     79.7938     27.4634   3.2363040236e+01   6.0073763668e+01    0.3020769    0.2316527 -32.41  0.000780036    1.422    0.297
       327 -10.3867    195.8617    238.3418   5.5574355990e+01  -4.2462939949e+00    0.2301236    0.2044235 -10.58  0.000970351    1.145    0.127
       328 -10.7636     61.2040     27.5977   3.8858175420e+01   6.3433456827e+01    0.3053217    0.1794598 -23.95  0.001646798    1.783    0.439
       329  -9.1227     49.1793     29.2030   4.4289823540e+01   6.5119160427e+01    0.1500155    0.1450726 -20.67  0.001051411    1.366    0.268
       330 -12.3557    231.6915     26.5219   5.8751694369e+00   2.5323461489e+01    0.4086162    0.2367436  84.77  0.001036372    1.614    0.380
       331 -11.2547    197.9245     28.0058   9.5557307765e+00   3.2703015364e+01    0.3527561    0.1741854  82.72  0.001475766    2.099    0.524
       332 -11.0627    119.5625     27.4747   2.1818300851e+01   5.1532305682e+01    0.2705681    0.2580003  32.26 0.0009550707    1.107    0.097
       333  -9.8625    122.7761     26.0578   2.0656839074e+01   5.0949191510e+01    0.2250423    0.1708905  57.92 0.0005303084    1.162    0.139
       334 -10.4394    112.4604     26.4688   2.3077160412e+01   5.3274585803e+01    0.3316939     0.227353   0.85  0.001681852    1.931    0.482
       335 -11.9273    216.1534     25.7816   7.1429370783e+00   2.8811946703e+01     0.425101    0.2358146  72.02  0.001198742    1.664    0.399
       336 -10.9274    176.4597     26.1838   1.1721935624e+01   3.8023576660e+01     0.317376    0.2157944 -63.08  0.001029971    1.469    0.319
       337  -9.9322     16.0077     25.8396   5.8409076686e+01   6.9616618533e+01    0.2981509    0.1761404 -63.17  0.001524413    3.147    0.682
       338  -9.4665    169.4393     26.4799   1.2752942866e+01   3.9683893368e+01    0.1341201    0.1158379  86.55 0.0001240404    1.007    0.007
       339 -12.2084    128.8340     24.2058   1.8821819250e+01   4.9736071114e+01    0.2553057    0.2357994  57.95 0.0003095665    1.059    0.056
       340 -10.1177    126.7219     19.3359   1.7658928459e+01   5.0759294174e+01    0.2169586    0.1773707 -51.77 0.0009458513    1.373    0.272
       341  -9.8993     89.9592     25.2531   2.8439433890e+01   5.8302066843e+01    0.2854656    0.1390333  55.79  0.001330067    1.976    0.494
       342  -9.6533    165.0930     17.1532   1.0840751646e+01   4.1787550338e+01    0.1960308    0.1544627  57.03 0.0002927896    1.274    0.215
       343  -9.7972    156.0792     21.6651   1.3365942283e+01   4.3474810201e+01    0.2271287    0.1469164  71.16 0.0005096179    1.364    0.267
       344 -10.5945    160.3827     24.1961   1.3433502549e+01   4.2146155661e+01    0.3059453    0.1914043 -53.27  0.001585359    1.690    0.408
       345  -9.9764    161.6041     20.2229   1.2157282792e+01   4.2296641194e+01     0.252892     0.189077  14.37  0.001377961    1.965    0.491
       346 -10.0468     22.2224     24.0438   5.4503701146e+01   6.9291019463e+01    0.1954694    0.1422664  12.96 0.0005641743    1.277    0.217
       347  -9.9775     54.0003     23.0166   3.9706864659e+01   6.5215382185e+01    0.2434278    0.1648463   9.11 0.0004603872    1.527    0.345
       348  -9.7160     59.4927     21.4503   3.6911784071e+01   6.4508479025e+01    0.3118104    0.1515594  53.64 0.0007842473    2.625    0.619
       349 -10.1032     55.7020     18.8690   3.7238403409e+01   6.5456075298e+01    0.2461454    0.1534859  -6.81  0.001371463    1.814    0.449
       350  -9.8539      3.5285    238.2955   9.4610884458e+01   2.3380548683e+01    0.2132423   0.09045574 -80.96 0.0009930128    2.050    0.512
       351 -12.0535     34.2477     22.6527   4.8072215246e+01   6.8105529565e+01    0.2362882    0.1672009   7.70 0.0001870451    1.289    0.224
       352 -10.8037     35.1043    237.8358   8.8631708664e+01   2.0024827540e+01    0.2412435    0.1242809  55.19  0.001175307    1.578    0.366
       353 -10.1705    224.6331     21.7166   5.4885433842e+00   2.7442087493e+01    0.1888309    0.1677664 -89.86 0.0005192079    1.237    0.192
       354 -10.0147    100.7882     21.7622   2.4224161228e+01   5.6396708818e+01     0.361737    0.2569377  64.66  0.002038882    1.423    0.297
       355 -11.0105     69.1369     21.5321   3.3480296389e+01   6.2800582465e+01    0.2736271    0.2026103  46.61  0.001675001    1.323    0.244
       356 -10.3291     63.9313     21.5182   3.5306101881e+01   6.3735003719e+01    0.2254678    0.1576768  -3.69 0.0007506653    1.513    0.339
       357 -10.5727    193.4433     20.7299   8.3212274053e+00   3.4627368743e+01    0.2370676    0.1846211  60.16 0.0001446686    1.372    0.271
       358  -9.9399     24.5015     20.0554   5.1642626619e+01   6.9637668834e+01    0.1924307    0.1572616  -4.05   0.00040384    1.078    0.073
       359 -10.6072     30.7620    233.6218   8.9191210169e+01   2.1412284818e+01    0.4052134    0.1916626 -74.64  0.002176833    1.985    0.496
       360  -9.8557     40.8898    237.5113   8.7471345713e+01   1.9391559229e+01    0.1710671    0.1029989  42.65 0.0004203103    1.496    0.332
       361  -9.2398     45.6731     20.2733   4.1928084365e+01   6.6853024985e+01    0.1018915    0.0954073  56.45 0.0003206852    1.584    0.369
       362  -9.5830    191.1582    236.1369   5.6141981236e+01  -3.1843424514e+00    0.1937999    0.1521911   4.74 0.0007949033    1.246    0.198
       363 -10.4477    169.6036     17.7755   1.0414332032e+01   4.0633918810e+01    0.2320021     0.186237 -37.51  0.000822674    1.402    0.287
       364 -11.0686    160.7800    234.4119   6.2018617996e+01   1.9196408090e+00    0.3786974    0.2835405 -35.99  0.002195253    1.510    0.338
       365 -10.2540     67.3689    236.1529   8.1991145046e+01   1.6203773643e+01    0.2777308    0.1793742  31.03  0.001488972    1.726    0.421
       366 -11.1605    182.9332    234.1457   5.7457447080e+01  -1.5835508968e+00    0.2844796    0.2163115  40.69  0.001056321    1.284    0.221
       367  -9.9619     92.0145    235.4823   7.6748172639e+01   1.2754846244e+01    0.1737191    0.1148141  12.71 0.0008103175    2.566    0.610
       368 -10.4496    216.9200     16.2110   4.9924037789e+00   2.9793271932e+01    0.4377081    0.1179919  59.36  0.001696421    3.608    0.723
       369  -9.9695    108.9107     16.5977   2.0430945118e+01   5.5139111757e+01    0.1854292     0.140739  58.19 0.0004891085    1.159    0.137
       370 -10.3572     54.7155    231.9242   8.4226780583e+01   1.8802005464e+01     0.232269    0.1739405  73.17  0.001083725    1.127    0.112
       371  -9.8756     76.7106     15.9218   2.8681848291e+01   6.1997960954e+01    0.1949038    0.1401305  40.06 0.0001997825    1.197    0.165
       372  -9.2143     23.5362    232.5370   9.0531677590e+01   2.2461020659e+01    0.1185149    0.0928527  73.61 0.0002495409    1.062    0.058
       373 -10.9092     39.6131    229.2805   8.7105681108e+01   2.1277712762e+01    0.2777911    0.1488482  63.69  0.001184444    1.656    0.396
       374 -10.5635    248.5237    228.4955   4.4306350708e+01  -1.0147620161e+01    0.2425557      0.10146 -36.79  0.001227539    2.228    0.551
       375  -9.5981     59.1603    229.3777   8.3074024043e+01   1.8751271210e+01    0.1809103   0.09529871  48.42 0.0004594087    1.602    0.376
       376 -10.7627    191.9680    226.3440   5.4385582698e+01  -1.7102488231e+00    0.2456544     0.223832 -20.24  0.001593869    1.160    0.138
       377  -9.2415    187.3579     16.3134   7.9233612791e+00   3.6560329332e+01    0.1280277   0.08986839  46.73 0.0007043614    1.744    0.427
       378 -10.6963    137.3070     15.1123   1.4417829124e+01   4.8683047256e+01    0.2313864    0.1683403 -67.09 0.0004185201    1.551    0.355
       379  -9.7759     99.0375     15.3198   2.2281401657e+01   5.7448883493e+01    0.1957716    0.1610896  17.29  0.000513976    1.275    0.216
       380 -10.1486      4.0068    225.8148   9.3894383204e+01   2.5909377858e+01     0.172289    0.1692697   2.19  0.001289487    1.596    0.374
       381 -10.1147      4.8127    244.2041   9.4661509572e+01   2.2068259355e+01    0.1889689    0.1116859  76.33 0.0005418246    1.303    0.232
       382  -9.7636     16.2922    222.0976   9.1292667698e+01   2.5462734598e+01    0.1698574     0.121562  80.80 0.0005066598    1.101    0.091
       383 -10.1835    123.6434    221.7118   6.8120789486e+01   1.0514453099e+01    0.1974003    0.1371017  23.09 0.0006258771    1.677    0.404
       384 -11.6897     48.9453    218.7936   8.4279300329e+01   2.2395658250e+01    0.4747644     0.276563  37.34  0.002564223    1.692    0.409
       385  -9.6104    211.8073    218.8434   4.9246103666e+01  -3.5615967798e+00    0.1577425    0.1560121  14.29 0.0007283197    1.320    0.242
       386  -9.4476    136.1903    216.9699   6.4639846188e+01   9.3532331021e+00    0.2106293     0.142469  57.39  0.001044308    1.590    0.371
       387  -9.9160     45.6915    244.4317   8.7041424905e+01   1.7380461582e+01    0.2204769   0.09043987  42.41 0.0006734694    1.981    0.495
       388 -12.0148     11.5323    209.7759   9.1468540813e+01   2.8645453518e+01    0.4033668    0.2708339  62.01  0.001375647    1.240    0.194
       389 -11.3321      3.8250    204.9487   9.2752382424e+01   3.0452844380e+01    0.2985979    0.2553923  54.17  0.002161147    1.303    0.232
       390  -9.0325    107.6726     10.3064   1.8468650085e+01   5.6019092781e+01    0.1234528   0.09433109 -77.48 0.0004954318    1.653    0.395
       391 -11.5234      7.9915    215.4961   9.2541315535e+01   2.7732883068e+01    0.2914447    0.2284186  82.00  0.002045351    1.087    0.080
       392 -11.7065      5.0808    211.2722   9.2874738002e+01   2.8936223444e+01    0.5244168    0.1662807 -77.59  0.002364934    2.659    0.624
       393 -11.0405     29.3704    215.1431   8.8135731007e+01   2.5564190852e+01     0.237458    0.2079737  45.13  0.001231011    1.343    0.255
       394  -9.9289     23.9515    216.0014   8.9329239306e+01   2.5975281559e+01    0.2002185    0.1100449  66.67 0.0004103452    1.592    0.372
       395 -10.1874     14.7213    215.4196   9.1181814105e+01   2.7078268022e+01     0.139295    0.1133096  34.04 0.0007150256    1.523    0.343
       396  -9.6186    110.3782    211.8099   6.9697868803e+01   1.4821530503e+01    0.1918873     0.126469 -48.21  0.000945311    1.731    0.422
       397 -10.0257     20.4416    212.1444   8.9783211929e+01   2.7208346988e+01    0.2472462    0.1071044  62.92  0.001181938    2.179    0.541
       398 -10.2165    217.1523    209.4926   4.6578238969e+01  -2.8553958243e+00    0.2381702    0.1684629 -34.46 0.0007858573    1.366    0.268
       399  -9.1814    132.3194    209.3109   6.4318063534e+01   1.1606056137e+01    0.1385821    0.1114134  -3.95 0.0007035573    1.645    0.392
       400 -10.8463     72.7557    208.6260   7.7934276597e+01   2.1438749423e+01    0.3091997    0.2129325  10.98   0.00148132    2.367    0.578
       401  -9.5145    201.7571    207.0051   4.9085725113e+01   2.0117919174e-02    0.1760129    0.1086338 -40.25 0.0008854149    1.629    0.386
       402  -9.7872    147.8639    205.9027   6.0261092227e+01   9.5718282739e+00    0.2220088    0.1927148  -0.27  0.001229813    1.315    0.240
       403 -11.1798     27.9809    205.3307   8.7661249723e+01   2.7932962453e+01    0.2313406    0.1582269 -87.04 0.0003629442    1.251    0.201
       404 -12.2813     20.5022    201.6089   8.8995230324e+01   2.9584475485e+01    0.7347962    0.2689884 -57.32  0.003206672    2.938    0.660
       405  -9.4905     67.7400    203.3471   7.8477416111e+01   2.3376804210e+01    0.1829797    0.1256104  29.87 0.0006377352    1.659    0.397
       406 -10.4897    175.0633    202.0562   5.3650620643e+01   5.4931678229e+00    0.2520454    0.1878613  36.08 0.0004397121    1.276    0.216
       407  -9.0518    124.0000     12.9966   1.6107470803e+01   5.2030431111e+01     0.187674   0.07509976 -25.35 0.0007973709    2.907    0.656
       408  -9.6709    185.3947    200.8606   5.1267218487e+01   3.9049696722e+00    0.1997899    0.1244947 -32.02 0.0009505467    1.745    0.427
       409  -9.4041     94.6637    201.0117   7.1833864318e+01   1.9824708158e+01    0.2288479    0.0915247 -42.41 0.0007051197    4.365    0.771
       410  -8.9808    238.3064    200.7137   4.1149196545e+01  -4.6195321332e+00    0.1090139    0.1013172 -70.76 0.0002750878    1.567    0.362
       411  -9.0807    120.3376    200.3189   6.5659286343e+01   1.5649058264e+01    0.1425357    0.1149828  -8.40 0.0007049411    1.706    0.414
       412 -10.2062     41.1885    198.0576   8.4060427279e+01   2.8100988045e+01    0.3789486    0.2069255  75.00  0.001837305    1.901    0.474
       413 -10.0938    134.9112    196.3690   6.1600207103e+01   1.3922850107e+01    0.2266864    0.1945204 -70.62 0.0004943745    1.255    0.203
       414  -9.1554     56.4995    197.4836   8.0439230219e+01   2.6300013565e+01    0.1355065    0.1165271  78.89 0.0008103048    1.028    0.027
       415 -11.9805     15.5709    192.1575   8.9355036796e+01   3.2265135818e+01    0.3763095    0.3348536 -74.07  0.001701537    1.285    0.222
       416 -11.9802     15.9403    182.5724   8.8500492819e+01   3.4486711455e+01    0.5072935    0.2522976  78.24  0.001926562    2.008    0.502
