#   1 NUMBER                 Running object number                                     
#   2 MAG_AUTO               Kron-like elliptical aperture magnitude                    [mag]
#   3 X_IMAGE                Object position along x                                    [pixel]
#   4 Y_IMAGE                Object position along y                                    [pixel]
#   5 X_WORLD                Barycenter position along world x axis                     [deg]
#   6 Y_WORLD                Barycenter position along world y axis                     [deg]
#   7 A_WORLD                Profile RMS along major axis (world units)                 [deg]
#   8 B_WORLD                Profile RMS along minor axis (world units)                 [deg]
#   9 THETA_WORLD            Position angle (CCW/world-x)                               [deg]
#  10 FWHM_WORLD             FWHM assuming a gaussian core                              [deg]
#  11 ELONGATION             A_IMAGE/B_IMAGE                                           
#  12 ELLIPTICITY            1 - B_IMAGE/A_IMAGE                                       
         1 -13.7593     44.1303    111.6171   1.0449806788e+02   4.8689462706e+01     2.678733     1.742636  78.66   0.01275784    2.087    0.521
         2 -13.3027    196.9927     41.3691   4.4604273101e+01   3.0913935853e+01     1.205813     1.025228 -34.08  0.003654763    1.284    0.221
         3 -13.9687    206.2421     32.1033   4.1131124405e+01   2.9911640374e+01     1.759185     1.343394  14.50  0.001394371    2.017    0.504
         4 -10.8022     29.4438     18.7258   8.2718709424e+01   6.9407188527e+01    0.2195134    0.1051521 -43.44  0.001146665    2.137    0.532
         5 -12.9832    230.6767      6.0284   3.2895214075e+01   2.7378449509e+01    0.8735651    0.6383948  85.81  0.004836718    1.214    0.176
         6 -10.6204     36.8231     16.1776   7.7847863822e+01   6.8871718762e+01    0.1771788    0.1204088  -1.79  0.001089668    1.350    0.259
         7 -10.8422     43.1296      6.7180   7.0208001354e+01   6.9191722301e+01    0.1760185    0.1457041  37.20  0.001201893    1.452    0.311
         8 -10.9555     58.3541      3.0721   6.2033002871e+01   6.7083224491e+01    0.2791246    0.1804429  20.37  0.001667193    1.409    0.290
         9 -10.9471     50.1126      2.4916   6.5011915269e+01   6.8550295707e+01    0.3364437    0.1480743  51.24  0.001601029    2.644    0.622
        10 -11.0322    111.9221    205.1684   1.0134619303e+02   1.6498057555e+01    0.3294495    0.2549439 -79.20  0.001217415    1.457    0.314
        11 -10.5232    140.1361    250.1140   1.0129996592e+02   3.5452351627e+00    0.3018992    0.2108428  34.43  0.001833971    1.191    0.160
        12 -11.0948    140.0078    245.9785   1.0080268409e+02   4.2462230329e+00    0.2819917    0.2410628 -10.06  0.001840077    1.422    0.297
        13 -15.7490     59.1841    188.5752   1.1159863319e+02   2.8061660803e+01     31.61925     11.20929 -84.64   0.07351016    8.637    0.884
        14  -8.2592     94.2770    180.6423   1.0193963036e+02   2.4838938391e+01    0.1487413    0.1040245  74.67  0.000700875    1.657    0.396
        15  -9.9770    188.2757    176.3734   7.8951080198e+01   8.5506644664e+00    0.4455212    0.3669362 -80.18  0.002280376    1.768    0.434
        16 -10.3895    203.3407    199.3328   8.0325809845e+01   1.7388961297e+00    0.2944133    0.1615023  43.79   0.00139009    1.900    0.474
        17  -9.6626    146.9432    172.7319   8.7537993455e+01   1.7229589585e+01     0.479229    0.2985865 -75.23  0.001820476    2.806    0.644
        18  -9.8467     33.4282    205.1787   1.1899395279e+02   2.7374896942e+01    0.3562945    0.1843089  42.59  0.001598876    1.743    0.426
        19 -14.5315     68.5215    144.0157   1.0287446884e+02   3.7635179452e+01     4.634082     2.114671  58.01  0.003658344    3.350    0.701
        20 -11.7118     71.7601    172.2166   1.0640451397e+02   3.0239426961e+01    0.4814576    0.3427216 -29.44  0.001345149    2.003    0.501
        21 -11.5487     75.6617    167.8664   1.0475820281e+02   3.0733716262e+01    0.3466562    0.3195774 -68.50  0.001084947    1.111    0.100
        22  -8.6059    194.2033    171.6093   7.6733921489e+01   8.3371603350e+00    0.2029753    0.1303533  29.36 0.0009405249    1.627    0.385
        23 -17.3747     11.5034    245.8943   1.2567683541e+02   2.1413547179e+01      5.63365     2.043841  27.18    0.0178932    3.982    0.749
        24  -9.9483    240.4161    169.2615   6.7482325130e+01   5.5182225575e-01    0.1789602    0.1144727 -42.35 0.0003368903    1.566    0.361
        25  -8.8959    136.7819    167.0106   8.8876106273e+01   2.0444688773e+01     0.421859    0.1661542  52.23  0.001296749    3.436    0.709
        26 -10.1175    115.1971    194.0007   9.8910433631e+01   1.8351604300e+01    0.3425177    0.2229857  -7.43  0.001330965    3.181    0.686
        27  -9.8318    120.1957    194.7460   9.7843626317e+01   1.7334584370e+01      0.29659    0.1999084 -76.78  0.001110822    1.900    0.474
        28 -10.6849     32.1492    165.0541   1.1563899822e+02   3.6759178111e+01    0.2823519    0.1766761 -71.75 0.0006835817    1.393    0.282
        29 -11.7161    107.6135    203.7865   1.0214300697e+02   1.7496098014e+01    0.5392162    0.3148541  55.63  0.001665391    1.783    0.439
        30  -8.2231    224.2678    206.6774   7.7645793660e+01  -2.8209033380e+00    0.1096573     0.104466 -61.80 0.0002606457    1.565    0.361
        31  -8.2731    133.9902    163.2205   8.8813764364e+01   2.1836535726e+01    0.2145729     0.121477  40.13 0.0008840722    1.715    0.417
        32  -8.7411     81.9212    194.8151   1.0694987621e+02   2.3476401224e+01    0.1954577    0.1916166   9.33  0.001222828    1.244    0.196
        33  -9.6794    149.6315    187.5932   8.9719614029e+01   1.3575467870e+01    0.3288755    0.2265801 -74.85  0.001391383    2.155    0.536
        34 -11.3884     90.5729    152.7012   9.8218928730e+01   3.2150209693e+01    0.6274318    0.4728504 -11.71  0.002705637    1.902    0.474
        35 -15.5816     47.8699    199.7819   1.1537429115e+02   2.6914358164e+01     11.49982     4.019633  64.74   0.03464102    5.502    0.818
        36 -10.6194    133.7773    144.9953   8.5011338016e+01   2.6052640487e+01     1.182851     0.315884 -54.60  0.002843205    5.336    0.813
        37  -9.4610    174.6164    148.7921   7.6020332106e+01   1.6755930275e+01    0.2897732    0.2352571 -79.02 0.0006863887    1.627    0.385
        38  -9.0127     91.1119    182.8284   1.0305804639e+02   2.4831095177e+01    0.2118377    0.1773762  73.76 0.0005536372    1.169    0.144
        39 -10.2184    103.6526    138.4451   9.1726564335e+01   3.3395101703e+01    0.5640119    0.3651733 -20.96  0.002204147    2.483    0.597
        40 -11.6135     91.3218    138.0424   9.5162915076e+01   3.5634296620e+01    0.2899938    0.2695198 -43.60 0.0004573578    1.107    0.097
        41 -10.0439     99.2441    180.8608   1.0073326673e+02   2.3983777765e+01    0.2729555    0.2284985  25.59 0.0008402432    1.324    0.245
        42 -12.3616     43.7714    128.6024   1.0760541348e+02   4.4533036915e+01    0.6785884    0.4854542  81.46   0.00321823    1.555    0.357
        43  -9.9162    112.6726    129.2313   8.7111478417e+01   3.3929105397e+01    0.3686458    0.2958295  -9.54 0.0008291469    1.579    0.367
        44 -10.2985     99.7817    125.2334   8.9896521514e+01   3.7292353196e+01    0.3271567    0.2655814  -7.82   0.00157728    1.535    0.349
        45 -10.5775    119.0320    122.9268   8.3811161488e+01   3.4160989597e+01    0.5854104    0.3866419   5.83  0.002176491    2.655    0.623
        46 -10.0081    105.9773    130.8416   8.9385752414e+01   3.4808722635e+01    0.3702513    0.3209857 -74.84  0.001226424    1.224    0.183
        47 -10.3903    135.6809    129.7423   8.0973517495e+01   2.9156992932e+01     0.518065    0.1456095 -48.30  0.001452645    3.619    0.724
        48  -9.1782    108.4192    118.3025   8.5699044963e+01   3.7333671274e+01    0.2555331    0.2049887  38.56 0.0005563804    1.271    0.213
        49 -10.0534    231.3719    113.7701   5.7057046102e+01   1.1649831635e+01    0.2813352    0.2397659 -49.98 0.0007576091    1.125    0.111
        50  -8.5078    167.4709    112.4672   6.8847391455e+01   2.5853216531e+01    0.1575603    0.1487242 -77.52 9.243712e-05    1.114    0.102
        51 -11.0013    116.7530    109.2703   8.0966268005e+01   3.7762395440e+01    0.5808007    0.4703986  59.77  0.002673201    1.365    0.267
        52  -9.5018    205.4384    110.1721   6.0593422733e+01   1.7725347530e+01     0.313169    0.2128464  42.26 0.0009378413    1.606    0.377
        53  -8.0138    141.7049    108.3490   7.3948012779e+01   3.2585833376e+01    0.1615821    0.1263458 -82.00 0.0004914668    1.677    0.404
        54  -9.0731    134.6286    102.2279   7.4122909361e+01   3.5476598339e+01    0.2248012     0.147496 -33.59  0.000943855    1.651    0.394
        55  -8.2823    129.3250     96.6639   7.3985126724e+01   3.7833205079e+01    0.1608321    0.1260501 -86.39 0.0004726409    1.718    0.418
        56 -11.0547     53.8552     94.0324   9.7362410974e+01   5.1800082977e+01    0.5136483    0.3880703  82.31  0.002349211    1.804    0.446
        57 -12.2675     83.6741    159.7404   1.0133645752e+02   3.1516929347e+01     1.231028     0.729135  71.88  0.005009367    2.404    0.584
        58  -8.2375    157.4939     89.5156   6.4933609131e+01   3.2748481466e+01     0.157596    0.1468702 -81.54 0.0008076027    1.123    0.109
        59  -9.0229    157.7693     82.2365   6.2813185234e+01   3.4050989570e+01    0.2106018    0.1820029  18.11 0.0006740558    1.331    0.249
        60 -13.0660    186.1230     49.9758   4.8431355957e+01   3.2363830374e+01     1.034539    0.9059083  30.76  0.001005312    1.369    0.269
        61 -16.4158      5.3749    215.0497   1.2530069133e+02   2.8075652092e+01     6.188516    0.3781969 -67.88   0.01979703    6.439    0.845
        62 -10.9128    193.0085    194.9862   8.1604553267e+01   4.2670125806e+00    0.9667972    0.4856744 -61.51  0.002845384    5.982    0.833
        63 -10.3989     59.8519    220.5389   1.1470003626e+02   2.0918511913e+01    0.3873135    0.3052712  44.30  0.001955839    1.234    0.190
        64 -13.1361     72.4132    154.0749   1.0346888322e+02   3.4585843993e+01    0.6594089    0.5172493 -62.91  0.001053059    1.211    0.174
        65 -11.1978    184.4436    213.0072   8.6630902067e+01   2.5979453171e+00    0.3620198    0.2837204   2.91  0.002078205    1.303    0.233
        66  -8.9608    189.5023     15.0147   3.8768046684e+01   3.5913622399e+01     0.183208    0.1259036 -35.63 0.0005825255    1.549    0.354
        67 -10.7998    162.0158    214.3434   9.1582607788e+01   6.1686001208e+00    0.5387744    0.1504851  35.35  0.001744351    3.551    0.718
        68  -9.5298     89.9024    212.6787   1.0733681426e+02   1.8372073013e+01    0.2511916    0.1883511  70.26 0.0008569548    1.316    0.240
        69  -9.6618    121.2127    199.7961   9.8396306953e+01   1.6079511000e+01    0.1888681    0.1646095   9.17 0.0004923308    1.337    0.252
        70 -11.3119    107.6251    209.8003   1.0297409980e+02   1.6222458002e+01    0.4465287    0.2328614 -63.46  0.001868026    2.174    0.540
