#   1 NUMBER                 Running object number                                     
#   2 MAG_AUTO               Kron-like elliptical aperture magnitude                    [mag]
#   3 X_IMAGE                Object position along x                                    [pixel]
#   4 Y_IMAGE                Object position along y                                    [pixel]
#   5 X_WORLD                Barycenter position along world x axis                     [deg]
#   6 Y_WORLD                Barycenter position along world y axis                     [deg]
#   7 A_WORLD                Profile RMS along major axis (world units)                 [deg]
#   8 B_WORLD                Profile RMS along minor axis (world units)                 [deg]
#   9 THETA_WORLD            Position angle (CCW/world-x)                               [deg]
#  10 FWHM_WORLD             FWHM assuming a gaussian core                              [deg]
#  11 ELONGATION             A_IMAGE/B_IMAGE                                           
#  12 ELLIPTICITY            1 - B_IMAGE/A_IMAGE                                       
         1 -11.5763    226.5495     33.2403   3.1518601901e+01   2.5758880399e+01    0.6742702     0.580084  69.75  0.001621286    1.352    0.260
         2  -9.9754      2.1362     44.0623   9.7770549158e+01   6.8446013902e+01    0.3727945    0.1448685 -61.11  0.001638566    2.326    0.570
         3 -11.6479    241.4154     20.8954   2.7876689306e+01   2.4307716759e+01    0.6806826    0.4678529 -60.69  0.002792784    1.140    0.123
         4  -9.6779      2.2192      3.5133   8.0528950303e+01   7.5790424561e+01    0.3724872    0.1186824 -42.39  0.001756321    2.819    0.645
         5 -10.3239    114.6514    226.4637   9.4040849371e+01   1.1251854360e+01    0.2645961    0.2141985   9.26  0.001161539    1.307    0.235
         6  -8.5964     81.2579    250.0754   1.0409578874e+02   1.1280810242e+01    0.2475484    0.1475314  39.02  0.001075457    1.367    0.268
         7 -13.4356     16.8119    246.7500   1.1718520969e+02   1.9274315435e+01     3.484219     1.177141  24.34   0.01515522    3.525    0.716
         8 -13.8684     31.9822    191.2137   1.1010809462e+02   2.9866556654e+01     7.001224     2.868489  77.29   0.02490832    3.672    0.728
         9 -12.5059     10.3377    206.7824   1.1642697247e+02   2.8304991944e+01     0.948249     0.842288  33.02  0.004000328    1.303    0.232
        10 -10.9422     59.7057    211.4242   1.0520596821e+02   2.1976448731e+01    0.5839552    0.2156493  45.05   0.00239887    2.428    0.588
        11 -10.4929     54.2149    208.2050   1.0620806830e+02   2.3378595065e+01    0.4860677    0.2517647  62.60  0.002207267    2.177    0.541
        12 -11.4625     20.9041    201.0337   1.1360430440e+02   2.8647954284e+01    0.5288831     0.377137 -56.68   0.00102414    1.561    0.360
        13  -7.9587     73.5076    206.0444   1.0125131895e+02   2.1405685973e+01    0.1949453    0.1326465 -69.43 0.0008577966    1.548    0.354
        14  -9.7922    126.6457    230.2269   9.1840599779e+01   8.7902316499e+00    0.3676983    0.2173816 -11.99   0.00155554    2.986    0.665
        15 -10.3909     66.6501    238.3561   1.0618036166e+02   1.5389631790e+01    0.6055641    0.1991553  26.31  0.002265208    3.461    0.711
        16 -11.0682    108.4663    229.0365   9.5782525405e+01   1.1636194518e+01     0.438776    0.2376969  40.17  0.002175827    1.620    0.383
        17 -10.1593     52.0415    175.4352   1.0313289714e+02   3.1507237211e+01    0.4520491    0.2843053 -32.55  0.001520111    2.176    0.540
        18 -10.1851     58.2762    170.0081   1.0068300871e+02   3.2101824491e+01    0.3603791    0.2818077 -36.21 0.0008296928    1.485    0.326
        19 -10.9809     86.8118    224.8839   1.0025778907e+02   1.5505287539e+01    0.5145469    0.3367603  18.90  0.002680841    1.710    0.415
        20  -9.8150     82.4574    161.9970   9.2534692255e+01   3.0745217802e+01    0.3847652    0.2574573 -85.70  0.001685503    1.905    0.475
        21  -9.8349     69.6612    160.7825   9.6035831256e+01   3.2927466316e+01    0.3045928    0.2686629 -36.57 0.0005301582    1.229    0.186
        22 -11.6339     55.7078    156.9145   9.9550270085e+01   3.5780508117e+01    0.5551071    0.3492887 -34.01  0.001512148    2.011    0.503
        23 -11.0604     77.2472    154.9720   9.2824386119e+01   3.3312094664e+01    0.7362335    0.5867853  -4.93  0.001911997    1.551    0.355
        24 -11.8990     68.4398    144.8803   9.3682595935e+01   3.7193401209e+01    0.9917808    0.6810687  78.28  0.003244247    1.877    0.467
        25 -10.6527     59.4342    136.0710   9.4926157176e+01   4.0723463124e+01     0.704625    0.3156402 -69.22  0.002578596    2.487    0.598
        26 -10.8429     95.6936    226.7093   9.8419496399e+01   1.3903731063e+01     0.545616    0.1485253  36.93  0.001989919    2.937    0.660
        27 -11.7615      7.6889    227.2100   1.1808583908e+02   2.4094889781e+01     1.350342    0.4790139  69.02  0.005910485    2.987    0.665
        28  -8.3436     59.0644    225.9020   1.0674948901e+02   1.8893279918e+01    0.1916685    0.1699237  54.13  0.000700858    1.047    0.045
        29  -8.9049     93.8188    141.1871   8.5206010789e+01   3.4147303324e+01    0.3051156    0.2721153 -19.70 0.0008793285    1.211    0.174
        30  -8.5242     97.5002    137.9698   8.3415880194e+01   3.4309916660e+01    0.3582783    0.2072387 -26.53  0.001089712    2.682    0.627
        31 -10.5512     81.2265    139.5189   8.8685804704e+01   3.6646550925e+01    0.3523806    0.2920881 -47.44 0.0004869142    1.188    0.158
        32  -9.2980    106.4155    130.6898   7.9127880704e+01   3.4473819637e+01    0.3620827    0.3208276  11.36  0.001144979    1.215    0.177
        33  -9.0820     93.1675    126.5441   8.2141834327e+01   3.7904343282e+01    0.2844433    0.2598659 -33.62 0.0004271448    1.098    0.089
        34  -8.6842    114.1665    124.8270   7.5473528203e+01   3.4384361860e+01    0.2264555     0.190048  -6.41  0.001082773    1.380    0.275
        35  -9.4642     55.0076    123.7586   9.4045775406e+01   4.4505244266e+01    0.2786531    0.1885407 -77.99  0.001048806    1.658    0.397
        36  -9.5138     82.3001    215.0858   1.0018253164e+02   1.8203225758e+01    0.3770989    0.2185468 -78.74  0.001779524    2.166    0.538
        37  -8.1151    104.6914    119.1027   7.6814597164e+01   3.7579378133e+01     0.212963    0.1950028 -34.72 0.0003306411    1.083    0.077
        38  -8.3550     51.3290    110.6887   9.2619755738e+01   4.8332799590e+01    0.1486409    0.1116928  68.27 0.0002313612    1.667    0.400
        39 -10.2805      1.7977    102.3506   1.0969607712e+02   5.4808607322e+01    0.7840495    0.1228334 -71.12  0.002284216    4.646    0.785
        40  -8.3975     54.3135     95.6777   8.7942281660e+01   5.1678467951e+01    0.1448301    0.1146347  72.70 0.0007040031    1.657    0.397
        41 -10.5707      1.6752     82.1191   1.0666562890e+02   5.9817444263e+01    0.8955962   0.08156796 -68.64  0.002269407    6.413    0.844
        42 -10.1561      2.0743     71.9460   1.0460726513e+02   6.2227572763e+01    0.5500063    0.1197425 -65.05  0.001946153    3.348    0.701
        43  -8.1877     58.3299     77.3028   8.1165093660e+01   5.5376903598e+01    0.1507293    0.1062675 -15.53 0.0007034399    1.650    0.394
        44  -8.7887     13.0932     60.0301   9.6501370484e+01   6.4302620628e+01    0.1993058     0.166367 -39.56 0.0005154051    1.028    0.028
        45 -11.8651    211.4373     44.3692   3.5396854085e+01   2.7468206042e+01    0.6244184    0.5040457 -24.36  0.003251895    1.478    0.323
        46 -11.4633    218.5100     39.6512   3.3629561689e+01   2.6598650434e+01    0.7648853    0.4505675 -61.13  0.003597456    1.582    0.368
        47 -11.8843     78.7739    234.6709   1.0314151387e+02   1.4581753368e+01    0.8043329     0.555627   6.10  0.004321969    1.972    0.493
        48  -7.9809     22.4468     49.5085   8.8455091179e+01   6.5765240910e+01    0.1297242    0.1104521 -25.30 0.0008079616    1.035    0.034
        49  -8.0594    101.4160    238.2198   9.8474063055e+01   1.0844954890e+01    0.1589806     0.123435 -86.27 0.0009398062    1.606    0.377
        50  -8.7363    123.5830     31.6036   4.4642852736e+01   4.9611742390e+01    0.2664323    0.2136622 -76.60 0.0007477488    1.409    0.290
        51  -9.4340      1.7785     23.7807   9.0847832927e+01   7.2457123765e+01    0.2826851    0.1564649 -66.08  0.001445722    2.620    0.618
        52  -9.6968     72.8532    217.8725   1.0274676556e+02   1.8867548634e+01    0.2289905    0.1773625  22.93  0.001029163    1.362    0.266
