#   1 NUMBER                 Running object number                                     
#   2 MAG_AUTO               Kron-like elliptical aperture magnitude                    [mag]
#   3 X_IMAGE                Object position along x                                    [pixel]
#   4 Y_IMAGE                Object position along y                                    [pixel]
#   5 X_WORLD                Barycenter position along world x axis                     [deg]
#   6 Y_WORLD                Barycenter position along world y axis                     [deg]
#   7 A_WORLD                Profile RMS along major axis (world units)                 [deg]
#   8 B_WORLD                Profile RMS along minor axis (world units)                 [deg]
#   9 THETA_WORLD            Position angle (CCW/world-x)                               [deg]
#  10 FWHM_WORLD             FWHM assuming a gaussian core                              [deg]
#  11 ELONGATION             A_IMAGE/B_IMAGE                                           
#  12 ELLIPTICITY            1 - B_IMAGE/A_IMAGE                                       
         1 -15.9332    221.5337     80.7381   3.6362816181e+01   2.0968716417e+01     2.813713     1.637083 -37.60   0.01551964    1.590    0.371
         2 -14.3290    166.2463     53.1973   3.7253683455e+01   3.6450255218e+01     1.891802    0.6076566  69.10  0.006329699    3.940    0.746
         3 -14.6141    150.7220     60.7675   4.1768682042e+01   3.8867548211e+01     1.686642     1.089585 -10.60  0.007332874    2.721    0.633
         4 -15.3742     54.4163     54.9751   6.7174290865e+01   6.0596632694e+01     1.738525     1.290303 -61.60  0.009002433    1.859    0.462
         5 -15.6335     66.2571     43.3111   5.7907262332e+01   6.0380304329e+01     1.400325      1.15823  35.36  0.007607761    1.094    0.086
         6 -13.5480     92.1674      2.9313   3.4405029557e+01   5.9295357772e+01     1.850935    0.2197982  61.32  0.005902484    4.283    0.767
         7 -12.8848     89.0490     12.3575   3.8660631291e+01   5.9221574470e+01    0.6038886    0.4356723 -74.08  0.003395685    1.774    0.436
         8 -13.6946     82.4625     12.8147   4.0431085012e+01   6.0663406313e+01    0.6344707    0.4134921  -8.70  0.003114006    1.934    0.483
         9 -10.2545    151.5306     10.0369   2.7877968005e+01   4.4919174641e+01    0.1730737   0.07640764 -54.40 0.0008073332    2.377    0.579
        10 -10.2377    138.5239      5.5236   2.8128722474e+01   4.8320032390e+01    0.1234792    0.1017825  84.04 0.0001004025    1.007    0.006
        11 -13.1687     75.4003     13.4032   4.2549244408e+01   6.2168394801e+01    0.5402282      0.35691  28.93  0.003043643    1.611    0.379
        12 -12.0172     72.6946      3.8537   3.9226867703e+01   6.3589328081e+01    0.2943436    0.2134407   0.24  0.001817635    1.640    0.390
        13 -11.4679    246.3330    183.5891   5.2812671378e+01   4.2509796009e-01    0.2044946    0.1122171 -26.13 0.0007756197    1.660    0.398
        14 -11.5817     42.8362     99.1738   8.5717188296e+01   5.2649933949e+01    0.2161394    0.1641521 -28.04  0.001016992    1.342    0.255
        15 -13.1231    188.8629     75.5000   3.9406869024e+01   2.8170997382e+01    0.8666764    0.3248647 -38.91  0.003535446    2.474    0.596
        16 -14.4283    178.1289     79.0405   4.1855927961e+01   2.9857865725e+01    0.8989345    0.3712568  54.76  0.003740357    2.508    0.601
        17 -14.1499    189.4915     91.5553   4.3022645125e+01   2.5391178595e+01    0.5556029    0.4347482 -52.49  0.003191483    1.140    0.123
        18 -14.0130    183.5468     86.2836   4.2726592510e+01   2.7506335462e+01    0.6018187    0.3652457 -45.66  0.003021779    1.493    0.330
        19 -13.2986    162.2961     90.5933   4.7454528878e+01   3.1273388527e+01     0.458009     0.286608  46.65  0.002168039    1.735    0.424
        20 -14.4238    158.5105     84.9677   4.6741576834e+01   3.3108080015e+01    0.7116268    0.5911133 -18.14  0.003825473    1.480    0.324
        21 -12.5006     32.2231     88.4456   8.7558524748e+01   5.6514362505e+01    0.3417819    0.1297656  26.88  0.001303207    2.635    0.620
        22 -11.8135     40.0351     81.3104   8.2208297532e+01   5.7276976983e+01    0.2057877    0.1823592   6.31  0.001168698    1.108    0.098
        23 -11.1881    202.6617    170.6700   5.7623842107e+01   8.4854619880e+00    0.1401945   0.09485768 -12.41 0.0007051909    1.736    0.424
        24 -11.1040      9.0146     63.4894   9.2229905835e+01   6.4408931320e+01     0.320776     0.104358 -45.49  0.001291825    2.489    0.598
        25 -11.7665     43.8932     62.6808   7.4611459280e+01   6.0779690264e+01    0.1970952    0.1706402  16.05 0.0007356178    1.103    0.093
        26 -15.5036    160.3098     69.6449   4.2448422184e+01   3.5296108309e+01     1.463019    0.9242421  45.17  0.007133416    1.818    0.450
        27 -13.3571    168.8707     63.4904   3.9469531602e+01   3.4347194138e+01    0.3992457    0.3128639  69.96 0.0005276014    1.255    0.203
        28 -11.7055    174.3586    101.5326   4.7900041197e+01   2.6716041327e+01    0.2926598    0.1703794 -40.17  0.001352183    1.626    0.385
        29 -13.3988     42.0546     45.2258   6.8947312656e+01   6.4329936672e+01    0.3271939    0.3059616  10.00  0.001130358    1.165    0.141
        30 -12.0052     18.9832     77.4924   9.0866195170e+01   6.0416949448e+01    0.2032467    0.1309097  15.01  0.000906257    1.610    0.379
        31 -14.8165    154.1452     70.2172   4.3695350604e+01   3.6594036674e+01    0.9736093    0.5278515 -37.85  0.004425833    1.870    0.465
        32 -14.2267    158.2437     61.8408   4.0756916218e+01   3.6985801348e+01    0.6413671    0.5428768   6.05   0.00340584    1.640    0.390
        33 -12.4265    145.6936     50.6254   3.9853291272e+01   4.1522466481e+01    0.3364093     0.245483 -57.34  0.001633941    1.389    0.280
        34 -12.0502     51.6354    140.5977   9.1056420167e+01   4.0728154086e+01    0.5885373     0.161762 -59.37  0.001823454    3.113    0.679
        35 -12.9197    204.2023     67.2760   3.5544735918e+01   2.6314544996e+01    0.8037816     0.437143 -29.68  0.003913001    2.216    0.549
        36 -12.7174     47.8248    141.8022   9.2562404937e+01   4.0878226864e+01    0.4230775    0.2357418  15.50   0.00172774    2.142    0.533
        37 -11.4160      3.3513    139.8956   1.0742179483e+02   4.5474971800e+01    0.2398457    0.1869568  40.30   0.00135388    1.384    0.278
        38 -11.5367    217.5883     38.2790   2.8044132177e+01   2.7656890932e+01    0.2156342    0.1692316  85.84 0.0003779457    1.252    0.201
        39 -12.0965     25.0000     64.7113   8.4356801859e+01   6.2726980212e+01    0.1961149    0.1690706  -2.29  0.001178879    1.094    0.086
        40 -10.2573    176.4762     33.4318   3.1005187461e+01   3.6770336098e+01    0.1264927    0.1047488 -78.79 7.487701e-05    1.019    0.018
        41 -10.1906    249.5839     31.5287   2.4413049225e+01   2.2686693188e+01    0.1092578   0.07828823 -60.27 0.0001227639    1.013    0.013
        42 -12.3512     41.5637     22.6932   5.9218184352e+01   6.7846838753e+01    0.4222135    0.2596954  18.90  0.002246979    1.746    0.427
        43 -10.4756    241.8795     22.4581   2.3260193571e+01   2.5076318183e+01    0.1405542   0.09014554  89.42 0.0004206136    1.463    0.317
        44 -11.0330    249.3254    134.0956   4.3421122620e+01   7.9692568173e+00     0.192931    0.1814541 -86.98  0.001441293    1.362    0.266
        45 -11.7529    222.4600    130.6066   4.6410006734e+01   1.2592704315e+01    0.3971188    0.1829596  57.54  0.001748372    3.194    0.687
        46 -11.1361    122.1648    127.1742   6.5993815133e+01   3.2211631044e+01    0.2206283    0.1918409  83.29  0.001085841    1.344    0.256
        47 -10.2218    174.6111     14.7757   2.6720645021e+01   3.9274197462e+01    0.1159279   0.07861865  57.00 0.0006877663    1.626    0.385
        48 -10.4390    178.2143     13.6026   2.6113095184e+01   3.8608587938e+01    0.1532266    0.0967477  69.34 0.0003903864    1.478    0.323
        49 -11.3876     27.9913    126.4959   9.7004846096e+01   4.7158388285e+01    0.2116843    0.1443911  20.87  0.001030183    1.583    0.368
        50 -12.6053    241.4996     98.4095   3.7606470770e+01   1.4804938990e+01    0.6672862    0.3426591 -43.52  0.003696313    1.524    0.344
        51 -11.2507    239.5979     93.2007   3.6812643527e+01   1.5918423892e+01    0.2759433    0.2366537 -14.95  0.001886402    1.544    0.352
