#   1 NUMBER                 Running object number                                     
#   2 MAG_AUTO               Kron-like elliptical aperture magnitude                    [mag]
#   3 X_IMAGE                Object position along x                                    [pixel]
#   4 Y_IMAGE                Object position along y                                    [pixel]
#   5 X_WORLD                Barycenter position along world x axis                     [deg]
#   6 Y_WORLD                Barycenter position along world y axis                     [deg]
#   7 A_WORLD                Profile RMS along major axis (world units)                 [deg]
#   8 B_WORLD                Profile RMS along minor axis (world units)                 [deg]
#   9 THETA_WORLD            Position angle (CCW/world-x)                               [deg]
#  10 FWHM_WORLD             FWHM assuming a gaussian core                              [deg]
#  11 ELONGATION             A_IMAGE/B_IMAGE                                           
#  12 ELLIPTICITY            1 - B_IMAGE/A_IMAGE                                       
         1 -13.1049    244.3589     43.3239   1.4958940476e+01   1.9451261903e+01    0.8700763    0.8018121 -63.92  0.005641033    1.127    0.113
         2 -11.6845      3.2737      9.8802   6.7750294706e+01   7.2502031436e+01    0.4253818    0.1478284 -43.82  0.002288117    2.125    0.529
         3 -11.7356     54.2926    232.3706   9.1568804771e+01   1.9784419310e+01    0.3976407    0.1798715 -88.03  0.001991338    2.509    0.601
         4 -11.8178    246.5790    248.3484   5.7472649990e+01  -1.1914219653e+01    0.6152564    0.2905616  25.63  0.003429165    1.884    0.469
         5 -11.8236     33.1205    170.0043   9.0404067169e+01   3.5559199226e+01      0.35702    0.3019675  -8.55 0.0004909408    1.798    0.444
         6 -15.0404      7.9030    231.6314   9.9675828087e+01   2.5138180829e+01     3.624899      3.12068  41.89   0.02977198    1.605    0.377
         7 -13.8113      8.4958    208.3869   9.8362836549e+01   2.9641782101e+01      1.77065     1.111147 -44.88  0.005277643    2.704    0.630
         8  -8.3757    197.5728    223.5189   6.2295166000e+01  -1.2779002224e+00    0.1271669    0.1096124  25.13 0.0001397686    1.057    0.054
         9 -11.0991     85.2729    219.5932   8.4408788143e+01   1.8050789802e+01    0.2912934    0.1651755  78.15  0.001449067    2.120    0.528
        10 -15.1143      4.7757    187.8828   9.7846999949e+01   3.4256705529e+01     6.004851    0.6151285 -75.40  0.003010847    6.704    0.851
        11  -9.8561     77.4795    203.7097   8.4268555923e+01   2.2462300495e+01    0.2125925    0.1625165  83.48 0.0006988706    1.199    0.166
        12  -8.3280    110.6932    167.3061   7.1438557176e+01   2.5279344415e+01    0.1494846    0.1080498  75.24 0.0002699571    1.607    0.378
        13 -11.7265     42.1580    164.2841   8.7689548941e+01   3.5916742750e+01    0.2671337    0.2390397 -78.67 0.0004672449    1.165    0.142
        14 -12.3856     66.9041    150.9623   7.9737807797e+01   3.6052150398e+01    0.7005994    0.5472364  66.70  0.002983103    1.286    0.222
        15 -12.4825     68.1121    143.3493   7.8190133762e+01   3.7732741914e+01    0.9125409    0.5163279  64.37  0.002427384    2.278    0.561
        16 -12.9475     40.6682    151.4135   8.6508973196e+01   3.9123898390e+01    0.4856966     0.351521 -18.43  0.001512632    2.179    0.541
        17 -11.7684     20.3304    143.6453   9.0700494542e+01   4.2915639808e+01    0.4192851    0.1950143 -75.02  0.001566009    1.771    0.435
        18 -10.5400     84.5843    138.9648   7.2954298271e+01   3.6386129264e+01    0.3126277     0.257697 -56.33 0.0007499498    1.163    0.140
        19 -11.1830     71.7587    135.9316   7.5904870024e+01   3.9031694596e+01    0.2856926    0.2711491 -63.33 0.0003113432    1.108    0.097
        20  -9.1844     88.9022    136.1533   7.1226976069e+01   3.6381126124e+01    0.2159436    0.1867302  82.70 0.0002804766    1.185    0.156
        21 -10.5641     56.6974    155.5688   8.3026371271e+01   3.6271104207e+01    0.2420675    0.2087828 -72.73 0.0003433412    1.099    0.090
        22  -9.9142    105.7634    130.4821   6.5412097622e+01   3.4844681906e+01     0.361861    0.3201188 -74.86  0.001468328    1.132    0.116
        23  -9.7790    101.4524    128.9716   6.6260156091e+01   3.5980148556e+01    0.4708895    0.2786132  20.68  0.001826676    2.599    0.615
        24 -10.2741     86.9031    124.4585   6.9360996523e+01   3.9530111629e+01    0.2558808    0.2443129 -64.14 0.0004432182    1.041    0.040
        25  -9.6757    244.3191    122.3349   3.3148440162e+01   7.0006769764e+00    0.1421088    0.1056185   0.41 0.0007049118    1.700    0.412
        26  -9.2715    100.8661    117.7832   6.3851297541e+01   3.8742030601e+01    0.2099791    0.1951774 -32.06 0.0003765588    1.125    0.111
        27  -8.5576    205.5294    110.4684   3.6960004813e+01   1.7366305928e+01    0.1511419    0.1432054 -47.71 0.0003557524    1.028    0.027
        28 -10.3094    242.9928    102.9928   2.8923685953e+01   1.0525318035e+01    0.2925886    0.1556072 -67.79  0.000961663    4.155    0.759
        29  -9.4842     32.2241     94.9238   8.0051311325e+01   5.3422839083e+01    0.2228422     0.181163  83.46 0.0006825098    1.403    0.287
        30 -10.4850     28.5293     90.5250   8.0410792138e+01   5.4753214185e+01    0.3156959    0.2132261  80.19  0.001395434    1.968    0.492
        31  -9.0434     41.5051     91.9898   7.6349451369e+01   5.3225069124e+01    0.1997719    0.1113478 -58.00 0.0004807406    1.504    0.335
        32  -9.7550     52.8915     90.4247   7.2152453176e+01   5.2340878693e+01    0.2924467    0.1425368 -43.68  0.001310989    1.913    0.477
        33 -14.1723     16.4588    180.5466   9.4969366589e+01   3.4812325528e+01     1.309045    0.9807631 -77.37  0.005825124    1.204    0.170
        34 -11.2485      1.7097     82.6106   8.8040840920e+01   5.8292953827e+01     0.433808   0.07608209 -64.88   0.00162648    3.363    0.703
        35 -10.8874      2.4033     75.2805   8.6564428792e+01   5.9878489130e+01    0.3248358   0.08217345 -65.51  0.001119162    2.797    0.642
        36 -13.3554    225.3891     55.5835   2.0047992943e+01   2.2007572369e+01     1.330767     1.213941  79.91  0.007960717    1.127    0.113
        37  -9.4390     71.3119    247.3390   8.9664655493e+01   1.4770149940e+01   0.09664913   0.09198387 -15.87 0.0004516239    1.693    0.409
        38 -10.3575     13.2242     60.0016   7.9312522741e+01   6.2570456295e+01    0.1823545    0.1582319 -31.64 0.0004527324    1.160    0.138
        39  -8.5733     78.5694     49.4764   5.0583896550e+01   5.7042424453e+01    0.1364536    0.1215202 -10.21 2.695837e-05    1.014    0.014
