#   1 NUMBER                 Running object number                                     
#   2 MAG_AUTO               Kron-like elliptical aperture magnitude                    [mag]
#   3 X_IMAGE                Object position along x                                    [pixel]
#   4 Y_IMAGE                Object position along y                                    [pixel]
#   5 X_WORLD                Barycenter position along world x axis                     [deg]
#   6 Y_WORLD                Barycenter position along world y axis                     [deg]
#   7 A_WORLD                Profile RMS along major axis (world units)                 [deg]
#   8 B_WORLD                Profile RMS along minor axis (world units)                 [deg]
#   9 THETA_WORLD            Position angle (CCW/world-x)                               [deg]
#  10 FWHM_WORLD             FWHM assuming a gaussian core                              [deg]
#  11 ELONGATION             A_IMAGE/B_IMAGE                                           
#  12 ELLIPTICITY            1 - B_IMAGE/A_IMAGE                                       
         1 -13.9825    213.8050      8.5948   3.9508861009e+01   3.0299215707e+01     2.195045     1.352361  46.94   0.01037395    1.931    0.482
         2 -13.1617    174.3547     53.9664   5.7571202276e+01   3.4524987752e+01     1.834599     1.215428  25.48   0.00522339    2.054    0.513
         3 -13.5609    189.3042     39.7786   5.0876738185e+01   3.2719600390e+01      1.16115     1.044232 -15.19  0.004087035    1.247    0.198
         4 -12.7569    194.2183     33.9533   4.8510819783e+01   3.2231499309e+01    0.6010799    0.5749509   9.35  0.001274789    1.202    0.168
         5 -11.2415     59.4180      3.6079   6.8263112740e+01   6.6971566117e+01    0.5459414    0.1852795  29.58  0.001854598    4.490    0.777
         6 -10.5231     58.3559    202.1387   1.1847449953e+02   2.5353436405e+01    0.2762315    0.1984839 -41.07  0.001237358    2.117    0.528
         7 -12.1862    248.6946    230.0809   8.4633933349e+01  -9.6448026064e+00    0.4604915    0.3492891 -21.36  0.003196737    1.393    0.282
         8 -12.5935    246.6556    246.5078   8.7694256457e+01  -1.1202465761e+01    0.9048339    0.6948206   5.86  0.006693849    1.113    0.102
         9 -19.5245     23.7766    147.1776   1.2077658117e+02   4.1480565174e+01     19.19975     4.756793 -75.10    0.0667292    3.827    0.739
        10  -8.7259     50.3528    216.5376   1.2131298023e+02   2.3418571239e+01    0.3061248    0.2283852  -1.55  0.001747495    2.821    0.646
        11  -9.5760     56.1177    223.9234   1.2080595768e+02   2.1259237997e+01    0.1189249   0.08874997  80.14 -0.0009232552    1.141    0.123
        12 -10.8187    193.1060    195.2590   8.8768978526e+01   4.2412938319e+00     0.898403    0.4584273 -60.56  0.002870732    5.336    0.813
        13 -11.5715     60.4907    195.8342   1.1741291187e+02   2.6412909532e+01    0.3519891    0.2346617 -44.23  0.001359383    2.139    0.533
        14  -9.2987    184.1584    212.5075   9.3616945567e+01   3.0192800654e+00    0.2210761    0.1629367 -71.16  0.001140871    2.300    0.565
        15  -9.3595     82.2774    195.0320   1.1264158859e+02   2.3581166043e+01    0.2161218    0.1711323  52.51 0.0007638512    1.154    0.134
        16  -9.5159     56.0146    211.5374   1.1979734064e+02   2.3717136362e+01    0.2899035    0.1331877  55.12 0.0008399397    1.915    0.478
        17 -10.3219     95.4796    189.4028   1.0899827599e+02   2.2784164523e+01    0.3884798    0.2920753  40.83 0.0009245268    1.310    0.237
        18 -10.3480     99.1422    186.3847   1.0775052504e+02   2.2853956739e+01    0.2217633     0.189349  73.83 0.0005906153    1.084    0.077
        19  -9.4452    156.5263    189.9152   9.5468701831e+01   1.1991397542e+01    0.2130657    0.1774118  39.05 0.0004936057    1.091    0.084
        20 -11.4759    149.2444    187.9970   9.6724964698e+01   1.3722507456e+01    0.4312855    0.2805453  55.50  0.001808165    1.646    0.392
        21 -10.9798    150.8592    179.6984   9.4872447911e+01   1.5066281906e+01    0.4442965    0.3028802 -74.80  0.001998816    2.170    0.539
        22 -11.2849    144.7222    180.5033   9.6401003736e+01   1.6069561373e+01    0.3791386    0.3228265  47.65  0.001076209    1.098    0.089
        23 -11.3457    141.1021    174.1983   9.6072760867e+01   1.8058509474e+01    0.6818194    0.4480605  79.34  0.002810736    2.524    0.604
        24 -10.9628     99.3616    180.8164   1.0689139397e+02   2.4035623568e+01    0.3157119    0.2669052 -53.78 0.0005781925    1.304    0.233
        25  -8.1917     43.8674    211.0007   1.2212620081e+02   2.5304181223e+01    0.2824898    0.1189527 -87.36  0.001334378    2.622    0.619
        26 -10.5083    189.2902    177.4795   8.6113367263e+01   8.0410094406e+00    0.4702544    0.3448846 -55.22  0.002364157    1.710    0.415
        27  -8.5655    194.4808    172.5090   8.4027636345e+01   7.9261753918e+00    0.1449026    0.1314269  12.26 -2.826635e-05    1.010    0.009
        28  -9.9619    240.4860    169.4836   7.4594635344e+01  -1.3369221186e-01    0.1357999    0.1163472  -4.61 -4.498844e-05    1.017    0.017
        29 -10.6910    230.7458    167.7019   7.5968445481e+01   1.8780929007e+00     0.340747    0.1473313 -43.40   0.00137496    2.559    0.609
        30  -9.8704     75.1292    249.7438   1.1938642870e+02   1.4081325151e+01    0.2729969    0.1000677 -60.20  0.001385568    3.138    0.681
        31 -11.1922     67.1306    205.9266   1.1703936719e+02   2.3417434735e+01    0.1947764    0.1884241  89.35 0.0002911471    1.333    0.250
        32 -10.8779     91.1809    157.9434   1.0526670417e+02   3.0571276460e+01    0.2688966    0.2513546 -76.58 0.0003885016    1.077    0.072
        33 -11.6159     96.9965    151.3159   1.0262643258e+02   3.1186219839e+01    0.5966703    0.4970855 -22.09   0.00314328    1.551    0.355
        34 -10.8691    133.9734    145.8774   9.2105657860e+01   2.5627826353e+01     1.275866     0.335147 -55.00  0.003028771    5.746    0.826
        35  -9.9636    187.9841    151.8312   8.0930829162e+01   1.3093468154e+01    0.2438196    0.1793394  73.16 0.0008130103    2.015    0.504
        36  -9.3738    113.2207    151.0816   9.8420420391e+01   2.8412056513e+01     0.293297    0.1871132  67.00  0.001014455    2.053    0.513
        37  -9.5333    174.5572    149.1671   8.3246544266e+01   1.6454614883e+01    0.2825433    0.2140143  42.13 0.0006678502    1.294    0.227
        38  -9.9790    143.5186    145.5437   8.9676847809e+01   2.3760309811e+01    0.2842125    0.1473423 -58.75  0.001038343    2.422    0.587
        39  -8.7502    112.2953    141.6900   9.6763803089e+01   3.0772755782e+01    0.2555561    0.1347525  48.69 0.0004164889    1.977    0.494
        40 -10.1402    106.9304    144.8234   9.8807446087e+01   3.1008142717e+01    0.3630326    0.2571439 -86.17  0.001328183    1.784    0.440
        41 -11.0157    108.1271    137.9705   9.7087428356e+01   3.2410631313e+01    0.5251154    0.3508022 -35.27  0.002344739    1.798    0.444
        42 -11.7658     96.5302    137.2584   1.0006004116e+02   3.4612903370e+01    0.3079039    0.2780238 -81.92 0.0003957816    1.078    0.073
        43 -10.8428    105.9329    130.9525   9.6171408508e+01   3.4470856500e+01    0.4311679    0.3369524 -56.11  0.001464341    1.241    0.194
        44 -10.0354    136.0000    128.1408   8.7531166761e+01   2.9209793488e+01    0.6038055   0.08864915 -46.93   0.00123904    6.790    0.853
        45 -10.1785    115.1219    128.9002   9.3213215474e+01   3.3241339577e+01    0.3468066    0.2861584 -14.60 0.0006321737    1.502    0.334
        46  -9.5401    160.9901    128.0067   8.1344361059e+01   2.3800453096e+01     0.247647    0.2440925 -29.27  0.001308445    1.020    0.020
        47 -10.5244    102.9232    124.6088   9.5586524598e+01   3.6520707687e+01     0.302161    0.2585253  -6.99 0.0007372803    1.429    0.300
        48  -9.8009    119.8656    123.6375   9.0693333652e+01   3.3541544731e+01    0.3005689    0.2020007 -27.09 0.0009242544    1.933    0.483
        49  -8.9488    135.0018    119.9689   8.5767327002e+01   3.1256191997e+01    0.2036604    0.1709334 -46.12 0.0009857644    1.181    0.153
        50  -9.5203    110.2335    118.1065   9.2005246477e+01   3.6701884552e+01    0.2395818    0.2166266  43.17 0.0004010912    1.142    0.124
        51  -9.9259    231.3058    113.7738   6.3644372571e+01   1.0816247384e+01    0.2601369     0.246662  -9.35 0.0007714441    1.060    0.057
        52  -9.5885    167.3703    112.3055   7.5831115181e+01   2.5615052865e+01    0.3379051    0.2647969 -78.93  0.001115063    1.687    0.407
        53 -10.1256    134.5607    106.2527   8.2275589645e+01   3.4388418454e+01    0.6753762    0.1481257 -46.85  0.001636417    4.784    0.791
        54 -11.3453    118.5916    110.3959   8.7718947030e+01   3.6840036668e+01    0.6095343    0.4735487  78.79    0.0021573    1.680    0.405
        55  -9.5880    205.4711    110.1927   6.7335651721e+01   1.7142540927e+01    0.3207548    0.2170784  40.67 0.0009328483    1.573    0.364
        56  -9.2242    129.7143     96.2261   8.0762101691e+01   3.7621103093e+01    0.3673101    0.1877777  59.46   0.00124959    2.764    0.638
        57  -8.9091     72.3323    202.8471   1.1564661636e+02   2.3347601616e+01    0.2910755    0.1913088  68.63    0.0010991    1.422    0.297
        58  -9.0418    181.8629     82.1977   6.4400029800e+01   2.7911845702e+01    0.2171627    0.1880435  14.77 0.0007100141    1.315    0.239
        59  -8.5230    154.0006     82.0299   7.0395536206e+01   3.4834971331e+01    0.1883264    0.1834737 -27.12 0.0003727127    1.023    0.023
        60  -9.5451     70.5737     72.3550   9.1964816747e+01   5.3863471713e+01    0.2221445    0.2079729  25.40 0.0004816793    1.180    0.153
        61 -10.5301     71.8904    245.3266   1.1961314237e+02   1.5276400311e+01    0.2275429     0.146251 -67.64   0.00150378    1.755    0.430
        62  -8.9416    167.7576    230.9147   9.9744143855e+01   2.9250760405e+00    0.1620335    0.1491792  24.55 0.0005205981    1.132    0.117
        63 -10.9402     59.0633    230.1884   1.2075135706e+02   1.9694579758e+01    0.1784139    0.1327446  80.78  0.000380927    1.168    0.144
        64  99.0000     61.6026    220.0898   1.1944513019e+02   2.1301844683e+01    0.2086954   0.09746438 -63.57  0.001105339    2.223    0.550
        65 -11.2432    207.8837     33.0566   4.6464191985e+01   2.8905561423e+01    0.4555024    0.3286209  15.01  0.002222785    2.031    0.508
