#   1 NUMBER                 Running object number                                     
#   2 MAG_AUTO               Kron-like elliptical aperture magnitude                    [mag]
#   3 X_IMAGE                Object position along x                                    [pixel]
#   4 Y_IMAGE                Object position along y                                    [pixel]
#   5 X_WORLD                Barycenter position along world x axis                     [deg]
#   6 Y_WORLD                Barycenter position along world y axis                     [deg]
#   7 A_WORLD                Profile RMS along major axis (world units)                 [deg]
#   8 B_WORLD                Profile RMS along minor axis (world units)                 [deg]
#   9 THETA_WORLD            Position angle (CCW/world-x)                               [deg]
#  10 FWHM_WORLD             FWHM assuming a gaussian core                              [deg]
#  11 ELONGATION             A_IMAGE/B_IMAGE                                           
#  12 ELLIPTICITY            1 - B_IMAGE/A_IMAGE                                       
         1 -14.0562    223.6390     54.2985   4.0713257210e+00   2.2907850551e+01     1.759429    0.6108759  58.10  0.007488376    3.131    0.681
         2  -9.4875    106.6738    240.3399   6.3175494347e+01   1.1783982472e+01    0.1251898    0.0757277  51.48 0.0007051441    1.731    0.422
         3  -8.9224    149.0016    240.0000   5.4275358020e+01   6.3681456134e+00    0.2025029   0.05363959  32.08 0.0007929265    2.944    0.660
         4 -10.8192    115.8897    236.2617   6.0768847778e+01   1.1254876875e+01    0.2532078    0.1251788  29.08  0.001118885    1.620    0.383
         5 -11.4746     94.3363    231.3513   6.5008867124e+01   1.4889287830e+01    0.4584832   0.08969358  42.18  0.001543871    3.978    0.749
         6 -10.8329    110.7719    230.4441   6.1259324919e+01   1.2893503553e+01    0.3289928    0.1047117  29.22  0.001314602    2.716    0.632
         7 -10.8339    128.6717    227.6981   5.7028095811e+01   1.0943296993e+01    0.4780381    0.1054468  29.43  0.001459305    4.702    0.787
         8  -8.8360    136.6847    219.3346   5.4232027264e+01   1.1209726063e+01    0.1238433   0.08940001  53.42 0.0007047065    1.690    0.408
         9 -10.8431    112.1384    216.8967   5.9414237796e+01   1.5073739738e+01     0.208312    0.1552584  45.82  0.001250246    1.269    0.212
        10  -9.2752     55.7066    217.6214   7.2772234020e+01   2.2253052485e+01    0.1162849   0.09341824 -24.50 9.802893e-05    1.746    0.427
        11  -9.8920    125.9781    213.7542   5.5871202524e+01   1.3676802639e+01    0.1816271   0.09303942  31.78 0.0008907029    1.613    0.380
        12  -8.8723    250.0341    213.0000   3.2345032867e+01  -2.3974291707e+00    0.1540845   0.05183818  32.92 0.0007958822    2.897    0.655
        13  -9.4766    140.3213    208.3097   5.1920383942e+01   1.2544300428e+01    0.1313372   0.09183152   0.99 0.0005166142    1.646    0.393
        14 -11.3406     99.0835    206.8029   6.1288265263e+01   1.8797750601e+01    0.3071554    0.1479189  41.67  0.001443531    1.758    0.431
        15 -10.4047    124.9910    200.1804   5.4250399878e+01   1.6279277343e+01    0.2302976    0.1336948  51.80  0.001090268    2.009    0.502
        16 -11.5037    103.8795    193.1895   5.8396227852e+01   2.0820705045e+01    0.2792437    0.2061931  46.43  0.001539355    1.254    0.203
        17  -9.7070    121.6590    190.3418   5.3610869977e+01   1.8674014060e+01      0.14234   0.09960902  59.94 0.0007048889    1.775    0.437
        18 -11.6581     95.8348    186.2297   5.9511007589e+01   2.3477502212e+01    0.3340086    0.2144829 -71.14  0.001652023    1.898    0.473
        19 -11.3409    123.2706    183.4542   5.2160306094e+01   1.9785103596e+01     0.386833    0.1666697  43.68  0.001563019    2.222    0.550
        20 -11.3660    110.4999    184.2074   5.5461603290e+01   2.1658870655e+01    0.4419114    0.1348363  44.39  0.001459059    3.283    0.695
        21 -11.2474     90.6696    184.2056   6.0592629258e+01   2.4681340792e+01    0.3774273      0.14003  44.10  0.001430144    2.455    0.593
        22  -9.0163    249.6693    177.0011   2.6396590870e+01   1.8768810211e+00    0.1713925   0.07612242 -47.23 0.0007052015    4.364    0.771
        23  -9.6163     99.3238    177.6510   5.7390893571e+01   2.4803808996e+01    0.1510068    0.1012655  61.87 0.0007049101    1.748    0.428
        24 -10.2647     66.7805    176.3805   6.6117828868e+01   2.9822582793e+01    0.1990037    0.1281561  20.27 0.0009545865    1.689    0.408
        25 -10.7095    106.9950    174.9964   5.4965031584e+01   2.4169104511e+01    0.2403286    0.1637744  60.69  0.001146084    1.733    0.423
        26 -10.9281     84.8767    173.5045   6.0714384849e+01   2.7934154370e+01    0.2475905    0.1917732  67.67  0.001306531    1.374    0.272
        27 -10.4531    120.2024    173.4116   5.1296825261e+01   2.2344274714e+01    0.2151034    0.1196435  43.78 0.0009532181    1.701    0.412
        28  -9.6731     96.3239    173.6807   5.7608179255e+01   2.6149532022e+01    0.1508908    0.1018814  60.57 0.0003892868    1.674    0.403
        29 -11.2025     67.1574    169.3249   6.5172646781e+01   3.1439520224e+01    0.5871758   0.09171736  42.23  0.001569823    4.751    0.790
        30 -11.1207     90.9920    169.4400   5.8438291761e+01   2.7938795306e+01    0.4320344    0.1299956  32.81  0.001420482    3.001    0.667
        31  -9.7817     96.3070    166.6441   5.6538502082e+01   2.7743069722e+01    0.1536583    0.1057592  64.92 0.0007041735    1.722    0.419
        32 -11.4537    101.5411    165.0475   5.4840261703e+01   2.7259502080e+01    0.3641042    0.2082741  58.84  0.001492253    2.230    0.552
        33 -11.7113     79.7619    160.8328   6.0363319001e+01   3.1677126275e+01    0.4183298    0.2117609  49.42  0.001722621    1.979    0.495
        34 -10.6501     85.7241    156.4582   5.7942331710e+01   3.1813559325e+01    0.2980867    0.1277457  37.38  0.001141301    2.079    0.519
        35 -10.5203     72.5144    154.5002   6.1592022736e+01   3.4296010368e+01    0.2359196    0.1208967  41.86  0.000986627    1.770    0.435
        36 -10.7591     79.1444    153.6973   5.9463590332e+01   3.3504353976e+01    0.2555894    0.1691837  49.38  0.001195316    1.450    0.310
        37 -10.9198     91.6779    151.1486   5.5304908384e+01   3.2131365910e+01    0.2393416    0.1908777  84.55  0.001191577    1.435    0.303
        38 -10.9299     79.7141    146.8424   5.8183372814e+01   3.5109619811e+01    0.3221471    0.1662422  53.61  0.001251095    2.172    0.540
        39  -9.5458     46.6568    146.3252   6.8629517661e+01   3.9798122738e+01     0.160139    0.0941003  59.07 7.462173e-05    1.737    0.424
        40 -11.9206     93.4941    143.9448   5.3470552396e+01   3.3566565733e+01    0.3888729    0.2796997  65.55  0.001794639    1.608    0.378
        41  -9.6979     83.3280    141.6573   5.6165243104e+01   3.5824531317e+01    0.1636569    0.1107244  65.99 0.0006678821    1.743    0.426
        42 -10.9588     78.7430    138.3829   5.7027956326e+01   3.7383992229e+01    0.2802656    0.1913016 -79.40  0.001207943    1.687    0.407
        43 -12.0109     97.1013    135.1873   5.0674479756e+01   3.5063239445e+01    0.3383418    0.3055785 -15.79  0.001757826    1.260    0.206
        44 -11.4188    241.5208    134.4191   1.9544857914e+01   8.5978000675e+00      0.25588    0.1551262 -45.26  0.001450253    1.763    0.433
        45 -11.5339    105.0052    133.3779   4.7923514060e+01   3.4051311232e+01    0.3623789    0.2293309  55.02  0.001529462    1.756    0.431
        46  -9.5424     70.3243    134.6546   5.9112670220e+01   3.9642493912e+01    0.1645515    0.1085982  65.26 0.0004781237    1.740    0.425
        47 -11.5178     87.8793    132.1309   5.2927027047e+01   3.7439474104e+01    0.3038683    0.2260732 -88.48  0.001392326    1.619    0.382
        48 -10.0450    122.4966    128.4809   4.1837000621e+01   3.1792155522e+01    0.1536915    0.1488079  37.45 9.626585e-05    1.003    0.003
        49 -11.2282     48.0616    125.5189   6.5323016358e+01   4.5101982092e+01    0.3602002    0.1962813  64.58  0.001436897    2.228    0.551
        50 -12.3248     91.8191    123.3070   4.9812765133e+01   3.8937991604e+01    0.5762445     0.289735  26.06  0.002046034    2.509    0.601
        51 -11.6417     74.7467    119.6410   5.4747114682e+01   4.2825716012e+01    0.4182238    0.2221548 -71.09  0.001581749    2.263    0.558
        52 -12.0795     59.0506    119.8419   6.0383332623e+01   4.5165655301e+01    0.4894149    0.2920471  74.81  0.001944176    2.253    0.556
        53 -10.8053    247.6071    121.8007   1.6208681971e+01   9.4096353920e+00     0.182339   0.09012771 -39.56 0.0009619474    1.735    0.424
        54 -11.4795    108.6423    112.0020   4.1852565411e+01   3.8404865083e+01    0.3585872    0.2504903  80.16  0.001444007    2.118    0.528
        55 -12.0048     77.3852    107.0597   5.1000986605e+01   4.5611433235e+01    0.3961391    0.2938856  82.94  0.001770079    1.672    0.402
        56 -11.2114     59.9911    107.7731   5.7657041922e+01   4.8224471118e+01    0.2896073    0.2027194 -85.56  0.001302599    1.638    0.389
        57 -11.2813     40.5553    105.1123   6.4855368884e+01   5.1468430230e+01    0.4155759    0.1784962 -38.20  0.001379616    3.363    0.703
        58 -10.6682     56.2222     95.0155   5.6312557489e+01   5.2131507253e+01     0.237179    0.1587748  53.76  0.001008386    1.637    0.389
        59 -11.1182     81.1261     94.1496   4.6311756129e+01   4.8174612872e+01    0.3368489    0.2070187  64.41  0.001276374    2.285    0.562
        60 -10.9922     71.8644     89.9062   4.8663373948e+01   5.0918210178e+01    0.2494549    0.2183756 -19.19   0.00124913    1.292    0.226
        61  -9.4326     48.6713     76.3434   5.4841676869e+01   5.8028122776e+01    0.1566927    0.1128083  68.36 0.0007050956    1.746    0.427
