#   1 NUMBER                 Running object number                                     
#   2 MAG_AUTO               Kron-like elliptical aperture magnitude                    [mag]
#   3 X_IMAGE                Object position along x                                    [pixel]
#   4 Y_IMAGE                Object position along y                                    [pixel]
#   5 X_WORLD                Barycenter position along world x axis                     [deg]
#   6 Y_WORLD                Barycenter position along world y axis                     [deg]
#   7 A_WORLD                Profile RMS along major axis (world units)                 [deg]
#   8 B_WORLD                Profile RMS along minor axis (world units)                 [deg]
#   9 THETA_WORLD            Position angle (CCW/world-x)                               [deg]
#  10 FWHM_WORLD             FWHM assuming a gaussian core                              [deg]
#  11 ELONGATION             A_IMAGE/B_IMAGE                                           
#  12 ELLIPTICITY            1 - B_IMAGE/A_IMAGE                                       
         1 -11.1841    225.2129     91.1824   6.9744064044e+00   1.8528024809e+01     3.972272     1.295042 -26.23   0.00989279    8.088    0.876
         2 -12.7702    231.9016    106.6453   9.4325699981e+00   1.5125737470e+01     5.937387     1.738251 -30.56   0.02009682    4.211    0.763
         3 -12.6647    244.0604     65.9720   3.5972397110e+02   1.8796239352e+01     5.221222     2.468113 -15.76   0.01705233    6.447    0.845
         4 -12.7168    248.5073    127.9116   1.1629695283e+01   9.5794827010e+00     3.791321    0.2844958 -37.14  0.008825573    9.347    0.893
         5 -10.9429    218.9951     21.6140   3.5200761945e+02   2.8893115459e+01     1.259489    0.4731628 -38.17  0.006254102    2.018    0.504
         6 -11.0692    221.7816      9.6618   3.4917235399e+02   2.9625888587e+01     1.138505    0.3721159 -36.50  0.005555733    2.249    0.555
         7  -8.5802    230.9969     25.7781   3.5218161499e+02   2.6091417471e+01    0.4392396    0.1712807 -36.12  0.001996209    1.983    0.496
         8  -9.5528    225.9327     16.9721   3.5056167743e+02   2.8038371131e+01     0.548562    0.2360839 -30.27  0.002837075    2.142    0.533
         9 -11.2169    228.8938      6.5127   3.4814656703e+02   2.8563264729e+01     1.149022    0.6483041 -51.47  0.007298472    1.308    0.235
        10 -11.0168    236.8472      5.0678   3.4750001336e+02   2.7209460231e+01    0.8245657    0.5615478 -52.99  0.005856668    1.061    0.058
        11 -10.9122    231.4073     34.3889   3.5401754062e+02   2.5015034899e+01    0.8137075    0.7003415  32.68  0.005701818    1.735    0.424
        12 -10.0367    239.3174     33.4978   3.5330609391e+02   2.3663507403e+01    0.6429735    0.3558708 -16.87  0.003312871    2.716    0.632
        13 -10.4649    246.7671     33.6164   3.5286971291e+02   2.2326269525e+01    0.7635568    0.2564396 -38.33  0.003877113    2.075    0.518
        14 -11.8366    247.0586     21.8210   3.5045741413e+02   2.3602277991e+01      1.54364    0.7659706 -40.63  0.009480813    1.473    0.321
        15 -10.5323    239.6608     40.9671   3.5485198021e+02   2.2714864162e+01    0.7861845    0.5535026  18.20   0.00448487    2.776    0.640
        16 -10.6341    229.2374     50.1058   3.5760572494e+02   2.3482661487e+01     1.152906    0.7569178   7.30  0.005590112    3.357    0.702
        17  -9.8163    155.2438      7.4969   3.5314418960e+02   4.4748301843e+01    0.5583565    0.2849799 -50.69  0.002732562    1.778    0.438
        18 -11.4517    150.0263      2.0768   3.5193278559e+02   4.6546856596e+01     1.711389    0.6238531  45.21  0.005869481    4.509    0.778
        19 -10.3854    143.4368      3.5740   3.5302007036e+02   4.8065967608e+01     1.236061    0.3786484 -53.67  0.004384661    3.461    0.711
        20 -11.0906    138.8271      3.1679   3.5334488122e+02   4.9270515312e+01    0.7610644    0.5216931  -0.82  0.004019046    2.035    0.509
        21  -8.7772    250.3110      3.3056   3.4662842326e+02   2.4963352348e+01    0.3181747    0.1017783 -34.42  0.001669567    2.274    0.560
        22 -10.5148    190.9892      3.4569   3.4938557949e+02   3.6723999189e+01    0.4802242    0.3661791  78.84  0.003116269    1.342    0.255
        23  -9.6456    159.7872      2.9859   3.5139502758e+02   4.4057441053e+01    0.4093264    0.2308052 -81.15  0.002100577    1.635    0.388
        24  -9.4535    167.3634      1.8389   3.5048751604e+02   4.2333144515e+01    0.3693258    0.1836211  88.53  0.001817291    1.858    0.462
        25  -8.4576     94.1533      2.1415   3.5911045837e+02   6.0904434770e+01    0.1922497    0.1489467 -72.16  0.001077085    1.333    0.250
        26  -8.3935     33.6949      6.6733   2.3445556897e+01   7.4557784631e+01    0.1339503   0.09155104  15.21 0.0007034902    1.648    0.393
        27  -7.5815    193.2831    210.6275   3.5047141088e+01   4.7103036804e+00   0.09991063   0.09719968 -86.33 0.0007015178    1.705    0.413
        28 -12.9166    233.9662    243.9342   3.3126604251e+01  -3.9070991858e+00     2.256283    0.9624911  21.69   0.01397969    2.106    0.525
        29  -8.1596    229.3969    182.2283   2.4215475556e+01   4.3767081302e+00    0.1836366   0.09470221 -43.34 0.0006106879    2.040    0.510
        30  -8.9474    224.9599    176.3501   2.3876804051e+01   5.7619688991e+00    0.6300395    0.2551937 -49.57  0.002478452    4.248    0.765
        31  -9.8378    231.5195    175.0164   2.2634708893e+01   5.1307152081e+00    0.3789455    0.2473672 -40.57  0.001376975    1.533    0.348
        32  -9.4218    225.3509    168.3475   2.2384459465e+01   6.8756675012e+00    0.4619617    0.3057881 -60.82  0.002393019    2.959    0.662
        33 -10.5933    245.4539    192.4678   2.3548957368e+01   1.1671855749e+00     0.402832     0.363846  63.55  0.002255829    2.217    0.549
        34  -9.2909    237.7610    188.4432   2.4007320062e+01   2.5456579514e+00    0.2587698    0.1944598 -20.51  0.001056271    1.084    0.077
        35  -8.0040    186.2694    203.0668   3.5146083600e+01   6.7379519792e+00    0.1714678    0.1466645 -71.67   0.00106855    2.018    0.504
        36  -7.3435    223.2729    202.6541   2.8602950691e+01   2.2826875625e+00   0.09687839   0.08558859 -38.40 0.0003424873    1.622    0.384
        37  -8.5376    211.0862    202.1457   3.0539171564e+01   3.7751776925e+00    0.1871889    0.1583532  41.00  0.001303542    1.708    0.415
        38  -8.4258    238.8241    200.7714   2.5878076471e+01   8.1287340132e-01    0.1591662    0.1368333  27.79  0.000642203    1.629    0.386
        39  -8.0405      9.5100    201.5001   7.7583076747e+01   2.9485832480e+01    0.1290137    0.1030992  54.81  0.000810606    1.006    0.006
        40  -9.2536    237.4005    195.5736   2.5245371002e+01   1.6423514218e+00    0.2550853    0.1968618 -27.11  0.001146941    1.274    0.215
        41  -8.0267    215.7944    196.5766   2.8829586424e+01   3.9988778183e+00    0.1721396     0.150797 -69.63  0.001145005    2.136    0.532
        42  -7.9678    202.4908    197.5137   3.1266125104e+01   5.5033860327e+00    0.1854582    0.1047061  41.79 0.0009982709    2.182    0.542
        43  -7.3636    190.2919    197.6415   3.3500816228e+01   7.0553418032e+00    0.1060731    0.1003408 -83.50  0.000702891    1.692    0.409
        44  -7.8242    195.4342    196.2629   3.2323452209e+01   6.5959447083e+00    0.1561861    0.1095632 -45.11 0.0005891919    1.663    0.399
        45  -8.5825    231.3845    193.9800   2.5898691899e+01   2.5290876245e+00    0.2310366    0.1569566 -18.75  0.000858937    1.178    0.151
        46  -9.3114    224.8480    193.3726   2.6822061168e+01   3.3693136976e+00    0.2905179     0.197664 -42.91  0.001346419    1.714    0.417
        47  -7.8747    219.6692    194.5165   2.7847832590e+01   3.8243743255e+00    0.1628685    0.1259801 -44.35   0.00062707    1.667    0.400
        48  -7.9553    209.2567    195.0821   2.9683207157e+01   5.0137679806e+00    0.1617576    0.1263729 -51.65 0.0006511006    1.856    0.461
        49  -7.5654    185.5435    193.4996   3.3701250922e+01   8.3445246909e+00    0.1253538    0.1048152  -4.23 0.0008090659    1.005    0.005
        50  -7.9563    214.4009    192.2753   2.8340729321e+01   4.7835044147e+00    0.1500243   0.09951323 -39.90 0.0005530661    1.563    0.360
        51  -8.0832    198.8058    191.2878   3.0873208615e+01   6.9182778651e+00    0.1992254    0.1490174 -37.04  0.001068793    1.373    0.272
        52  -7.9574    205.4141    191.2347   2.9696297973e+01   6.0678120159e+00    0.1559545    0.1046613 -42.70 0.0009151998    1.626    0.385
        53  -7.8339    210.5016    188.9745   2.8435442908e+01   5.7538945442e+00     0.143158    0.1012017 -56.53 0.0008057308    2.313    0.568
        54  -8.0984    220.5727    187.7731   2.6560963877e+01   4.6694736992e+00    0.1880632     0.121949 -36.78 0.0008294053    1.460    0.315
        55  -9.6001    249.8955    185.8262   2.1818639920e+01   1.5405940282e+00    0.2768659    0.1692988 -37.71  0.001440198    1.556    0.357
        56 -10.5564    243.6813    181.1132   2.1903763985e+01   2.8489969176e+00    0.4838213    0.3290266 -30.99  0.002337827    1.248    0.199
        57  -7.8413    215.5026    187.4791   2.7340184244e+01   5.3412836383e+00    0.1174538   0.09629538 -13.12 0.0008093196    1.071    0.066
        58  -8.7071    201.6369    184.2265   2.9147590612e+01   7.6313700968e+00    0.2565903    0.2246818 -80.07  0.001623036    1.998    0.499
        59  -8.5412    224.6663    183.7017   2.5207313854e+01   4.7461254344e+00    0.1869479     0.160747 -62.63  0.000986362    1.976    0.494
        60  -9.0310    210.7797    182.9376   2.7342106263e+01   6.6169791921e+00    0.2932092    0.2178394 -48.44  0.001286206    1.710    0.415
        61  -7.6608    218.1742    183.0885   2.6141972013e+01   5.6440371687e+00    0.1437044    0.1347124 -15.19  0.001051386    1.375    0.273
        62  -7.7015    191.4720    179.5003   3.0148480412e+01   9.7884310611e+00    0.3250572    0.2281179  70.92  0.001462837    3.649    0.726
        63  -8.4001    218.6501    177.9928   2.5170238241e+01   6.3298819539e+00     0.342742    0.2771255  75.77  0.002029553    2.634    0.620
        64  -8.4319    219.2769    174.0050   2.4358995963e+01   6.8376915577e+00    0.2521507    0.1977708  52.44  0.001314298    1.934    0.483
        65  -8.3339    211.5404    176.0160   2.5986941369e+01   7.5621395511e+00    0.1890092    0.1610436 -60.09  0.001223851    1.765    0.434
        66  -8.4602    248.2585    207.6897   2.5588581623e+01  -1.0277682669e+00    0.1618385    0.1406404   7.61 0.0008822984    1.496    0.332
        67 -10.3686    201.3532    249.2639   3.9221060458e+01  -1.3846190420e+00     0.318976    0.1731727  16.69  0.002073558    1.523    0.343
        68  -9.9069    246.7366    222.9681   2.8152918713e+01  -2.6979106417e+00    0.6551226    0.3984219 -44.21  0.004313061    2.425    0.588
        69 -11.3720    248.6202     94.7205   5.1347516447e+00   1.4190435553e+01     1.812757    0.2834257 -34.41  0.005331059    5.760    0.826
        70  -9.1333    240.2120    206.8024   2.6633943491e+01  -9.9338644253e-02    0.2189237    0.1981068  40.55  0.001171062    1.946    0.486
        71 -12.3809    241.6481    132.3914   1.3339797815e+01   9.8990283761e+00     2.923505    0.4414701 -38.72  0.009226227    4.971    0.799
        72 -10.6064    241.6105    107.5756   8.4691464435e+00   1.3465529725e+01    0.7507274    0.2956766 -30.19  0.003416943    2.445    0.591
        73 -11.0638    242.2588     95.8201   6.0241504468e+00   1.5029745669e+01     1.154143    0.3172477 -32.37  0.004326103    3.513    0.715
        74  -7.8894    193.7479    173.7688   2.8690353864e+01   1.0399990507e+01    0.1878556    0.1529333 -88.05  0.001038804    2.315    0.568
        75  -8.4081    206.1981    170.1333   2.5820883437e+01   9.2065187973e+00    0.2635613    0.1477959 -44.70  0.001157763    1.836    0.455
        76  -8.1927    212.1160    168.6303   2.4549340000e+01   8.6151872273e+00    0.2141826    0.1463778 -67.23  0.001015502    3.303    0.697
        77  -7.5062    197.6252    169.3003   2.7164424892e+01   1.0567684106e+01    0.1149234     0.102896 -88.68 0.0007028189    1.754    0.430
        78 -11.0615    235.7404    165.9857   2.0404331293e+01   5.8796520249e+00     2.097366     1.106605 -56.07  0.008569225    4.714    0.788
        79  -7.2167     67.7165    166.6996   5.8281733711e+01   3.1610617915e+01    0.1411916    0.1120234 -26.86 0.0003233365    1.550    0.355
        80  -8.0084    207.5649    161.8475   2.4042562937e+01   1.0322192963e+01    0.1694233    0.1064142 -46.93 0.0006080529    1.719    0.418
        81  -8.7008    217.6532    158.7333   2.1809926884e+01   9.3649794776e+00    0.2656862    0.2224977 -64.49  0.001697841    1.769    0.435
        82  -7.7763    204.5891    155.8369   2.3393285377e+01   1.1728033950e+01    0.1772229    0.1075289 -46.73 0.0009331884    1.723    0.420
        83  -8.0752    220.6538    152.9409   2.0243368488e+01   9.8269973452e+00    0.4478957    0.1500781 -47.68  0.001623808    4.033    0.752
        84  -6.9783    158.3262    154.6789   3.2092071430e+01   1.9477367810e+01     0.136121    0.1139555  84.86 0.0005005487    1.684    0.406
        85  -8.2769    212.3312    150.6171   2.1102168849e+01   1.1404029711e+01    0.3408524   0.09588767 -43.57   0.00124377    3.436    0.709
        86  -7.5677    162.4854    149.9805   3.0235816239e+01   1.9667842613e+01    0.1908917    0.1234822 -66.93 0.0008096261    2.474    0.596
        87  -7.2778    209.6172    149.2661   2.1276133854e+01   1.2028138925e+01    0.1143977   0.09933826 -76.96 0.0004413659    1.690    0.408
        88  -7.7334    133.4782    148.4681   3.6629437745e+01   2.5184182040e+01    0.1448216    0.1421573  31.10 0.0001706829    1.047    0.045
        89  -9.5514    200.8159    143.8577   2.1657005318e+01   1.4289429716e+01     0.606759    0.3174652 -50.08  0.002839745    2.168    0.539
        90  -9.2049    200.3562    135.1493   1.9942276904e+01   1.5824074957e+01    0.4627066    0.2292326 -42.73  0.001775275    1.827    0.453
        91  -7.8904    196.4703    135.4876   2.0669318101e+01   1.6419830275e+01    0.2631149    0.1169086 -39.70  0.001065504    1.999    0.500
        92  -7.9268    154.8164    144.8052   3.0825324495e+01   2.2060017100e+01    0.1891684    0.1726815 -86.25 0.0005822423    1.324    0.245
        93 -11.0521    246.6463    169.0302   1.9401333258e+01   4.1251690110e+00     1.418964    0.7855363 -56.50  0.006118159    4.778    0.791
        94  -7.8932    164.0390    143.8296   2.8620253250e+01   2.0584049695e+01    0.2219684    0.1654909  74.25  0.001023719    2.067    0.516
        95  -7.7099    195.4534    143.5318   2.2513726474e+01   1.5216169252e+01    0.1314665    0.1153436 -25.86 9.155543e-05    1.022    0.021
        96  -8.4634    148.2571    143.1805   3.1966339655e+01   2.3593375870e+01    0.2698244    0.1893071  66.15  0.001068305    2.027    0.507
        97  -7.7117    183.0119    142.5121   2.4559808592e+01   1.7487721942e+01    0.1864976    0.1335871  41.10  0.000463591    1.506    0.336
        98  -7.4300    159.6374    142.3284   2.9240354512e+01   2.1674708733e+01    0.1433611    0.1149685  88.39 0.0007039806    1.799    0.444
        99  -7.7784    203.5036    140.5329   2.0530322762e+01   1.4409356451e+01    0.1291191    0.1124283 -30.83 0.0001123011    1.062    0.058
       100  -7.6183    187.3051    140.6650   2.3376875890e+01   1.7080237631e+01    0.1300537    0.1052168 -69.74 0.0004357554    1.667    0.400
       101  -7.6278    175.2042    140.4146   2.5619055604e+01   1.9235691073e+01    0.1747984    0.1327773  55.03 0.0004026794    1.577    0.366
       102  -8.0310    137.6594    140.6896   3.3952598093e+01   2.6093843162e+01    0.1530125    0.1161596  -4.64 0.0003860522    1.693    0.409
       103  -7.5797    177.4937    146.9861   2.6549237138e+01   1.7624780798e+01    0.1796719    0.1168296 -63.25 0.0007185407    2.319    0.569
       104  -7.6941    166.7711    139.5997   2.7145333809e+01   2.0905893514e+01    0.1911778    0.1335474  53.92 0.0008286354    1.689    0.408
       105  -8.1566      1.2762    138.5058   7.7121977016e+01   4.5805955909e+01    0.2299089    0.1093308 -83.35  0.001011158    1.908    0.476
       106  -7.8907    187.5172    136.1082   2.2376270333e+01   1.7849191180e+01    0.2026366    0.1217901 -39.41 0.0007879484    1.508    0.337
       107  -7.8689    172.1996    136.1923   2.5305267333e+01   2.0565095650e+01    0.1918103    0.1620461 -61.84  0.001060086    1.363    0.266
       108  -7.9702    149.4845    136.4845   3.0227579345e+01   2.4743982782e+01    0.1446953    0.1393279 -19.53 0.0008102885    1.000    0.000
       109  -8.2906    154.9715    135.1613   2.8698685603e+01   2.3972498049e+01    0.2349832    0.1733882  76.33 0.0007190097    2.028    0.507
       110  -7.9026    182.6619    133.9765   2.2810055399e+01   1.9085962182e+01    0.1975182    0.1617087 -39.48  0.000643634    1.133    0.117
       111  -8.9957    163.9491    133.4419   2.6384752391e+01   2.2618080369e+01    0.2562643    0.2147601  68.61  0.001082115    1.469    0.319
       112  -8.2509    188.3717    132.1495   2.1374824795e+01   1.8398524585e+01    0.2881474    0.1469069 -55.86  0.001155046    2.769    0.639
       113  -8.6987    192.3591    129.3444   2.0068588595e+01   1.8186545696e+01     0.320721    0.2041707 -45.60   0.00110209    1.487    0.328
       114  -7.3178    178.5077    131.5075   2.3053230569e+01   2.0284897867e+01    0.1378041    0.1269539 -40.83 0.0008093692    1.079    0.073
       115  -8.4676    146.5159    131.0335   2.9689126634e+01   2.6444104595e+01    0.2299537    0.1423552 -46.92  0.001028407    1.590    0.371
       116  -8.5861    173.2457    129.1926   2.3555814486e+01   2.1686109249e+01    0.3096165     0.178469 -41.50  0.001441417    1.615    0.381
       117  -8.8965    160.0737    129.1552   2.6239799113e+01   2.4195452602e+01     0.325278    0.2011851 -48.35  0.001503523    1.604    0.377
       118  -8.6834    152.8151    129.8322   2.7978665553e+01   2.5465069810e+01    0.2009637    0.1774082  88.11 0.0007435397    1.356    0.262
       119  -7.9622    165.3627    129.1050   2.5119792190e+01   2.3191452184e+01    0.2139323    0.1251449 -52.05  0.000943458    1.829    0.453
       120  -7.7293    141.4865    128.5555   3.0308326918e+01   2.7951851765e+01     0.146141    0.1445146 -54.19 0.0001480833    1.033    0.032
       121  -7.8335    207.5779    123.8377   1.6399663699e+01   1.6483605034e+01    0.4493457    0.1749896 -51.11  0.001638427    3.487    0.713
       122  -7.1337    205.2945    126.3005   1.7278491475e+01   1.6466488579e+01    0.1273468    0.0952358  -7.28 0.0006990314    1.571    0.364
       123  -8.3567    181.6790    124.8310   2.0980512518e+01   2.0917146675e+01    0.2561599    0.1544325 -36.44  0.001236215    1.543    0.352
       124 -10.0218    164.5545    124.5550   2.4247855432e+01   2.4226947751e+01    0.5412208    0.2110618  50.21  0.001968878    2.915    0.657
       125  -8.3823    188.1542    122.8954   1.9387784826e+01   2.0068623663e+01     0.284817    0.1693623 -49.52  0.001215773    1.699    0.411
       126  -9.0559    195.2920    121.4091   1.7841848336e+01   1.9032575360e+01    0.3983378    0.2189211 -45.12  0.001923655    1.684    0.406
       127  -8.6378    170.2484    121.4334   2.2380841328e+01   2.3716486804e+01    0.2471202    0.1665558 -59.44   0.00104533    1.761    0.432
       128  -8.5250    202.6495    120.2386   1.6395724729e+01   1.7925261466e+01    0.2838101    0.1531194 -41.73  0.001016481    1.623    0.384
       129  -9.0010    140.2063    121.6259   2.8983468939e+01   2.9679374011e+01    0.2159363    0.1412289  33.99 0.0009518341    1.691    0.409
       130  -8.1704    181.5693    119.6663   1.9834703151e+01   2.1869882129e+01    0.2596115    0.1258846 -37.15 0.0008248275    1.936    0.483
       131  -7.7512    157.3016    119.3346   2.4546818973e+01   2.6684823796e+01    0.1478798    0.1147738  -5.29 0.0006294537    1.658    0.397
       132  -9.5091    210.1013    113.6825   1.3843000586e+01   1.7695607491e+01    0.4570084    0.2761816 -32.74  0.002333003    1.481    0.325
       133  -7.8564    177.3861    117.2249   2.0041554707e+01   2.3113689095e+01    0.2002979    0.1216668 -48.21 0.0006159371    1.602    0.376
       134  -7.9544    172.2738    117.6398   2.1104399641e+01   2.4032896900e+01    0.1435259    0.1073749 -67.26 0.0004958738    1.656    0.396
       135  -7.2544    162.2555    117.3467   2.3031685497e+01   2.6077944427e+01     0.143812    0.1112185 -12.16 0.0003871341    1.592    0.372
       136  -8.1184    134.5251    116.0545   2.9016117556e+01   3.2038841432e+01    0.2205114    0.1322732 -68.28 0.0008093206    2.569    0.611
       137  -8.2115    203.5008    115.0673   1.5135202054e+01   1.8630770412e+01    0.2084507    0.1147608 -37.84  0.001027234    1.573    0.364
       138  -8.4253    184.3710    114.7039   1.8198595515e+01   2.2223914346e+01    0.2779321    0.1953496 -48.76  0.001160293    1.367    0.269
       139  -9.1345    192.9888    113.0255   1.6351677065e+01   2.0888888808e+01    0.3305478     0.246076 -32.74  0.001276455    1.238    0.192
       140  -8.2936    152.5148    114.0322   2.4302036179e+01   2.8718868960e+01    0.2304281    0.1408865 -43.57  0.001025129    1.569    0.362
       141  -8.9068    146.6113    113.7428   2.5553409249e+01   3.0004474292e+01    0.2746502    0.1846957 -51.95   0.00119677    1.506    0.336
       142  -7.8963    157.4845    112.9791   2.2973149705e+01   2.7901139325e+01     0.231609    0.1384085 -43.68 0.0009033114    1.591    0.371
       143  -8.2730    176.0086    111.4560   1.8944663854e+01   2.4436550150e+01    0.2739761     0.189053 -26.04  0.001043011    1.581    0.368
       144  -8.4657    200.6279    108.9401   1.4217276045e+01   2.0162115156e+01    0.3693802    0.2588073 -56.15  0.001948378    1.521    0.343
       145  -8.8305    203.7335    104.1742   1.2679779145e+01   2.0371991398e+01    0.3201737    0.2003234 -45.49  0.001429166    1.423    0.297
       146  -8.0949    161.8296    109.8327   2.1299915332e+01   2.7614751830e+01    0.2072921    0.1709427 -69.26  0.001078455    1.360    0.264
       147  -8.8648    189.8887    107.2316   1.5533625472e+01   2.2469847134e+01    0.3857334    0.1835134 -32.58  0.001635212    2.131    0.531
       148  -8.5719    183.0182    107.4606   1.6746725215e+01   2.3767275162e+01    0.4221603    0.1832329 -31.81  0.001616672    2.574    0.612
       149  -8.4101    154.5015    106.9438   2.2106801404e+01   2.9709084612e+01    0.4013328    0.1409934 -41.37  0.001363119    2.738    0.635
       150  -8.0102    168.2754    111.0520   2.0313781910e+01   2.6063036649e+01    0.2097785    0.1699907 -45.11 0.0007968318    1.156    0.135
       151  -8.0083    208.7987     99.0279   1.0801051407e+01   2.0265630827e+01    0.1938876    0.1097638 -30.05 0.0009529511    1.724    0.420
       152  -8.9292    211.8212    103.5743   1.1391815724e+01   1.9001566540e+01    0.4037081    0.2577091 -46.38  0.001655834    1.395    0.283
       153  -8.7391    215.5112     98.0624   9.6814249116e+00   1.9202211412e+01    0.3724074    0.2024412 -38.26   0.00134264    1.531    0.347
       154  -8.1849    216.0000     93.9981   8.7219523824e+00   1.9737995580e+01    0.1953968    0.1507443 -46.02 0.0008996929    1.110    0.100
       155  -7.7519    193.9606    101.2488   1.3490217717e+01   2.2698895287e+01    0.1878929    0.1637738 -41.21 0.0006747915    1.016    0.016
       156  -7.8814    187.6205    101.1233   1.4472623716e+01   2.3959964952e+01    0.1989126    0.1213294 -28.69 0.0006953145    1.734    0.423
       157  -6.8706    175.0000    101.0071   1.6606317553e+01   2.6530481673e+01    0.2379965   0.07523044 -39.42 0.0007974589    2.908    0.656
       158  -8.0272    167.6547    100.0646   1.7726185134e+01   2.8233198473e+01    0.3339689    0.1269859 -40.39  0.001223051    2.442    0.591
       159  -8.2702    160.2220    100.0135   1.9160850844e+01   2.9823972745e+01    0.3277491    0.1663207 -41.41  0.001361297    1.858    0.462
       160  -8.0294    197.5939     97.2347   1.2001722630e+01   2.2661807209e+01    0.1932191     0.118201 -29.06 0.0009485725    1.664    0.399
       161  -7.8299    183.6290     95.1669   1.3693950251e+01   2.5782229079e+01    0.2063425    0.1236823 -29.59 0.0009326196    1.762    0.433
       162  -7.1847    177.0000     92.6046   1.4171275058e+01   2.7598199395e+01     0.320291   0.07454251 -38.32 0.0009350017    3.937    0.746
       163  -8.6422    209.3300     91.2813   8.9826115370e+00   2.1380622564e+01    0.2881285     0.153352 -34.30 0.0009431607    1.677    0.404
       164  -7.7321    188.5560     92.2307   1.2192688767e+01   2.5276295494e+01    0.1904763    0.1244259 -28.54 0.0009404425    1.599    0.375
       165  -8.2596    218.5306     89.4909   7.4089743119e+00   1.9963586282e+01    0.2603595    0.1080316 -35.38 0.0009926194    2.054    0.513
       166  -8.0063    203.4963     97.5984   1.1223871534e+01   2.1478075185e+01    0.1308906    0.1144885 -44.52 0.0002138977    1.022    0.021
       167  -7.4450    183.2966     89.2926   1.2304694485e+01   2.6848351546e+01    0.1305661    0.1087134   3.85 0.0004247579    1.560    0.359
       168  -6.9766    197.3391     88.2724   9.9338555630e+00   2.4163814714e+01    0.1256438    0.1037385  10.51 0.0004472917    1.607    0.378
       169  -7.3864    174.4442     87.5089   1.3317989255e+01   2.9024438464e+01    0.1425869    0.1281511 -53.70 0.0003550038    1.015    0.015
       170  -8.3826    219.5046     83.6423   5.9977275815e+00   2.0656197922e+01    0.3009499     0.181243 -30.99   0.00123343    1.546    0.353
       171  -8.3087    206.1836     84.5796   7.8601568346e+00   2.3014471670e+01    0.2650148    0.1645087 -32.86  0.001337622    1.492    0.330
       172  -8.0538    193.5756     81.6236   8.8725583308e+00   2.5982000377e+01    0.2645506    0.1231253 -32.89 0.0008811987    2.095    0.523
       173  -7.1307    175.3237     80.3339   1.1321944829e+01   3.0053895763e+01    0.1382762    0.1119486   9.52 0.0007050748    1.709    0.415
       174  -8.2254    142.8180     80.3370   1.7432617702e+01   3.7435398577e+01    0.2173537    0.1853209 -58.91  0.001029591    1.141    0.124
       175  -7.8582    215.0186     79.5116   5.6007520209e+00   2.2095917576e+01    0.1617609    0.1266751  63.72 0.0005037745    1.490    0.329
       176  -8.3020    200.6130     75.9665   6.5554850695e+00   2.5432984666e+01    0.2874237    0.1121973 -36.36 0.0008335504    2.229    0.551
       177  -7.7463    211.1422     75.8123   5.2150960033e+00   2.3379984334e+01    0.1690865    0.1424524 -21.20  0.001047934    1.332    0.249
       178 -10.7596    231.8906    131.1251   1.4377897151e+01   1.1490923094e+01    0.9977757    0.3729421 -43.18  0.004541212    2.370    0.578
       179  -9.1937    145.8400     68.6430   1.3374347413e+01   3.8822026482e+01     0.411747    0.1407714 -46.20  0.001366296    2.931    0.659
       180  -7.5623    214.4664     69.4962   3.3817936113e+00   2.3657155088e+01      0.12908    0.1058503 -49.14 7.442615e-05    1.002    0.002
       181  -7.9931    204.1861     66.8485   3.9340359664e+00   2.6069144486e+01    0.3052748   0.06463095 -39.58  0.001023481    3.452    0.710
       182  -8.1492    235.3720    203.2906   2.6806487158e+01   8.5934772743e-01    0.1510709    0.1458307  45.30 0.0009037404    1.890    0.471
       183  -8.8467    229.8537    200.1649   2.7153615435e+01   1.8743288205e+00    0.2637238    0.2172974  20.51  0.001330292    1.414    0.293
       184  -8.1618    207.4263    207.2818   3.1997106608e+01   3.4848680501e+00    0.1612654    0.1352003  36.95 0.0008265307    1.631    0.387
       185  -7.8739    229.9331    205.2900   2.7968834532e+01   1.1896126711e+00     0.152229    0.1243835  24.45 0.0008698382    1.497    0.332
       186  -8.2058    197.2517    204.5058   3.3348960069e+01   5.1230142523e+00    0.2217115     0.189427  55.52  0.001456955    1.932    0.482
       187  -9.2206     64.8164    228.5294   6.5508409377e+01   1.8030000760e+01    0.2048287    0.1898518 -69.37 0.0003055461    1.301    0.231
       188  -9.5802    244.4399    201.3786   2.5143527640e+01   1.4205471461e-01    0.3183907    0.2227808 -42.80  0.001601315    1.864    0.464
       189  -8.9861    231.1928    187.0333   2.4762016716e+01   3.4960884747e+00    0.2324149    0.1995073   2.65 0.0009280029    1.246    0.198
       190  -8.9550    250.1290    201.4353   2.4330745247e+01  -4.5024418744e-01    0.3052642    0.1449532 -32.64  0.001902879    1.705    0.413
       191  -7.8892    237.7415    221.6250   2.9300195606e+01  -1.6722730161e+00    0.1665744    0.1195203 -39.94  0.001201643    1.857    0.462
       192  -7.9427    151.3129     48.3193   6.2370303119e+00   4.0749319275e+01    0.1390289    0.1117131  29.06 0.0007037271    1.649    0.393
       193  -8.2369    195.5894     45.1720   3.5957502987e+02   3.0897969986e+01    0.1751841    0.1197906 -23.91 0.0009417004    1.674    0.403
       194  -8.8341    132.8169     42.7658   7.7020129817e+00   4.6189409332e+01    0.2599823    0.1516541 -67.02  0.001078815    2.130    0.531
       195  -9.1690    235.8231    180.9870   2.3028901960e+01   3.7791839749e+00    0.2797261    0.1903853 -45.46   0.00108502    1.790    0.441
       196  -8.0188    157.3104    221.5929   4.3716032771e+01   7.5545050429e+00    0.1654612    0.1013604  19.01 0.0005176217    1.470    0.320
       197  -8.8045    220.6007     29.4333   3.5366861417e+02   2.7679189106e+01    0.2245943    0.1713099 -25.22  0.001107924    1.495    0.331
       198  -7.6790     99.7852     29.7492   1.0018292670e+01   5.6449485983e+01    0.1887433    0.1554076 -70.59 0.0002274408    1.294    0.227
       199  -7.8538    168.0172     17.7662   3.5498775609e+02   4.0572730212e+01     0.230113    0.1188237 -69.07  0.001061971    1.976    0.494
       200  -7.6211    156.5130     17.4976   3.5607321351e+02   4.3407376614e+01    0.1387666    0.1135638 -71.49 0.0008098863    1.057    0.054
       201  -8.7098    249.7959    218.0147   2.6959014982e+01  -2.4094163811e+00    0.2863923    0.1568423 -41.96  0.001834517    2.278    0.561
       202  -7.1870    211.6232    219.3138   3.3158519711e+01   1.3537896751e+00   0.09628485   0.08845318  39.41  0.000702892    1.797    0.443
       203  -8.1257    234.8606    216.9115   2.9024735672e+01  -8.0861826609e-01    0.1367722    0.1288502   1.72  0.001109738    1.728    0.421
       204  -8.1260    248.3393    212.7725   2.6367806426e+01  -1.6490078591e+00    0.1584963    0.1194224  16.57 0.0007216636    1.413    0.292
       205  -7.2536    213.2746    212.6328   3.1845281302e+01   2.0665371763e+00   0.09559786    0.0887464 -37.65  0.000359163    1.673    0.402
       206  -7.8264    203.7459    211.5288   3.3312260561e+01   3.3210372411e+00    0.1610393    0.1394806 -47.34 0.0009500016    1.719    0.418
       207  -7.4924    243.6478    211.2786   2.6824482923e+01  -1.0042502746e+00     0.147963   0.08927095  28.05 0.0004625978    1.760    0.432
       208  -7.5587    240.6975    211.3284   2.7272114036e+01  -7.1251946895e-01   0.09040059   0.07966689 -28.40 0.0007033223    1.646    0.393
       209  -8.1908    236.2979    209.8356   2.7704701946e+01  -7.3496395834e-02      0.25635    0.1832266 -54.45  0.001580154    2.852    0.649
