#   1 NUMBER                 Running object number                                     
#   2 MAG_AUTO               Kron-like elliptical aperture magnitude                    [mag]
#   3 X_IMAGE                Object position along x                                    [pixel]
#   4 Y_IMAGE                Object position along y                                    [pixel]
#   5 X_WORLD                Barycenter position along world x axis                     [deg]
#   6 Y_WORLD                Barycenter position along world y axis                     [deg]
#   7 A_WORLD                Profile RMS along major axis (world units)                 [deg]
#   8 B_WORLD                Profile RMS along minor axis (world units)                 [deg]
#   9 THETA_WORLD            Position angle (CCW/world-x)                               [deg]
#  10 FWHM_WORLD             FWHM assuming a gaussian core                              [deg]
#  11 ELONGATION             A_IMAGE/B_IMAGE                                           
#  12 ELLIPTICITY            1 - B_IMAGE/A_IMAGE                                       
         1 -14.9467    160.2021     42.6151   8.3669240470e+01   3.9737804535e+01     1.468628     1.087692 -18.98  0.003887668    1.389    0.280
         2 -14.7061    173.1400      9.5237   6.9949419279e+01   4.0427900325e+01     1.338223     1.109636  44.27  0.004367455    1.201    0.167
         3 -12.5032    189.8099     12.4557   6.8752178798e+01   3.5680583538e+01     0.809735    0.1925016 -22.90  0.002383903    3.835    0.739
         4 -10.6476    150.9025    243.1032   1.2560673571e+02   1.0613904024e+01    0.1455128    0.1090437  40.01 0.0005601487    1.172    0.147
         5 -19.7240     90.0242    231.9665   1.3398364748e+02   2.0278111926e+01      6.63103     4.386466  56.38   0.04580994    1.082    0.075
         6 -11.3663     21.8523    240.1816   1.4461379243e+02   2.6775691769e+01    0.1280606   0.08357798  73.06 0.0007038523    1.156    0.135
         7 -12.2701    163.9106    203.0566   1.1898928310e+02   1.3459826632e+01    0.2451513    0.2215985  68.02 0.0004007995    1.247    0.198
         8 -10.7851     16.7913    225.8161   1.4481914963e+02   2.9334150302e+01   0.08859424   0.05697588 -88.72 0.0003331655    1.441    0.306
         9 -13.0380    199.0943    222.6448   1.1593560729e+02   5.6770223590e+00    0.3569885    0.1601298  47.23   0.00134462    1.819    0.450
        10 -12.7905     22.7294    220.4081   1.4371287331e+02   2.9576267707e+01    0.1984878      0.14057 -75.42  0.001753142    1.661    0.398
        11 -12.7683     30.6663    182.4813   1.4046744084e+02   3.4980104420e+01    0.2892186      0.16618  66.99 0.0003797338    1.354    0.261
        12 -11.7356     27.7952    179.8182   1.4081950662e+02   3.5734377701e+01    0.2196231    0.1862925 -39.10  0.001754883    2.058    0.514
        13 -11.7205    123.5658    184.9870   1.2370088285e+02   2.2491563824e+01    0.2390805    0.1739769  66.28  0.000624489    1.310    0.237
        14 -10.9701      7.7299    237.7200   1.4652398381e+02   2.8446356636e+01    0.1102848   0.05850598  69.91 0.0006079968    1.294    0.227
        15 -14.3927    177.2264    171.8617   1.1209225240e+02   1.5396121502e+01    0.7677594    0.5071862 -53.31  0.004431821    1.955    0.488
        16 -19.1173     73.4730     95.9520   1.2065090263e+02   4.7186715572e+01     16.59562    0.7441212 -57.38   0.02484382   19.184    0.948
        17 -12.3381    167.3127    174.1724   1.1422752953e+02   1.6827255955e+01    0.2303591    0.2106251 -79.19 0.0009761606    1.311    0.237
        18 -10.8389     16.0277    209.4848   1.4429494796e+02   3.1907604728e+01   0.09861211   0.08046718  44.71 0.0004513609    1.582    0.368
        19 -11.3110     18.0850    173.5293   1.4221229188e+02   3.7779574126e+01    0.1591484    0.1421169  62.03 0.0008855268    1.421    0.296
        20 -11.3695     26.1228    172.4337   1.4066760539e+02   3.7217104561e+01    0.2145053    0.1475177  61.24  0.000915351    1.173    0.147
        21 -12.4117    185.7027    168.2043   1.0998718395e+02   1.4374910866e+01     0.318045    0.2090135 -39.62  0.001854068    1.757    0.431
        22 -12.2491    230.0686    166.8344   1.0237558696e+02   6.5680221148e+00    0.2796303    0.1606185 -39.31  0.001542054    2.134    0.531
        23 -13.0881    153.1944    162.4670   1.1492647711e+02   2.1100764468e+01    0.2974402    0.2485422 -85.36 0.0009215365    1.424    0.298
        24 -10.4350     20.4029    166.7269   1.4138220795e+02   3.8799895478e+01    0.1366759    0.1092804  56.48  0.001121025    1.299    0.230
        25 -11.8697    201.2273    165.2742   1.0679950733e+02   1.1935831177e+01    0.2579685    0.2134481 -71.11 0.0009664543    1.799    0.444
        26 -11.1031    222.8456    162.2436   1.0267517637e+02   8.3797429703e+00    0.2552249    0.1637541 -44.98  0.001164518    2.078    0.519
        27 -14.1632    163.7677    157.7663   1.1214370113e+02   1.9916938706e+01    0.5740281    0.4151128 -63.43  0.003215157    1.784    0.440
        28  -9.7843     14.4539    162.4868   1.4225660274e+02   4.0119817900e+01    0.1028271    0.0749578  78.32  0.000229369    1.029    0.028
        29 -14.7692    143.5660    143.3386   1.1349039547e+02   2.6024327290e+01    0.9193575    0.5625516 -60.86  0.004546321    1.994    0.498
        30 -14.0802    151.6204    144.2517   1.1204916639e+02   2.4366308681e+01    0.5587327    0.4257427 -74.33  0.003143355    1.652    0.395
        31 -15.0365    134.1478    146.4056   1.1594409076e+02   2.7198057477e+01      1.32278    0.5657182 -55.60  0.005313849    2.753    0.637
        32 -14.3996    135.6279    128.6415   1.1234229384e+02   3.0132141384e+01     1.685392    0.3348528 -49.78  0.004652828    5.802    0.828
        33 -10.2194     22.9691    156.2790   1.4020162296e+02   4.0512015396e+01    0.1421159    0.1069131  70.54 0.0004290178    1.087    0.080
        34 -10.8796    192.3592    153.4609   1.0615855880e+02   1.5177231602e+01    0.2032404    0.1218112 -35.40 0.0007467369    1.845    0.458
        35 -10.6704     17.7350    153.5092   1.4105602749e+02   4.1516320408e+01    0.1779055    0.1109961 -86.26 0.0003718201    1.288    0.224
        36 -12.4634    134.5583    108.7923   1.0834554675e+02   3.4051596979e+01     1.068843    0.1430023 -46.15   0.00239825    7.658    0.869
        37 -12.8767    174.1197    148.6526   1.0855367862e+02   1.9373088028e+01    0.3440633    0.2993138 -54.51  0.001213875    1.328    0.247
        38 -10.2067      7.0686    149.9865   1.4296789988e+02   4.3094917032e+01    0.1428771    0.1060622 -58.90 0.0007291014    1.714    0.417
        39 -13.0393     11.3615    206.0926   1.4489366311e+02   3.2876916543e+01    0.3590371    0.1962047  39.67  0.002159602    1.823    0.451
        40 -11.3914     27.5181    145.7856   1.3848274229e+02   4.2108458104e+01    0.2235815    0.1819514 -89.46 0.0009870086    1.159    0.137
        41 -11.9312    175.3196    141.9601   1.0703648807e+02   2.0172929645e+01    0.1789513     0.173568  -1.55 0.0005913434    1.099    0.090
        42 -10.1853     11.7028    157.0082   1.4246516028e+02   4.1380420444e+01    0.1636131    0.1227555 -25.07   0.00114571    2.661    0.624
        43 -12.1217    168.7349    202.2838   1.1808359590e+02   1.2781054134e+01     0.242668    0.1796664 -87.66 0.0007449845    2.130    0.531
        44 -13.0581    154.3660    195.9723   1.1967008357e+02   1.5944155713e+01    0.4340191    0.2883882  84.57  0.002448336    2.502    0.600
        45 -11.7871    147.9751    133.7194   1.1076849059e+02   2.6869892083e+01     0.190028    0.1641403  54.88 0.0003886005    1.085    0.079
        46 -13.3213    160.3721    128.1276   1.0711743529e+02   2.5396480407e+01    0.4235302    0.3742776 -48.89  0.002016244    1.207    0.172
        47 -13.4170    155.6250    190.5856   1.1872387903e+02   1.6486332770e+01    0.4292181    0.2903359  73.14  0.002099681    1.994    0.499
        48 -10.0344     23.8308    123.4080   1.3732383243e+02   4.6959748787e+01    0.1278012    0.1093597  10.65 0.0009438732    1.764    0.433
        49 -13.3195    154.4448    185.8206   1.1826492960e+02   1.7358699595e+01    0.4592275    0.2324622  55.54  0.002390598    1.996    0.499
        50 -13.5257    157.7346    202.6194   1.1996633848e+02   1.4506341392e+01    0.4814206    0.3531766  67.98  0.002449769    1.558    0.358
        51 -12.2016    138.8265    250.1748   1.2806745416e+02   1.1504802010e+01    0.2500952    0.1468279  41.92  0.001881578    1.302    0.232
        52 -13.4043    118.1505    108.3559   1.1201671592e+02   3.7279129696e+01    0.4974508     0.303535 -51.90  0.002452786    1.629    0.386
        53 -12.8257    161.6721    197.8848   1.1867888908e+02   1.4498391299e+01    0.3446332     0.284103  80.35  0.001836624    1.491    0.329
        54 -10.8346    205.3253    110.2579   9.4636501185e+01   1.8730231825e+01    0.3009958    0.1825536  44.62   0.00105933    1.583    0.368
        55 -12.3899    138.1305    243.9744   1.2761220727e+02   1.2305850764e+01    0.3392227    0.2732775 -43.71  0.002708298    1.813    0.448
        56 -11.2886    133.5066    249.4162   1.2878843468e+02   1.2316142901e+01    0.1426854    0.1081493  60.83 0.0001404899    1.214    0.176
        57 -10.0107     21.0065    107.9866   1.3643373750e+02   5.0433146691e+01    0.1303687    0.1065383  84.85 0.0003445254    1.088    0.080
        58 -11.2620     16.3763    250.1410   1.4571202095e+02   2.5928678897e+01    0.1124773   0.07009127  77.91  0.001050691    1.285    0.221
        59 -11.1781     26.3017     97.3821   1.3376952004e+02   5.2246898910e+01    0.3887384    0.1892833  12.38  0.001794755    4.164    0.760
        60 -10.1954     22.7106    204.8492   1.4302532652e+02   3.2010059380e+01    0.1774149    0.1332888 -52.66  0.001193004    2.228    0.551
        61 -12.2515    138.0083    198.6297   1.2282783548e+02   1.8177942763e+01    0.4908714    0.2666935  65.14  0.002282808    2.380    0.580
        62 -11.5696     45.5006     92.5711   1.2773051457e+02   5.1411117591e+01    0.2205164    0.1778605  63.38 0.0006342006    1.286    0.222
        63 -11.3187     41.6950     92.0060   1.2870628055e+02   5.1938962051e+01    0.3432208    0.1921065  86.32  0.001670514    2.141    0.533
        64 -10.9947    103.3865     81.9313   1.0933222206e+02   4.5311548532e+01    0.2265316      0.19583  43.25  0.001298804    1.244    0.196
        65 -10.4723    142.9951     80.2876   9.9149023433e+01   3.7609120191e+01    0.2014307    0.1934204  51.90 0.0005464087    1.054    0.051
        66 -12.1432    133.9424    245.1131   1.2834492476e+02   1.2752539290e+01      0.14183    0.1364463  67.57 0.0004228459    1.395    0.283
        67 -11.6341    148.6313     35.4939   8.3466582092e+01   4.3666863727e+01    0.5996529     0.353983  89.47  0.001903275    2.974    0.664
        68 -14.4045    149.1293     57.2539   9.0796014471e+01   4.0199164180e+01     1.191809     1.045125   7.20 0.0009592222    1.234    0.189
        69 -10.1758     17.3634    200.2656   1.4368295177e+02   3.3263769641e+01   0.07589711   0.07131734 -87.29  0.000293077    1.646    0.392
        70 -13.1691    163.8083     34.0082   8.0045417977e+01   4.0014172791e+01    0.4750417    0.4218026  -7.12 0.0008107206    1.136    0.120
        71 -10.6091     13.5020     59.9356   1.3194176242e+02   6.1380991006e+01    0.1605386    0.1331963 -73.80 0.0004255567    1.079    0.073
        72 -11.9209    167.9861    242.2096   1.2295121230e+02   8.2718572000e+00     0.196509     0.150788 -45.60  0.001115679    1.823    0.451
