#   1 NUMBER                 Running object number                                     
#   2 MAG_AUTO               Kron-like elliptical aperture magnitude                    [mag]
#   3 X_IMAGE                Object position along x                                    [pixel]
#   4 Y_IMAGE                Object position along y                                    [pixel]
#   5 X_WORLD                Barycenter position along world x axis                     [deg]
#   6 Y_WORLD                Barycenter position along world y axis                     [deg]
#   7 A_WORLD                Profile RMS along major axis (world units)                 [deg]
#   8 B_WORLD                Profile RMS along minor axis (world units)                 [deg]
#   9 THETA_WORLD            Position angle (CCW/world-x)                               [deg]
#  10 FWHM_WORLD             FWHM assuming a gaussian core                              [deg]
#  11 ELONGATION             A_IMAGE/B_IMAGE                                           
#  12 ELLIPTICITY            1 - B_IMAGE/A_IMAGE                                       
         1 -10.6941     20.8446     16.9209   5.5629903893e+01   7.6412272458e+01    0.3644661     0.264762  34.81  0.001828631    1.325    0.246
         2 -10.3600     66.0856     16.0821   3.0165640312e+01   6.6854082988e+01    0.2350201    0.2040605  -8.84 0.0003952893    1.302    0.232
         3 -10.5176     49.5485     13.8746   3.5120262011e+01   7.1109449055e+01    0.2902902    0.2551033  54.23 0.0008304509    1.060    0.056
         4 -10.0197     45.4245     12.2812   3.5926626981e+01   7.2255495867e+01    0.2291932    0.2067187  -9.64 0.0009302472    1.182    0.154
         5  -9.5624     32.0808     10.5142   4.2076935533e+01   7.5372555211e+01    0.2036593    0.1791589 -43.89 0.0004932871    1.277    0.217
         6  -9.6074    114.8205      8.8330   1.6494119949e+01   5.4856826375e+01    0.1916296    0.1630387 -84.67 0.0008855285    1.029    0.028
         7 -11.4500    119.1863      9.2040   1.6109229461e+01   5.3674734155e+01    0.2894765    0.2195431 -38.54 0.0002539843    1.324    0.245
         8 -10.9064    123.8807      6.4775   1.4530839942e+01   5.2696172238e+01    0.3139279    0.1984184 -73.00 0.0009628396    1.475    0.322
         9  -9.7801     75.0000      8.9619   2.3539616195e+01   6.5342929256e+01    0.3611062    0.1855523 -17.59  0.001584424    2.301    0.565
        10  -9.7941     78.1935      7.7385   2.2118070386e+01   6.4627557965e+01    0.2707788    0.1729509  53.94  0.000458496    1.474    0.322
        11  -9.7205     27.8020     11.2735   4.5649706619e+01   7.6111312202e+01    0.1853518    0.1760349  45.35 0.0007181144    1.136    0.120
        12  -9.9459    104.8205      8.6973   1.7786305988e+01   5.7512478586e+01    0.3871821    0.1902564 -47.51  0.001712271    2.003    0.501
        13 -11.1189     56.8012      9.0118   2.8936997773e+01   6.9937044340e+01    0.3790285    0.2778903  46.61  0.001159151    1.292    0.226
        14 -10.1707    212.9267      8.9228   9.3492161533e+00   3.1737233828e+01    0.1740744    0.1311423 -53.23 0.0003236748    1.034    0.033
        15 -11.1503     96.8992      6.4350   1.7958846242e+01   5.9814003539e+01     0.426968    0.2397465 -53.24  0.002001964    1.819    0.450
        16 -10.0388      3.5338      8.3011   6.7129378048e+01   8.0359636021e+01    0.2063162    0.1793729  11.32 0.0005124736    1.105    0.095
        17 -10.6755     85.5508      7.4698   2.0441994409e+01   6.2723451691e+01    0.2459378    0.2160363 -78.83 0.0006917182    1.091    0.084
        18 -10.4822     88.7095      5.6633   1.8945177686e+01   6.2048344331e+01    0.2467366    0.2172748  54.90 0.0003667474    1.168    0.144
        19  -9.3006    203.2211      4.8126   8.7738866781e+00   3.4103926872e+01    0.1400666    0.1296608 -82.29 0.0003779064    1.323    0.244
        20  -9.1200     22.8281      5.1355   4.4069128200e+01   7.7937407859e+01     0.172763    0.1340285  20.15  0.001005601    1.301    0.232
        21  -9.2936    131.4645      3.9385   1.2860384771e+01   5.0956918858e+01    0.1818923    0.1284005 -29.23 0.0005550304    1.482    0.325
        22 -10.6809    114.3347      1.7448   1.3668969697e+01   5.5594481625e+01    0.3644557    0.1706603  81.70  0.001049823    1.940    0.484
        23  -8.9728    229.9928      1.5263   7.0673230224e+00   2.9206601581e+01    0.1240998    0.0847363  52.64 0.0004181168    2.226    0.551
        24 -10.2751    179.0157      1.5001   8.9962106416e+00   3.9643411301e+01     0.181339    0.1091909  89.54 0.0005526973    1.558    0.358
        25  -9.1608     37.4997      1.5008   3.1403204810e+01   7.5268369360e+01    0.1302362    0.1189945  48.99 0.0008104477    1.035    0.034
        26 -12.1294     27.4273    100.2601   8.1836531250e+01   5.4953766758e+01    0.6405795      0.31404 -17.01  0.001900049    3.820    0.738
        27  -8.7991    159.6884     98.6236   3.8360568151e+01   3.0316684513e+01    0.1463953    0.1132501  -3.39 0.0007029426    1.790    0.441
        28 -13.0534     20.5062     95.4969   8.4321380031e+01   5.6981402695e+01    0.5540623    0.5307024   8.51  0.002377722    1.138    0.121
        29 -12.6412    242.8907     95.3041   2.6204495127e+01   1.5825966373e+01      0.38491    0.1684446 -34.84   0.00206612    1.711    0.416
        30 -10.4457     64.2152     96.3830   6.4843889703e+01   5.0829185825e+01    0.3021703    0.2863334   9.61  0.001066081    1.172    0.147
        31 -12.4653     41.8407     95.5625   7.4246050053e+01   5.4548980241e+01    0.5397431     0.288703  37.43  0.002195649    1.836    0.455
        32 -11.4307      3.6933     96.2662   9.2620344077e+01   5.7974023350e+01    0.2828697    0.2537034  31.36 0.0003265899    1.189    0.159
        33 -11.3560    132.1319     92.7517   4.2514949124e+01   3.7439841606e+01    0.3351386    0.2671244  57.30 0.0008600282    1.308    0.235
        34  -9.9200     60.6004     90.5556   6.4726242963e+01   5.2988912258e+01    0.3923264    0.1533379 -59.38  0.001292714    2.604    0.616
        35 -10.7913     49.3501    101.1255   7.2201787432e+01   5.1949964181e+01    0.2617446    0.2210247  11.40 0.0005488183    1.353    0.261
        36  -9.9847      2.4045     88.7807   9.2500067789e+01   6.0162578405e+01    0.2074833    0.1172281 -66.23 0.0005085003    1.587    0.370
        37 -11.2418    238.6075     86.1858   2.4749842473e+01   1.7710264899e+01    0.1732975   0.09206263 -28.24 0.0009546926    1.702    0.412
        38 -10.4695     11.8316     86.1361   8.7235824032e+01   6.0336892980e+01    0.2089727    0.1584219 -47.61 0.0004624103    1.317    0.241
        39  -9.6355    231.6718     86.3054   2.5452422442e+01   1.8799228027e+01    0.1229228   0.07455216 -55.47 0.0005105309    1.652    0.395
        40 -13.5602     17.8800     81.1050   8.3126030034e+01   6.1269312120e+01    0.8907103    0.5328102  56.03  0.003921056    1.860    0.462
        41 -11.8630     18.0000     76.0182   8.2034959559e+01   6.2667862638e+01    0.4013413    0.2175983 -89.60  0.001621286    2.165    0.538
        42 -11.8356     27.1846     80.5773   7.8001001140e+01   6.0498530303e+01    0.3361209    0.2557665   9.98  0.001653416    1.468    0.319
        43 -11.4220     54.8410     79.0152   6.3817713417e+01   5.6970357415e+01    0.3422836    0.2924509 -78.63 0.0004796703    1.217    0.178
        44 -10.7834      5.9116     80.0402   8.9551384049e+01   6.2431484926e+01    0.2187205    0.2017501 -83.94 0.0005291174    1.023    0.023
        45  -9.1333    144.0000     78.9922   3.5988174570e+01   3.7388935649e+01    0.2563133   0.08009849 -38.72 0.0008116126    3.006    0.667
        46  -9.3741     88.7536     79.3411   5.0515379652e+01   5.0119272115e+01    0.2073666    0.1466223  40.89 0.0003172579    1.489    0.328
        47  -9.2627    215.8190     78.3766   2.5350261779e+01   2.2612428010e+01    0.1387859    0.1167677  46.22 0.0001259251    1.536    0.349
        48 -11.0468     77.9081     78.0065   5.3921226074e+01   5.2766858942e+01    0.2613442    0.2241864  48.60 -0.001320134    1.167    0.143
        49 -10.9582      2.7860     75.3420   9.0679175600e+01   6.3907337872e+01    0.3704886    0.2585991 -40.67  0.001884967    1.447    0.309
        50 -10.5378    235.4192     70.7709   2.1794167495e+01   2.0276479397e+01    0.1693404    0.0950573 -28.03 0.0009540092    1.648    0.393
        51  -9.8371     64.0156     69.5280   5.6532116027e+01   5.7595392110e+01    0.2262603    0.1518648  42.04  0.000348123    1.492    0.330
        52  -9.8552      7.7205     68.7932   8.6686456417e+01   6.5432972671e+01    0.2252263    0.1891594 -13.01 0.0005465721    1.276    0.216
        53 -10.2329     83.1577     68.0536   4.8500918512e+01   5.3858272060e+01     0.259315    0.2189368  52.08  0.000291149    1.177    0.150
        54 -10.3622    140.4938     67.5291   3.3225327115e+01   4.0253277312e+01    0.1498204    0.1357548 -65.90 1.678304e-05    1.002    0.002
        55  -9.8104    192.1504     65.8811   2.5003821864e+01   2.8957721882e+01    0.1977292     0.144421 -54.12 0.0003434045    1.190    0.159
        56 -10.5578     70.3357     65.9125   5.2552125235e+01   5.7130492468e+01    0.2890365    0.2306038  38.02 0.0009495643    1.306    0.234
        57 -11.9870     86.5040     60.4967   4.4492438506e+01   5.4658261994e+01    0.6205074    0.3604377 -68.49  0.002232871    2.706    0.630
        58 -10.9006     99.3103     62.1673   4.1133663895e+01   5.1269752637e+01    0.4881639    0.3009092 -64.98  0.001959651    2.066    0.516
        59 -10.5983      4.0927     63.8584   8.8087261579e+01   6.6986260928e+01    0.3318956     0.241282   3.43   0.00173867    1.490    0.329
        60 -11.1685      3.6491     59.5708   8.7588480884e+01   6.8162368677e+01    0.3528873    0.2647236  -7.24  0.001211246    1.433    0.302
        61 -10.6913     43.6530     62.5189   6.3729597139e+01   6.2972632531e+01    0.2796695    0.2443573  -6.66 0.0006809503    1.291    0.225
        62  -9.5109    121.1012     61.8986   3.5438368475e+01   4.5965568492e+01    0.2253644    0.1849298 -69.57            0    1.209    0.173
        63  -9.9594     35.0576     60.9713   6.7942477651e+01   6.4674352842e+01    0.2455037    0.2071234  28.10 0.0003602637    1.213    0.175
        64 -11.0243     14.4284     61.1827   8.0769319354e+01   6.6987186712e+01    0.3485276    0.1922671   5.29   0.00149984    2.129    0.530
        65 -10.7376    232.2457     59.8809   1.9711648981e+01   2.2224743272e+01    0.2023509    0.1466041  31.12   0.00124007    2.229    0.551
        66 -10.5482     57.1725     59.9155   5.5949722122e+01   6.1156299363e+01    0.2615748    0.2156639  44.25 0.0004103399    1.207    0.171
        67 -12.2395     24.5902     57.1031   7.2981871886e+01   6.7016464229e+01    0.5071924      0.39722   6.56  0.002636345    1.393    0.282
        68 -10.3240     45.5743     56.7223   6.0470319000e+01   6.4029890320e+01    0.2073081     0.144227 -65.92 0.0009457564    1.617    0.382
        69 -10.6402     85.0298     63.6950   4.6220084174e+01   5.4350819644e+01    0.2729388    0.2491204 -59.24 0.0003756268    1.087    0.080
        70 -10.8928     78.0580     55.9931   4.5647870205e+01   5.7523126097e+01    0.2350769    0.2285848  89.49 0.0004766238    1.023    0.023
        71 -11.5113     72.8020     52.9929   4.6369396467e+01   5.9320431409e+01    0.3631473    0.2724728  87.09  0.001328684    1.707    0.414
        72 -11.7108     69.5128     50.5028   4.6587632945e+01   6.0553982260e+01    0.3904918    0.2930929 -20.92  0.001320736    1.695    0.410
        73 -11.8202     94.0518     48.5917   3.7376381388e+01   5.5052665548e+01    0.2598416    0.2527076 -75.01 0.0001856896    1.069    0.065
        74  -8.8025     35.2984     49.3183   6.3266468220e+01   6.7441141125e+01     0.148338    0.1103214 -20.42 0.0002596957    1.616    0.381
        75 -11.3216     52.5436     46.4611   5.2360654946e+01   6.4980333214e+01    0.5748606    0.2761576  38.34  0.002250104    2.181    0.542
        76 -10.6129     38.1239     43.8683   5.9082567646e+01   6.8203452287e+01    0.4624815    0.2592812  49.16  0.001989399    1.987    0.497
        77 -10.3351     32.7098     44.1440   6.2598716826e+01   6.9021333350e+01    0.2743504    0.1907557  48.83 0.0007446235    1.575    0.365
        78  -9.1431      7.0000     44.9954   8.1626387847e+01   7.1748445362e+01    0.2243735   0.07401224 -69.47 0.0007949347    2.891    0.654
        79 -10.6168    118.8752     42.9758   2.9170807200e+01   4.9639486752e+01    0.3082364    0.2033269 -50.32 0.0004239617    1.470    0.320
        80 -10.0950     23.5960     50.2063   7.1197872419e+01   6.8853024033e+01    0.2091503    0.1215112 -49.41 0.0006400834    1.639    0.390
        81  -9.2804    237.0351     41.4949   1.5392591083e+01   2.3657813128e+01    0.1394715   0.08831345  42.92 0.0008098872    2.601    0.615
        82  -9.2952    106.9625     40.9955   3.0966434459e+01   5.3006785410e+01    0.1764864    0.1614669 -88.40            0    1.011    0.011
        83 -10.0820      1.3301     39.7268   8.4758698138e+01   7.3422129180e+01    0.2226322    0.1200084 -74.56 0.0003806275    1.839    0.456
        84 -11.6537     38.3323     37.0164   5.5514402115e+01   6.9606318326e+01    0.6583078     0.351849  30.17  0.002336448    2.130    0.530
        85  -8.9409     30.2754     39.3193   6.1913446062e+01   7.0464573858e+01    0.1424579    0.1058231 -19.91 0.0002556911    1.572    0.364
        86  -9.6703     96.2358     38.0323   3.2352346417e+01   5.6216567858e+01    0.2001675     0.186045 -72.34 0.0004047757    1.048    0.046
        87  -9.5372     81.9822     35.6982   3.5344303835e+01   6.0188609184e+01    0.2029644     0.177956  67.55 0.0002369673    1.082    0.076
        88 -10.7711     47.7617     34.5576   4.8785246003e+01   6.8271972241e+01    0.4542554    0.2783954 -20.71  0.001893561    2.410    0.585
        89  -9.5818     51.7484     33.3694   4.6084417275e+01   6.7654377580e+01    0.3017442    0.2078325  15.77 0.0005997999    2.091    0.522
        90  -9.0747     20.5019     44.5649   7.1182685979e+01   7.0586338782e+01     0.136941    0.1331262 -23.08 9.854072e-05    1.030    0.029
        91  -9.8244    173.9434     34.2065   1.8503622699e+01   3.7261678618e+01    0.2055978    0.1487079 -61.38 0.0005169996    1.192    0.161
        92  -9.9661     17.7446     31.5241   6.7389050523e+01   7.3915724617e+01    0.2298177    0.1764223 -49.02 0.0004589937    1.269    0.212
        93  -9.8512      4.1942     31.4257   7.9426165779e+01   7.5266978850e+01    0.3325197    0.1727036  43.47  0.001463825    2.267    0.559
        94  -9.2289     82.2939     31.4952   3.3254015834e+01   6.0742568977e+01    0.2063067    0.1374243  77.58  0.000939087    1.641    0.391
        95  -9.9624     64.9501     29.9380   3.8379064109e+01   6.5238081570e+01    0.2206668    0.2089716  56.06 0.0006528599    1.016    0.016
        96  -9.6215    152.8613     27.8205   1.8786426863e+01   4.3063299145e+01    0.1949411    0.1353778 -62.48 0.0002527138    1.291    0.225
        97  -8.8468     42.2768     28.6776   4.8445373110e+01   7.0441922335e+01    0.1351587    0.1118282 -83.82 0.0003450172    1.581    0.368
        98  -9.8047    160.8364     27.1547   1.7737445295e+01   4.1203656991e+01    0.2124238    0.1506651 -60.76 0.0005232106    1.225    0.183
        99 -10.7355     46.8602     26.7910   4.4783605219e+01   6.9820843278e+01     0.221386    0.2137363 -36.29  0.000332003    1.089    0.082
       100  -9.1505     60.7848     25.9743   3.7846290824e+01   6.6823513791e+01    0.1801934    0.1171597 -33.18 0.0006259544    1.636    0.389
       101  -9.5649    120.7981     25.6307   2.2271348930e+01   5.1493503817e+01    0.2018797    0.1261671  85.71 0.0009409084    1.595    0.373
       102  -9.9909     87.5652     24.4922   2.8439577384e+01   6.0347406505e+01    0.2140334    0.1256535 -41.84 0.0009010193    1.732    0.422
       103  -8.8839    128.7347     24.3320   2.0604175416e+01   4.9582958867e+01    0.1499815   0.09220349 -59.43 0.0002551035    1.579    0.367
       104 -10.0902      3.0639     23.6107   7.7194525496e+01   7.7162251249e+01    0.1932585    0.1736353 -68.51 0.0004578922    1.206    0.171
       105  -9.1523    245.5813     23.5021   1.1140667702e+01   2.4215827020e+01    0.1133715   0.07899678 -46.76 0.0001146671    1.022    0.022
       106 -12.0618     96.6584     22.0666   2.5202304668e+01   5.8269560514e+01     0.419144    0.2619268  85.44 0.0004083942    1.677    0.404
       107 -10.1665     38.3103     22.6574   4.7008845509e+01   7.2265363678e+01    0.2412797    0.2098279  24.81 0.0002814644    1.135    0.119
       108  -8.9823    196.0094     22.5010   1.3576270274e+01   3.3768288676e+01     0.173116   0.07703539 -65.35 0.0005936174    2.198    0.545
       109  -9.2212     72.8922     22.4939   3.1569742152e+01   6.4354752066e+01     0.208983    0.1330366  62.38 0.0004704472    1.463    0.316
       110  -9.3258     66.5904     20.7623   3.2696278645e+01   6.6148191448e+01    0.1770366     0.131584 -44.73 0.0002414107    1.429    0.300
       111  -9.7052     30.7247     20.4788   5.0498166901e+01   7.4086840155e+01    0.2364992    0.1275955  47.06 0.0007062107    1.854    0.461
       112  -9.2274    147.4949     18.0402   1.6200508103e+01   4.5512030960e+01    0.1894668     0.126377 -33.03 0.0004052203    1.476    0.322
       113 -10.6360    151.0057    169.2494   5.5839583821e+01   1.8248737824e+01    0.1789177    0.1109339  33.69 0.0008939041    1.608    0.378
       114 -10.0162     25.9123    146.0750   8.8364471356e+01   4.2120350949e+01    0.2432495    0.1965613  34.94 0.0004039593    1.212    0.175
       115  -9.0348     11.4720     17.4979   6.4859842721e+01   7.7635057460e+01    0.1279363     0.120065  -1.88 7.466783e-05    1.066    0.062
       116  -9.4296     86.1971     15.8410   2.4535692778e+01   6.1724411895e+01    0.1912218     0.151569  50.07 0.0004603545    1.279    0.218
       117  -9.2827    183.6070     15.2367   1.2474481009e+01   3.7256273170e+01     0.136775   0.07254582 -63.47 0.0006915976    1.654    0.396
       118  -9.0883      7.3444    143.6748   9.4747201230e+01   4.4347362958e+01    0.1624746   0.08541534  54.67  0.000293629    1.740    0.425
       119  -9.3801     56.0148    143.0000   7.7464606878e+01   3.9441269591e+01    0.2461951   0.08488175  27.98  0.000454697    2.865    0.651
       120  -9.5567      6.7111     15.1139   6.8339377421e+01   7.8664658516e+01    0.1965393    0.1090233 -82.44 0.0006992132    4.443    0.775
       121  -9.7533    128.0482     14.1557   1.6950156734e+01   5.0878492358e+01    0.2031876    0.1732673  63.00 0.0004751489    1.258    0.205
       122  -9.8620     34.8013     13.8592   4.2956772138e+01   7.4343181974e+01    0.1994333    0.1708308  17.86 0.0003889967    1.179    0.152
       123 -10.1525     17.6692    131.9774   9.0056753093e+01   4.6810998536e+01    0.2117201    0.1804194  84.08 0.0005277017    1.076    0.070
       124 -10.9848    153.4079    130.8065   4.7438319237e+01   2.5359740210e+01     0.211221    0.1273415 -34.02 0.0009539116    1.700    0.412
       125 -10.2294    131.8067    129.1709   5.1970581192e+01   2.9797421258e+01    0.1993204     0.174577 -11.12   0.00037981    1.275    0.216
       126 -10.8134     40.0976    127.2723   8.0852028633e+01   4.5848674340e+01    0.3866928    0.2165631 -80.52 0.0003704566    1.863    0.463
       127  -9.1876     79.3356     11.7336   2.4009592300e+01   6.3945472086e+01    0.1434443   0.09944226 -71.79 0.0006976681    1.589    0.371
       128 -10.5881    185.9998    125.0016   3.9986520864e+01   2.0546804368e+01    0.2460961    0.1353641 -20.16  0.001026268    2.625    0.619
       129 -10.6937     58.7256    129.0981   7.4198366118e+01   4.2848461228e+01    0.2713494    0.1983046  45.25 0.0002002601    1.327    0.247
       130 -10.0122     69.5203    118.9798   6.8282732093e+01   4.3903258931e+01    0.2453867    0.1542262 -62.88 0.0007017156    1.588    0.370
       131 -10.8511     34.0932    116.1535   8.1540279756e+01   4.9700927427e+01     0.246975    0.2300076  84.46 0.0003421511    1.007    0.007
       132  -9.7733     13.1084    117.3382   9.0472122852e+01   5.1340393679e+01     0.201531    0.1780718  46.83 0.0004472487    1.128    0.114
       133 -10.7883    218.0000    115.0448   3.3109813624e+01   1.6838106170e+01    0.3559408   0.05774352 -36.87  0.001049446    4.917    0.797
       134  -9.8224     91.9382    116.4998   6.0083984835e+01   4.0516759612e+01    0.2391953    0.1558415  38.48 0.0006595067    1.556    0.358
       135  -9.5146     80.2324    114.1918   6.3409070163e+01   4.3293999418e+01    0.2144001     0.177898  73.00  0.000308803    1.291    0.225
       136 -11.0366     38.0118    111.3082   7.9092928557e+01   5.0618057198e+01    0.2196012    0.2015402  48.22  0.001013691    1.091    0.083
       137  -9.7570     95.5575    112.0235   5.7822473693e+01   4.0921959488e+01    0.2388574    0.1531587 -54.11 0.0004912525    1.544    0.352
       138 -10.0484     49.8027    108.4216   7.3610929452e+01   4.9864595792e+01    0.2031781     0.155087  13.27 0.0005644588    1.535    0.348
       139  -9.8715     18.9089    107.9074   8.6879847327e+01   5.3574968520e+01    0.2342597    0.1911465 -40.34  0.001020246    1.334    0.250
       140 -10.3199     13.7594    107.1850   8.9096735123e+01   5.4198386829e+01     0.246708    0.1606365  74.55  0.001132482    1.541    0.351
       141 -10.3315      1.9034    104.7396   9.4219897958e+01   5.5658846579e+01    0.3348444    0.1616452 -60.36  0.001412497    1.927    0.481
       142 -11.9230    231.1255    101.8539   2.8776895885e+01   1.6711068119e+01    0.2599086    0.2137102 -19.72  0.001806602    1.253    0.202
       143 -10.0453     86.5174    103.4537   5.8522532537e+01   4.4830728676e+01    0.1577703     0.153541 -86.12 8.891966e-05    1.028    0.027
