#   1 NUMBER                 Running object number                                     
#   2 MAG_AUTO               Kron-like elliptical aperture magnitude                    [mag]
#   3 X_IMAGE                Object position along x                                    [pixel]
#   4 Y_IMAGE                Object position along y                                    [pixel]
#   5 X_WORLD                Barycenter position along world x axis                     [deg]
#   6 Y_WORLD                Barycenter position along world y axis                     [deg]
#   7 A_WORLD                Profile RMS along major axis (world units)                 [deg]
#   8 B_WORLD                Profile RMS along minor axis (world units)                 [deg]
#   9 THETA_WORLD            Position angle (CCW/world-x)                               [deg]
#  10 FWHM_WORLD             FWHM assuming a gaussian core                              [deg]
#  11 ELONGATION             A_IMAGE/B_IMAGE                                           
#  12 ELLIPTICITY            1 - B_IMAGE/A_IMAGE                                       
         1 -11.9758     20.3251     16.6890   7.5964559846e+01   7.1899499804e+01    0.2350994    0.2040019 -20.67 0.0006001333    1.269    0.212
         2 -12.0770     49.5341     14.2858   5.9710320251e+01   6.7776573650e+01    0.2578763    0.1721034  26.07  0.000784216    1.364    0.267
         3 -12.5390     34.2062     12.2017   6.5800433059e+01   7.0603182355e+01    0.3846834    0.2593563  54.94  0.002122824    2.259    0.557
         4 -11.6497     44.8718     12.1794   6.0655878781e+01   6.8848655894e+01     0.180375     0.163532  18.97  0.001228267    1.205    0.170
         5 -14.1278     98.6203      8.4541   4.1840444828e+01   5.7997520508e+01     0.496617    0.3592208  24.48  0.002558666    1.507    0.337
         6 -13.3805     56.5818      9.0873   5.4218715231e+01   6.7026829238e+01    0.4018451    0.2604029  25.35  0.001537025    1.468    0.319
         7 -12.9087    114.2838      9.3180   3.9068237341e+01   5.4222849438e+01    0.2351459    0.1809868  43.80 0.0007256712    1.259    0.206
         8 -10.4738    220.3687      8.8071   2.7201531268e+01   2.9785694849e+01    0.1364133    0.1040675 -32.40 0.0003282392    1.472    0.321
         9 -12.6890    124.9096      7.5461   3.6657140701e+01   5.1822255483e+01    0.2440061    0.1829137 -69.65 0.0006978723    1.457    0.314
        10 -14.4133     86.4940      7.0671   4.4076382198e+01   6.0895212188e+01    0.6968266    0.2398425  52.71  0.001163425    2.271    0.560
        11 -13.5370     90.3346      1.8111   4.0958959039e+01   6.0446079804e+01    0.7719067    0.2747379  75.28   0.00251193    4.573    0.781
        12 -11.3705    131.3403      3.3105   3.4306684347e+01   5.0623149875e+01    0.1347271   0.08294338  44.30 0.0007045123    1.693    0.409
        13 -13.2947    114.6741      2.2498   3.6467583020e+01   5.4708269012e+01    0.4758686    0.2094408  69.04  0.001365297    1.976    0.494
        14 -15.0648    249.0562    198.3723   6.2957004684e+01  -3.0632683155e+00     1.268936    0.4827285 -46.02  0.005334942    3.506    0.715
        15 -16.8104     78.4694    184.1364   9.7584325985e+01   2.5892801230e+01     7.964102     3.370714  61.32   0.02201107    5.333    0.812
        16 -12.3092     65.2966    250.2566   1.0789411235e+02   1.3323555869e+01    0.2557873    0.1662356  29.70  0.001533882    1.449    0.310
        17 -10.3963     47.3225    201.3858   1.0761100626e+02   2.5820314095e+01    0.1940971    0.1320768  60.29 0.0008080315    1.389    0.280
        18 -11.2596     44.6548    197.9421   1.0793444859e+02   2.6934163915e+01    0.4294364    0.2398021  21.41  0.001590128    2.088    0.521
        19 -11.0527     64.3615    245.9906   1.0773888898e+02   1.4251315719e+01    0.2196945    0.1509813  84.44   0.00133433    1.604    0.377
        20 -14.0225    247.9263    185.0894   6.0723287927e+01  -9.7012691658e-01     0.472627    0.2764217 -43.65  0.002673372    1.784    0.439
        21 -10.4934    126.5315    198.4258   8.7638275192e+01   1.5216879665e+01     0.141319    0.1295552  16.09 3.466772e-05    1.044    0.043
        22 -13.3794     53.1254    183.2489   1.0419220388e+02   2.9470075104e+01    0.8231928    0.4646195 -63.93  0.002782496    1.707    0.414
        23  99.0000     66.1965    239.8780   1.0682358538e+02   1.5218977451e+01     0.747952    0.5606461 -86.81  0.004727783    1.443    0.307
        24 -11.0386      1.5453    194.2950   1.1803538329e+02   3.1963086640e+01    0.1535425     0.108062  -0.90 0.0008930916    2.067    0.516
        25 -13.3383    112.2217    190.0501   8.9774374517e+01   1.9350078430e+01    0.6259588    0.3812936  83.82  0.002304341    3.337    0.700
        26 -11.4212     51.2557    192.8076   1.0575332383e+02   2.7379644971e+01    0.3517987    0.1759856  37.39  0.001266915    1.842    0.457
        27 -11.8323     44.1702    192.5872   1.0752805738e+02   2.8260278469e+01    0.2901682    0.2067477  27.73 0.0007281472    1.488    0.328
        28 -12.4167     40.7496    190.0437   1.0814275859e+02   2.9255496184e+01    0.4323853    0.2870099 -85.58  0.001864934    1.467    0.319
        29 -14.2495     79.9322    216.4845   1.0135678946e+02   1.8279114306e+01     1.138317    0.7109706  65.79  0.005689294    1.863    0.463
        30 -11.3674     60.0888    187.5393   1.0287299078e+02   2.7555753914e+01    0.2256568    0.1807075 -46.52  0.001246912    1.399    0.285
        31 -12.1061      9.9511    183.5880   1.1535419023e+02   3.3804484256e+01       1.2631    0.5849441 -60.70   0.00616128    2.084    0.520
        32 -11.9290    104.0063    182.7440   9.0666335453e+01   2.2342227630e+01    0.2006726    0.1848714  38.43  0.001116956    1.046    0.044
        33 -10.3826     23.4815    207.6249   1.1380277244e+02   2.6948183690e+01    0.1248388    0.1017873  64.04 0.0003920174    1.043    0.041
        34 -16.1223     93.7652    227.1892   9.9386827914e+01   1.4136391915e+01     3.527082     2.225688  60.53   0.01821804    1.812    0.448
        35 -10.6119    107.2895    174.9681   8.8478497582e+01   2.3631872106e+01    0.1990149    0.1837301 -61.23 0.0002581431    1.115    0.103
        36 -14.5573     31.6911    173.2163   1.0882886881e+02   3.4356082598e+01     1.608554    0.7048701  47.52  0.006988219    2.248    0.555
        37 -13.1000     84.8384    171.9084   9.4004374441e+01   2.7938661384e+01    0.5594514     0.292001 -46.88  0.002321599    2.042    0.510
        38  99.0000     12.9103    197.4226   1.1557157325e+02   3.0281801890e+01     1.002033    0.5904764   5.59  0.005098301    2.578    0.612
        39 -13.5581    248.8607    164.5918   5.6718972676e+01   2.0343740517e+00    0.5025971    0.1555574 -33.17  0.001955965    3.023    0.669
        40 -14.0655     75.2801    232.4011   1.0412670493e+02   1.5564173411e+01     1.364279    0.3955354 -64.98  0.005195471    3.818    0.738
        41 -13.5666     83.5373    238.2424   1.0288594961e+02   1.3320009480e+01    0.4334874    0.3435942 -52.53  0.002702031    1.480    0.324
        42 -12.3410     19.5083    214.8134   1.1517851122e+02   2.5730494368e+01     1.011588    0.4389033  42.20  0.005155924    1.926    0.481
        43 -11.8312     74.9650    159.4787   9.4737732236e+01   3.2520650989e+01    0.2164438    0.1453061  31.93 0.0003731626    1.523    0.344
        44 -16.9044     12.8171    134.2518   1.1015048015e+02   4.5984979380e+01      5.07619     2.846358  89.99   0.02438047    1.795    0.443
        45  99.0000     24.0248    202.4016   1.1330161932e+02   2.8087995932e+01    0.3994271    0.2630349 -10.25  0.002048477    2.529    0.605
        46 -14.2974     50.8401    232.8252   1.0956671397e+02   1.8500477670e+01     1.561038     0.538613  25.35  0.006102807    3.414    0.707
        47 -13.1398    245.9824    137.8116   5.1871631503e+01   6.6874534357e+00    0.2462967    0.1561404 -36.48  0.001406183    1.276    0.216
        48 -12.1896     58.6516    134.1953   9.5273467055e+01   4.1326301338e+01    0.3496436    0.1854435 -63.78  0.001032439    1.805    0.446
        49 -12.1611    249.6283    126.8086   4.9153364058e+01   7.8703981716e+00    0.1906946   0.09437511 -43.98 0.0009545122    1.715    0.417
        50 -11.8096     49.4428    122.4972   9.6137625780e+01   4.5537118952e+01    0.2843085    0.1461889  26.63  0.001194337    2.107    0.525
        51 -13.4395     30.9304    202.8862   1.1170393118e+02   2.7277601012e+01    0.7262559    0.4271252 -81.80  0.003896873    1.629    0.386
        52 -15.7341     38.4400    237.8884   1.1259850751e+02   1.8874693453e+01     2.930505    0.9291027  47.32     0.013067    2.527    0.604
        53 -10.0049    130.3259     85.6598   6.0912123503e+01   3.9472358176e+01    0.1583401    0.1211579 -79.80 0.0007051359    1.730    0.422
        54 -14.7274     39.1068    218.3141   1.1102573204e+02   2.2926439851e+01     2.481952     1.918067   5.13   0.01491183    1.755    0.430
        55  -8.4161      3.5447    206.0422   1.1821520256e+02   2.9125725258e+01    0.2628299    0.1512879  29.19  0.001516278    1.805    0.446
        56 -12.8824      3.5412     59.1903   1.0138815015e+02   6.5099920228e+01    0.3256814    0.2670955 -64.90  0.001502609    1.231    0.188
        57 -13.0334      7.6672     67.8410   1.0142030505e+02   6.2896051885e+01    0.2978936    0.2097925 -72.57 0.0008596081    1.458    0.314
        58 -12.3142      4.0159     64.7293   1.0245557219e+02   6.3818177270e+01    0.2275053    0.1588968 -56.36 0.0004931287    1.198    0.165
        59 -11.2436    192.0505     66.0312   4.3481418003e+01   2.8637745917e+01    0.2017501    0.1783791 -63.31 0.0002941886    1.027    0.026
        60 -10.3257    250.5325     65.4678   3.6543181771e+01   1.6950628172e+01    0.1210189   0.09684096 -50.58 0.0001057498    1.030    0.029
        61 -10.7619    204.4689     65.5332   4.1661539715e+01   2.6001767574e+01    0.1350671    0.1169904 -60.38 0.0001793068    1.020    0.020
        62 -11.0349     99.4579     62.4047   6.1997544887e+01   5.0699311094e+01    0.2648257    0.2029322 -81.09  0.001003226    1.915    0.478
        63 -10.5863     43.5725     62.4758   8.3060258609e+01   6.0672139127e+01    0.1379733    0.1215117 -22.32 4.352735e-05    1.010    0.010
        64 -11.5410     65.7755    203.3738   1.0328107744e+02   2.3085740300e+01     0.313163    0.1838204  44.65 0.0006544781    1.556    0.357
        65 -10.6430     39.3008     44.3615   7.8382907494e+01   6.4819177708e+01    0.1417421   0.09109504 -15.15 0.0007036006    1.721    0.419
        66 -10.7407     40.6317     36.2695   7.4349347545e+01   6.6064180697e+01    0.1186416    0.1033404  57.78 0.0003292188    1.665    0.399
        67 -10.8115    119.6912     34.9906   4.7084329938e+01   5.0190624402e+01    0.1812478    0.1767227  15.91 0.0003014728    1.095    0.087
        68 -10.5362     17.5062     31.5658   8.4655725812e+01   6.9726331935e+01    0.1246596    0.1018098 -16.03 0.0001011412    1.021    0.020
        69 -11.1067    153.0778     28.0140   3.8824434867e+01   4.2935915598e+01    0.1957812    0.1770277  79.73 0.0003258817    1.029    0.029
        70 -11.2414     46.8981     26.9691   6.7144821150e+01   6.6559203765e+01     0.190949    0.1628907   6.17 0.0003248263    1.019    0.019
        71 -10.9440    142.0137     22.7082   3.8892793054e+01   4.6210764265e+01    0.1900841     0.156978  71.48 0.0003699969    1.092    0.084
        72 -11.2773    106.4659     22.4591   4.5500590480e+01   5.4801411240e+01    0.1345206    0.1203308  52.58 6.396264e-05    1.002    0.002
        73 -11.2345     72.7711     22.5807   5.4882595441e+01   6.2295416500e+01    0.1747391    0.1211517  59.03 0.0004104053    1.558    0.358
        74 -10.5385    164.8628     18.8169   3.4621655598e+01   4.1117152396e+01    0.1777131    0.1324561 -72.51 0.0002507981    1.290    0.225
        75 -12.3457    249.0244    249.0269   7.1429424191e+01  -9.7535416623e+00    0.2358204    0.1262181  14.44  0.001503168    1.663    0.399
        76 -12.3243    127.7847     14.7802   3.8623063604e+01   5.0472331718e+01    0.2799648    0.1698935  77.72  0.001415115    1.629    0.386
        77 -11.2220     60.2872    248.2248   1.0877608123e+02   1.4316012710e+01    0.1701214    0.1267568 -59.06 0.0009080922    1.597    0.374
        78 -13.0585    132.3708    246.8749   9.3312409592e+01   5.0631094829e+00    0.2577116    0.1647582  25.37  0.001256524    1.380    0.275
        79 -11.1165     70.8330    246.6914   1.0642870867e+02   1.3317165267e+01    0.2186313     0.161205  79.81  0.001373676    1.468    0.319
        80 -10.7097     27.4763     12.4843   6.9562126390e+01   7.1563596212e+01    0.1242473   0.09731176   3.43 0.0001947349    1.037    0.035
        81 -11.8372     23.4074    197.6801   1.1309678313e+02   2.9244434831e+01    0.3137708    0.2039134 -82.68  0.001405713    1.417    0.294
        82 -10.2912     50.9622    225.7932   1.0896236987e+02   1.9957383770e+01    0.3531975    0.1195433 -73.84   0.00141328    3.327    0.699
        83 -11.3535     64.5230    221.9402   1.0553191841e+02   1.9124467708e+01    0.2127143    0.1535273 -55.43  0.000654456    1.564    0.361
        84 -11.5816     69.4750    219.6064   1.0415055478e+02   1.8992727978e+01     0.306167    0.1701127  52.91   0.00151889    1.743    0.426
        85 -10.4005     65.5264    218.4379   1.0495086486e+02   1.9752336431e+01     0.237572    0.1698421  53.03 3.433084e-05    1.266    0.210
        86 -13.1420     27.6520    189.2225   1.1137670711e+02   3.0831611132e+01     1.644428    0.8386598  20.40  0.007775245    2.335    0.572
        87 -10.7461     61.5115    218.4560   1.0588757639e+02   2.0254843272e+01    0.1257794    0.1166162  52.29 -5.720769e-05    1.098    0.089
        88 -14.5413    249.0021    211.4592   6.5266488395e+01  -4.9046572684e+00    0.6674239    0.2312673 -36.28  0.003189836    2.460    0.594
