#   1 NUMBER                 Running object number                                     
#   2 MAG_AUTO               Kron-like elliptical aperture magnitude                    [mag]
#   3 X_IMAGE                Object position along x                                    [pixel]
#   4 Y_IMAGE                Object position along y                                    [pixel]
#   5 X_WORLD                Barycenter position along world x axis                     [deg]
#   6 Y_WORLD                Barycenter position along world y axis                     [deg]
#   7 A_WORLD                Profile RMS along major axis (world units)                 [deg]
#   8 B_WORLD                Profile RMS along minor axis (world units)                 [deg]
#   9 THETA_WORLD            Position angle (CCW/world-x)                               [deg]
#  10 FWHM_WORLD             FWHM assuming a gaussian core                              [deg]
#  11 ELONGATION             A_IMAGE/B_IMAGE                                           
#  12 ELLIPTICITY            1 - B_IMAGE/A_IMAGE                                       
         1  -8.5756     55.7446      9.8970   5.5649025760e+01   6.7400039040e+01    0.2161272    0.1599168 -40.48 0.0007548319    1.525    0.344
         2  -7.9858     47.7816     10.0389   5.8996568221e+01   6.8763045667e+01    0.1629401   0.09265744 -30.69 0.0006124407    1.648    0.393
         3  -8.0780     91.1395      8.9683   4.3895047866e+01   6.0282325954e+01    0.2163137    0.1358544 -49.56 0.0008470735    2.002    0.500
         4  -7.8226    101.6335      8.2722   4.1061943014e+01   5.7941733237e+01    0.1335505     0.101961 -70.61 0.0007000883    1.666    0.400
         5  -8.0965      5.6766      8.3160   8.0748446760e+01   7.4409714790e+01   0.09810092    0.0902544 -89.88 0.0002912072    1.665    0.399
         6  -8.5342     33.5983      5.1257   6.2792969938e+01   7.1646905148e+01    0.2657741    0.1598083 -48.36  0.001422828    2.244    0.554
         7  -8.3876     79.1483      4.2052   4.4835626503e+01   6.3394013798e+01    0.2335131    0.1466168 -46.28  0.001031483    1.984    0.496
         8  -7.8655     44.4841      2.9775   5.6420983707e+01   7.0206960707e+01    0.1575004   0.09653366 -48.34 0.0006397892    2.342    0.573
         9  -7.6944     16.0003      3.0116   7.1290243126e+01   7.4245723324e+01    0.1422494    0.1105474 -21.53 0.0004324216    1.046    0.044
        10  -8.0616    115.3840      2.1928   3.5706832933e+01   5.5196844210e+01    0.1841443    0.1167341 -34.45 0.0005102217    1.660    0.398
        11  -8.2437     62.4701      1.4616   4.8586283376e+01   6.7093407579e+01    0.1891205    0.1233225  66.94 0.0005086802    1.995    0.499
        12  -9.2182    147.3091    240.6294   8.8319945947e+01   7.5445693225e+00    0.3423885    0.2161126  71.97  0.001818937    2.953    0.661
        13  -8.7391    247.7767    234.3879   7.0557629352e+01  -5.6062597028e+00    0.1822419    0.1207522  -2.42  0.001322673    1.304    0.233
        14 -10.0815    248.5674    241.8995   7.1559053237e+01  -6.4373217044e+00    0.3797666    0.1795578 -31.09  0.001820195    2.251    0.556
        15  -9.4469    211.0893    247.2035   7.8196776491e+01  -2.2034983046e+00    0.3148836    0.1920535 -51.36  0.001675707    3.066    0.674
        16  -8.9568    132.5366    248.1689   9.1819948245e+01   8.5880907521e+00    0.3179478    0.1886887  69.33  0.001395361    2.786    0.641
        17  -8.5078     93.8721    249.0979   9.8830334496e+01   1.3716921569e+01    0.2210938    0.1333005  74.85  0.001349628    2.042    0.510
        18  -7.8889     25.6739    250.6552   1.1080302637e+02   2.1512514152e+01   0.08214959   0.07793603 -44.13 0.0007050532    1.743    0.426
        19  -9.3172    120.1699    245.4316   9.3755240132e+01   1.0707951984e+01    0.3023445     0.170048  62.69  0.001707677    2.253    0.556
        20  -8.8150     67.3877    244.9665   1.0324442901e+02   1.7734988539e+01    0.2057288    0.0987385 -71.10  0.001239604    2.386    0.581
        21  -9.8966     10.7298    245.1072   1.1306926942e+02   2.3911222816e+01    0.4168597      0.11957  64.02  0.002094239    3.105    0.678
        22  -8.7852     58.4937    244.5364   1.0480012522e+02   1.8877230433e+01    0.1770233   0.08804236  87.04 0.0007540347    2.415    0.586
        23  -8.4097     49.9990    244.1359   1.0627892041e+02   1.9934805594e+01    0.2288721   0.09156976  81.83  0.001069012    3.715    0.731
        24  -9.1731    201.8301    242.9822   7.9140592523e+01  -4.8878407701e-01    0.1956869    0.1434711 -40.78 0.0008226493    1.807    0.447
        25  -9.8360    194.3065    240.9948   8.0131213754e+01   7.8153425947e-01     0.350826    0.2360386 -37.16  0.001704665    1.804    0.446
        26  -8.9086    169.2446    242.9887   8.4711476890e+01   4.0774115544e+00    0.1909789     0.185604 -62.17 0.0006131719    1.403    0.287
        27  -8.6953    139.4109    243.6886   9.0096534426e+01   8.2477678448e+00    0.1839132    0.1056655 -72.88 0.0009577327    3.334    0.700
        28  -8.0677     34.5674    243.7606   1.0895793481e+02   2.1712852378e+01    0.1353055   0.07855629  77.60 0.0005722686    1.555    0.357
        29  -9.7619    183.4781    240.7327   8.1945494832e+01   2.3364171649e+00    0.3660481    0.2654849  71.76   0.00216303    2.762    0.638
        30  -9.5069    160.0111    240.1973   8.5991136287e+01   5.7694914356e+00     0.303211    0.2274624 -84.56  0.001590968    2.329    0.571
        31  -7.9197    153.3810    242.1703   8.7415130541e+01   6.4581967096e+00    0.1330697    0.1083913 -72.13 0.0009393203    1.753    0.430
        32  -8.4441     88.2557    242.0913   9.9245993127e+01   1.5550001519e+01    0.1503278    0.1195181  66.94 0.0005526934    1.175    0.149
        33  -8.9330    241.1378    238.7576   7.2227548690e+01  -5.2120630248e+00    0.3255743    0.1500704 -10.71  0.001666703    3.105    0.678
        34  -8.1345    214.2886    240.3675   7.6721336231e+01  -1.8861891830e+00    0.1126925   0.06934853   7.31 0.0007023308    1.706    0.414
        35  -9.3276    135.2991    238.7769   9.0284631130e+01   9.5409492803e+00    0.2020223    0.1477701  62.64 0.0008532418    1.548    0.354
        36  -8.8589    230.8763    237.1134   7.3585076301e+01  -3.7318272339e+00    0.1996801    0.1836683 -85.34  0.001178073    2.257    0.557
        37  -8.3794    209.1635    238.2211   7.7257744774e+01  -9.5134875129e-01    0.1361334    0.1199086  32.33 0.0006360715    1.375    0.273
        38  -8.5342    128.8090    238.3195   9.1422926793e+01   1.0541010584e+01    0.1518753     0.129191  54.93 0.0006680772    1.159    0.137
        39  -9.1659    203.4521    235.2556   7.7786566992e+01   1.8096475971e-01    0.2652585    0.1953129 -61.01  0.001306113    2.629    0.620
        40 -10.2837    175.5274    233.2447   8.2327952495e+01   4.4361896686e+00    0.4490467    0.2462389 -53.53  0.002495592    2.743    0.635
        41  -8.7733     25.8121    237.2206   1.1015621759e+02   2.3744238802e+01    0.1978162   0.06216639  60.85 0.0009653853    2.891    0.654
        42  -9.4637     78.3659    243.6115   1.0116826696e+02   1.6584023335e+01    0.3871891     0.140838  58.30  0.001739218    3.290    0.696
        43  -9.9523    214.7612    232.9991   7.5578007787e+01  -1.1261854565e+00    0.4057298    0.3201382 -89.16  0.002311748    3.574    0.720
        44  -8.4497    170.2467    235.6359   8.3584708890e+01   4.8920239802e+00    0.1688858    0.1409744 -58.58 0.0007263744    1.670    0.401
        45  -8.0794     58.0067    237.0000   1.0437694434e+02   2.0193153898e+01     0.176054    0.0506611  36.25 0.0007978432    2.911    0.656
        46  -9.5890    109.2542    234.5723   9.4651553742e+01   1.3896211378e+01    0.4487004    0.1771215  49.25  0.001709034    2.264    0.558
        47  -8.2644     99.8200    234.3213   9.6394837881e+01   1.5247710340e+01    0.2095543    0.1287704  72.52  0.001233127    1.997    0.499
        48  -9.3564     78.7713    234.1042   1.0031856264e+02   1.8096945306e+01        0.267    0.1451265 -83.46  0.001496673    2.301    0.565
        49  -8.2122    122.8407    234.0993   9.2060156779e+01   1.2038133558e+01    0.1813966    0.1317636  57.33 0.0008961697    1.336    0.252
        50  -9.5562     68.3616    231.8474   1.0208183739e+02   1.9807029459e+01    0.4633161    0.2281859  80.38  0.002386861    2.738    0.635
        51  -8.8205    194.3503    232.7765   7.8978811472e+01   1.7672530899e+00    0.1757306     0.164937  61.58 0.0009037774    1.541    0.351
        52  -8.5587    144.9674    233.2057   8.7850228690e+01   8.9447252288e+00    0.2366704    0.1247001  52.51  0.001270168    2.034    0.508
        53  -8.4091    140.2445    230.1670   8.8352230617e+01   1.0091977752e+01    0.2228796     0.124287  55.24 0.0008602744    2.023    0.506
        54  -8.5142    132.6793    232.7157   9.0067665376e+01   1.0822097441e+01    0.1969553    0.1349114  86.65 0.0009798643    2.312    0.567
        55  -8.5521     92.9511    232.0594   9.7470979526e+01   1.6557791694e+01    0.3104577    0.1425753  61.10  0.001503864    2.678    0.627
        56  -9.6273    186.4479    230.5605   8.0033728817e+01   3.1880748743e+00    0.2756839    0.2199464 -75.49  0.001478114    2.289    0.563
        57  -8.4660    157.9494    231.9559   8.5314889210e+01   7.2039345228e+00    0.1711817    0.1293283  62.62 0.0006852289    1.676    0.403
        58  -9.1387    236.1026    229.9674   7.1688700757e+01  -3.6600333606e+00    0.3487962    0.1521008 -24.44  0.001928306    2.494    0.599
        59  -9.0831      1.5857    230.6310   1.1409400982e+02   2.7235273081e+01    0.2037775   0.09425788  82.62 0.0008619933    1.854    0.461
        60  -9.4507    246.5548    228.4521   6.9835053839e+01  -4.8518924776e+00    0.3242579    0.1666427 -26.09  0.001526437    1.920    0.479
        61  -8.9366    151.4749    228.9916   8.6119301303e+01   8.5925425975e+00    0.2358053    0.1740179  67.09 0.0009264127    1.803    0.445
        62  -9.5933    148.6420    224.5851   8.6074108645e+01   9.6703942959e+00     0.323471    0.2352388  83.42  0.001507909    2.215    0.549
        63  -8.1565    229.6055    228.8294   7.2544154163e+01  -2.6764841817e+00    0.1308472   0.09763826 -31.38 0.0004635902    1.602    0.376
        64  -8.8611    162.0131    227.7451   8.4017426432e+01   7.1918699985e+00      0.21476    0.1806739  68.82  0.001090249    1.552    0.356
        65  -8.8752    128.0840    227.2433   9.0287394751e+01   1.2341804299e+01    0.2574019    0.1851348  77.62  0.001205318    1.854    0.461
        66  -8.5522    120.0221    227.5850   9.1860496059e+01   1.3470987374e+01    0.1920966    0.1383447  72.15 0.0008428672    1.655    0.396
        67  -8.5785      8.3114    227.9964   1.1282329335e+02   2.7081921973e+01    0.1693958   0.04898563  74.27 0.0007032147    4.151    0.759
        68  -8.2931     49.2266    226.8547   1.0530256477e+02   2.2994538989e+01    0.2340624     0.118605  64.66  0.001149755    1.817    0.450
        69  -7.7706    223.2669    226.6911   7.3239178584e+01  -1.5786343620e+00   0.09158418   0.08590212  33.22 0.0006944353    1.537    0.350
        70  -8.4192    206.0633    226.0768   7.6001928950e+01   9.0800668057e-01    0.1556906    0.1373295  58.34 0.0006676735    1.686    0.407
        71  -9.1451    173.1352    223.2539   8.1369147340e+01   6.1442410667e+00    0.2705798    0.1845788 -70.27  0.000902466    2.836    0.647
        72  -8.7883    180.4878    224.3007   8.0194454863e+01   4.8924813052e+00    0.2196889    0.1728424  51.59 0.0005970796    1.477    0.323
        73  -9.0225    104.7621    223.7685   9.4372978183e+01   1.6302147737e+01    0.3051564    0.1824816  73.75  0.001647103    2.276    0.561
        74  -8.9584     94.1912    224.0605   9.6454368980e+01   1.7739217239e+01    0.3392025    0.1682274  64.64  0.001644271    2.641    0.621
        75  -7.6902     72.4943    225.5181   1.0078041493e+02   2.0384520999e+01    0.1124821   0.09320599  55.33 0.0008088791    1.088    0.081
        76  -7.8683     38.6375    224.9196   1.0715871283e+02   2.4541760708e+01    0.2143469   0.06287515  57.57 0.0009196359    3.350    0.702
        77  -8.8629    216.3489    223.3531   7.3863243043e+01  -2.2912592489e-01    0.2089896    0.1894971 -39.54 0.0009572349    1.592    0.372
        78  -8.3956    113.6882    223.9739   9.2667173439e+01   1.4981555281e+01    0.1564839    0.1389376  66.74 0.0005495683    1.150    0.130
        79  -8.1707     59.7776    223.5298   1.0305907788e+02   2.2332533319e+01    0.2181211    0.1052083  65.33  0.001168707    2.146    0.534
        80  -9.4589    225.5461    221.7918   7.2110373479e+01  -1.3342419573e+00    0.2130384    0.1920537   0.12  0.001002795    1.324    0.244
        81  -9.2424    160.5881    221.3619   8.3408392875e+01   8.3272012516e+00    0.5239571    0.2448649  57.49  0.002020755    4.238    0.764
        82  -8.4502    140.4826    222.5401   8.7349602579e+01   1.1219833028e+01     0.179207    0.1169769 -69.11 0.0007909518    2.239    0.553
        83  -8.9566    238.8084    221.5155   6.9948980848e+01  -3.1072990421e+00    0.1852954    0.1417819 -23.70  0.000808571    1.418    0.295
        84  -9.2298    192.3770    221.3382   7.7651650436e+01   3.5068192293e+00    0.2423736    0.2148025  80.41 0.0009405776    1.786    0.440
        85  -9.4388      7.5626    222.1088   1.1271695943e+02   2.8208526560e+01    0.2479101   0.05376805  45.26  0.001230109    2.770    0.639
        86  -9.4442    120.2938    219.1380   9.0820401082e+01   1.4810494130e+01    0.4071957    0.2103946  63.06  0.001862224    2.901    0.655
        87  -8.8004     83.2097    220.6018   9.8257723088e+01   1.9844470051e+01    0.3201739    0.1633836  63.04  0.001625843    2.172    0.540
        88  -8.0646     73.1443    220.7345   1.0023997736e+02   2.1151380803e+01    0.2066125   0.09124284  64.00 0.0009510883    2.806    0.644
        89  -8.3730     27.5650    220.8078   1.0898515858e+02   2.6478614127e+01    0.1855985   0.08967859 -73.63  0.001126084    2.053    0.513
        90  -8.1711    202.5186    220.0463   7.5692290523e+01   2.1700706611e+00     0.151743    0.1099481 -30.20 0.0003922802    1.519    0.341
        91  -8.2761    209.9909    219.1521   7.4278385662e+01   1.1889792277e+00    0.1589985    0.1412978  25.96 0.0004884303    1.268    0.211
        92  -9.5014    132.9902    216.1394   8.7966206156e+01   1.3382398192e+01    0.4434239    0.2751465  78.17  0.002124014    3.006    0.667
        93  -9.4392    247.6260    216.4116   6.7762174816e+01  -3.7218331149e+00    0.3669742    0.2366112 -42.92  0.002321848    2.306    0.566
        94  -8.5858     62.5522    217.5341   1.0204103305e+02   2.3080149388e+01    0.3113229    0.1236715  59.27  0.001374136    2.697    0.629
        95  -9.0109     51.4855    217.1689   1.0417817075e+02   2.4491450308e+01    0.2607873     0.152465  84.06 0.0008851578    1.726    0.420
        96  -8.0312    179.4856    217.5167   7.9381744317e+01   5.9747891500e+00    0.1190149    0.1000901  30.68 0.0004355826    1.074    0.069
        97  -8.7224    169.2376    216.0589   8.1046019371e+01   7.7664263765e+00    0.2421809    0.1870658 -66.22 0.0009801012    1.909    0.476
        98  -8.0833    111.5176    216.5833   9.2243773677e+01   1.6545301987e+01    0.1893926    0.1149919 -77.27 0.0008290265    2.270    0.560
        99  -8.5697     18.5517    216.2855   1.1043064748e+02   2.8228917902e+01    0.1950644   0.08814639 -88.51  0.001130339    2.082    0.520
       100  -8.8477    232.2554    214.4166   6.9850469015e+01  -1.4169044826e+00     0.228916    0.1650605 -35.13  0.001085119    1.656    0.396
       101  -8.2565    154.6444    215.3420   8.3684093361e+01   1.0149691173e+01    0.1771071     0.131982  63.42 0.0009974209    1.677    0.404
       102  -9.2953     93.0228    213.8574   9.5628238116e+01   1.9697736726e+01    0.3391863    0.1756505  60.78  0.001526295    2.147    0.534
       103  -9.4949    214.0440    212.1583   7.2483588110e+01   1.4652622151e+00    0.3042923    0.2538499  57.50  0.001504995    1.785    0.440
       104  -8.1042    185.6402    214.3169   7.7785591671e+01   5.4724593649e+00    0.1633228    0.1369632  64.95 0.0007435232    1.676    0.403
       105  -9.4759     73.3213    212.0470   9.9412917568e+01   2.2717572736e+01    0.6207571    0.2131678  57.39  0.002379221    3.809    0.737
       106  -8.6611    161.6601    212.3429   8.1921630799e+01   9.5061793660e+00    0.2107084    0.1637365  65.90 0.0008665214    1.681    0.405
       107  -7.9556    224.6464    212.2251   7.0728918051e+01  -8.3928416116e-02    0.1467828   0.09570534 -17.70 0.0004430127    1.521    0.343
       108  -9.0443    204.1753    210.7491   7.3945812805e+01   3.1193327550e+00    0.2175481    0.1857567 -39.45 0.0006354275    1.484    0.326
       109  -9.4205    175.7019    210.1606   7.8963490969e+01   7.6138529833e+00    0.3353236    0.2383124  71.67  0.001564932    2.512    0.602
       110  -8.8551    142.8810    216.7124   8.6124747741e+01   1.1765738888e+01    0.2268277    0.1756182 -67.03  0.001056067    1.663    0.399
       111  -8.3300    192.1760    210.4111   7.6004588087e+01   5.0012491325e+00    0.2023588    0.1557209 -55.87 0.0006973913    1.887    0.470
       112  -8.9032    147.9739    210.5500   8.4288502023e+01   1.1949738147e+01    0.2488785    0.1841319  68.18  0.001020366    1.757    0.431
       113  -9.1944    116.1810    210.2520   9.0548111527e+01   1.6944743796e+01    0.2797032    0.1915752  79.27 0.0008817669    1.920    0.479
       114  -9.2218      5.5882    207.7934   1.1246853357e+02   3.1052763905e+01    0.2736097    0.0967138  81.60  0.001346821    2.818    0.645
       115  -8.6201     85.6176    209.3972   9.6654945099e+01   2.1549173019e+01    0.2852521    0.1571981  79.76  0.001162423    2.553    0.608
       116  -8.4339     46.3114    209.3822   1.0461543417e+02   2.6564804432e+01    0.2634382    0.1170295  67.75  0.001303161    2.453    0.592
       117  -8.4127     31.8743    210.0159   1.0751764031e+02   2.8047363605e+01    0.1938557    0.0931161  71.01  0.000871041    1.989    0.497
       118  -9.0124    236.6906    208.3019   6.8135925558e+01  -1.3268428633e+00    0.2174982    0.1988413 -62.72  0.001157932    1.939    0.484
       119  -9.5366    246.3732    207.1977   6.6434423306e+01  -2.5374273059e+00    0.2353283    0.1722813 -21.74 0.0005386206    1.332    0.249
       120  -9.1551    243.0830    200.7034   6.5842021926e+01  -1.3358892324e+00     0.305507    0.1620018 -33.90  0.001014092    1.922    0.480
       121  -7.7943    156.4716    207.9667   8.2268986390e+01   1.1007629743e+01    0.1508568    0.1096079 -84.77 0.0008066707    2.345    0.574
       122  -8.3387    139.0173    208.0261   8.5689677188e+01   1.3779450023e+01    0.1894817    0.1393973  67.18 0.0006745642    1.660    0.398
       123 -10.0800    124.2695    206.2185   8.8395561090e+01   1.6405563965e+01    0.2826634    0.1826575  63.71  0.001535403    1.838    0.456
       124  -9.9582    163.9942    203.6624   8.0169871607e+01   1.0470952187e+01    0.4566932    0.3238409 -62.70  0.001727429    1.991    0.498
       125  -9.2386     99.3691    206.1869   9.3479431111e+01   2.0181934265e+01    0.3210296    0.1995365  74.08  0.001425802    2.025    0.506
       126  -8.5570     56.6222    205.5355   1.0222067100e+02   2.6078480303e+01    0.3167192    0.1275514  59.72  0.001447811    2.664    0.625
       127  -9.3281    194.7323    203.4200   7.4419788256e+01   5.5706863130e+00    0.2787176    0.2560126 -37.25   0.00134942    1.353    0.261
       128  -9.3432    192.6514    197.4428   7.3799880846e+01   6.7526450245e+00    0.3468738    0.2890069 -62.41  0.001565759    1.749    0.428
       129  -8.2545    109.0339    205.0988   9.1359687568e+01   1.8943577144e+01    0.1989903    0.1327629  67.84  0.001091008    1.708    0.414
       130  -7.7016     92.3330    205.6379   9.4867346566e+01   2.1302346241e+01    0.1328097   0.08048398  65.99  0.000703823    1.811    0.448
       131  -7.9184     25.3020    205.6223   1.0853819887e+02   2.9580141082e+01    0.1242327   0.06102667  64.77  0.000702645    1.766    0.434
       132  -8.8987    183.6396    203.7159   7.6483115241e+01   7.2920287165e+00    0.2428834    0.1994351  57.96   0.00103089    1.534    0.348
       133  -8.6141    131.2598    203.8730   8.6662679841e+01   1.5713425336e+01    0.2363517     0.175076  69.99  0.001174819    1.626    0.385
       134  -9.3244    250.0987    201.8936   6.4963404646e+01  -2.4453373429e+00    0.3118392    0.1488343 -30.29  0.001180502    1.997    0.499
       135 -10.0447    245.9857    193.9666   6.4218688000e+01  -9.5102751890e-01    0.3687005    0.2797099 -61.04   0.00214161    2.819    0.645
       136  -8.9371    140.2955    200.9123   8.4417110780e+01   1.4772590963e+01    0.2908973    0.2047642  88.62  0.001346923    2.253    0.556
       137  -8.6006     79.7833    201.2609   9.7001598248e+01   2.3895481603e+01    0.2660804    0.1507386  88.55  0.001217653    2.265    0.559
       138  -7.9136     73.3024    202.6116   9.8498569410e+01   2.4511596928e+01    0.1316049   0.07668762  67.53 0.0007015044    1.797    0.444
       139  -8.0690     48.6129    202.3153   1.0359665896e+02   2.7668368986e+01    0.1941731    0.1050366  65.05  0.001089265    1.735    0.424
       140  -8.0891    221.8262    201.0174   6.9326981362e+01   1.7147146453e+00    0.1653092    0.1328071 -52.88 0.0007447758    1.919    0.479
       141  -9.3943    237.0384    198.7189   6.6452609029e+01  -2.3890066170e-01     0.224979    0.1559861 -36.30 0.0007194864    1.654    0.395
       142  -9.3913    149.5717    198.6832   8.2224981195e+01   1.3634725573e+01    0.3448331    0.2491572  88.08   0.00124694    2.251    0.556
       143  -8.9688    124.0880    199.2087   8.7479234480e+01   1.7673947924e+01    0.2838879    0.2034607  85.76  0.001201374    1.883    0.469
       144  -9.3800    112.8881    198.5690   8.9720930621e+01   1.9549018119e+01     0.418741    0.2430397  62.80  0.001679812    2.101    0.524
       145  -9.4661     25.6998    199.9253   1.0810535253e+02   3.0656988972e+01    0.1942431    0.1338065  53.09 0.0004783336    1.217    0.179
       146  -9.0620     88.7095    198.5245   9.4813670056e+01   2.3171075688e+01    0.3111807    0.1918281  75.35  0.001651073    1.953    0.488
       147  -9.0447     61.6213    197.2313   1.0042907536e+02   2.7087724870e+01    0.4441263     0.194024  66.88  0.001771451    3.058    0.673
       148  -8.3893    202.1587    197.6450   7.2130199758e+01   5.2009538945e+00    0.1926993    0.1605732 -40.15 0.0007021715    1.445    0.308
       149  -8.4860    176.9351    199.0925   7.6981312650e+01   9.0659770044e+00    0.1800928    0.1615838  52.09 0.0005196749    1.282    0.220
       150  -8.3240     12.3109    196.8108   1.1062027288e+02   3.2578574913e+01    0.2183256   0.08130133  89.55   0.00106651    2.634    0.620
       151  -8.5079    215.8674    195.5486   6.9389000163e+01   3.3340676424e+00    0.2086374    0.1530649 -49.24 0.0008141472    1.906    0.475
       152  -8.1285    133.0251    195.9705   8.5171719978e+01   1.6814128456e+01    0.1903747    0.1443105  70.33 0.0005106248    1.575    0.365
       153  -7.9716     53.4978    196.4947   1.0208222433e+02   2.8241746629e+01    0.1236011   0.09415699  66.30 4.840872e-05    1.091    0.083
       154  -8.7394    224.6328    193.8436   6.7617619859e+01   2.2104229044e+00    0.2576841    0.1446414 -41.25  0.001287311    2.082    0.520
       155  -7.9165    209.2296    195.4381   7.0511348164e+01   4.3865489990e+00    0.1571409    0.1082138  45.61 0.0007982151    1.578    0.366
       156  -8.8432    185.3131    194.8136   7.4702996313e+01   8.3367521176e+00     0.207819    0.1896604  65.07 0.0006482013    1.416    0.294
       157  -9.0606    160.7155    194.1468   7.9301385043e+01   1.2536785183e+01    0.2767577     0.215974  73.99  0.001079346    1.788    0.441
       158  -8.4717    231.0347    194.3172   6.6650184669e+01   1.1849422996e+00    0.1655099    0.1354218  14.23  0.000600378    1.073    0.068
       159  -9.0944     77.0983    193.8019   9.6762931054e+01   2.5728091141e+01    0.2495452    0.1746657  66.99 0.0007735039    1.357    0.263
       160  -9.0776     43.6730    193.3050   1.0389233184e+02   3.0043684796e+01    0.3798505     0.172805  64.94  0.001869733    2.300    0.565
       161  -8.4448    211.0166    202.2647   7.1368313296e+01   3.1924289497e+00    0.1884226    0.1682307 -57.63 0.0008106385    1.675    0.403
       162  -7.7408    205.2344    191.9497   7.0602142754e+01   5.5056497818e+00    0.1516909    0.0989036 -33.63 0.0004988136    1.595    0.373
       163  -8.3430    198.9582    191.5085   7.1641331197e+01   6.5851517510e+00    0.2111293    0.1660105 -46.40 0.0006124185    1.573    0.364
       164  -8.0796    179.1045    191.7878   7.5354029108e+01   9.8297178618e+00    0.1823381    0.1630559  49.65 0.0006192278    1.256    0.204
       165  -8.3353    172.7770    192.0517   7.6606777829e+01   1.0850115284e+01    0.1873387    0.1680738  72.86  0.001190068    1.422    0.297
       166  -9.0309    139.6798    190.7408   8.3006266657e+01   1.6645430536e+01    0.3428445    0.2296439  72.42  0.001260598    2.232    0.552
       167 -10.5303     92.2976    188.8052   9.2861759710e+01   2.4553559762e+01    0.9044967     0.272699  49.39  0.003257198    3.481    0.713
       168  -7.7389     22.0078    191.6752   1.0833474382e+02   3.2684158466e+01    0.1973664   0.02965487  48.26 0.0007050873    4.325    0.769
       169  -7.9813    237.1871    188.8621   6.4690976586e+01   9.5267905158e-01    0.1662614    0.1451537  -7.46 0.0004875006    1.190    0.160
       170  -9.0507    216.5594    188.0024   6.7936920273e+01   4.2413536461e+00    0.2144301    0.1939988 -49.44 0.0007125964    1.520    0.342
       171  -9.3069    155.9274    187.6497   7.9189751088e+01   1.4435767574e+01    0.2997874    0.2169809 -67.12  0.000839379    1.897    0.473
       172  -8.2414    148.4767    189.0912   8.0937547136e+01   1.5455261338e+01    0.1786165    0.1299513 -50.77 0.0008431003    1.550    0.355
       173  -9.0674    129.2575    188.4314   8.4829059611e+01   1.8797665776e+01    0.2736178    0.2138802  86.95 0.0008783838    1.597    0.374
       174  -9.7387    120.8093    186.4770   8.6336087837e+01   2.0553284346e+01    0.4596013    0.2693052 -78.19   0.00204438    2.791    0.642
       175  -8.9329     34.3736    188.0290   1.0545769592e+02   3.2157868662e+01    0.3069761    0.1450202  72.78  0.001141797    2.228    0.551
       176  -8.2339    227.6373    202.1619   6.8561894112e+01   7.0901154828e-01    0.1634312   0.09690206 -18.77 0.0008013023    1.723    0.420
       177  -8.9352    191.2811    187.2609   7.2290870335e+01   8.4811946465e+00    0.2830653    0.2242342 -62.80  0.001126593    1.850    0.459
       178  -9.0206     54.7536    186.9971   1.0092934996e+02   3.0025923843e+01    0.3767706    0.1858827  69.21  0.001801011    2.338    0.572
       179  -8.3698    230.5026    187.0495   6.5440583082e+01   2.1930026357e+00    0.1742287    0.1083647 -30.67 0.0009468733    1.571    0.363
       180  -8.7492    164.8721    186.7031   7.7243696773e+01   1.3062767356e+01     0.226419     0.188615 -58.44 0.0007142458    1.460    0.315
       181  -9.1903    109.5592    186.1075   8.8720554909e+01   2.2436270162e+01    0.3539794    0.2236762  67.99  0.001248918    1.962    0.490
       182  -9.5427    249.1231    185.3121   6.2189707198e+01  -3.6199900971e-01    0.2937887    0.1953821 -18.95  0.001119282    1.334    0.250
       183  -9.1933    210.3066    183.6664   6.8229866786e+01   5.8520036780e+00    0.3784743    0.1795204 -28.72  0.001023425    2.283    0.562
       184  -8.6684    202.7898    184.5198   6.9711302839e+01   6.9677034575e+00    0.2151763    0.1618622 -52.37 0.0006503093    1.790    0.441
       185  -8.6090    182.8389    184.7855   7.3429552622e+01   1.0291424596e+01    0.2314586    0.1768897 -50.19  0.000666778    1.581    0.368
       186  -9.0600     66.6100    184.3445   9.8024835326e+01   2.9067733166e+01    0.3450812    0.1906434  70.10  0.001089175    2.061    0.515
       187  -8.6098    224.0675    183.4453   6.5843982304e+01   3.6691415147e+00    0.2109611    0.1598983 -41.97 0.0006102949    1.597    0.374
       188  -8.2361    197.2561    183.4689   7.0517602719e+01   8.0468587136e+00    0.1960115    0.1567543 -59.58 0.0007451779    1.779    0.438
       189  -8.9468    174.3169    183.4666   7.4830407860e+01   1.1967718928e+01    0.2611222    0.2183996 -65.60 0.0008330987    1.580    0.367
       190  -9.0084     44.2536    182.3297   1.0281556184e+02   3.2250339781e+01    0.3068756    0.1666418  75.10 0.0009971325    1.908    0.476
       191  -7.9672      1.7320    183.5617   1.1209058085e+02   3.6186493686e+01    0.1541224   0.07815979  48.12 0.0009434008    1.662    0.398
       192  -9.7343     25.7646    179.0610   1.0664914956e+02   3.4930514065e+01    0.6646899     0.231544  76.31  0.002347966    4.647    0.785
       193  -8.2482    235.4476    181.0827   6.3551034915e+01   2.2072571277e+00    0.1798234     0.106896 -29.16 0.0006315936    1.590    0.371
       194  -9.1070    147.3381    180.3664   7.9727485051e+01   1.7196698027e+01    0.2708349    0.2206649 -80.59 0.0008735983    1.579    0.367
       195  -7.7714     90.6406    181.6961   9.2307452790e+01   2.6234420476e+01    0.1227026    0.1025163  -9.41 0.0007038802    1.723    0.420
       196  -8.3331    240.3889    180.1928   6.2603178434e+01   1.5673464528e+00    0.1621994    0.1020275 -36.55 0.0009477147    1.670    0.401
       197  -8.6599    137.5677    179.3237   8.1613127163e+01   1.9081780070e+01    0.2731836    0.1988375  80.87  0.001211822    1.941    0.485
       198  -9.1687    244.6733    169.4437   5.9912168106e+01   2.2931339645e+00    0.2840374    0.2202254  79.72   0.00131187    2.775    0.640
       199  -8.7011    250.5203    172.8903   5.9679139940e+01   9.6435340372e-01    0.2017574    0.1591297 -13.46 0.0004875828    1.089    0.082
       200  -9.4796    249.0009    177.4937   6.0771664827e+01   6.1573558862e-01    0.2986022    0.2453371 -41.62  0.001139505    1.599    0.375
       201  -8.4611    247.3330    173.7103   6.0316479841e+01   1.3401680603e+00    0.1686233   0.09880119 -19.97  0.000246211    1.597    0.374
       202  -8.7241    205.1264    177.8681   6.8071250971e+01   7.5516685882e+00    0.2428507    0.1598249 -38.57 0.0007903716    1.604    0.376
       203  -9.3584    191.4951    178.2320   7.0617492723e+01   9.8268643806e+00    0.2549216    0.2440735 -74.17 0.0005677934    1.356    0.262
       204  -8.6271    217.6816    177.4686   6.5810720697e+01   5.5187674746e+00    0.2219388    0.1845881 -57.76 0.0009031332    1.753    0.430
       205  -7.9437    169.2471    178.4635   7.4934157038e+01   1.3681780107e+01    0.1780947     0.118471  51.17 0.0006540101    1.594    0.372
       206  -8.9208    129.4068    177.4581   8.3063629374e+01   2.0836273425e+01    0.2916315    0.1909641  76.71 0.0008403721    2.379    0.580
       207  -8.6060    122.7933    177.1842   8.4467206394e+01   2.2012104990e+01    0.5308266    0.3296102  -0.07  0.001890985    4.443    0.775
       208  -8.7921     89.0081    176.9138   9.2035988569e+01   2.7465124179e+01    0.2869865     0.188618  84.84  0.000837872    1.830    0.454
       209  -9.0503     35.8596    176.6080   1.0419169905e+02   3.4403028522e+01    0.4592375    0.1868409  77.77  0.001839378    3.458    0.711
       210  -8.7055    231.1393    176.7971   6.3446334207e+01   3.4426196752e+00     0.207704    0.1484358 -35.17 0.0007549872    1.468    0.319
       211  -9.2618    183.2177    175.8079   7.1727904024e+01   1.1655715764e+01    0.3764913    0.2054289 -42.61  0.001268688    1.963    0.491
       212  -8.0754     97.9533    177.3237   9.0052803111e+01   2.6016690576e+01    0.1890192    0.1556204  45.56 0.0008282482    1.142    0.124
       213  -9.9977     57.3395    173.2242   9.8915266197e+01   3.2623169605e+01    0.8037516    0.3468276  79.24  0.002702596    4.720    0.788
       214  -8.7164     13.0574    176.8037   1.0928845654e+02   3.6616287801e+01    0.2658212    0.1086504  63.33  0.001178124    2.309    0.567
       215  -8.1805    211.4033    176.1660   6.6647058132e+01   6.7449865402e+00    0.1661499    0.1146228 -43.09  0.000869684    1.659    0.397
       216  -9.2673    158.8628    175.1258   7.6427422608e+01   1.6099946587e+01    0.3582042    0.2487781  73.66  0.001299489    2.306    0.566
       217  -9.6519    104.3065    174.6734   8.8219449420e+01   2.5557450400e+01    0.5077707    0.2654904  64.53  0.001764024    2.840    0.648
       218 -10.7768     75.9151    170.2950   9.4195581487e+01   3.0774931971e+01     1.126935    0.4408005 -77.14  0.003739041    4.512    0.778
       219  -8.6934     79.0445    158.4495   9.1788443429e+01   3.2916285267e+01    0.2341363    0.1990174  17.22  0.001372965    1.480    0.324
       220  -9.3988     81.8113    154.9078   9.0565958862e+01   3.3293745254e+01    0.4657126    0.2744817  73.65  0.001631003    2.290    0.563
       221  -8.6060    224.5204    173.9006   6.3985470688e+01   4.8984536537e+00    0.2277602     0.113391 -29.51 0.0009421044    1.972    0.493
       222  -9.6626    175.8010    172.0192   7.2456535319e+01   1.3599372749e+01    0.3670504    0.2403615 -40.84  0.001334397    1.612    0.380
       223  -8.6742    143.0943    172.6772   7.9295022607e+01   1.9354699182e+01     0.220892     0.185411 -69.94 0.0006352328    1.389    0.280
       224  -8.5984    134.9377    171.7504   8.0896672047e+01   2.0971968020e+01    0.2267347    0.1751575 -74.51 0.0008121944    1.586    0.370
       225  -9.4378    121.3531    170.4569   8.3688544156e+01   2.3584134281e+01    0.3488413    0.2441933 -85.89  0.000945829    1.947    0.487
       226  -9.1525     45.0176    171.0147   1.0156082816e+02   3.4590008841e+01    0.3602101    0.1853968  79.55  0.001454096    2.218    0.549
       227  -8.4553    205.7169    170.3243   6.6533461857e+01   8.5750506209e+00    0.2208874    0.1499484 -44.31 0.0006273879    1.671    0.402
       228  -8.4058    237.1888    169.5099   6.1090661793e+01   3.4570563534e+00    0.2180406    0.1549282 -25.04 0.0006205954    1.289    0.224
       229  -8.9333    230.2374    169.3305   6.2169768036e+01   4.5977534151e+00    0.3506075    0.2030889 -38.93  0.001893787    1.796    0.443
       230  -8.5416    198.3103    170.1631   6.7837340470e+01   9.8912831414e+00    0.2227987    0.1719457  70.00 0.0007772032    1.982    0.495
       231  -8.7174    149.8878    169.1870   7.7221729203e+01   1.8786234987e+01    0.2992973    0.1948802 -60.57 0.0008956306    1.924    0.480
       232  -7.7450     68.3195    170.6392   9.6033615846e+01   3.1750792575e+01    0.1403451   0.08581467  69.48 0.0007042845    1.768    0.435
       233  -8.4435    218.8259    168.3115   6.3865672439e+01   6.6306220780e+00    0.2059431    0.1614946 -36.42 0.0006104335    1.360    0.265
       234  -9.1382    166.9765    168.5688   7.3565008810e+01   1.5788895852e+01    0.2914037    0.2282025  70.65   0.00102541    1.699    0.412
       235  -7.9459    211.3786    168.1579   6.5116071129e+01   7.9217153593e+00    0.1789411    0.1135857 -44.53 0.0005919247    1.802    0.445
       236  -8.7387    111.7170    167.4532   8.5386670797e+01   2.5825419032e+01    0.3343679    0.2083868  71.21  0.001512985    2.245    0.555
       237  -8.1216     88.6167    168.3917   9.0931086145e+01   2.9321930053e+01    0.2021628    0.1391735  70.04 0.0007195858    1.577    0.366
       238  -8.8404    191.9165    166.5824   6.8323854506e+01   1.1592664686e+01    0.2377944    0.1859876 -42.95 0.0006172492    1.397    0.284
       239  -8.9930    185.1390    166.5774   6.9605196473e+01   1.2817838116e+01    0.2560792     0.204035 -67.66 0.0008912412    1.776    0.437
       240  -8.1471     13.3296    167.6755   1.0861791924e+02   3.8546489642e+01    0.1274374    0.0670459  64.54 0.0007050129    1.700    0.412
       241  -9.8176    136.8768    164.4026   7.9165301150e+01   2.2048258121e+01    0.6291014    0.2948791  57.24  0.002320414    3.092    0.677
       242 -10.0131     94.6961    162.0571   8.8526118956e+01   2.9739328955e+01    0.8301365    0.4914161 -88.19   0.00308533    2.514    0.602
       243  -9.0477     20.3670    166.0252   1.0687358601e+02   3.8264353732e+01    0.3148424    0.1191292  54.19  0.001481183    2.478    0.596
       244  -8.0981    233.9816    165.0043   6.0725505421e+01   4.5809853195e+00    0.1730331    0.1468888 -50.61 0.0005061135    1.587    0.370
       245  -8.5352    159.5419    164.2180   7.4262965069e+01   1.7930697325e+01    0.2488376    0.2062749  74.27 0.0007349615    1.510    0.338
       246  -9.3479     33.4308    163.3100   1.0355244497e+02   3.7564792844e+01    0.5237278    0.1792291  57.06  0.002066674    3.369    0.703
       247  -9.6384    246.0350    163.1661   5.8490153739e+01   2.8992228947e+00    0.2091768    0.1536561 -21.97  0.000504497    1.199    0.166
       248  -8.3441    240.0365    164.3055   5.9634492467e+01   3.6985991582e+00     0.170892    0.1464446   6.52 0.0005344437    1.077    0.071
       249  -8.4700    212.9892    163.4679   6.3913474548e+01   8.3398650220e+00    0.2283311    0.1683767 -45.15 0.0005623117    1.568    0.362
       250  -8.9337     60.6637    160.4042   9.6596357610e+01   3.5020517477e+01    0.3324308    0.1742259  66.34  0.001510576    2.291    0.564
       251  -8.6883    204.9613    162.7490   6.5181976967e+01   9.8614964024e+00    0.2191568    0.1619606 -46.16 0.0006461012    1.557    0.358
       252  -9.1483      3.2256    162.2912   1.1057843514e+02   4.0561402119e+01    0.3578784    0.1453783  56.54  0.001754302    2.210    0.547
       253  -9.1289    177.3835    160.6074   6.9936726570e+01   1.5250181786e+01    0.2787462    0.2235832 -61.00 0.0007773592    1.566    0.361
       254  -8.6515    151.6312    160.8563   7.5287235641e+01   2.0020288977e+01    0.2527893    0.2039675 -86.66 0.0008308002    1.641    0.391
       255  -8.7326    227.4126    159.1049   6.0616169101e+01   6.4956787226e+00    0.2724763    0.1847053 -50.12  0.001105267    1.947    0.486
       256  -9.9675    250.1790    157.8085   5.6816555468e+01   2.9498404906e+00    0.3153518    0.1730871 -33.34 0.0008502463    1.658    0.397
       257  -9.2534    246.7402    155.6478   5.6899699512e+01   3.7809551332e+00      0.22276    0.1297904 -20.13  0.000317187    1.639    0.390
       258  -8.6735    236.9362    158.9359   5.9058900653e+01   4.9287818238e+00     0.177243    0.1504583 -54.15 0.0006582366    1.624    0.384
       259  -8.3323    128.2065    158.8759   8.0100586016e+01   2.4709895514e+01    0.2681611    0.2004072  84.89  0.001055583    1.760    0.432
       260  -9.5842    105.6792    157.7926   8.5188090385e+01   2.8863768247e+01    0.4550445    0.2914802  77.82   0.00111977    2.238    0.553
       261  -8.5561    196.5857    157.8584   6.5716250118e+01   1.2146526103e+01    0.2423866    0.1572274 -48.53 0.0008599836    1.798    0.444
       262  -8.3179    188.0913    157.7386   6.7282913990e+01   1.3738420220e+01    0.2206669    0.1797005 -45.42 0.0004760344    1.345    0.256
       263  -9.0601    167.5408    157.1995   7.1233031270e+01   1.7700882748e+01    0.3029298    0.2444438 -87.44  0.001027758    1.750    0.429
       264  -8.7250    217.9242    156.4768   6.1661902977e+01   8.5169469198e+00    0.2832113    0.1695748 -37.61 0.0007618936    1.649    0.393
       265  -8.9360    157.7282    156.0251   7.3040382108e+01   1.9778043448e+01    0.3169309     0.212245 -60.42  0.001013806    1.887    0.470
       266  -9.8915     49.8450    155.3220   9.8660536728e+01   3.7517151037e+01    0.4767351    0.2232977  65.65   0.00192894    2.738    0.635
       267  -9.0671    119.5565    155.1615   8.1421755551e+01   2.7020821856e+01    0.3972448    0.2591335 -79.59  0.001343378    2.205    0.546
       268  -9.2601    116.0367    149.7724   8.1253822622e+01   2.8780907992e+01    0.2179685    0.1974371 -62.05 0.0003314806    1.125    0.111
       269  -9.4377    243.4390    150.1276   5.6283414878e+01   5.0625198712e+00    0.3018846    0.2536825  79.67  0.001844597    1.930    0.482
       270  -9.0010    237.2379    150.0378   5.7212867351e+01   6.1111040388e+00     0.214418    0.1611012  11.73 0.0005355596    1.342    0.255
       271 -10.0002    233.7056    147.7481   5.7291704269e+01   7.0367566533e+00    0.4633955    0.2331592 -24.32  0.002167467    2.026    0.506
       272  -8.3178    239.7831    152.9846   5.7420429221e+01   5.2763363883e+00    0.2957039    0.1343373 -32.41  0.001413152    2.000    0.500
       273  -7.7122    204.5830    155.4786   6.3778165186e+01   1.1060340060e+01    0.1312583     0.120211  -4.32 0.0001140996    1.041    0.039
       274  -8.8122    144.9491    154.9738   7.5593095978e+01   2.2396635558e+01    0.2618465    0.2201983  83.52  0.001253306    1.437    0.304
       275  -9.5828     67.8693    153.6032   9.3880320709e+01   3.5589476257e+01    0.4088265    0.2391622  70.19  0.001473567    2.055    0.513
       276  -9.3122    242.7572    155.0110   5.7373885247e+01   4.5105631753e+00    0.1960257    0.1883588  21.23 0.0004971552    1.304    0.233
       277  -9.0252    133.8096    148.1876   7.6754807933e+01   2.5847480606e+01     0.305775    0.2268009 -36.64  0.001142828    1.484    0.326
       278  -8.2901    151.7218    152.4449   7.3606944581e+01   2.1599004734e+01    0.2499922    0.1706774 -56.51 0.0006819544    1.673    0.402
       279  -9.7659     29.5243    150.6709   1.0327833813e+02   4.0811640006e+01    0.4895741    0.2095916  67.49  0.002069117    2.918    0.657
       280  -8.6795      9.0333    153.0000   1.0857470280e+02   4.2142040625e+01    0.1697455   0.06495283  26.30 0.0008047099    2.958    0.662
       281  -9.7804    248.8212    149.2069   5.5295148734e+01   4.3055749229e+00    0.3293093      0.17376 -28.60 0.0008394028    1.683    0.406
       282  -8.9131    247.1394    143.7372   5.4423647957e+01   5.3206472427e+00    0.2691384    0.1736448 -23.34 0.0004837801    1.381    0.276
       283  -8.2471    250.4499    140.5543   5.3285837394e+01   5.2033389433e+00    0.1957672    0.1670237 -13.41 0.0006746803    1.033    0.032
       284  -8.9442    189.3644    150.3066   6.5504032911e+01   1.4741597601e+01    0.2838054    0.2180059 -52.45 0.0007618237    1.523    0.343
       285  -8.2074    182.2575    151.0550   6.7027792938e+01   1.5973785242e+01    0.2108894    0.1555874 -65.25  0.000783961    1.911    0.477
       286  -8.9604     98.2055    150.6685   8.5779421147e+01   3.1650984060e+01    0.2842282    0.2008982  86.34 0.0009362944    1.737    0.424
       287  -8.1849    212.9581    149.7294   6.1116337938e+01   1.0425924812e+01     0.176549    0.1629591   4.25 0.0003916167    1.064    0.061
       288  -8.1322    162.3812    150.2683   7.0886207755e+01   1.9955270169e+01    0.1940428     0.131579 -53.52 0.0006897553    1.669    0.401
       289  -8.7582      2.9308    149.8187   1.0983316374e+02   4.3331067038e+01    0.2434491    0.1101785  71.79   0.00123746    2.130    0.530
       290  -8.3914    198.8134    148.7537   6.3418115463e+01   1.3205213381e+01    0.2276398     0.168683 -60.87 0.0006233848    1.868    0.465
       291 -10.5426     54.8404    144.4126   9.5957752721e+01   3.9408383349e+01    0.8827304    0.4412891  78.83  0.003128774    3.089    0.676
       292  -8.8488     56.5606    135.4805   9.4189466105e+01   4.1274442318e+01    0.2950464    0.1986389  20.45  0.001527707    1.934    0.483
       293  -9.8411     39.5839    147.5702   1.0036069183e+02   4.0468964216e+01    0.5131218    0.2360326  68.78  0.001949551    2.866    0.651
       294  -9.7459    132.7484    152.8097   7.7911989874e+01   2.5107632313e+01    0.4170241    0.3013415  72.29  0.001167541    1.788    0.441
       295  -8.1026    223.4417    146.8699   5.8755013469e+01   8.9654824931e+00     0.189144    0.1180487 -32.85 0.0003903402    1.497    0.332
       296 -10.4346    148.9762    143.7889   7.2415668766e+01   2.3806845657e+01    0.8498735     0.430735 -47.80  0.001626959    2.049    0.512
       297 -10.0912    139.0051    144.7041   7.4850848631e+01   2.5563401421e+01    0.5445592    0.2835276 -60.87  0.001353402    2.639    0.621
       298 -10.2216    106.7113    144.5482   8.2546880410e+01   3.1550227460e+01     0.687863    0.3986329  74.53  0.002563421    3.177    0.685
       299  -7.9779    105.4709    138.5302   8.1693383523e+01   3.3089128427e+01    0.1384274    0.1366756 -83.72 9.125544e-05    1.075    0.070
       300  -9.0442     77.9017    146.8138   9.0280378455e+01   3.5699092158e+01    0.3131433    0.1778808  66.23  0.001116535    2.264    0.558
       301  -9.5456     13.3910    145.9886   1.0693473773e+02   4.3361414042e+01    0.3391126    0.1766854  68.88  0.001353459    1.872    0.466
       302  -9.7008    240.3873    145.2230   5.5737763801e+01   6.2497574758e+00    0.2924312    0.1513425 -34.25 0.0007673481    1.749    0.428
       303  -9.1636    242.6796    143.2980   5.4993244837e+01   6.1288550832e+00    0.1904203    0.1616763 -28.37 0.0006156982    1.166    0.143
       304  -7.9322    206.7451    146.5180   6.1520777384e+01   1.2073650721e+01    0.1688654    0.1307728  57.79 0.0008952853    1.570    0.363
       305  -8.1701    175.5022    146.0414   6.7301852189e+01   1.8163366926e+01    0.2054771    0.1361045 -41.20 0.0004177522    1.530    0.346
       306  -9.8482    125.0920    142.5961   7.7670061962e+01   2.8642472808e+01    0.5421852    0.3555524 -84.76  0.001708628    2.497    0.600
       307 -10.0817     89.3291    146.3996   8.7272930983e+01   3.4037367210e+01    0.6375608    0.3586156  87.60  0.002402051    3.217    0.689
       308  -8.7794    165.5863    143.9969   6.8889938400e+01   2.0489621030e+01    0.2502313    0.1961043  64.37 0.0006856192    1.514    0.340
       309 -10.9859     69.3723    139.1254   9.1280871737e+01   3.8700138585e+01    0.8815081    0.4085265 -67.02  0.003179391    2.183    0.542
       310  -8.3507    182.0800    141.6770   6.5055342242e+01   1.7638118535e+01    0.2294015      0.18835 -51.83  0.000475897    1.352    0.260
       311  -9.1842      2.6117    141.7971   1.0933869470e+02   4.5156872579e+01     0.273201    0.1331225  67.19  0.001181063    1.967    0.492
       312 -10.0014     23.4858    138.2115   1.0356255492e+02   4.4262035867e+01    0.4988092    0.2179851  63.21  0.002207709    2.684    0.627
       313 -10.0635    242.0965    137.7873   5.3926511125e+01   6.9963090979e+00    0.4409779    0.2102412 -44.67  0.002008572    2.381    0.580
       314  -8.7455    172.3687    138.3842   6.6265561325e+01   2.0165682617e+01    0.2879892    0.2301828 -80.22 0.0009815351    1.727    0.421
       315  -9.0572     85.1346    122.6238   8.3902540733e+01   4.0139882869e+01    0.4780273    0.2864611  12.26  0.001799266    3.345    0.701
       316  -9.4965     79.9811    138.5688   8.8347269275e+01   3.7271958066e+01    0.2854472    0.2227871 -25.84  0.001018905    1.738    0.425
       317 -10.5203     83.5103    132.9594   8.6382761410e+01   3.8015678693e+01    0.5936602    0.3610915 -75.29  0.001307034    1.927    0.481
       318  -8.3255    207.7192    137.9308   5.9494200332e+01   1.3254356135e+01    0.2098495    0.1502142 -59.13 0.0008017276    1.908    0.476
       319  -8.6052    197.5894    137.5168   6.1208989178e+01   1.5287542534e+01    0.2651266    0.1942313 -49.23 0.0007693422    1.520    0.342
       320  -7.7079    218.5361    138.5075   5.7780464197e+01   1.1119908030e+01    0.1333299    0.1202187 -12.52 0.0002024671    1.026    0.025
       321  -9.2466    248.3012    134.9906   5.2432565045e+01   6.3221650109e+00    0.2974635    0.1928745 -33.88 0.0007232578    1.383    0.277
       322  -8.8875    250.8006    129.9638   5.1016736366e+01   6.5861569316e+00    0.4077586    0.1107734 -28.60  0.001357942    3.962    0.748
       323  -8.5940    246.8948    130.1480   5.1606930645e+01   7.2323665938e+00    0.2216457    0.1656087 -37.05 0.0006298736    1.287    0.223
       324  -8.2153    162.6539    136.3660   6.7832172398e+01   2.2503949112e+01    0.2102985    0.1707107  89.07 0.0006028938    1.636    0.389
       325  -9.3713     39.0020    135.6879   9.9052403954e+01   4.3297936989e+01    0.3024642    0.1832618  85.31 0.0009029277    1.722    0.419
       326  -7.8813    231.4784    134.0327   5.4734258598e+01   9.4118085096e+00    0.1936084    0.1170459 -32.12 0.0004066228    1.497    0.332
       327  -8.6002    179.6021    133.9406   6.3819415982e+01   1.9501305590e+01    0.2453236    0.2112895 -61.93 0.0007791296    1.349    0.259
       328  -9.0430    112.8328    133.2519   7.8747929381e+01   3.2924154655e+01    0.3427616    0.2439998  77.48 0.0009137832    1.855    0.461
       329  -8.4499    237.6299    133.3618   5.3651097832e+01   8.4051106882e+00    0.1808609    0.1451135 -56.35  0.001056267    1.604    0.376
       330 -10.1001    132.0622    130.7470   7.3465737719e+01   2.9782325571e+01    0.6027895    0.3442494 -57.76  0.001962794    2.010    0.503
       331 -10.3982     98.0409    130.2182   8.1949362954e+01   3.6240060353e+01    0.7026246    0.2907265 -55.13  0.001616493    2.395    0.582
       332  -8.9894    100.4359    119.3913   7.8980336197e+01   3.8257761192e+01    0.4840517    0.2395914  24.18   0.00157857    3.873    0.742
       333 -10.6522     60.3310    125.6420   9.1526776434e+01   4.3101696982e+01    0.8488497    0.4480202  82.37  0.003175709    3.313    0.698
       334  -9.1438    142.9914    131.5289   7.1080221348e+01   2.7436906793e+01    0.3152343    0.2297131 -65.43 0.0006979358    1.653    0.395
       335 -10.3960     73.5219    128.4060   8.8282980679e+01   4.0597471404e+01    0.6356361    0.2934335 -57.43  0.002374899    2.022    0.505
       336  -9.9502     13.0329    129.3992   1.0550220975e+02   4.7211971565e+01    0.4820629    0.2263651  68.34  0.001886293    2.371    0.578
       337  -7.9607    220.5805    129.7916   5.5530682425e+01   1.2070072391e+01    0.1812655    0.1174786 -41.41  0.000360528    1.530    0.346
       338  -7.9238    204.4820    130.2624   5.8350952455e+01   1.5121048460e+01    0.1896347    0.1247393 -45.08 0.0009334193    1.585    0.369
       339  -8.1703    192.8232    130.0890   6.0413049569e+01   1.7485600954e+01    0.2057928     0.186722 -56.64 0.0004698153    1.240    0.194
       340  -9.0783    168.3278    129.5722   6.5096767000e+01   2.2612475257e+01    0.2902381    0.2296813 -82.69 0.0009246551    1.733    0.423
       341  -9.2768    152.8482    128.8363   6.8241136045e+01   2.5958930418e+01    0.3887032     0.251105 -56.28 0.0009833195    1.779    0.438
       342  -8.4808     25.2213    129.8976   1.0216076419e+02   4.6045304242e+01    0.2151196    0.1586639   4.25  0.001264492    1.924    0.480
       343  -8.0190      1.4200    130.2169   1.0875000684e+02   4.7881737943e+01    0.1680343    0.0911451  86.98 0.0005460167    1.603    0.376
       344  -8.2153    211.6642    129.1664   5.6866673288e+01   1.3885096269e+01    0.2129908    0.1604546 -49.48 0.0006611807    1.480    0.324
       345  -7.6577    186.3216    129.6327   6.1530997748e+01   1.8888302775e+01    0.1451662    0.1128991 -73.24 0.0007037428    1.792    0.442
       346 -10.7495     44.8313    123.4269   9.5655653816e+01   4.5549020006e+01     1.085461     0.515471  75.83  0.003841925    3.904    0.744
       347  -9.8664    117.8920    125.1439   7.5695079858e+01   3.3737265846e+01    0.5264401    0.3597919  83.58  0.001552699    2.236    0.553
       348  -8.3771    228.5741    125.7521   5.3367058369e+01   1.1171049153e+01    0.1837317    0.1141379 -40.48 0.0004808953    1.555    0.357
       349  -8.8355    179.1533    124.6291   6.1753366962e+01   2.1256578243e+01    0.2765893     0.213669 -64.65  0.000795361    1.622    0.384
       350 -10.3247     28.6958    122.4889   1.0024235876e+02   4.7468764372e+01    0.7232932    0.3369592  71.76  0.002964678    3.046    0.672
       351  -7.9635    188.4517    124.2378   5.9872322045e+01   1.9385661068e+01    0.1944788    0.1308797 -47.08 0.0005514618    1.555    0.357
       352 -11.0169    131.6687    119.0793   7.0849699574e+01   3.2295321196e+01    0.8447595    0.5032834 -71.12  0.002779055    2.876    0.652
       353  -9.9123    133.5753    109.1086   6.7904906772e+01   3.3963977949e+01    0.6511267    0.2876069 -49.70  0.002273792    2.371    0.578
       354  -8.6149    234.5032    123.4905   5.1965203026e+01   1.0400268675e+01    0.1324147    0.1161369 -18.60 -5.610627e-05    1.007    0.007
       355  -7.8423    202.7790    121.9476   5.6737814758e+01   1.6822404618e+01    0.1852688    0.1092275 -33.62 0.0004212722    1.615    0.381
       356  -7.8280    195.1179    122.1404   5.8147094123e+01   1.8362961915e+01    0.1905708    0.1647679 -59.81 0.0003947429    1.326    0.246
       357  -8.7327    172.0141    121.5241   6.2440773457e+01   2.3325242989e+01    0.2628232    0.1961737 -54.01 0.0005354322    1.474    0.322
       358  -8.8992    158.4676    121.4153   6.5255747518e+01   2.6223001607e+01    0.3199235    0.2364059 -62.33   0.00095026    1.619    0.382
       359 -10.1530    141.5169    118.1993   6.8287154942e+01   3.0437300284e+01    0.6194795    0.2989604 -50.47  0.001243011    2.207    0.547
       360  -9.6456     71.1796    120.0663   8.7365302791e+01   4.2897310992e+01     0.337364     0.241621  84.19 0.0009146685    1.634    0.388
       361  -9.6540      2.8687    116.9992   1.0717095298e+02   5.0844781942e+01    0.5081083    0.2131636  74.04  0.002237568    2.841    0.648
       362  -7.7304    231.4602    117.4902   5.1076224465e+01   1.1853089356e+01    0.1335627    0.1181356 -30.64 0.0004140178    1.081    0.075
       363  -7.9013    185.8509    116.0231   5.8398232893e+01   2.1360457443e+01    0.2346748    0.1560797 -58.74 0.0007265527    1.919    0.479
       364  -9.9636    109.4173    114.1724   7.5345169598e+01   3.7755691621e+01     0.510128    0.3371543 -74.32  0.001261604    2.057    0.514
       365  -9.2073    110.3227    106.9595   7.3323078441e+01   3.9159932896e+01    0.4758012    0.2450679  28.66  0.001709302    2.931    0.659
       366 -11.1273    248.5467    108.0536   4.6558171362e+01   1.0018188757e+01    0.6962975    0.2745382 -33.79  0.003046338    2.142    0.533
       367  -8.1223    193.1393    115.1964   5.6849378660e+01   1.9952979881e+01     0.194953    0.1620901 -55.59 0.0004290024    1.327    0.246
       368  -9.9233     79.0673    112.5157   8.3494677703e+01   4.3456974331e+01    0.5706149    0.3676932  89.76  0.001733363    2.250    0.556
       369  -8.8360     77.9184    105.3238   8.2215731942e+01   4.5307506356e+01    0.4376507    0.2776159  14.75  0.001873881    2.498    0.600
       370  -8.8377     58.7724    115.3846   9.0131412841e+01   4.5740114561e+01    0.1775921    0.1341497  16.56 0.0009442274    1.694    0.410
       371  -8.0016    167.3987    114.2748   6.1613528155e+01   2.5654903196e+01    0.2031603     0.135882 -48.37 0.0005650279    1.544    0.352
       372 -10.2004     92.7527    112.4076   7.9517130286e+01   4.1199016436e+01    0.5577351     0.352671 -73.08  0.001321041    2.010    0.502
       373  -8.9532     93.9089    104.0577   7.7178527890e+01   4.2881824271e+01    0.3509917    0.2529835  -6.35  0.001450116    2.209    0.547
       374  -8.5798    242.5303    113.5107   4.8588956424e+01   1.0355393420e+01    0.1312784    0.1135261 -26.42 -1.108438e-05    1.036    0.035
       375 -10.0139    121.7792    112.1669   7.1622659909e+01   3.5762209385e+01    0.4114258    0.2925407 -65.62 0.0007908822    1.637    0.389
       376  -8.6459     27.0293    113.4962   9.9506391111e+01   4.9764509854e+01    0.1702958    0.1280641  27.79 0.0006606499    1.562    0.360
       377  -8.4823    174.7561    111.8390   5.9513885127e+01   2.4499116916e+01    0.2697763    0.1891775 -55.91 0.0007232748    1.635    0.388
       378  -8.9271    159.0734    111.3935   6.2645800556e+01   2.8010551487e+01    0.3199644    0.1940841 -48.53 0.0006734501    1.707    0.414
       379 -10.4461     66.4369    109.6043   8.6654425732e+01   4.6048928940e+01    0.5937927    0.3076295 -67.00  0.002063105    2.021    0.505
       380 -10.1959     14.1996    111.2913   1.0315294343e+02   5.1376905019e+01    0.3937043    0.2223239  58.58  0.001595462    1.919    0.479
       381  -7.8659    149.6308    110.1943   6.4420338756e+01   3.0300496053e+01    0.2070673    0.1400194 -32.55 0.0002622954    1.572    0.364
       382  -8.5210    181.8980    108.3107   5.7239247084e+01   2.3565276721e+01    0.3826904    0.2249022 -60.44  0.001370997    2.504    0.601
       383  -9.1793     43.1301    109.5276   9.3870398706e+01   4.9058551186e+01    0.2979622    0.1398297  23.93  0.001297554    2.711    0.631
       384  -7.9940    189.3611    108.1292   5.5802081062e+01   2.1967921329e+01    0.2111721    0.1249862 -45.40 0.0007844225    1.707    0.414
       385  -8.2545      4.9718    109.0000   1.0571965277e+02   5.2577403444e+01    0.1688241   0.07017383  20.47 0.0008033726    2.949    0.661
       386  -9.4853    119.3651    105.2272   7.0480310940e+01   3.7727763110e+01     0.412927    0.3009735 -83.95  0.001519991    1.916    0.478
       387 -11.1457    108.5649     98.5546   7.1610287169e+01   4.1325095207e+01    0.8940237    0.6484572  76.00 0.0008612007    1.861    0.463
       388  -8.9567    107.4100     92.7713   7.0346861598e+01   4.2791509896e+01    0.5133951    0.2894087  25.98  0.001920226    2.763    0.638
       389 -10.5057     45.4576    102.1508   9.1759184911e+01   5.0549846842e+01    0.7302322    0.3947473  75.52  0.002887411    3.154    0.683
       390  -9.3868     45.8695     92.6527   8.9670504682e+01   5.2749714256e+01    0.3909967    0.2500538  -6.80  0.001807143    2.568    0.611
       391 -10.6942     22.7152    102.4551   9.9239040372e+01   5.2780536278e+01    0.7443982    0.3784952  73.88  0.002777904    2.718    0.632
       392  -9.3438     22.9308     90.3730   9.7175945223e+01   5.5628420823e+01    0.3930592    0.2725103 -31.20   0.00166057    1.713    0.416
       393  -9.6346    150.5916    103.0897   6.2354061416e+01   3.1471892391e+01    0.4839959    0.3012595 -62.54  0.001269871    2.186    0.543
       394  -9.2337    139.7769    104.4789   6.5210587681e+01   3.3574381009e+01    0.3484473    0.2774056 -86.12 0.0008659085    1.595    0.373
       395  -8.3463    166.7571    104.1156   5.9158078943e+01   2.7673431985e+01    0.2282427     0.192609 -60.04 0.0005835704    1.284    0.221
       396 -10.2708    128.5530    101.9328   6.7264894095e+01   3.6503369752e+01    0.4273273    0.3045822 -60.54  0.001176066    1.576    0.365
       397  -9.3206      6.3695    102.5713   1.0454227016e+02   5.3995958330e+01     0.294641    0.1706956  80.19  0.001411899    1.763    0.433
       398  -8.7266    239.3108    102.6709   4.6578745850e+01   1.2511119794e+01    0.1339647   0.09519608 -56.46 0.0007041771    1.667    0.400
       399  -7.7678    175.4231    102.1959   5.6923716876e+01   2.6080804262e+01    0.2051741    0.1335962 -47.87 0.0004820333    1.578    0.366
       400  -8.3689    159.8181    101.0155   5.9791304155e+01   2.9803418391e+01     0.232046    0.1967746 -66.54 0.0005844035    1.315    0.239
       401  -9.2340     82.1815    100.1084   7.9671800840e+01   4.5809382659e+01     0.349577    0.2357087 -74.73 0.0009396733    1.816    0.449
       402  -9.1204     95.0486     97.0084   7.5036704637e+01   4.4246084615e+01    0.3192005    0.2247095 -64.57 0.0006349153    1.555    0.357
       403 -10.2793     63.8903     95.7034   8.4355326796e+01   4.9670796221e+01    0.5856322    0.3573745  86.23  0.001690942    2.794    0.642
       404  -8.1414    151.3633     95.2905   6.0075426329e+01   3.2789687032e+01    0.1553379    0.1186141  15.20 0.0007026494    1.700    0.412
       405  -8.2984    164.9273     94.1785   5.6887528188e+01   2.9898839707e+01     0.228845    0.1969257 -68.52 0.0004913807    1.289    0.224
       406  -8.1244    176.4712     93.0446   5.4306219458e+01   2.7451786590e+01    0.2302073    0.1403054 -38.60  0.000678372    1.573    0.364
       407  -9.1312    138.9970     92.2245   6.2049428835e+01   3.6167463446e+01    0.3470616    0.2648644 -78.42 0.0006645625    1.711    0.415
       408  -9.3747    120.5957     93.2142   6.6908462297e+01   3.9984934298e+01    0.2878952    0.2222119  67.16  0.001388105    1.501    0.334
       409  -9.7633    124.5960     90.7944   6.5187594932e+01   3.9622888195e+01    0.3870773    0.3096156 -67.71  0.000905784    1.426    0.299
       410  -9.4850      4.9250     91.7929   1.0364672197e+02   5.6621468370e+01    0.3366692    0.1956507  73.14  0.001337428    1.920    0.479
       411  -8.0582    157.8455     91.8538   5.7722062797e+01   3.1948997839e+01     0.207774    0.1737893 -62.12 0.0004908097    1.297    0.229
       412  -9.7551     34.8448     89.6245   9.2850369335e+01   5.4682892696e+01    0.5480891    0.2656684 -81.13  0.001742559    2.812    0.644
       413  -8.7086     35.7500     82.4023   9.0985696405e+01   5.6281169687e+01    0.2661905    0.1616681 -13.06  0.001230232    2.622    0.619
       414  -9.3354    247.3390     90.3189   4.2705056581e+01   1.2707829621e+01    0.3296635     0.145997 -54.84  0.001211883    3.642    0.725
       415  -7.8716    150.9995     89.0233   5.8405937606e+01   3.4047501905e+01    0.2386955    0.1791905 -69.59 0.0005040895    1.659    0.397
       416 -10.2672     86.4974     85.8523   7.4556595781e+01   4.8250758661e+01    0.6662427    0.3962085 -52.50  0.001593408    1.626    0.385
       417  -9.0004     65.4786     87.3084   8.1747800327e+01   5.1371804297e+01    0.4109838    0.2238722  15.97  0.001563102    3.292    0.696
       418  -7.4231    188.2995     87.3006   5.0617145174e+01   2.5709850059e+01    0.1449368    0.1134826  13.35 0.0002382621    1.581    0.368
       419  -8.0163    163.9640     87.4841   5.5237377315e+01   3.1320694116e+01    0.2197766    0.1490707  55.09 0.0004459304    1.522    0.343
       420 -10.0894     48.4637     83.7378   8.6716579332e+01   5.4514917860e+01    0.6624777    0.3880202 -80.38  0.002257858    2.351    0.575
       421  -7.6093    179.3021     85.6404   5.1774105178e+01   2.8064034846e+01    0.1560027    0.1115073 -64.85 0.0004253533    1.720    0.418
       422  -9.7476    104.7484     83.0542   6.8291734527e+01   4.5365364791e+01    0.4396968    0.3166966 -74.04  0.001304119    1.871    0.465
       423  -8.1895    157.8918     84.0250   5.5506153381e+01   3.3355984549e+01    0.2265148    0.1960856 -63.78 0.0003990689    1.234    0.189
       424  -9.0570    140.6080     82.3423   5.8815310162e+01   3.7686547702e+01    0.3828545    0.2301846 -50.53  0.001257794    1.773    0.436
       425  -9.6749     10.2049     81.3004   1.0019121620e+02   5.8735244160e+01    0.3981203    0.1953515  57.17  0.001639916    2.727    0.633
       426  -8.3306     64.0430     82.3319   8.0912953985e+01   5.2712674487e+01    0.1885961    0.1771084 -69.66 0.0006048068    1.071    0.066
       427  -9.7178     24.8751     80.5733   9.4606429086e+01   5.7760266062e+01      0.47091    0.2811314  81.36  0.001554221    2.288    0.563
       428  -8.3861    150.1839     80.4504   5.6108653775e+01   3.5805611823e+01    0.3039491    0.1799274 -52.31 0.0006423342    1.886    0.470
       429  -8.7905    119.2408     80.0497   6.3405121983e+01   4.2926104127e+01    0.3521557    0.2208507 -56.03 0.0007853839    1.819    0.450
       430  -8.9682     74.4631     80.3017   7.6830690144e+01   5.1533528098e+01    0.3613911    0.2258399 -69.17   0.00121845    2.072    0.517
       431  -8.1940    184.3385     78.1681   4.8828347028e+01   2.8118159449e+01    0.2148596    0.1244587 -42.07  0.000875961    1.652    0.395
       432  -7.3262    174.6652     78.2746   5.0580663611e+01   3.0384745683e+01    0.1497177    0.1140962 -73.35 0.0003281781    1.602    0.376
       433  -9.2722    128.2289     75.3620   5.9662671338e+01   4.1825802776e+01    0.3730334    0.2410139 -56.48 0.0007518222    1.799    0.444
       434  -8.9739    106.0894     76.6848   6.5964181823e+01   4.6388897199e+01    0.4939632    0.2419265  27.61  0.001528741    4.035    0.752
       435  -9.1864    105.9709     71.5904   6.4379798637e+01   4.7421919376e+01    0.3414393    0.2357607 -70.51   0.00078382    2.059    0.514
       436  -7.7511    157.4422     76.4737   5.3405213770e+01   3.4790497168e+01    0.1509736    0.1422209 -61.58 7.580651e-05    1.071    0.066
       437  -8.4918    140.6785     75.3449   5.6694496540e+01   3.8955895035e+01    0.2710895    0.1742286 -48.55 0.0005839298    1.606    0.377
       438  -9.7280     82.6175     72.8742   7.1910569208e+01   5.1722549870e+01    0.4461252    0.3023628 -74.82  0.001036167    2.205    0.547
       439  -9.9430     63.0663     73.2853   7.8690515651e+01   5.4867901441e+01    0.4981599    0.2676598 -60.20 0.0009974551    1.990    0.498
       440  -8.0061    166.8641     79.5697   5.2423575514e+01   3.2017287557e+01    0.2349016    0.1692242 -43.12 0.0004846851    1.353    0.261
       441  -8.2318    163.4492     73.0909   5.1208994355e+01   3.3928561709e+01    0.2287302    0.1409754 -38.78 0.0009017774    1.566    0.361
       442  -7.7093    151.6584     73.3203   5.3667461990e+01   3.6716407515e+01    0.1578814    0.1168305 -72.83 0.0007049995    1.720    0.419
       443  -8.4961    115.6313     72.8468   6.2116143039e+01   4.5110777066e+01    0.2593245    0.1853105 -48.79   0.00062251    1.414    0.293
       444  -8.3889     42.4987     72.4516   8.6034590346e+01   5.7814040461e+01    0.2270336     0.172195  83.79 0.0008954726    1.685    0.406
       445  -7.7368    175.4981     72.5328   4.8798890782e+01   3.1126485317e+01    0.1469386    0.1412963 -51.25 0.0001549146    1.010    0.010
       446  -9.3346     95.0272     70.7669   6.7332474820e+01   4.9812454165e+01     0.439806    0.2289068 -54.27 0.0009379706    2.204    0.546
       447  -9.6596     97.1629     61.3779   6.3534843166e+01   5.1207872870e+01    0.5473949    0.3678198 -21.56  0.002159349    1.802    0.445
       448  -9.5520     51.3926     69.4179   8.1820184445e+01   5.7373973860e+01    0.4953115    0.2584096 -69.42  0.001827981    2.692    0.629
       449  -8.7889     16.7438     70.1051   9.5556640708e+01   6.0854478231e+01    0.2739385     0.170882  89.73  0.001055917    1.927    0.481
       450  -8.7892    147.1834     68.1617   5.3039400319e+01   3.8674861902e+01    0.3210186    0.2226354 -47.03  0.000582341    1.460    0.315
       451  -8.9038    138.7174     66.1156   5.4258083362e+01   4.1049076081e+01     0.313049    0.1852977 -47.03 0.0008792511    1.748    0.428
       452  -8.7445    121.5161     65.8211   5.8295859382e+01   4.5106979726e+01    0.2775936    0.2269524 -76.56 0.0006254026    1.484    0.326
       453  -7.5257    163.5201     65.5440   4.8949940409e+01   3.5150078886e+01    0.1468456    0.1434219 -56.43 5.358328e-05    1.003    0.003
       454  -8.7799     37.3080     64.3943   8.5856777998e+01   6.0209295109e+01    0.2613761    0.2071051 -84.42  0.001123191    1.496    0.331
       455  -8.8046    110.2952     63.6558   6.0543619204e+01   4.8002117955e+01    0.2903684    0.2271255 -70.41 0.0006059004    1.595    0.373
       456  -8.6763     65.1586     62.9448   7.4701041346e+01   5.6750309071e+01    0.4323493    0.2633229   1.97  0.001675159    3.277    0.695
       457  -8.6544     17.6987     63.4103   9.3663552448e+01   6.2300918765e+01    0.3669678     0.147821 -32.54  0.001415773    3.681    0.728
       458  -7.7410    158.2439     61.9563   4.8864780354e+01   3.7013696144e+01    0.1898644    0.1233357 -35.21 0.0003700574    1.506    0.336
       459  -9.2353     28.8819     70.3265   9.0778660805e+01   5.9752764461e+01     0.322413    0.1567204 -33.08   0.00139844    2.691    0.628
       460  -9.6454     73.2842     59.4809   7.0626865268e+01   5.6105947031e+01    0.4116554    0.2327643 -55.33 0.0009287714    1.978    0.494
       461  -7.9461    146.9784     59.0261   5.0197226547e+01   4.0239179992e+01    0.1854259    0.1624873 -35.55 0.0004736022    1.131    0.116
       462  -8.0555     88.8000     59.3128   6.5392798460e+01   5.3273952982e+01    0.2032314    0.1693628 -44.09 0.0006157783    1.170    0.145
       463  -8.2051    130.6762     57.5755   5.3307497759e+01   4.4407552741e+01    0.2541588    0.1680897 -53.61 0.0002785533    1.707    0.414
       464  -9.9652     23.4948     56.4108   8.9392267144e+01   6.3364653807e+01    0.4247787     0.268761  84.20  0.002071783    2.559    0.609
       465  -9.5367      7.5369     57.1061   9.6555831181e+01   6.4441049060e+01    0.2798426     0.182346  80.71 0.0009951056    1.987    0.497
       466  -7.4797    193.6982     56.3292   4.1265752025e+01   2.9208777576e+01    0.1514563    0.1019817 -60.76  0.000703297    1.647    0.393
       467  -8.6343    140.0256     56.0472   5.0698551432e+01   4.2410468840e+01    0.2374435    0.1737287 -65.49 0.0005104384    1.655    0.396
       468  -9.0289    119.1540     55.7528   5.5485511456e+01   4.7409871852e+01    0.2916673    0.2439278 -72.50 0.0007048341    1.408    0.290
       469  -9.5993     62.9036     54.7818   7.2729736640e+01   5.8768182918e+01    0.5163833     0.199587 -43.35  0.002035489    2.403    0.584
       470  -8.7954     44.0367     55.3524   8.0351948705e+01   6.1356967416e+01    0.2801272    0.1716148 -60.60  0.001006837    1.703    0.413
       471  -8.9002     54.3248     54.0975   7.5783744422e+01   6.0213884102e+01    0.3353367    0.2149803 -66.67  0.001346175    2.089    0.521
       472  -8.5748    105.8891     53.2573   5.8125552457e+01   5.0820201646e+01    0.2668239    0.1952191 -60.14 0.0007020037    1.659    0.397
       473  -7.4207    163.3053     53.3135   4.5251098744e+01   3.7095739921e+01     0.148904    0.1134256  23.21 0.0004565983    1.620    0.383
       474  -9.5166     92.5368     50.6127   6.1060544049e+01   5.4117510704e+01    0.4002925    0.2337354 -48.73  0.001014234    1.851    0.460
       475  -8.5720     75.8633     50.8463   6.6601080285e+01   5.7310555651e+01    0.3042292    0.1658978  23.55  0.001187671    2.869    0.651
       476  -8.7898    129.8734     49.2353   5.0637667179e+01   4.5942083426e+01    0.2605013    0.1913608 -44.65  0.000572624    1.387    0.279
       477  -7.7740    144.5623     48.5318   4.7256932131e+01   4.2461061697e+01    0.1455484    0.1409544 -65.82 0.0001333234    1.035    0.034
       478  -8.8979    120.9230     47.4868   5.2121362450e+01   4.8346357472e+01    0.2678956    0.1921858 -48.40 0.0006039444    1.479    0.324
       479  -8.2509    163.6979     47.3354   4.3318331477e+01   3.7865813261e+01     0.154656    0.1070241 -62.75 0.0007036444    1.661    0.398
       480  -8.4775    112.1794     46.7684   5.4057515121e+01   5.0489298394e+01    0.2546209    0.1844951 -44.85 0.0006217707    1.423    0.297
       481  -8.8895     82.2566     46.5878   6.2803404434e+01   5.6877880890e+01    0.2709225    0.2180826 -69.33 0.0006251776    1.624    0.384
       482  -8.4183     45.0084     44.5156   7.6120350601e+01   6.3430337080e+01    0.2330528    0.1699188 -59.90 0.0005710121    1.536    0.349
       483  -9.1812     16.7702     44.6166   8.8999989566e+01   6.6483692512e+01     0.229379     0.179297 -73.85 0.0007653233    1.409    0.290
       484  -9.8804      5.3340     42.0307   9.3796593466e+01   6.7865963318e+01    0.3566619    0.2048423 -81.46  0.001390978    2.205    0.547
       485  -7.8288    223.1789     43.3956   3.4140431433e+01   2.4062569862e+01    0.1704785    0.1243224 -89.63 0.0003205804    1.497    0.332
       486  -8.5078    132.9431     43.0311   4.7786695276e+01   4.6132254180e+01    0.2346282    0.1688409 -62.19 0.0006284241    1.664    0.399
       487  -8.7105     92.7055     42.4576   5.7875486529e+01   5.5464630741e+01    0.2511517    0.1733448  -9.58  0.001127266    1.808    0.447
       488  -9.3432     69.5775     41.3871   6.5135741618e+01   6.0152589378e+01    0.4264131    0.2649887 -58.11  0.001275428    2.213    0.548
       489  -9.3288     58.1396     42.0763   6.9760436373e+01   6.1961799717e+01    0.3973819    0.2166346 -55.34  0.001436561    2.279    0.561
       490  -8.8024    105.9929     41.0500   5.3537577386e+01   5.2790774106e+01    0.3717417    0.1825408 -37.85  0.001430337    2.004    0.501
       491  -7.4631    140.4440     41.4700   4.5689067899e+01   4.4507174985e+01    0.1470573    0.1363197 -67.79 0.0001068106    1.115    0.103
       492  -8.3496     36.8425     40.6806   7.8255728109e+01   6.5230943992e+01     0.219416    0.1612165 -75.76 0.0007329531    1.987    0.497
       493  -8.6060     95.3997     38.0235   5.5310185898e+01   5.5594387848e+01    0.2875223    0.1982075 -51.68 0.0008210583    1.692    0.409
       494  -8.1295     80.8190     36.8321   5.9348832148e+01   5.8800243077e+01    0.1836244     0.160699 -56.55 0.0004406978    1.330    0.248
       495  -8.0743    133.3710     36.1328   4.5247458014e+01   4.6998070711e+01    0.2069485    0.1256085 -40.96  0.000806923    1.671    0.401
       496  -9.3382     26.1270     35.3709   8.1265924240e+01   6.7489669299e+01    0.2806946    0.1947199 -60.74 0.0008634792    1.557    0.358
       497  -8.4020    125.9399     35.3493   4.6536509581e+01   4.8927367681e+01    0.2012467    0.1780966  54.25 0.0004010857    1.108    0.098
       498  -8.8638    111.8917     34.5866   4.9513004915e+01   5.2387904389e+01    0.2782451    0.1969902 -40.63 0.0007203828    1.450    0.311
       499  -8.8941     48.5257     33.3931   7.0108851849e+01   6.5008844050e+01    0.2373571    0.2109997 -55.99 0.0006460911    1.338    0.253
       500  -8.8510    119.0485     32.6150   4.7051201831e+01   5.0964256586e+01     0.332098    0.1644583 -36.22  0.001402288    1.999    0.500
       501  -8.6072     60.7203     32.5583   6.4739438285e+01   6.3205593108e+01    0.2378438    0.1988073 -46.53 0.0005932573    1.304    0.233
       502  -8.9134     72.1825     31.0031   5.9794494548e+01   6.1393544788e+01    0.2999191    0.1908612 -54.73 0.0009170136    2.125    0.529
       503  -7.7711    139.2718     31.6244   4.2481119951e+01   4.6123076092e+01    0.1514987    0.1037317 -58.24 0.0006998444    1.686    0.407
       504  -8.9761     13.0340     30.2766   8.6024393998e+01   6.9723644297e+01    0.2737652    0.1756172 -71.02 0.0009349802    1.959    0.490
       505  -8.6749    101.6167     29.3213   5.0036229456e+01   5.5482012864e+01    0.2112424    0.1630318 -65.03 0.0008402766    1.658    0.397
       506  -7.8145     41.6898     29.6972   7.1512915057e+01   6.6644179219e+01    0.1295592    0.0897688 -12.42 0.0002875408    1.607    0.378
       507  -8.9917     81.5433     27.2578   5.4993092439e+01   6.0107045612e+01    0.3070228    0.1987644 -53.04 0.0009561233    2.015    0.504
       508  -9.3697      3.7459     27.3302   9.0029477953e+01   7.1000614422e+01    0.2998404    0.1546832 -67.09  0.001583111    2.061    0.515
       509  -7.6828     88.5235     34.4877   5.5917516995e+01   5.7596821913e+01    0.1368601     0.130822  -5.22 0.0001617319    1.039    0.037
       510  -8.9647     91.8393     26.4058   5.1503587401e+01   5.8050103558e+01    0.3009393    0.1831955 -40.44 0.0008291448    1.720    0.418
       511  -8.2243     34.7777     23.1771   7.1778862868e+01   6.8707645220e+01    0.1857142    0.1408087  87.10  0.000949714    2.824    0.646
       512  -8.3478    104.4575     22.5478   4.6503292251e+01   5.5707626178e+01    0.1353131    0.1312348  27.80 0.0002225787    1.037    0.036
       513  -9.0370     63.5456     20.8756   5.8253036382e+01   6.4512206105e+01    0.3143429     0.201815 -49.19  0.001033589    1.947    0.486
       514  -8.6096     48.3109     21.6169   6.4773276802e+01   6.7004055510e+01    0.2042713    0.1810627 -41.10 0.0008363707    1.284    0.221
       515  -8.1697     19.4296     21.2530   7.8831555807e+01   7.0841087488e+01    0.1594525    0.1048788 -54.52 0.0009365047    1.590    0.371
       516  -8.9696     74.0462     19.1865   5.3733261140e+01   6.2730697935e+01    0.2936638    0.1748035 -38.62 0.0007246349    1.743    0.426
       517  -8.2041     87.7623     17.4098   4.8682342451e+01   6.0089097062e+01    0.2321095    0.1509337 -37.59 0.0005126525    1.612    0.380
       518  -8.4337     38.5077     18.0450   6.7457372290e+01   6.9038384205e+01    0.1857844    0.1099962 -38.85   0.00071402    1.558    0.358
       519  -8.4480    112.5566     16.5464   4.2150700270e+01   5.4491226794e+01    0.1355146     0.129264  39.51 7.774973e-05    1.011    0.011
       520  -8.2342     30.0398     16.0763   7.0655584780e+01   7.0503159623e+01    0.1698908    0.1497518 -69.19 0.0006364678    1.685    0.406
       521  -8.3182     97.0417     15.2621   4.5232590242e+01   5.8270263799e+01    0.1847904     0.175323  33.30 0.0004371097    1.041    0.039
       522  -8.4984      7.4208     15.1831   8.2985258691e+01   7.3048516521e+01    0.1595789    0.1007755 -60.03  0.000948993    1.752    0.429
       523  -7.6548     17.2289     13.9924   7.6592318581e+01   7.2343028443e+01    0.1510848   0.08363435 -43.98 0.0003306837    1.561    0.359
       524  -7.6343    119.7097     11.3180   3.8588190519e+01   5.3298297846e+01    0.1379679    0.1013229 -60.49 0.0007006987    1.598    0.374
       525  -8.4049    184.9734    250.0000   8.2898485074e+01   1.0132482419e+00    0.1840844   0.04931808  38.51 0.0008005404    2.929    0.659
       526  -9.1379    175.5416    247.4923   8.4187548624e+01   2.6223616238e+00    0.2568572    0.2012374  71.59  0.001277391    2.087    0.521
       527  -8.7895    156.5623    248.1480   8.7564353944e+01   5.2088350827e+00     0.260004    0.1690635  62.31  0.001578161    2.205    0.546
       528  -8.3839    113.3481    248.8330   9.5319662974e+01   1.1147369574e+01    0.2113548    0.1362882  76.59  0.001317409    2.115    0.527
       529  -9.2590    103.8140    246.8090   9.6842524405e+01   1.2743324419e+01    0.3527332    0.2003521 -89.34  0.001963342    2.849    0.649
       530  -9.1283    243.0894    246.1996   7.3014929590e+01  -6.1823425367e+00    0.3358832    0.1532236 -18.27  0.001972219    2.501    0.600
       531  -9.0974    233.0408    246.3262   7.4580070664e+01  -4.9496390000e+00    0.3196999    0.1566343 -23.91  0.002005028    2.198    0.545
       532  -8.4199    218.4895    247.5669   7.7052739898e+01  -3.2139470124e+00    0.2125077   0.09908573 -32.97  0.001179864    2.435    0.589
       533  -9.9971    223.9079    243.9824   7.5684705396e+01  -3.5440851079e+00    0.3655375    0.2030894 -41.15  0.002315996    2.475    0.596
       534  -8.9358    146.7782    245.8693   8.9027110782e+01   6.8978935157e+00    0.2562517    0.1740353  67.52  0.001589552    2.122    0.529
