#   1 NUMBER                 Running object number                                     
#   2 MAG_AUTO               Kron-like elliptical aperture magnitude                    [mag]
#   3 X_IMAGE                Object position along x                                    [pixel]
#   4 Y_IMAGE                Object position along y                                    [pixel]
#   5 X_WORLD                Barycenter position along world x axis                     [deg]
#   6 Y_WORLD                Barycenter position along world y axis                     [deg]
#   7 A_WORLD                Profile RMS along major axis (world units)                 [deg]
#   8 B_WORLD                Profile RMS along minor axis (world units)                 [deg]
#   9 THETA_WORLD            Position angle (CCW/world-x)                               [deg]
#  10 FWHM_WORLD             FWHM assuming a gaussian core                              [deg]
#  11 ELONGATION             A_IMAGE/B_IMAGE                                           
#  12 ELLIPTICITY            1 - B_IMAGE/A_IMAGE                                       
         1 -14.7314     54.1953     56.5314   5.8164963147e+01   6.0623889032e+01    0.9936016    0.4838043 -53.01  0.004294285    1.964    0.491
         2 -15.6099     39.3352     49.2099   6.2441052828e+01   6.4185202537e+01     1.367193    0.6618495 -43.39   0.00624156    1.885    0.469
         3 -14.9288    225.9925     64.7982   1.8208257323e+01   2.0378967809e+01     1.270204    0.7765251 -32.31  0.006419139    1.473    0.321
         4 -13.4325     44.2568     22.6456   4.8596075941e+01   6.8745010592e+01    0.8428646     0.698648  42.76   0.00377732    1.422    0.297
         5 -15.1257     73.6629     14.5009   3.1405431510e+01   6.4539258001e+01      2.22118    0.6068602  39.84  0.006446094    4.799    0.792
         6 -14.0824     82.1117     13.3475   2.7952229330e+01   6.2831825671e+01    0.5539548    0.3753247   8.28  0.002157198    1.716    0.417
         7 -12.5929     89.7965     12.5993   2.5253470533e+01   6.1154208183e+01    0.4350017     0.342036  68.40  0.002144778    1.373    0.272
         8 -12.8421     57.8739     14.5221   3.7704574134e+01   6.7696807853e+01    0.3317833     0.221903 -38.39  0.001785605    1.584    0.369
         9 -11.6502    134.9502     11.9754   1.5049146786e+01   4.9844849205e+01    0.2408276    0.1618649 -64.44  0.001147587    1.712    0.416
        10 -11.9691    152.0621     10.0190   1.1771486339e+01   4.5519553506e+01    0.3014155    0.2144619  80.54 0.0003412759    1.342    0.255
        11 -12.4400    123.9636     10.0482   1.6222779592e+01   5.2910299024e+01    0.2934721     0.212217  38.65  0.001111381    1.419    0.295
        12 -13.1642    118.8848      9.5620   1.6985097440e+01   5.4272324966e+01    0.5755435    0.2580323  45.32  0.001729664    2.207    0.547
        13 -12.3205    137.7784      5.1776   1.2057970420e+01   4.9744246504e+01    0.3060755    0.1849201  78.70  0.001444659    1.616    0.381
        14 -13.7731    112.3763      3.7059   1.5779397730e+01   5.6483732171e+01    0.7192836    0.3544967  73.07  0.003072337    2.070    0.517
        15 -13.4726     92.8587      2.6697   1.9600028563e+01   6.1428857079e+01    0.7049537    0.2989758  71.68  0.002699319    2.822    0.646
        16 -12.6111     39.9348     81.5795   7.1333925727e+01   5.6560005026e+01    0.3406394    0.2714915  -4.37   0.00190832    1.498    0.332
        17 -14.3427     20.6766     77.5101   7.8375353858e+01   5.9322388103e+01    0.6368815    0.3949165  18.24  0.003424567    1.884    0.469
        18 -13.7888    249.7614     67.7406   1.6222442380e+01   1.5079912934e+01     1.504295    0.4112782 -27.09  0.004854037    4.152    0.759
        19 -13.5998    244.9724     62.1662   1.5432707149e+01   1.6768235539e+01    0.6921985    0.3770815 -20.09  0.003287708    2.068    0.516
        20 -12.8778    237.1564     78.8428   2.0256290103e+01   1.6062909612e+01    0.3405182    0.3114996 -40.21  0.001552127    1.057    0.054
        21 -14.1129    239.7287     71.7898   1.8276449035e+01   1.6527175414e+01      1.12227    0.3713894 -37.07  0.004483812    2.428    0.588
        22 -13.3134    241.3245     50.8498   1.3136381355e+01   1.8988834419e+01    0.5428679    0.4042775 -41.82  0.003235682    1.136    0.120
        23 -14.3086    216.4357     74.9588   2.2007070053e+01   2.1005569810e+01    0.8750823    0.6882458 -77.25    0.0047416    1.484    0.326
        24 -11.6657      8.9093     63.4944   8.0886090029e+01   6.3483528437e+01    0.4066017     0.181078 -57.11  0.001998337    1.757    0.431
        25 -14.8594     66.0458     42.2706   4.7585769235e+01   6.1622517434e+01    0.7234468     0.639686 -87.95  0.004068609    1.506    0.336
        26 -10.7545    246.3504    183.3088   4.1157476140e+01  -1.3387154013e-01    0.1261884   0.07673917   4.98 0.0007043984    1.713    0.416
        27 -12.5493     43.7180     62.3171   6.4664819442e+01   6.0719747991e+01    0.2298734    0.2090458 -83.12 0.0007316166    1.230    0.187
        28 -12.4043    214.7369     60.8952   1.8621025561e+01   2.3427220424e+01    0.3342485    0.2181738 -46.95  0.001289332    1.425    0.298
        29 -11.9656    248.0404    144.3812   3.3335206421e+01   4.7406422237e+00    0.2148451    0.1978551 -74.72  0.001423552    1.626    0.385
        30 -11.6010    197.4021     57.2142   1.9975974807e+01   2.8013254423e+01    0.2183011    0.1189991 -42.34 0.0009544973    1.704    0.413
        31 -10.9135    183.8020     53.3970   2.0905849056e+01   3.1903630630e+01    0.2125556    0.1299482  52.19 0.0009161177    1.692    0.409
        32 -12.8410    235.2057     56.0470   1.5008033423e+01   1.9595023946e+01    0.6820657    0.2960443 -24.70   0.00283371    2.460    0.593
        33 -11.1745    176.4893     79.6686   2.9741820042e+01   2.9537248579e+01    0.3219509    0.2048178 -52.49  0.001403565    1.709    0.415
        34 -11.7610      2.1187     45.8441   8.0660578379e+01   6.7952002271e+01    0.2319215    0.2004818  81.11  0.001052337    1.323    0.244
        35 -11.1692    202.3938     39.4169   1.4412380476e+01   2.9239571533e+01    0.2684604    0.1342015 -10.70  0.000956271    3.399    0.706
        36 -11.7161      3.3210    139.8843   9.1316192215e+01   4.5206517071e+01    0.2167912    0.1488197  50.11  0.001353158    1.387    0.279
        37 -11.1492    216.3574     38.1040   1.2504302904e+01   2.6099488344e+01    0.2297207    0.1710909  63.07 0.0008391186    1.432    0.302
        38 -11.3080    166.2860     32.8815   1.7319988167e+01   3.9198170434e+01    0.2398512     0.194243 -89.04 0.0003961523    1.248    0.199
        39 -13.8570     76.9825     31.7516   3.8614724036e+01   6.1366492107e+01    0.4432985    0.3424052  38.75  0.002387752    1.266    0.210
        40 -14.4877    238.0000    126.7103   3.1094777856e+01   8.9429290005e+00     1.042716    0.4360234 -29.05  0.004478813    2.253    0.556
        41 -14.2416    245.9067    120.1563   2.8518842481e+01   8.4945214259e+00    0.9753562    0.6634521 -49.51  0.005406158    1.694    0.410
        42 -13.3482    248.8515    114.8612   2.6956777221e+01   8.7286530647e+00    0.6599054    0.2873473 -38.74  0.003046712    2.016    0.504
        43 -12.9475    221.8822    129.9225   3.4333405993e+01   1.1395133427e+01    0.3409759    0.2664115  60.76  0.001904052    1.637    0.389
        44 -12.0785    220.9694    119.3147   3.2085800268e+01   1.3220626635e+01    0.1929682    0.1780518  -0.38  0.001172802    1.069    0.065
        45 -12.9548    195.1761    112.8935   3.5005883088e+01   1.9532206896e+01    0.3662071    0.2358772 -22.85  0.001679361    1.693    0.409
        46 -11.7561    217.5468    112.5998   3.1078158693e+01   1.4950402565e+01    0.2676337    0.2354417 -79.97  0.001537768    1.442    0.306
        47 -12.0219    134.1037     98.0922   4.4464032975e+01   3.6065277761e+01     0.348728    0.2438289   4.83  0.001382854    2.310    0.567
        48 -11.3549    114.6519     97.3174   4.9558283253e+01   4.0488697012e+01    0.1612316    0.1237546  85.81 0.0007048182    1.729    0.422
        49 -14.0099     31.6574     88.5426   7.6048629254e+01   5.5670978060e+01    0.5877806    0.4318335  10.46  0.003269469    1.643    0.391
        50 -11.5244    213.4282     83.6755   2.4648893996e+01   2.0348893146e+01    0.2773844    0.1213518 -36.96  0.001023744    2.030    0.507
