#   1 NUMBER                 Running object number                                     
#   2 MAG_AUTO               Kron-like elliptical aperture magnitude                    [mag]
#   3 X_IMAGE                Object position along x                                    [pixel]
#   4 Y_IMAGE                Object position along y                                    [pixel]
#   5 X_WORLD                Barycenter position along world x axis                     [deg]
#   6 Y_WORLD                Barycenter position along world y axis                     [deg]
#   7 A_WORLD                Profile RMS along major axis (world units)                 [deg]
#   8 B_WORLD                Profile RMS along minor axis (world units)                 [deg]
#   9 THETA_WORLD            Position angle (CCW/world-x)                               [deg]
#  10 FWHM_WORLD             FWHM assuming a gaussian core                              [deg]
#  11 ELONGATION             A_IMAGE/B_IMAGE                                           
#  12 ELLIPTICITY            1 - B_IMAGE/A_IMAGE                                       
         1 -13.6136    224.4745      6.4396   3.5052632276e+01   2.8550879918e+01     2.154042     1.294233  44.97   0.01000003    2.272    0.560
         2 -13.0851    181.7699     51.0030   5.1547554022e+01   3.3229181935e+01     1.067188    0.9560493  11.82 0.0008617694    1.314    0.239
         3 -13.2714    194.1853     40.9542   4.6898292789e+01   3.1583132358e+01     1.163379     0.962669 -48.58  0.003583343    1.164    0.141
         4 -13.3778    201.5481     32.9340   4.3809843949e+01   3.0843712519e+01    0.9965936      0.90681 -11.85  0.001503289    1.314    0.239
         5 -11.8396     61.5620      2.9085   6.1794618920e+01   6.6244305237e+01    0.5579979     0.280706  42.73  0.002990849    1.743    0.426
         6 -11.3327    184.3592    212.2292   8.9523017732e+01   2.8451360752e+00    0.4817552    0.3991365  68.62  0.002784768    1.694    0.410
         7 -10.9569    140.0101    249.0459   1.0372920054e+02   4.0063061950e+00    0.3419507    0.2828425  86.32  0.002288251    1.525    0.344
         8 -10.5777    124.8548    249.3448   1.0665213703e+02   6.2654645488e+00    0.3356964    0.1838664  52.79  0.001830737    1.730    0.422
         9 -10.5123    125.0000    243.9413   1.0599333295e+02   7.1428859981e+00    0.3631011    0.1347353 -49.63  0.001629206    3.241    0.691
        10 -10.7252    119.5825    245.6420   1.0723526166e+02   7.6791553008e+00     0.282878    0.1820321  47.12   0.00112324    1.289    0.224
        11 -11.2145    114.8822    244.7935   1.0804205617e+02   8.5317421909e+00    0.3217539    0.2584334 -44.61  0.002130917    1.585    0.369
        12  -9.2797    107.7638    250.2137   1.0998157487e+02   8.6631915117e+00    0.1488519     0.133262  24.50  0.001051502    1.343    0.255
        13 -19.2958     13.0787    168.5919   1.2167319094e+02   3.7445531628e+01     18.45831     4.307243 -78.33   0.06283489    4.204    0.762
        14  -9.2163    133.4016    195.2710   9.7402380200e+01   1.4890786835e+01    0.1822939     0.134589 -67.15 0.0005117138    1.556    0.357
        15  -9.8990    120.0212    194.1531   1.0021477629e+02   1.7436305733e+01    0.2153241    0.1961294 -70.29 0.0003322352    1.142    0.125
        16 -11.8222    175.0601    211.8245   9.1324859238e+01   4.4910578801e+00    0.6101045    0.2641074  33.70  0.002569612    2.271    0.560
        17 -11.6418    203.0201    199.8015   8.3599429818e+01   1.7425218879e+00    0.5669429    0.2640308  29.25  0.002398734    2.369    0.578
        18 -10.1747    149.3091    187.4581   9.2510930080e+01   1.3633323986e+01     0.318151    0.2771203  78.35  0.001450418    1.336    0.252
        19 -11.2282    188.8174    208.1924   8.7928218470e+01   2.7637092191e+00    0.4846254    0.3342599 -41.49  0.002659587    1.574    0.365
        20  -8.9531     92.8269    185.4288   1.0512004929e+02   2.3802547528e+01    0.2535982    0.1205065  43.08  0.000798396    1.988    0.497
        21 -10.7232     98.7704    181.1251   1.0307643205e+02   2.3835386236e+01    0.4208965    0.3057339  13.64  0.001991503    1.967    0.492
        22 -15.2026     72.7360    151.3720   1.0478618335e+02   3.4886003350e+01     5.498973      2.86382  86.52  0.008760692    3.696    0.729
        23 -10.2734    189.2854    177.3192   8.1955305409e+01   8.1421529403e+00    0.4645994    0.3522457 -58.91  0.002358098    1.678    0.404
        24 -10.5080    143.9450    177.8689   9.1942941633e+01   1.6614479668e+01    0.3542778    0.2164708 -45.59 0.0009761282    1.699    0.411
        25  -9.1837    149.3666    177.0424   9.0550881099e+01   1.5770018919e+01    0.1979848    0.1808898 -53.44 0.0004018934    1.144    0.126
        26 -12.8177    112.9046    205.7257   1.0352077068e+02   1.6206912952e+01     1.421813    0.3077359 -52.62  0.004465516    4.668    0.786
        27 -10.2291    138.3942    169.9510   9.1708836472e+01   1.9361968376e+01    0.3937776     0.315131  49.21  0.002025904    1.242    0.195
        28 -11.1694    107.8158    204.0868   1.0440050782e+02   1.7368065303e+01    0.4718978    0.2636538  59.50 0.0004347531    2.034    0.508
        29  -8.6948    240.3236    169.3121   7.0640977858e+01   3.9830485299e-01     0.138665   0.09424091  -0.84 0.0003145894    1.657    0.396
        30 -11.8981    109.6107    200.8318   1.0354470250e+02   1.7759076107e+01    0.5161278     0.276796 -47.26  0.001971987    2.138    0.532
        31  -9.2237    229.6807    166.3128   7.1876397267e+01   2.7111832459e+00    0.1273235    0.1096869 -67.05 0.0002420028    1.649    0.393
        32  -9.3021    187.7156    162.6000   7.9188216943e+01   1.1239257123e+01    0.2542937    0.1787364 -58.86  0.001005999    1.806    0.446
        33 -11.5561     92.9763    151.8326   9.9532951102e+01   3.1680563437e+01     0.732931    0.5081467 -33.74  0.003425631    1.820    0.450
        34  -9.5039    187.0445    151.9265   7.6968203481e+01   1.3459772523e+01    0.2440397    0.1815512   0.84  0.001131989    1.682    0.405
        35 -10.8973    133.8640    145.3752   8.7678960050e+01   2.5754068969e+01     1.264932    0.3277112 -54.38   0.00298882    5.563    0.820
        36  -9.5221    112.7715    150.9860   9.4223714040e+01   2.8466723942e+01     0.234584      0.19763  86.11 0.0006748328    1.304    0.233
        37  -9.3066    174.6858    148.9979   7.8943163312e+01   1.6588420720e+01    0.2206839    0.1924597 -40.14 0.0005757794    1.129    0.114
        38  -9.6481    143.5102    145.5099   8.5338180299e+01   2.3781467415e+01     0.289102    0.1462403 -58.08  0.001036145    2.440    0.590
        39 -10.4849    105.4913    137.9955   9.3413144185e+01   3.2882396375e+01     0.553931    0.3210536 -31.73  0.002133177    2.439    0.590
        40 -11.5879     93.1776    137.8806   9.6739732048e+01   3.5041508125e+01    0.2881723     0.262897 -37.07  0.000394796    1.171    0.146
        41 -10.8023    136.0605    130.1895   8.3586563198e+01   2.8770317562e+01    0.7422602    0.2244782 -51.38  0.002077133    3.716    0.731
        42 -10.2913    105.9385    130.6698   9.1662889364e+01   3.4560150108e+01    0.3962621    0.3140056 -66.41  0.001281915    1.298    0.229
        43  -8.5258     97.1820    129.1486   9.3748316429e+01   3.6483843084e+01     0.198086    0.1700058  89.51 0.0002695917    1.274    0.215
        44  -9.1887    160.6775    127.8400   7.7042306850e+01   2.4020552158e+01    0.3518385    0.1970176 -64.58  0.001171741    3.038    0.671
        45 -10.3643    100.9575    125.0234   9.1743829326e+01   3.6813596867e+01    0.3124919    0.2544745 -22.82  0.000948938    1.441    0.306
        46 -11.1565    119.9679    122.6732   8.5935736481e+01   3.3773297118e+01    0.5811348    0.3899489  -7.80  0.002204027    2.616    0.618
        47 -10.8438    114.0572    129.3938   8.9155943889e+01   3.3349523273e+01    0.4490013    0.4267312  64.23  0.001210944    1.089    0.081
        48  -9.4130    109.0845    118.3363   8.7842887349e+01   3.6903596380e+01    0.2623603    0.2136092 -57.88 0.0003171092    1.213    0.176
        49 -10.9522    108.4850    210.8546   1.0518090593e+02   1.5871315821e+01    0.2698071    0.2482648 -29.78  0.001697796    1.349    0.259
        50 -10.0648    231.3844    113.6365   5.9768872045e+01   1.1472246717e+01    0.2762991    0.2525035 -27.43 0.0007667886    1.049    0.047
        51  -9.2662    167.4290    112.1626   7.1481035934e+01   2.5791573958e+01    0.3332257    0.2449859 -83.27  0.001408118    1.984    0.496
        52 -11.7769    118.1896    109.8354   8.3109253021e+01   3.7078974398e+01    0.7281377    0.5102417  74.89  0.002840286    2.134    0.531
        53  -9.6982    134.5672    106.6711   7.7875065824e+01   3.4333098998e+01    0.3144243    0.1501466 -39.60  0.001140796    2.110    0.526
        54  -9.9727     65.2998    104.8672   9.7703760387e+01   4.7342989054e+01    0.3303872    0.2206561  22.30  0.001615829    1.797    0.443
        55  -9.5457    205.4598    110.1479   6.3318532541e+01   1.7587183716e+01    0.3093622    0.2175693  39.76 0.0009507815    1.579    0.367
        56  -8.8181     63.8750     99.1697   9.6790784014e+01   4.8894060246e+01    0.2071003    0.1899158  83.70 0.0007973924    1.238    0.192
        57  -8.5003    156.4829     82.4455   6.5622068706e+01   3.4209503449e+01    0.1527116    0.1504541 -51.94 8.995559e-05    1.011    0.010
        58  -9.3550     93.9025    205.2233   1.0758640288e+02   1.9307713491e+01     0.268022    0.1881531  20.06  0.001261656    1.933    0.483
        59  -8.5315    184.4673     77.4542   5.8532898992e+01   2.8345604199e+01    0.1485474    0.1447163 -47.21 0.0008077467    1.034    0.033
        60  -9.0410     63.8343     69.8150   8.8551035280e+01   5.5466675049e+01    0.2061558    0.1701394 -23.89  0.000465843    1.132    0.116
        61  -8.5038    168.1826    248.1622   9.8254336377e+01  -1.9316972285e-01    0.1502336    0.1234957  46.86   0.00100042    1.252    0.201
        62  -9.3502     87.7710    204.2442   1.0879448494e+02   2.0438307925e+01    0.3267517    0.2082711 -78.01  0.001672185    1.686    0.407
        63 -11.4381    194.4029    199.4571   8.5230121550e+01   3.2773665983e+00     1.454847    0.6216272 -51.76  0.005439037    3.497    0.714
        64  -9.4056    158.1601    235.4005   9.8393111752e+01   3.3484425159e+00    0.1811869    0.1560108 -57.05  0.001179731    1.424    0.298
        65  -8.5979    224.2925    206.6842   8.0865205701e+01  -2.8124408740e+00    0.1096461    0.1053591 -79.21 0.0002690415    1.598    0.374
        66  -9.5398    189.7602     14.9992   4.0450419625e+01   3.5786671227e+01    0.2297654    0.1805865  78.33 0.0006665579    1.162    0.140
        67  -9.0651     74.9293     13.0000   6.2110262863e+01   6.2750687279e+01    0.2089447   0.06651393  51.50 0.0008093558    2.991    0.666
