#   1 NUMBER                 Running object number                                     
#   2 MAG_AUTO               Kron-like elliptical aperture magnitude                    [mag]
#   3 X_IMAGE                Object position along x                                    [pixel]
#   4 Y_IMAGE                Object position along y                                    [pixel]
#   5 X_WORLD                Barycenter position along world x axis                     [deg]
#   6 Y_WORLD                Barycenter position along world y axis                     [deg]
#   7 A_WORLD                Profile RMS along major axis (world units)                 [deg]
#   8 B_WORLD                Profile RMS along minor axis (world units)                 [deg]
#   9 THETA_WORLD            Position angle (CCW/world-x)                               [deg]
#  10 FWHM_WORLD             FWHM assuming a gaussian core                              [deg]
#  11 ELONGATION             A_IMAGE/B_IMAGE                                           
#  12 ELLIPTICITY            1 - B_IMAGE/A_IMAGE                                       
         1 -17.3489    167.1197    104.9118   8.0132000843e+01   2.7548541116e+01     3.635413      2.79857  -4.68   0.01789817    1.543    0.352
         2 -17.4186    236.9888     30.4028   4.8999242565e+01   2.1650629077e+01     4.639534     3.499862 -21.55   0.02643953    1.236    0.191
         3 -16.2562    153.1133     51.6269   6.7356790221e+01   4.0046267536e+01     3.462053     1.580013  48.17   0.01276219    2.189    0.543
         4 -16.8472    127.5457     51.9311   7.3447793711e+01   4.6531673490e+01      3.70025     3.018833  -7.01  0.009283214    1.411    0.291
         5 -17.4817    219.6330    115.0922   7.2790383628e+01   1.4809265603e+01      3.29633     2.220473 -52.90   0.01639232    2.095    0.523
         6 -16.7376    206.2052     64.9111   6.2100823603e+01   2.4675681497e+01      2.14425     1.309579  24.27  0.009165742    2.182    0.542
         7 -16.5142    217.9189     80.3303   6.4518837645e+01   1.9897320374e+01     1.886862     1.110787  -5.69  0.008187498    2.164    0.538
         8 -14.4955     65.7665     25.8262   8.3362624711e+01   6.4912602988e+01      1.22108    0.9621605  24.84  0.004302828    1.357    0.263
         9 -15.5426     17.3550     12.1805   1.0447025675e+02   7.4167011930e+01     2.673054     0.963227 -56.65   0.01197534    2.240    0.554
        10 -16.4015     35.5097     26.8009   9.9263318292e+01   6.9252879599e+01      2.30484     1.125794 -49.84   0.01082647    1.750    0.429
        11 -15.9166     48.1269      9.7890   8.3379557283e+01   7.0833072811e+01     1.560957     1.073431 -24.76  0.007297671    1.416    0.294
        12 -17.2597    180.9879     67.2308   6.6907100328e+01   3.0490117989e+01     2.229909      1.87914  45.75  0.008968127    1.194    0.163
        13 -11.7835    216.4563      6.7597   4.4233918100e+01   2.8888818200e+01    0.2468797    0.1543134 -24.18  0.001011879    1.517    0.341
        14 -12.2408    118.6119      3.8419   5.5464021608e+01   5.5635700463e+01    0.4196068    0.2712804 -19.91    0.0012487    1.598    0.374
        15 -11.5137    123.5651      1.4577   5.3405927843e+01   5.4521577653e+01    0.3278037    0.1463127  73.21   0.00122293    2.337    0.572
        16 -16.1410    241.8020    161.6264   7.8970842064e+01   5.1551751556e+00       1.4013     1.196529 -15.49  0.008410145    1.321    0.243
        17 -15.9941    238.0970    246.3734   9.2898440771e+01  -2.3217094720e+00     3.422374    0.8500235  37.86   0.01725584    2.980    0.664
        18 -14.2631    214.8427    241.3583   9.5812898275e+01   1.0001214247e+00    0.7315542    0.3873988  41.44  0.003366272    1.740    0.425
        19 -13.6854    101.9365    247.6443   1.1561232075e+02   1.5205786856e+01     1.478945    0.1712133  43.95  0.005412668    4.734    0.789
        20 -16.7866    219.5311    155.1330   8.1323536613e+01   9.5823127563e+00     2.000681     1.526224  39.37   0.00881656    1.321    0.243
        21 -12.8856     90.4296    166.2750   1.1016074911e+02   3.0040331156e+01    0.5500569    0.3978446 -67.32  0.002059256    1.524    0.344
        22 -11.8407     95.3575    158.9800   1.0803420181e+02   3.0747798034e+01    0.2634998    0.2206042 -16.41  0.001320207    1.682    0.406
        23 -11.2414     75.4880    167.4997   1.1384011088e+02   3.1899354374e+01    0.2566939    0.2116606  61.01  0.001590334    1.025    0.024
        24 -11.9107     73.2299    164.7710   1.1408335713e+02   3.2750312055e+01    0.3114265    0.1642728  37.07  0.001627606    1.695    0.410
        25 -13.8363     65.2002    129.3033   1.1181143160e+02   4.1466758651e+01     1.238258    0.7382401 -58.21   0.00638668    1.717    0.417
        26 -14.1463     68.0680    144.7979   1.1306794909e+02   3.7633644992e+01     1.128334    0.7331043  63.17  0.003466728    1.486    0.327
        27 -13.2690     47.6067    159.8977   1.1983251345e+02   3.6906557478e+01     0.621356    0.4032472 -78.96  0.003072465    1.510    0.338
        28 -13.0301     52.1120    166.1559   1.1927374315e+02   3.5101064093e+01    0.3702605    0.2831707  22.74 0.0009510362    1.595    0.373
        29 -14.2945     59.3771    160.7330   1.1702671253e+02   3.5352312826e+01    0.8880693    0.6201633  40.07  0.003528843    1.320    0.243
        30 -13.6168     65.3082    155.7686   1.1504823227e+02   3.5645920489e+01     0.582743     0.388822  49.25  0.001671903    1.289    0.224
        31 -11.8948    100.3706    165.0265   1.0765857062e+02   2.8790600275e+01    0.2678742     0.223101 -83.27  0.001071083    1.306    0.234
        32 -14.5700    113.2498    149.7137   1.0230111342e+02   2.9708187049e+01    0.7715069     0.731903  30.51  0.003989195    1.145    0.127
        33 -14.1519    133.7111    145.7840   9.6739646232e+01   2.6849013738e+01     1.147651    0.3242599 -55.41  0.003218008    5.879    0.830
        34 -11.1628    104.1589    241.3015   1.1473313536e+02   1.5770347477e+01    0.3716387   0.07864361  45.43  0.001583919    3.380    0.704
        35 -11.2247     48.0032    218.7100   1.2364958833e+02   2.5898794431e+01    0.2263004    0.0879026  66.84  0.001183708    2.729    0.634
        36 -10.0327     98.6831    133.6666   1.0328629764e+02   3.5470841812e+01    0.1341599    0.1100829 -13.39  0.000704761    1.691    0.409
        37 -12.8100    189.9662    128.6488   8.1137563154e+01   1.8791676717e+01    0.5039661    0.4133689  12.59   0.00197134    1.194    0.163
        38 -11.8975    184.9159    119.4858   8.0032160576e+01   2.1263871153e+01    0.3707027    0.3598619  84.87   0.00145975    1.237    0.191
        39 -10.8877    249.9916    108.5483   6.6781115691e+01   9.8756594557e+00     0.225222    0.1735388 -52.90 0.0008290404    1.775    0.437
        40 -14.8141    134.9974     88.8983   8.3368179256e+01   3.7777794807e+01     1.164118    0.8196943 -44.77  0.005430368    1.452    0.311
        41 -14.0590    206.2296    197.7297   9.1078881766e+01   6.6243429647e+00    0.6896445    0.4531754 -43.60  0.002999004    2.183    0.542
        42 -12.3657     94.6325     91.3125   9.5534404704e+01   4.5609100416e+01     0.468786     0.362099  13.38  0.001839816    1.717    0.417
        43 -12.8635      1.7189     85.4052   1.2721098939e+02   5.7769886076e+01    0.6525255    0.2165758 -63.85    0.0023891    2.476    0.596
        44 -12.2514      2.0000     80.0019   1.2669175065e+02   5.9047438845e+01    0.3649662    0.1488389 -85.56  0.001556383    2.066    0.516
        45 -12.2330    150.8637     85.2912   7.8463999783e+01   3.4802236266e+01    0.3026387    0.2500957 -39.28 0.0005231003    1.228    0.186
        46 -12.2501     87.0290     86.9521   9.6852124168e+01   4.7970768930e+01    0.3622663    0.2611944  -6.99  0.001601545    2.237    0.553
        47 -12.5182    245.7492    133.2841   7.2742075384e+01   7.7192254119e+00    0.4746595    0.4063977  57.91  0.002847118    1.635    0.388
        48 -10.1999    247.6059     82.8365   6.1125581122e+01   1.3383429019e+01    0.1734487    0.1052402 -34.60  0.000471522    1.500    0.334
        49 -13.0997     83.6844     80.4111   9.6240405161e+01   5.0060176081e+01    0.4158143    0.3636242  27.14  0.001527352    1.261    0.207
        50 -13.4217     44.2591     76.4808   1.0979213166e+02   5.6653934672e+01    0.9771665    0.5699208  80.53  0.003775977    2.279    0.561
        51 -11.9451    224.4667    198.1816   8.8100800274e+01   3.8591650518e+00    0.5747842    0.2980532 -41.56  0.003155737    2.871    0.652
        52 -11.8338    218.4115    193.7534   8.8385900596e+01   5.2275621142e+00    0.2812499    0.2675587  76.44  0.001495251    1.838    0.456
        53 -11.4582    101.1705    145.1521   1.0455459764e+02   3.2642339370e+01    0.1994828    0.1877547  20.34 0.0009239635    1.224    0.183
        54 -12.7217     15.1195    201.3822   1.2927771316e+02   3.2136196016e+01    0.2075091    0.1200493  73.55  0.001163117    1.418    0.295
        55 -11.0057     81.1628     65.1428   9.2641342996e+01   5.3971940798e+01    0.2012683    0.1701332 -81.47 0.0005006897    1.328    0.247
        56 -12.4947     44.2600     60.1046   1.0595551601e+02   6.0617719429e+01    0.5678189    0.4190734 -67.12  0.003147394    1.249    0.199
        57 -13.5094     89.0726     55.7190   8.6612158208e+01   5.4512603724e+01    0.8059435    0.5397089  66.10  0.002738216    2.016    0.504
        58 -12.8710     93.5901     48.3410   8.2283164856e+01   5.5081882771e+01    0.4504641    0.3614835  21.97  0.001880412    1.424    0.298
        59 -11.1248    242.4993    189.5008   8.3820111997e+01   2.1374888094e+00    0.3073231    0.1690314  17.10  0.001838247    1.690    0.408
        60 -11.7354     68.2869     51.5936   9.3055293949e+01   5.9207284189e+01    0.3052447     0.236461  84.72  0.001351605    1.735    0.424
        61 -11.1392    245.3016    185.6923   8.2746077435e+01   2.1141372055e+00    0.3073146    0.1624633   5.78  0.001697366    2.117    0.528
        62 -11.7246    227.6670    187.1036   8.5765527302e+01   4.5574058425e+00    0.4945583    0.3941175 -20.02  0.003401942    1.409    0.290
        63 -11.8410    195.6532    187.9237   9.1373928018e+01   9.4428951640e+00    0.3503441    0.2629358  49.41  0.001588152    1.564    0.360
        64 -14.2756     24.7822    186.7940   1.2674428542e+02   3.3909151125e+01    0.6874962    0.3334164  28.87  0.004045153    2.091    0.522
        65 -10.2462    206.2194     19.7194   4.8931316407e+01   3.0181976786e+01    0.1596451    0.1489174  -8.62  0.000273126    1.129    0.114
        66 -14.4394     23.7147    180.6355   1.2668905107e+02   3.5182160241e+01    0.7535183    0.4179349  33.80  0.004783933    1.680    0.405
        67 -11.7744    213.7088     16.0604   4.7138291648e+01   2.8672398955e+01    0.2030706    0.1844887 -39.50  0.001088371    1.033    0.032
        68 -13.0832    117.0912    138.5270   9.9418663816e+01   3.1278350155e+01    0.3943139    0.3196152 -86.31  0.001983791    1.433    0.302
        69 -15.1371    187.5482    159.4761   8.7910683059e+01   1.4643109817e+01     2.029987    0.9850519 -35.03  0.007414131    2.264    0.558
        70 -11.3055    249.9657    138.9732   7.3298467932e+01   6.3632822212e+00    0.3814919    0.1781704 -17.38  0.001851887    2.175    0.540
        71 -14.5635    235.4511    176.2058   8.2631638255e+01   4.5513836890e+00    0.8519025    0.6097362  25.98  0.004567939    1.168    0.144
