#   1 NUMBER                 Running object number                                     
#   2 MAG_AUTO               Kron-like elliptical aperture magnitude                    [mag]
#   3 X_IMAGE                Object position along x                                    [pixel]
#   4 Y_IMAGE                Object position along y                                    [pixel]
#   5 X_WORLD                Barycenter position along world x axis                     [deg]
#   6 Y_WORLD                Barycenter position along world y axis                     [deg]
#   7 A_WORLD                Profile RMS along major axis (world units)                 [deg]
#   8 B_WORLD                Profile RMS along minor axis (world units)                 [deg]
#   9 THETA_WORLD            Position angle (CCW/world-x)                               [deg]
#  10 FWHM_WORLD             FWHM assuming a gaussian core                              [deg]
#  11 ELONGATION             A_IMAGE/B_IMAGE                                           
#  12 ELLIPTICITY            1 - B_IMAGE/A_IMAGE                                       
         1 -14.0536    170.1861     51.7053   6.6338023272e+01   3.6285376093e+01     1.900623     1.271436  26.61  0.005444418    1.847    0.459
         2 -14.2783    184.3409     36.7646   5.8964710638e+01   3.4771600137e+01     1.095508     1.040614   2.26  0.003507876    1.089    0.081
         3 -13.6780    188.8172     30.6260   5.6302115321e+01   3.4396313477e+01    0.6788709     0.638896  65.00  0.001588992    1.037    0.036
         4 -13.4022    189.9419     14.5505   5.1119314384e+01   3.6000199275e+01    0.7276532    0.6395662  -9.26  0.002535331    1.232    0.188
         5 -14.6583    206.4717      5.6668   4.6361541948e+01   3.2571331864e+01     1.897387     1.391243  11.75   0.00562611    1.705    0.413
         6 -10.9089    107.9967      1.9908   6.1688093226e+01   5.7537754580e+01    0.3570644    0.1813235  73.11  0.001408065    3.304    0.697
         7 -11.6074    204.1304    199.7943   9.5249381979e+01   3.6138537061e+00    0.3717253    0.1493921  38.15  0.001615588    2.313    0.568
         8 -13.0105    247.5013    246.5928   9.5441872638e+01  -8.8385866910e+00    0.5485769     0.438147  -5.43  0.004366662    1.378    0.274
         9 -10.7711     69.8670    218.9286   1.2128296536e+02   2.2631291276e+01    0.3149121    0.1265617  65.16  0.001182666    2.658    0.624
        10 -10.3285     98.0554    213.8165   1.1607583410e+02   1.9588877483e+01    0.1862636    0.1456332  88.12  0.001008854    1.206    0.171
        11 -12.5864     57.7693    213.4229   1.2283279184e+02   2.5113625713e+01    0.2729171    0.1659719  50.82 0.0009972061    1.435    0.303
        12 -12.2119     65.8934    199.8264   1.2032957344e+02   2.6525404098e+01    0.2230539    0.1846878 -73.53 0.0005274845    1.401    0.286
        13 -12.0006     66.9108    195.6657   1.1977010120e+02   2.7162913570e+01    0.3541998    0.1572245  61.85  0.001648544    2.184    0.542
        14 -11.0349    159.9544    197.2888   1.0284175415e+02   1.2103787214e+01    0.1908825    0.1560226  67.56 0.0004026844    1.234    0.190
        15 -10.8047     81.9706    195.0007   1.1699138442e+02   2.5257172158e+01     0.250557    0.2297558  75.27  0.001420112    1.313    0.238
        16 -10.5541    207.5104    193.9055   9.3643578526e+01   3.8002909162e+00    0.1734173     0.127145 -33.41 0.0008117702    1.559    0.359
        17 -13.1656    150.5415    189.9524   1.0348643229e+02   1.5028287408e+01    0.6341262    0.4164281 -89.67  0.002600685    2.320    0.569
        18 -11.3821    154.9865    187.5025   1.0226121699e+02   1.4632364279e+01    0.3111911    0.2294939  73.98  0.001331943    1.556    0.357
        19 -10.1466     60.1263    188.6054   1.2033416153e+02   2.9355503998e+01    0.2124714    0.1337975 -82.04 0.0009179716    1.396    0.284
        20 -12.7807    135.7827    185.3157   1.0561022579e+02   1.8486624338e+01     0.428285    0.2225135  54.81  0.001771824    1.822    0.451
        21 -11.8529    149.0487    180.1894   1.0223676668e+02   1.7001279708e+01    0.3579901    0.2491495 -89.64  0.001307366    1.957    0.489
        22 -11.8969     99.1003    180.8836   1.1212649610e+02   2.5412562203e+01    0.2927674    0.2411826  37.01  0.001616677    1.485    0.327
        23  -9.1301    198.6982    178.2818   9.2427338857e+01   7.7571927396e+00    0.1249756    0.1035188  75.48 0.0002433218    1.550    0.355
        24  -9.7396    169.2045    178.1652   9.7982965370e+01   1.3532984848e+01    0.1803269    0.1502239  75.15 0.0004212235    1.338    0.253
        25 -10.7179    204.4073    175.7959   9.0908235994e+01   7.0155904301e+00    0.4182291    0.2075663 -51.51  0.001750961    2.932    0.659
        26  -9.4135     69.4788    172.9858   1.1697206957e+02   3.1212917775e+01    0.1663634    0.1020388 -75.66  0.000454397    1.480    0.324
        27 -10.0373     66.0756    171.1253   1.1743283008e+02   3.2029905699e+01    0.2654375     0.136648  64.82 0.0006841301    1.990    0.498
        28 -10.6853    164.8073    171.2575   9.7617873271e+01   1.5579221010e+01    0.2127027    0.2059323  86.50 0.0003497699    1.105    0.095
        29 -10.0280    200.7949    168.5643   9.0183215560e+01   8.8484453399e+00    0.2593938     0.221819  73.06 0.0009014238    1.433    0.302
        30 -10.3139    204.9379    166.8824   8.9079381579e+01   8.2774208731e+00    0.2821226    0.2080797  31.29  0.001021352    1.301    0.231
        31 -11.5617    192.9080    164.9970   9.0972385675e+01   1.1017115983e+01    0.4272168    0.2956008 -55.34  0.001690772    1.814    0.449
        32 -11.3514     64.6822    208.6453   1.2130026421e+02   2.5088771244e+01    0.3239215    0.2944749 -59.09  0.001889078    1.683    0.406
        33 -12.4172     72.7612    212.2593   1.2024440348e+02   2.3401560524e+01     0.218887    0.1607432  71.27 0.0004952177    1.024    0.023
        34 -10.9095     76.4511    207.3308   1.1917595551e+02   2.3776086863e+01     0.346814    0.1862238 -64.68  0.001531247    1.931    0.482
        35  -9.7523      6.9152    161.0847   1.2787004659e+02   4.0237757354e+01    0.1337628    0.1034254 -66.24 0.0003673096    1.488    0.328
        36 -19.0685     26.1246    101.5666   1.1761983068e+02   5.1140708551e+01     14.57248    0.8541071 -67.25   0.02848324   13.129    0.924
        37 -11.3044    189.1225    154.8437   8.9654222063e+01   1.3499364760e+01    0.4752466    0.3840874  61.42  0.002509608    1.326    0.246
        38 -12.8402     99.6439    152.7676   1.0800751580e+02   3.0988310821e+01    0.5579792    0.4265434 -40.86  0.003184402    1.677    0.404
        39 -11.7320    133.9021    145.5374   9.9244886529e+01   2.6478073346e+01     1.152806    0.2901222 -55.63  0.002995065    5.908    0.831
        40 -10.7321    174.3967    148.6681   9.1307910914e+01   1.7686045291e+01    0.3229506    0.2722659 -86.30  0.001125804    1.427    0.299
        41 -10.1717    161.4632    149.1511   9.4071953944e+01   2.0288985588e+01    0.2729355    0.1839668  82.38  0.001179334    2.304    0.566
        42 -10.7863    143.6588    146.0983   9.7235452911e+01   2.4473190651e+01    0.3209163    0.1735023 -60.30    0.0013547    2.226    0.551
        43 -12.1591     10.9879    206.5994   1.2985627341e+02   3.1384001026e+01    0.3856205    0.2456948  39.63   0.00299791    1.910    0.476
        44 -12.2802    109.4385    139.1189   1.0349660178e+02   3.2251071482e+01    0.5564083    0.3380739 -36.11  0.002528547    2.342    0.573
        45 -12.6073     98.5288    138.4307   1.0586577451e+02   3.4208800054e+01    0.2615135    0.2428421  76.88 0.0002587442    1.102    0.092
        46 -10.4005    113.1021    150.9723   1.0478319365e+02   2.9133029403e+01    0.2916255    0.1711216 -74.96  0.001338174    2.120    0.528
        47  -9.9836    141.5870    138.2473   9.6097722945e+01   2.6459168656e+01    0.1981905    0.1356937 -38.86  0.000950646    1.639    0.390
        48 -11.6239    105.9660    130.8297   1.0273896325e+02   3.4619302046e+01    0.3852687    0.2906604 -72.66  0.001158453    1.317    0.240
        49 -11.5011    104.2665    125.5072   1.0209848990e+02   3.6059086312e+01    0.2569032    0.2433649  -6.18 0.0005710839    1.316    0.240
        50 -10.8196    135.6191    128.2376   9.5312754128e+01   2.9698227923e+01    0.5533077    0.1344521 -51.63  0.001505249    4.747    0.789
        51 -11.0579    116.3614    129.4037   1.0001796740e+02   3.3106052671e+01    0.2873126    0.2449222 -39.51 0.0006881782    1.321    0.243
        52 -10.4439    160.5387    127.3860   8.9555582261e+01   2.4685977505e+01    0.3808343    0.2402772 -64.88   0.00159299    2.151    0.535
        53 -10.3928    120.8139    123.5396   9.7741921414e+01   3.3540523802e+01    0.2869088    0.1815497 -35.44  0.001091636    1.962    0.490
        54  -9.8327    135.0000    119.9336   9.3598254264e+01   3.1548710877e+01    0.2410362     0.081689 -47.18 0.0007998312    2.924    0.658
        55  -9.6234    153.0142    119.4995   8.9369030328e+01   2.7876577672e+01    0.2227915    0.1452288  48.82 0.0004723459    1.521    0.342
        56 -10.1651    111.1255    118.7653   9.9040570883e+01   3.6331788850e+01    0.2024755    0.1786328  87.34 0.0003951659    1.133    0.117
        57 -10.3470    167.9841    112.8878   8.4443358863e+01   2.5856975983e+01    0.3102637    0.2430115  88.10  0.001009043    1.649    0.394
        58 -10.4128    134.6384    105.6346   9.0241151511e+01   3.4598842154e+01    0.4687414    0.1302317 -48.96  0.001361209    3.797    0.737
        59 -10.5651    205.4486    110.1567   7.6143234395e+01   1.7616023971e+01    0.3410349    0.2119382  41.94  0.001012695    1.635    0.389
        60 -11.1085    118.9578    109.3489   9.4983626842e+01   3.6920640581e+01    0.5599818    0.3159219  48.23  0.002498649    1.846    0.458
        61 -10.8615     87.3887    202.5677   1.1679758769e+02   2.3107463402e+01    0.3800096    0.2442837  68.49  0.002426071    1.354    0.261
        62  -9.3958    127.9706     94.9743   8.9112015661e+01   3.8174987858e+01    0.1779483    0.1705558  54.57 0.0007817631    1.081    0.075
        63  -9.6293    152.2288     80.7616   7.9233649277e+01   3.5676656881e+01    0.2079596    0.1795996   8.45 0.0005343181    1.308    0.235
        64  -9.3348     74.4979     73.5827   9.8017666053e+01   5.1950183764e+01    0.1322658    0.1163933 -47.37 9.510385e-05    1.014    0.014
        65 -12.4784    168.0986     67.8966   7.1839928751e+01   3.4164441814e+01     1.131715    0.6190579 -66.41  0.001131944    3.982    0.749
        66 -11.9185    193.4567    195.4171   9.6416198952e+01   6.2032703551e+00     1.049589    0.5833498 -67.90  0.003509791    5.985    0.833
        67 -17.9899     49.5478    241.2978   1.2598562248e+02   2.1488486606e+01     7.224707      5.84523  74.26   0.06376363    1.321    0.243
        68  -9.2521    168.6049    234.5250   1.0645743425e+02   5.1626672415e+00    0.1146028   0.09014545  48.39 4.362867e-05    1.025    0.024
        69 -12.0855     72.2273    230.2679   1.2179527651e+02   2.0437318854e+01    0.2349553    0.1241409  58.28 0.0003934969    1.449    0.310
        70 -10.8004      9.0569    227.2599   1.3110776646e+02   2.8068953045e+01    0.1000399   0.07299381  43.06 0.0008471743    1.794    0.443
        71 -10.3291     91.9603     14.1533   7.1315829327e+01   5.9433578352e+01    0.2137861    0.1943678  53.05 0.0008384569    1.355    0.262
        72  -9.9422     96.5618     15.8284   7.0691675308e+01   5.8335287321e+01    0.2018453    0.1776193  48.64 0.0003163142    1.305    0.234
