#   1 NUMBER                 Running object number                                     
#   2 MAG_AUTO               Kron-like elliptical aperture magnitude                    [mag]
#   3 X_IMAGE                Object position along x                                    [pixel]
#   4 Y_IMAGE                Object position along y                                    [pixel]
#   5 X_WORLD                Barycenter position along world x axis                     [deg]
#   6 Y_WORLD                Barycenter position along world y axis                     [deg]
#   7 A_WORLD                Profile RMS along major axis (world units)                 [deg]
#   8 B_WORLD                Profile RMS along minor axis (world units)                 [deg]
#   9 THETA_WORLD            Position angle (CCW/world-x)                               [deg]
#  10 FWHM_WORLD             FWHM assuming a gaussian core                              [deg]
#  11 ELONGATION             A_IMAGE/B_IMAGE                                           
#  12 ELLIPTICITY            1 - B_IMAGE/A_IMAGE                                       
         1 -15.7866    247.2211     62.5040   1.7494305205e+00   1.8938027117e+01     4.718567     1.580181 -57.73   0.01315831    5.477    0.817
         2 -16.2703    209.6829    107.8756   1.6145368636e+01   1.8994638928e+01     4.690653     3.516073  -4.79   0.02613467    1.666    0.400
         3 -16.7031    248.7013     33.4085   3.5542148553e+02   2.2257855431e+01     5.506512     1.454232 -30.68   0.02274171    3.143    0.682
         4 -15.4462      6.7015    120.2309   7.5982554639e+01   5.0271627351e+01     2.623545     1.011847 -84.12   0.00750359    2.374    0.579
         5 -17.6348     14.0504     16.3689   4.7519947109e+01   7.5889825372e+01     3.284391     2.158682 -27.21   0.01845116    1.505    0.335
         6 -16.9456    241.9960    112.0238   1.2751540793e+01   1.2955878880e+01     5.331878     1.738848  40.80   0.01417918    4.857    0.794
         7 -14.9198    193.7562    107.1481   1.8433451495e+01   2.2077937433e+01     1.352537     1.051855  59.35  0.007621151    1.507    0.336
         8 -11.3916    244.8195    220.4509   3.1900546403e+01  -1.9812865032e+00    0.3756577    0.1841024  39.90  0.002127516    2.910    0.656
         9 -14.7614    247.3217    245.7683   3.5212513376e+01  -4.9996834048e+00     1.158675      0.72203  18.20  0.005985138    1.411    0.291
        10 -13.9212    247.5609    230.2340   3.2957908567e+01  -3.3547647122e+00    0.8487861    0.4631371  15.75  0.004641199    1.640    0.390
        11 -14.7483    205.0731    244.4118   4.1685791259e+01  -7.5477455491e-01     1.327512    0.7998198  22.16   0.00783557    1.385    0.278
        12 -11.4500    246.8373    209.6658   2.9935079035e+01  -9.1498432359e-01    0.2039982    0.1775651  26.52 0.0007094574    1.718    0.418
        13 -10.4003    187.4212    210.2306   3.9825979237e+01   5.8646424798e+00    0.1494939    0.1097443 -46.10 0.0009407679    1.680    0.405
        14 -12.7907    178.6132    167.5560   3.4155276525e+01   1.4049417582e+01    0.8345749    0.6857522 -71.05  0.004765233    1.784    0.440
        15 -11.8972    186.7421    163.1073   3.1746263931e+01   1.3548749102e+01    0.4502917     0.247547 -26.60  0.001591922    1.980    0.495
        16 -13.7387    192.8721    166.1791   3.1202522823e+01   1.2083261283e+01    0.7208173    0.5977092 -41.24  0.001752947    1.282    0.220
        17 -12.5769    200.3029    165.1520   2.9678381010e+01   1.1134674770e+01    0.3645023    0.2996251  -6.80  0.001133402    1.110    0.099
        18 -12.1043    201.2179    161.5538   2.8828921220e+01   1.1582130110e+01    0.3255396    0.2451893  22.55  0.001213209    1.377    0.274
        19  -9.3179    110.4881    167.5177   4.9640393521e+01   2.5139312836e+01    0.1422577    0.1346748  46.14 0.0002854573    1.033    0.032
        20  -9.7278    141.9646    164.4622   4.1373044553e+01   2.0612324953e+01    0.1923119    0.1334023  36.41 5.461348e-05    1.414    0.293
        21 -12.1206    248.3159    203.6895   2.8770141144e+01  -3.4818823572e-01    0.2670631    0.2188378  36.39  0.001826509    1.862    0.463
        22 -12.7857    190.4408    152.9705   2.9059509023e+01   1.4706221481e+01    0.6264781    0.4698727 -41.75  0.003008723    1.294    0.227
        23 -12.2441    182.0380    150.7433   3.0177150215e+01   1.6481800735e+01    0.3594708    0.3075658 -38.47  0.001233676    1.148    0.129
        24 -12.6334    134.3009    107.4353   3.0502191881e+01   3.4228506998e+01     1.384668    0.3189558 -48.50   0.00351921    4.675    0.786
        25 -13.0042    135.3499    123.8954   3.4360836343e+01   3.0452467546e+01     1.713561    0.3188172 -49.21  0.003928999    5.954    0.832
        26 -13.1262    149.0758    146.5055   3.6169404912e+01   2.3054985040e+01     1.186527      0.52359  33.81  0.003377049    2.580    0.612
        27 -12.3610    133.1507    143.3264   3.9268839524e+01   2.6625653543e+01      1.22314    0.3104761 -54.89  0.002852526    6.395    0.844
        28 -13.7689    140.1263    140.9467   3.7068690268e+01   2.5854501174e+01     1.159994    0.6932981  33.03  0.003191907    1.807    0.447
        29 -12.9320    164.4479    143.5790   3.2195582906e+01   2.0870028412e+01    0.4666065    0.3319587 -50.77  0.001791445    1.460    0.315
        30 -12.2914    159.0211    143.9982   3.3437580288e+01   2.1764602464e+01    0.3720739    0.3286791 -33.48 0.0009051678    1.077    0.071
        31 -11.8566    184.8438    169.1311   3.3254109434e+01   1.2809952071e+01    0.6607135    0.3069163 -54.56  0.002559731    3.488    0.713
        32 -10.8347    214.8931    147.8288   2.3855073096e+01   1.1709173965e+01    0.2352366     0.150815 -54.78  0.001047175    2.091    0.522
        33 -11.5696     68.0293    137.4963   5.6761375616e+01   3.9100948121e+01    0.6904127    0.4031786 -48.62  0.002983428    1.814    0.449
        34 -11.5696     69.3243    145.6585   5.7702215019e+01   3.6792533515e+01    0.3836913    0.3159203  70.46   0.00129319    1.222    0.181
        35 -11.9513     66.3173    143.6627   5.8325634946e+01   3.7736691033e+01    0.4478107    0.3088133  80.91  0.001950424    1.655    0.396
        36 -12.5072    192.5434    194.7804   3.6383811997e+01   7.5338929201e+00     0.838226    0.4372077 -59.03  0.003065741    5.363    0.814
        37 -15.6305    248.7979     88.7990   7.1694810233e+00   1.5156497600e+01      1.40274    0.8198088 -28.14   0.00555162    1.518    0.341
        38 -11.9596    142.3844    126.5114   3.3281724402e+01   2.8499115853e+01    0.2939883    0.2735109 -19.03 0.0006653771    1.103    0.093
        39 -12.9805     66.4111    114.3784   5.2898963601e+01   4.5440835242e+01     1.036252    0.9654965  26.30  0.005582865    1.159    0.137
        40 -12.8242     36.9755    119.1136   6.4571457835e+01   4.8013486219e+01    0.4548441    0.3415906  22.75 0.0009195717    1.461    0.315
        41 -13.6724     53.6502    120.4120   5.8663354133e+01   4.5653057203e+01    0.6873645     0.608016 -45.21  0.001592768    1.207    0.172
        42 -14.3455     45.4141    118.3815   6.1317821506e+01   4.7248119155e+01     1.173669    0.9547728 -13.01  0.004013992    1.518    0.341
        43 -13.4370    174.7378    109.5754   2.2335610382e+01   2.5383788400e+01    0.6017659    0.4825494  44.51  0.002047774    1.368    0.269
        44 -11.7313    148.0179    111.1557   2.8226468929e+01   3.0565366969e+01    0.3244267    0.2444161  52.08 0.0006986078    1.411    0.291
        45 -13.1511    158.3514    109.9366   2.5670924769e+01   2.8661884632e+01    0.5369253    0.4068068  37.99  0.002703942    1.456    0.313
        46 -13.0860    157.0478    103.7756   2.4371647434e+01   3.0141864322e+01    0.7216653    0.2936997 -43.83 0.0006979834    2.295    0.564
        47 -12.0588    125.4925    105.6581   3.2270896235e+01   3.6477722563e+01    0.3211275    0.2660664 -73.26  0.001006025    1.334    0.250
        48  -9.7899    108.6833    106.7155   3.7208793100e+01   3.9726010948e+01    0.1528308    0.1253125  -6.03 0.0003059306    1.584    0.369
        49 -11.2769    141.7588    103.0880   2.7564051710e+01   3.3550287301e+01    0.2986497    0.2687907  89.00   0.00063305    1.203    0.168
        50 -13.3510    173.2450    100.7336   2.0413669262e+01   2.7311377765e+01    0.4219134     0.351524 -35.75 0.0008728651    1.126    0.112
        51 -10.8121    118.6892     91.4331   3.0118697963e+01   4.1053537871e+01    0.3210976    0.2327933 -70.37  0.001281421    1.664    0.399
        52 -10.3831    113.4828     95.0438   3.2611817011e+01   4.1392218303e+01    0.2342869     0.150804 -46.28 0.0004313938    1.517    0.341
        53 -14.4774    225.4912    106.0710   1.3560141203e+01   1.6510159481e+01    0.9962876    0.7215834  11.43  0.001751018    1.927    0.481
        54 -15.6964    246.2672    137.9716   1.7401514532e+01   8.6232365472e+00     2.201453     1.235244 -34.63  0.006755272    1.396    0.284
        55 -12.1782    218.3469     82.7003   9.2066150297e+00   2.1315130535e+01    0.4137093    0.3043267  44.83 0.0007295247    1.694    0.410
        56 -10.7341    225.8424     78.5905   7.3914094688e+00   2.0530280312e+01    0.2780576    0.1756893 -30.09 0.0005691103    1.434    0.303
        57  -9.7759    196.6203     85.2190   1.2685450390e+01   2.5162008496e+01    0.1919865    0.1196156 -29.39 0.0006477016    1.582    0.368
        58 -15.7745    222.9392    175.6061   2.7840634007e+01   6.3642213962e+00     3.720438     1.888959 -17.56  0.009552051    2.409    0.585
        59 -10.3887    181.0634     63.4803   9.2768168578e+00   3.1925722578e+01    0.2494702    0.2153928  59.10 0.0007503658    1.294    0.227
        60 -11.4109    184.9724     61.6190   8.2274925962e+00   3.1338313882e+01    0.2480472    0.2063156 -46.00  0.000255448    1.067    0.063
        61  -9.9429    160.5613    197.8081   4.3095934046e+01   1.1465723909e+01    0.1650095    0.1229469 -58.91 0.0009383505    1.783    0.439
        62  -9.5060    204.9942     54.9967   4.0600627166e+00   2.7979539025e+01    0.1534767    0.1231429 -46.90            0    1.046    0.044
        63  -9.9707    188.3684     51.8645   5.1618423617e+00   3.2010568485e+01    0.1902074    0.1234442 -22.49 0.0009361999    1.758    0.431
        64 -10.2970    175.7379     51.9797   6.8228085049e+00   3.4864886362e+01    0.2036196    0.1738482 -44.61  0.001112767    1.097    0.088
        65 -10.8525    207.2288     51.0000   2.8227339962e+00   2.8062067476e+01    0.1886779     0.177803 -30.50 0.0005070343    1.234    0.190
        66  -9.8167    201.3397     47.7510   2.6139560588e+00   2.9744705337e+01     0.170442    0.1137038 -27.13 0.0002485081    1.537    0.349
        67 -10.0757    186.8859     46.1575   3.7940789501e+00   3.3138506526e+01    0.1694828    0.1614853  -6.89 0.0004778932    1.289    0.224
        68 -10.5900    179.4989     42.5188   3.6629989933e+00   3.5322948906e+01    0.2389955    0.1337297 -18.36  0.001033896    2.366    0.577
        69  -9.7591    190.4306     36.5031   7.8927442901e-01   3.3616889473e+01    0.1298693    0.1169998 -53.20 0.0001498313    1.108    0.097
        70 -10.6116    149.0072     33.3118   4.9230290364e+00   4.3917209414e+01    0.2036352    0.1785019  89.13 0.0009691608    1.084    0.078
        71  -9.5264    204.2852     31.6662   3.5822900327e+02   3.1172302535e+01    0.1392346   0.07625438 -55.96 0.0007012711    1.621    0.383
        72 -12.2133    113.2497     27.9978   9.2878081944e+00   5.3682272336e+01    0.3033114    0.2288329  -8.49  0.001527899    1.645    0.392
        73 -10.0709    190.9916     18.7579   3.5595820368e+02   3.5604595094e+01    0.1928152    0.1310838  43.03  0.001036092    2.024    0.506
