#   1 NUMBER                 Running object number                                     
#   2 MAG_AUTO               Kron-like elliptical aperture magnitude                    [mag]
#   3 X_IMAGE                Object position along x                                    [pixel]
#   4 Y_IMAGE                Object position along y                                    [pixel]
#   5 X_WORLD                Barycenter position along world x axis                     [deg]
#   6 Y_WORLD                Barycenter position along world y axis                     [deg]
#   7 A_WORLD                Profile RMS along major axis (world units)                 [deg]
#   8 B_WORLD                Profile RMS along minor axis (world units)                 [deg]
#   9 THETA_WORLD            Position angle (CCW/world-x)                               [deg]
#  10 FWHM_WORLD             FWHM assuming a gaussian core                              [deg]
#  11 ELONGATION             A_IMAGE/B_IMAGE                                           
#  12 ELLIPTICITY            1 - B_IMAGE/A_IMAGE                                       
         1 -12.6144    150.7242     57.5235   4.1964126893e+01   3.9697645069e+01     0.497942    0.3078056 -52.65 0.0002130854    1.782    0.439
         2 -12.1574     90.6578     42.6052   5.1624768656e+01   5.5023853006e+01    0.6566613    0.3208582 -42.21  0.001946404    2.432    0.589
         3 -12.2572    140.2560     37.9068   3.8522769294e+01   4.4704874884e+01    0.3899639     0.306723   0.28  0.000285768    1.694    0.410
         4 -11.7504     54.2393     34.3499   6.1092286687e+01   6.2863488147e+01    0.5710345    0.2681532 -39.11  0.001294133    2.382    0.580
         5 -10.5954    180.2153     29.6107   3.0435935933e+01   3.6681105304e+01    0.6953638    0.2931651 -40.85  0.003375733    2.321    0.569
         6 -10.7296    179.4000     21.5318   2.8678622643e+01   3.7761795132e+01    0.3995921    0.2632764 -78.86   0.00238404    1.476    0.322
         7 -10.4828     40.2660     16.7412   5.9515966191e+01   6.7262650587e+01    0.8615194    0.4247699  22.94  0.004402396    2.076    0.518
         8 -11.9938     46.0133      9.2264   5.3732114724e+01   6.7138853344e+01    0.2640221    0.1966509  15.58 0.0003163579    1.119    0.107
         9 -11.7656      7.3977     21.4287   7.8269506657e+01   7.0637838072e+01    0.9112799    0.4699416 -14.78  0.005106516    1.898    0.473
        10 -11.2927     36.7534      2.4775   5.4427597076e+01   6.9272496646e+01     1.900246    0.1993569  44.24  0.005687564    6.323    0.842
        11 -11.4021     14.5873     25.9198   7.6179619534e+01   6.9295725978e+01    0.7226276    0.5181544  14.89  0.004895872    1.285    0.222
        12  -9.9778     39.8285      9.0016   5.6185399924e+01   6.8161853447e+01    0.2697739    0.1692429   9.41  0.000462207    1.536    0.349
        13 -12.5389     15.5126     13.9130   7.0385020295e+01   7.0884026978e+01    0.7157896    0.3068973  19.26 0.0009636649    2.320    0.569
        14 -10.4635     24.4991     13.0140   6.5229097689e+01   6.9919423085e+01    0.2671917    0.1742427 -13.00 0.0005053698    1.386    0.278
        15 -11.5421     28.5463     18.5829   6.5775606863e+01   6.8707291289e+01    0.8760059    0.5062373 -12.92  0.004425244    1.760    0.432
        16 -11.2904     32.0672      9.5114   5.9892378125e+01   6.9282059536e+01    0.8005257    0.4597935  45.17  0.004663315    2.008    0.502
        17 -12.1183      3.8782      3.8961   7.2250368405e+01   7.3363210833e+01     0.832462    0.3427491  25.22   0.00470885    2.124    0.529
        18 -12.6839     30.6500     30.8819   7.0054599396e+01   6.6762121015e+01    0.3644907    0.2486368 -30.78 0.0003867197    1.428    0.300
        19 -10.2800    221.5720     15.3881   2.3445580344e+01   2.9689051343e+01    0.2979449    0.2071848  61.52  0.002040965    1.644    0.392
        20  -9.8816    247.0483     14.2944   2.1458812930e+01   2.5049229158e+01    0.2240862    0.1500731 -67.17 0.0005589839    1.117    0.105
        21 -12.0694    238.9542     19.6207   2.2926856031e+01   2.5917847698e+01    0.7193583    0.4916772 -68.92  0.002181579    1.130    0.115
        22 -10.4693    223.2420     21.8566   2.4530906810e+01   2.8640096698e+01    0.3998968    0.2393923 -60.04  0.002087245    1.413    0.292
        23 -10.8431    226.8580     17.9409   2.3514900711e+01   2.8383997687e+01    0.3021941    0.2443857  25.78  0.001624523    2.285    0.562
        24  -8.6190     72.1961      8.1595   4.4291708821e+01   6.2458331189e+01    0.3404996    0.2298159  89.28  0.001729332    2.932    0.659
        25 -10.1133     76.1796     13.3770   4.5170267624e+01   6.1214939271e+01    0.2768006    0.1983139  -1.17 0.0006845613    1.552    0.356
        26 -10.4552     74.9238     20.1154   4.8146491882e+01   6.0813157387e+01    0.3227852    0.2380325 -40.70 0.0008107004    1.737    0.424
        27 -10.4044     66.1195     22.2633   5.1845909254e+01   6.2264959451e+01    0.3955561    0.2781074  -9.54 0.0002815857    1.519    0.342
        28 -10.6467    164.4241     22.2290   3.0661919225e+01   4.0996346040e+01     0.375553    0.2609594  47.00  0.001570482    1.608    0.378
        29 -11.9115     55.6513     19.3187   5.4391452832e+01   6.4463538425e+01    0.5227803    0.2667116  25.11 0.0009023586    2.069    0.517
        30 -11.4101     58.8110     12.5830   5.0403499627e+01   6.4593013901e+01    0.6570314    0.2922187  43.77  0.003239145    1.813    0.448
        31  -9.5661     98.1024      7.4762   3.7504108097e+01   5.7161577108e+01    0.2861351    0.1720504  34.90   0.00162996    1.665    0.399
        32 -11.2595    100.3252     15.6106   3.9774781046e+01   5.5990109757e+01    0.8460018    0.3771878  58.57  0.004108394    1.875    0.467
        33 -10.4556     91.3281      9.6065   3.9783749731e+01   5.8431489221e+01    0.4192354    0.3086748  32.29  0.002091999    1.290    0.225
        34 -11.2590     89.2503      3.2831   3.8016407487e+01   5.9365137689e+01    0.4322393    0.2526774  62.29  0.002289859    1.493    0.330
        35 -12.1565    111.1467     19.6010   3.8729795903e+01   5.3253332577e+01    0.4711398    0.3464121   8.06  0.002804614    1.698    0.411
        36 -10.8921    193.0155     17.3443   2.6320096171e+01   3.5285172747e+01    0.3105315    0.2326321  55.98  0.001531119    1.517    0.341
        37  -9.4795     88.1370     19.0918   4.3986556301e+01   5.8247398557e+01    0.3244772    0.2000887 -50.86  0.001696321    2.386    0.581
        38  -9.6801     85.9766     14.5788   4.2915846757e+01   5.9118520511e+01    0.3806577    0.2473996  88.56  0.001867552    2.773    0.639
        39 -10.6496     81.1523     19.5869   4.6095488995e+01   5.9628572539e+01    0.2723552    0.2187453 -33.99 6.714462e-05    1.505    0.335
        40  -9.6290    153.6861      3.3256   2.7325931222e+01   4.5183328516e+01    0.3595576    0.2211026  32.14  0.002009766    2.351    0.575
        41 -11.3828    151.5242     17.7082   3.1258784805e+01   4.4354191847e+01    0.5751381     0.300319  50.73  0.002471134    1.872    0.466
        42  -9.7303    149.2663     11.9449   3.0075291895e+01   4.5410849134e+01    0.2225776    0.1558779  57.71 0.0001756705    1.297    0.229
        43 -10.3003    156.6228      9.8173   2.8585719741e+01   4.3960896196e+01    0.2536739    0.1696792 -47.49 0.0006584738    1.600    0.375
        44 -10.5386    153.0768      9.6996   2.9000776943e+01   4.4762463995e+01     0.253494    0.1741928  76.03  0.000324742    1.223    0.182
        45  -9.2170    176.3271     12.1200   2.6874300592e+01   3.9400413218e+01    0.2265324    0.1699729 -59.70 0.0003143999    1.298    0.229
        46 -12.5449    187.1127     13.6751   2.6112730549e+01   3.6920756649e+01     0.283734    0.2541754  79.40 0.0003826829    1.214    0.176
        47 -12.1557    182.1860     12.4709   2.6343266058e+01   3.8098018921e+01    0.6061351     0.342374  47.11  0.002297152    2.231    0.552
        48 -10.1005    143.1593     12.3180   3.1022401366e+01   4.6749358107e+01    0.3754529    0.2725106  18.33  0.001586723    1.934    0.483
        49 -10.0998    116.7856      8.7022   3.4215367292e+01   5.2974775587e+01     0.240387    0.1718116  81.40 0.0006328411    1.427    0.299
        50  -9.0654    126.2602     14.9985   3.4436745818e+01   5.0311111026e+01    0.1922006    0.1798131 -64.83  0.000575518    1.216    0.178
        51 -10.4746    131.4689     13.3869   3.3098509793e+01   4.9285566138e+01    0.3159103    0.2247074  77.98  0.001149997    1.306    0.234
        52 -11.8471    122.9599     11.1015   3.3854236456e+01   5.1396724650e+01    0.5567504    0.2424507  47.95  0.001178326    2.083    0.520
        53 -12.1816    128.0857      4.4019   3.1065528592e+01   5.0804595383e+01    0.4454022    0.3311934  74.09  0.001337898    1.153    0.133
        54 -10.5300    136.9502      1.8705   2.9077654833e+01   4.9025786089e+01    0.6419261    0.1659503  69.31  0.002464002    3.268    0.694
        55 -10.7533    200.7816     12.2127   2.4534224735e+01   3.4201824559e+01    0.2550405    0.1588286 -49.08 0.0006777455    1.515    0.340
        56 -10.9551    200.0139      4.9817   2.3138677204e+01   3.5086265667e+01    0.9470255     0.341803 -85.87   0.00364771    4.217    0.763
        57  -9.8690    204.8333      3.3510   2.2433019681e+01   3.4262859737e+01    0.2884616    0.1924074  47.92  0.001128193    2.074    0.518
        58 -11.2089    208.7026     10.3657   2.3499993945e+01   3.2776970427e+01    0.4823888    0.3531454  34.72  0.001107077    2.318    0.569
        59 -11.2363    216.2853      7.3942   2.2343282489e+01   3.1572172724e+01    0.2902424    0.2385219  62.72 0.0005452184    1.505    0.336
        60 -10.6964    218.1627      3.0744   2.1402528645e+01   3.1641446517e+01    0.2941828    0.1788512  80.93 0.0007333413    1.399    0.285
        61  -9.9001    238.2986      6.9814   2.0765687447e+01   2.7427406003e+01    0.2909439    0.1317762 -66.10  0.001239055    1.946    0.486
        62 -10.8084    168.0533      5.9253   2.6333122150e+01   4.1790266004e+01    0.3526653    0.2894727 -24.71   0.00135116    1.572    0.364
        63  -8.5218    137.7425      8.3495   3.0729687504e+01   4.8317336802e+01    0.1181488   0.08254621 -69.16 0.0006965356    1.601    0.375
        64  -8.8144    111.5376      7.4926   3.4801528468e+01   5.4233973690e+01    0.2336672    0.1306862  65.56 0.0009454795    1.521    0.342
        65 -10.0103    104.6969      7.5179   3.6139674607e+01   5.5731158025e+01    0.4438405    0.2540689 -38.18 0.0003043492    2.107    0.525
        66 -10.5954    107.5685      4.2913   3.4530353551e+01   5.5355595756e+01    0.4993699    0.3039858 -65.07  0.002652679    2.425    0.588
        67  -8.6449    107.6892     10.7765   3.6598825915e+01   5.4809770499e+01    0.1480811    0.1097775 -34.18 0.0009231587    1.607    0.378
        68  -9.6341     78.3861      6.1033   4.1759201384e+01   6.1391193837e+01    0.2664248     0.180616  50.83 0.0009063047    1.200    0.167
        69  -9.1159    248.7388      5.9771   1.9964808446e+01   2.5652955232e+01    0.2207651   0.09874374 -63.76 0.0008240134    1.851    0.460
        70 -10.0913    245.4704      1.7835   1.9459214302e+01   2.6672520374e+01    0.3760111    0.1375038  78.78  0.002108068    2.495    0.599
        71  -8.8035    238.0224      1.4479   1.9835448085e+01   2.8052421155e+01    0.1840404   0.08190986  74.19 0.0007178461    2.018    0.504
        72  -9.7755    176.5425      3.8355   2.4989380014e+01   4.0136431492e+01    0.3368372    0.1806465 -62.10  0.001910015    1.904    0.475
        73  -8.6042    185.2540      4.4394   2.4299779027e+01   3.8218809346e+01    0.1506057   0.09132662  87.36 0.0004029315    1.412    0.292
        74  -9.9989     48.3008      2.5936   4.9840989666e+01   6.7352369566e+01    0.2113996    0.1730107  34.53 0.0007165708    1.185    0.156
        75  -9.4093    229.9848      2.0683   2.0435874509e+01   2.9479445487e+01      0.16056    0.1178655 -75.85 0.0003334189    1.004    0.004
        76  -9.4216    118.6306      1.4302   3.1692442930e+01   5.3134374117e+01    0.4919654    0.1413939  71.40  0.001767414    3.802    0.737
        77  -9.3439     64.2290      1.7715   4.4082956250e+01   6.4513377192e+01    0.1653768    0.1423374  38.80 0.0007886378    1.155    0.134
        78 -10.7620      8.1933      8.8683   7.2127397405e+01   7.2309287021e+01    0.2674595    0.1708827  -4.52 0.0003710987    1.258    0.205
        79 -10.5767     21.4620    105.1298   9.6064448206e+01   5.2717611653e+01    0.2939145    0.2730943  36.25 0.0004722787    1.282    0.220
        80  -9.9675      6.4489    109.5063   1.0235797903e+02   5.2646054700e+01    0.3676348    0.1954735 -67.16  0.001649655    1.615    0.381
        81 -10.2665      9.8995    107.5699   1.0078980812e+02   5.2918883252e+01    0.5241883    0.3061959 -78.04  0.002590641    1.825    0.452
        82 -10.2466    120.3250    107.9801   6.3045669633e+01   3.7291245224e+01    0.3366947    0.2655656  47.78 0.0003219965    1.304    0.233
        83  -8.3548    138.9996    107.9429   5.8112273387e+01   3.3369130181e+01    0.1806855    0.1701389 -40.70 0.0009558879    1.051    0.048
        84  -8.9585    102.4577    108.5335   6.8411516367e+01   4.0726032694e+01     0.284078    0.1470293  27.42  0.001033684    2.398    0.583
        85  -9.4299     58.2816    106.8056   8.2783520376e+01   4.8414471680e+01    0.2377017    0.1934188  36.80 0.0007187504    1.349    0.259
        86  -8.6061    152.2316    106.3913   5.4549298583e+01   3.0836397932e+01    0.1962026    0.1433585  60.08 0.0002741382    1.501    0.334
        87  -9.3773    127.0848    105.8823   6.0641752645e+01   3.6330913542e+01    0.2245854    0.2068272 -82.46  0.001169303    1.220    0.180
        88  -9.3154    131.3034    104.5979   5.9187804978e+01   3.5706485166e+01    0.2701373     0.189394  34.09 0.0004890442    1.521    0.343
        89 -11.5326    108.0609    103.1385   6.5254415733e+01   4.0817597758e+01    0.3359489    0.2733786  39.66  0.001675721    1.230    0.187
        90  -9.9615    112.4855    101.4534   6.3493666768e+01   4.0288478655e+01    0.2408367    0.1982908 -48.69 5.661177e-05    1.252    0.201
        91 -11.8036     80.8906    103.1437   7.3895503015e+01   4.5832710422e+01    0.3191845    0.2686107   4.35 0.0003605366    1.220    0.180
        92  -8.4301      1.7540    104.5907   1.0326954844e+02   5.4090759607e+01    0.1547671    0.1203946  26.93 0.0004460213    1.543    0.352
        93 -10.3529     61.8341    102.0871   8.0298536814e+01   4.9034256110e+01    0.2806214    0.2620792 -42.58 0.0005501749    1.117    0.105
        94  -9.7769     61.3623     95.9169   7.8829202431e+01   5.0512871106e+01    0.2099364    0.1959243  17.32  0.000366315    1.141    0.124
        95  -8.7308     93.7513    102.4112   6.9462786759e+01   4.3722880629e+01    0.2135917    0.1436399  25.09 0.0009466382    1.611    0.379
        96  -8.8839     55.0678    101.8420   8.2710256293e+01   5.0013040007e+01    0.4063595    0.1239973  41.18  0.001245372    4.110    0.757
        97 -10.7028    117.3285     97.9028   6.1130845805e+01   4.0033158812e+01    0.4374725    0.2811266 -46.35  0.001425734    1.589    0.371
        98  -9.6532    121.7724     94.8994   5.9069649546e+01   3.9708757916e+01    0.2994809    0.2278045  -4.04  0.001068344    1.701    0.412
        99 -12.4244    101.7269     97.5699   6.5611145395e+01   4.3252493619e+01    0.7472262    0.3760206  37.49 0.0003786887    2.006    0.502
       100  -9.6081     68.1706     99.1021   7.7223115304e+01   4.8789000134e+01    0.2554985    0.2071458  20.22 0.0008926441    1.242    0.195
       101  -9.2402     38.9911     98.5321   8.7952674403e+01   5.2695501593e+01    0.2832329     0.136515  22.72  0.001150308    2.211    0.548
       102  -8.9462     35.5857     95.7670   8.8607502206e+01   5.3695082894e+01     0.226869    0.1740633  61.58  0.001181994    1.841    0.457
       103 -10.1036     27.1379     97.0643   9.2203473334e+01   5.4184798377e+01    0.3012812     0.250716 -25.46 0.0004386125    1.108    0.097
       104  -9.4766     22.8498     96.2021   9.3688914727e+01   5.4746836143e+01    0.3690836    0.1690274 -44.59  0.001665241    1.835    0.455
       105  -8.9478     17.2849     98.2899   9.6290681910e+01   5.4673897757e+01     0.206756    0.1556319 -46.10 0.0001809788    1.101    0.092
       106  -9.3052     16.4891     95.4208   9.6015309737e+01   5.5410071592e+01    0.2337478    0.1814018 -36.62 5.712419e-05    1.109    0.098
       107  -8.9098     51.1922     97.1981   8.2966424207e+01   5.1589587812e+01    0.2105829    0.1707772 -26.01 0.0003806743    1.141    0.123
       108  -8.6049    144.6991     95.6592   5.3501124548e+01   3.4592804212e+01    0.1506741    0.1189916   3.43 0.0007037127    1.671    0.402
       109 -10.1040    137.4747     94.0017   5.4781489560e+01   3.6497141143e+01    0.3299459    0.2659896 -18.04 0.0008341289    1.442    0.306
       110  -8.4355     69.5062     95.4872   7.5751439927e+01   4.9393851123e+01    0.1485015    0.1345177 -15.27 0.0008105099    1.008    0.008
       111  -8.9208     84.7179     86.6647   6.7902377670e+01   4.8714771516e+01    0.2922102    0.2188917  20.72 0.0005484878    1.372    0.271
       112 -10.5559     87.4115     90.1578   6.8037037265e+01   4.7508501100e+01    0.5212069    0.2427128 -47.07  0.002045972    2.190    0.543
       113  -8.2197      4.9827     94.1944   1.0027180855e+02   5.6408122320e+01     0.148975   0.09911525   7.13 0.0004513993    1.679    0.404
       114 -10.2691     42.6073     91.4350   8.4775987516e+01   5.3936884690e+01    0.5486709    0.3155336  27.73  0.001913528    1.813    0.448
       115  -8.5432     56.8643     88.9201   7.8576721086e+01   5.2698074764e+01     0.274498    0.1948954  38.24 0.0007004599    1.551    0.355
       116  -9.7202     52.4701     90.6305   8.0730937694e+01   5.2911940890e+01    0.3692471    0.2791506 -30.09  0.001966471    1.225    0.184
       117  -9.1631     48.1044     89.1223   8.2009009113e+01   5.3802317722e+01    0.2564779    0.2456501  58.16 0.0006901852    1.318    0.241
       118  -9.7097    126.1967     91.4017   5.6915048330e+01   3.9452081046e+01    0.2595593    0.2093018 -38.72 0.0004170757    1.261    0.207
       119  -8.4410     20.8413     92.2007   9.3605927806e+01   5.5842294420e+01    0.1900696    0.1273532 -34.30 0.0004364054    1.323    0.244
       120  -8.9216     66.4525     90.5966   7.5476488192e+01   5.0936689675e+01    0.1916248    0.1738407  69.82 0.0006647594    1.438    0.305
       121 -12.5122     34.8229     89.4227   8.7346228013e+01   5.5230854130e+01    0.3283407    0.2945497 -54.43  0.001982764    1.214    0.176
       122  -9.8957     28.9633     84.9418   8.8590193203e+01   5.6808017278e+01    0.2402979    0.2080177  17.33 0.0003301029    1.271    0.213
       123 -10.2692    120.2608     77.4781   5.4486556224e+01   4.3325323531e+01    0.5234829    0.2744985  57.00  0.001298106    2.149    0.535
       124 -10.2303    101.2661     88.8068   6.3229039377e+01   4.5144797476e+01    0.3991812    0.2634774 -19.09  0.001220287    1.954    0.488
       125 -10.3718    102.4600     83.9504   6.1430386990e+01   4.5859853620e+01    0.3607245    0.3091564  64.42 0.0009505978    1.377    0.274
       126 -10.8303    113.2419     81.8630   5.7679163928e+01   4.4030837869e+01    0.6036879    0.3311413  28.81  0.002354413    2.395    0.582
       127 -12.0638    104.2465     79.2772   5.9493337380e+01   4.6380954076e+01    0.8249708    0.6056964  40.11  0.003032719    1.308    0.236
       128  -9.9550     13.0242     88.1350   9.5867004346e+01   5.7342281089e+01    0.2283981    0.1730261 -47.84 0.0003006864    1.096    0.087
       129 -10.2375    138.9071     87.3957   5.2640145996e+01   3.7431162247e+01    0.3981915    0.2283699 -50.61 0.0005370959    1.903    0.475
       130  -9.7238    124.5074     85.5433   5.5704179631e+01   4.0933644882e+01    0.3013378    0.2585281  20.91  0.001138201    1.248    0.199
       131 -10.3009    120.4385     87.3155   5.7287877014e+01   4.1474694948e+01    0.3925702    0.3199397 -26.09  0.001281848    1.307    0.235
       132 -10.5958    120.8690     82.4576   5.5775807510e+01   4.2293071341e+01    0.2938535    0.2655607  52.59 0.0003150165    1.110    0.099
       133  -9.9658    110.3171     87.8046   6.0249522036e+01   4.3509772264e+01    0.2696831    0.2371369  15.28 0.0003427803    1.164    0.141
       134 -11.3864    131.3387     86.0100   5.4095467717e+01   3.9356512851e+01     0.300055    0.2564976  30.16 0.0002183068    1.220    0.180
       135  -9.9049     76.1894     85.1890   7.0394553434e+01   5.0508634375e+01    0.6552539    0.3980124 -55.80  0.002905902    1.991    0.498
       136 -10.5092     79.8192     81.0885   6.7884686208e+01   5.0708106076e+01    0.3204573    0.2404797  10.37 0.0002257848    1.433    0.302
       137  -8.9395     40.3836     85.7639   8.4158050431e+01   5.5456489673e+01    0.2763412    0.1846908  24.27  0.001067595    1.551    0.355
       138  -9.0612     59.6148     84.2722   7.6193808690e+01   5.3307688837e+01    0.2784379    0.2071494 -46.19 0.0006238737    1.336    0.252
       139 -10.8855     54.0775     80.9752   7.7357168960e+01   5.4781234985e+01    0.2730179    0.2555129 -14.11 0.0003134192    1.127    0.113
       140  -9.8455     46.0617     81.2111   8.0605918829e+01   5.5775874638e+01    0.3964115    0.2592607 -43.29  0.002042365    1.397    0.284
       141  -9.6074     20.3488     82.0264   9.1443494127e+01   5.8197164188e+01    0.4556331    0.1924614 -38.10  0.001997575    2.132    0.531
       142  -9.1547      1.9873     82.9959   9.9320956680e+01   5.9147385330e+01    0.1932336    0.1556717 -43.52 0.0005282871    1.021    0.021
       143  -9.5852    146.7619     81.5985   4.9274388154e+01   3.6726539386e+01    0.1998891    0.1360969  63.89 0.0006260741    1.581    0.367
       144 -10.1020    157.3088     85.1319   4.7965031478e+01   3.3744234970e+01    0.3365803    0.2736863   6.40  0.001609739    1.637    0.389
       145 -12.2431    163.2657     72.4867   4.3536156267e+01   3.4553889907e+01    0.8960677    0.8117476 -68.33  0.004988158    1.080    0.074
       146 -12.8526    137.6102     69.8475   4.8070184007e+01   4.0776516062e+01     1.192099    0.9449841 -53.80  0.006395613    1.357    0.263
       147 -10.9468    146.9666     61.8686   4.3873820522e+01   3.9908766506e+01    0.3407707    0.3129128 -18.32 0.0006502466    1.239    0.193
       148  -8.3760     83.5095    249.4523   9.9157337838e+01   9.7420991616e+00    0.1309955    0.1139579  46.84 0.0001247907    1.019    0.019
       149  -9.2508    187.3248     77.1565   4.0533243793e+01   2.8493627227e+01    0.2518533    0.1653567 -29.87  0.001253227    1.783    0.439
       150  -8.3209     40.5415     78.4977   8.2073019564e+01   5.7010338682e+01    0.1382582    0.1182111 -21.46 0.0002998197    1.009    0.009
       151 -11.1060      8.3341     74.4693   9.4769511349e+01   6.0697368507e+01    0.4727121    0.2893056  -9.15 0.0003560178    1.664    0.399
       152  -8.8357      3.5570     72.5959   9.6425258261e+01   6.1374979853e+01     0.189608    0.1060996 -32.86 9.697046e-05    1.522    0.343
       153  -8.7839     36.4334     77.4921   8.3490517927e+01   5.7682046056e+01    0.1384648    0.1142531 -24.01 0.0001002658    1.031    0.030
       154 -11.2133     81.3736     65.1692   6.2273075989e+01   5.3382589736e+01    0.5845559    0.3752604  -5.62  0.001222155    2.163    0.538
       155 -10.4015     83.3762     73.6406   6.4341980435e+01   5.1494574631e+01     0.385525    0.3031594  23.23  0.001222921    1.227    0.185
       156 -10.2461     77.0252     75.3502   6.7070998062e+01   5.2313902917e+01    0.4042313    0.3176833 -15.31  0.001479008    1.295    0.228
       157  -9.3271     73.3165     74.6919   6.8179369304e+01   5.3079493973e+01    0.2043403    0.1969495  11.40 0.0005065217    1.165    0.141
       158  -9.4615     57.0008     75.9592   7.4696830442e+01   5.5399036642e+01    0.2299102     0.182103  33.11 0.0007416736    1.338    0.252
       159  -9.6147     57.1007     72.1167   7.3454241134e+01   5.6145812964e+01    0.3916567    0.2250716 -31.98  0.001520749    1.754    0.430
       160 -11.2301     46.6239     73.3112   7.8032481854e+01   5.7345208327e+01    0.4892792    0.3891821  71.98 0.0008699928    2.137    0.532
       161 -10.3119     50.9915     69.9140   7.5190290907e+01   5.7441240016e+01    0.3667109    0.2710087 -63.02 0.0007000226    1.885    0.469
       162 -10.1565     88.6471     74.6783   6.2921350461e+01   5.0315979041e+01    0.2801857    0.2301593  31.73 0.0002943681    1.156    0.135
       163  -8.9359     92.9079     73.1334   6.1065720449e+01   4.9776156444e+01     0.221093    0.1987297  15.39 0.0003876433    1.040    0.039
       164 -10.6083     17.7498     71.1858   8.9802541157e+01   6.0754289381e+01    0.3421928    0.2337468 -56.85 0.0006624601    1.457    0.314
       165  -8.5319    182.9883     72.0085   4.0012476510e+01   3.0259229947e+01     0.160524    0.1454634 -72.66  0.000968287    1.018    0.017
       166  -8.9104    119.3026     72.6462   5.3311759324e+01   4.4375889198e+01    0.1449526    0.1145094 -80.23 0.0004095993    1.706    0.414
       167  -9.1996     96.9024     71.1424   5.9194375386e+01   4.9339776138e+01    0.2900808    0.2029392 -37.63  0.001286621    1.486    0.327
       168 -11.3444     60.7146     58.1673   6.7398123704e+01   5.8156863138e+01    0.5271239    0.4508432 -25.02  0.001190565    1.180    0.152
       169 -10.0627     64.2133     70.5068   7.0194972683e+01   5.5371858714e+01    0.4623573    0.2670121  35.68 0.0008993802    1.703    0.413
       170  -9.5573     59.4584     66.6363   7.0757275308e+01   5.6837911005e+01    0.3190019     0.244429  30.95 0.0007634902    1.300    0.231
       171 -11.8350    152.4470     71.4471   4.5357968608e+01   3.7162141541e+01     1.009851    0.3555668 -34.37  0.001037959    3.274    0.695
       172  -9.4293      9.5842     89.6774   9.7577999867e+01   5.7202656949e+01    0.3129987    0.1390008 -52.35  0.001112666    1.734    0.423
       173  -8.8081     27.5014     56.4080   8.0987331983e+01   6.2841414077e+01    0.1724385    0.1081027   7.11  5.96873e-05    1.567    0.362
       174 -10.1300     30.1543     70.7430   8.4227663677e+01   5.9746911892e+01    0.5413101    0.3828467  79.67  0.002255813    3.056    0.673
       175 -11.5761     31.1231     53.2537   7.8261111282e+01   6.3038505551e+01     0.450829    0.3713927 -64.43 0.0009449687    1.803    0.445
       176  -9.4045     35.4101     51.4784   7.5687456406e+01   6.2861559580e+01    0.1921233    0.1589751 -47.27 0.0001368251    1.486    0.327
       177 -11.3263     34.4603     67.3413   8.1336944623e+01   5.9987139682e+01    0.2987939    0.2843911  86.49 0.0006436148    1.503    0.335
       178 -10.2875     33.9548     63.2277   8.0274364484e+01   6.0852705186e+01    0.3985513    0.2281591   5.53  0.001382231    1.933    0.483
       179 -10.7232    104.6644     58.2732   5.2826193745e+01   4.9859887339e+01    0.4716619    0.2615604  40.45  0.001708677    1.719    0.418
       180  -9.9085    109.0507     61.1704   5.2537793799e+01   4.8475250934e+01    0.3700958    0.2283493 -19.30  0.001674721    2.114    0.527
       181 -10.6139    180.9407     63.9688   3.8420773819e+01   3.1949917567e+01    0.5105446    0.3285199 -26.31  0.001675158    1.972    0.493
       182 -10.4207    176.9917     63.9804   3.9045016707e+01   3.2819197531e+01    0.2360729    0.2091777 -50.01 0.0003178494    1.152    0.132
       183  -9.5411     71.7283     66.8667   6.6217517508e+01   5.4804495951e+01    0.3976275    0.2798914  33.76  0.002088115    1.357    0.263
       184  -9.0901     14.4775     66.4497   8.9995869005e+01   6.1992775739e+01     0.278547    0.1616174 -33.16 0.0005920987    1.463    0.316
       185  -9.6085      9.2728     65.9676   9.2239743053e+01   6.2451447860e+01     0.355013    0.2408037  58.13  0.001867623    2.567    0.610
       186  -9.9567     89.3333     65.1876   5.9656211058e+01   5.1866138536e+01    0.5002377    0.2527766 -46.89  0.002124018    2.311    0.567
       187 -10.3992     93.6957     57.1628   5.5653730261e+01   5.2304477011e+01    0.6829498    0.3256145  36.56  0.002867222    2.140    0.533
       188  -9.4849     42.2741     66.3619   7.7672171712e+01   5.9269949124e+01    0.2736926    0.1851798 -26.34 0.0006586362    1.372    0.271
       189 -10.9225     43.0713     61.3885   7.5711784636e+01   6.0117136789e+01     0.398116    0.3268544 -16.43  0.001587914    1.050    0.048
       190  -8.3946    231.5523     66.4314   3.2355575199e+01   2.1194936033e+01    0.1217395    0.1000892 -64.95 7.851732e-05    1.016    0.016
       191  -9.7840    201.5040     49.6370   3.2337189409e+01   2.9577675785e+01    0.2733518    0.2663246  34.82   0.00119656    1.370    0.270
       192 -10.7867    211.4976     49.4434   3.1137312925e+01   2.7539432267e+01     0.298857    0.2274563  86.11 0.0005734443    1.217    0.178
       193  -9.3745    206.1379     52.5876   3.2417192644e+01   2.8207679791e+01    0.2829749     0.205751  30.77  0.001554665    2.278    0.561
       194  -9.1275    194.4541     65.2769   3.6725461188e+01   2.8827814104e+01    0.3300506    0.1437826 -42.02  0.001102189    2.149    0.535
       195  -8.6804    189.6171     61.7373   3.6605033217e+01   3.0392778478e+01     0.184538     0.161611 -60.85  0.001148711    1.089    0.082
       196  -9.1295    192.6640     61.2933   3.6072930140e+01   2.9803135502e+01    0.2304462      0.16316  80.04 0.0004906892    1.421    0.296
       197 -11.1027    199.6361     55.6446   3.3879793056e+01   2.9136686005e+01    0.5779361    0.4112495  19.09  0.002893838    2.740    0.635
       198 -10.1294    161.3152     64.6677   4.1885211496e+01   3.6225124651e+01    0.2640176    0.2327034 -78.12 0.0004754445    1.121    0.108
       199  -9.6222      2.3201     64.0920   9.4954792934e+01   6.3249957944e+01    0.2074347    0.1848797  -9.16 0.0008273052    1.233    0.189
       200 -10.4449      7.4079     58.3146   9.1043158112e+01   6.4135742609e+01    0.6126542    0.2834957 -19.44  0.002929214    2.285    0.562
       201 -10.7237      7.7910     50.0210   8.8423868988e+01   6.5730336880e+01    0.5023763     0.457481 -55.44  0.003544712    1.445    0.308
       202  -9.5988      1.9360     51.0663   9.1652492073e+01   6.5896178564e+01     0.188956    0.1332658 -29.88 0.0004120503    1.093    0.085
       203 -10.2975     24.6813     49.8752   8.0117411600e+01   6.4330058724e+01    0.9317886    0.3891416 -22.94  0.003577238    3.458    0.711
       204 -11.6638     17.8230     49.0149   8.3139893376e+01   6.5133654310e+01    0.5854839     0.288811 -25.52  0.002915754    1.997    0.499
       205  -9.8089     18.8153     42.9307   8.0545121657e+01   6.6129345509e+01    0.2594495    0.1933362  35.21  0.001617483    1.741    0.425
       206  -9.9032    203.7889     63.0253   3.4960530893e+01   2.7200568093e+01    0.2116007    0.1665716  88.82 0.0003309741    1.216    0.178
       207 -10.2130    167.7968     61.3771   3.9913000528e+01   3.5261065944e+01    0.3216517    0.2498741 -22.86  0.001137955    1.585    0.369
       208 -11.3627     21.9050     61.0577   8.5039252914e+01   6.2480609986e+01    0.3130079    0.1967937 -12.89  0.001722722    1.543    0.352
       209  -9.1432    172.0860     62.8269   3.9558675403e+01   3.4083556091e+01    0.2720952     0.190943 -80.82   0.00124704    1.644    0.392
       210 -12.0880    111.0050     65.8126   5.3451327700e+01   4.7312487630e+01    0.4045664    0.2983723  30.94 0.0003264068    1.394    0.283
       211 -10.3152    218.9476     59.2252   3.2315317019e+01   2.4677696475e+01    0.2659451    0.2138492 -65.09 0.0005056436    1.046    0.044
       212  -9.7266    222.4222     55.4406   3.1163596408e+01   2.4529561924e+01     0.214503    0.1717507 -64.86 8.969553e-05    1.040    0.039
       213  -9.1886    115.1893     60.8840   5.0823786537e+01   4.7191946342e+01    0.2302759    0.1866395 -24.14 0.0005736591    1.347    0.258
       214 -10.0884     77.9841     55.5849   6.0186914236e+01   5.5602200259e+01    0.2702225    0.2098352 -17.38 0.0004689978    1.318    0.241
       215  -9.5171     79.2908     44.7652   5.5936275355e+01   5.6978299852e+01    0.3363349    0.2206068  41.21  0.001150909    1.370    0.270
       216 -10.3905     81.7404     53.1694   5.8087292373e+01   5.5273517786e+01    0.7506038    0.2475266 -39.69  0.002779428    3.246    0.692
       217 -10.7774     85.1158     48.1024   5.5233812069e+01   5.5373130334e+01    0.6807573    0.3145103 -37.67  0.002990923    2.345    0.574
       218  -8.9546    106.9512    246.3565   9.3477563163e+01   7.1327473156e+00    0.2126905     0.184996  86.91  0.001057346    1.345    0.257
       219 -11.7839     84.7597     39.0114   5.2135807423e+01   5.6685752476e+01     0.309241    0.2557761 -29.13 0.0002254781    1.344    0.256
       220 -10.8109    184.9007     54.9537   3.5704993863e+01   3.2397442540e+01    0.6075271    0.2831222 -43.22  0.002121769    2.058    0.514
       221  -9.6803    179.4759     53.4898   3.6141832177e+01   3.3795005446e+01    0.2463078    0.1577569  75.78  0.001294963    1.575    0.365
       222 -11.2382    161.1446     56.3916   3.9780612771e+01   3.7491715555e+01    0.4590688    0.3275187  83.89  0.002025959    1.521    0.343
       223  -9.6106    162.2296     52.4077   3.8572495938e+01   3.7808600700e+01     0.230565     0.190293 -82.21 0.0002603417    1.209    0.173
       224  -8.4780    245.6109     55.7428   2.8907190023e+01   2.0135830476e+01    0.1509181    0.0869133 -52.10 0.0002299608    1.401    0.286
       225  -8.5647    238.8488     56.1172   2.9616163823e+01   2.1312642860e+01    0.1482854    0.1298878 -46.61  0.001054866    1.319    0.242
       226 -10.7492    174.3705     53.9020   3.7005435721e+01   3.4870167868e+01    0.3830285    0.2140326 -44.81  0.001179981    1.772    0.436
       227  -9.8377    171.8710     48.4599   3.6054745971e+01   3.6176644831e+01    0.4997362    0.1809638  63.78  0.001130487    2.653    0.623
       228  -9.4096    149.4604     33.5255   3.5736687663e+01   4.3125049682e+01    0.2803817    0.2355845  16.23  0.001292228    1.540    0.351
       229  -9.9677    157.6210     39.2003   3.5920242858e+01   4.0588075740e+01    0.2424059    0.2088408  25.29 0.0004169161    1.460    0.315
       230 -11.0770    154.9255     35.9084   3.5490384523e+01   4.1600612827e+01     0.605296    0.4684104 -61.79  0.002481333    1.350    0.259
       231 -12.8187    137.6324     47.1668   4.1637747891e+01   4.4127810783e+01    0.6280265     0.440095  67.25  0.001021512    1.378    0.274
       232 -10.8688    128.0670     53.2740   4.5427263355e+01   4.5459069149e+01    0.4084365    0.3374583  30.64 0.0004133585    1.293    0.226
       233 -10.9780    145.2416     41.3383   3.8573638125e+01   4.3143501150e+01    0.6975553    0.3863147  40.84  0.003292864    2.104    0.525
       234 -10.3885     69.3171    217.3723   9.8802688406e+01   1.8785478689e+01     0.655502    0.3941589  83.07  0.002928981    2.183    0.542
       235 -10.8812    117.0304     51.8368   4.7570001794e+01   4.8128693012e+01    0.7474847    0.4852309  54.08  0.003775416    1.420    0.296
       236 -11.8194    122.4712     49.5522   4.5581604494e+01   4.7236292679e+01    0.4065067     0.377524 -28.08  0.002505587    1.183    0.155
       237  -9.1007     68.8563     54.3863   6.3000195182e+01   5.7431665899e+01    0.2195442    0.1630106 -33.41 0.0003942842    1.393    0.282
       238 -10.3724     64.3620     50.6138   6.3323181306e+01   5.8802216253e+01    0.4858697    0.2947227 -57.08  0.001381309    2.916    0.657
       239  -8.6327     50.7311     54.5315   7.0125839703e+01   6.0300418159e+01    0.1731414    0.1188605  36.96 0.0009407121    1.535    0.349
       240  -9.1089     44.6250     52.1437   7.1853577309e+01   6.1567501878e+01     0.223703    0.1398728 -31.50  0.001025376    1.513    0.339
       241  -8.8381    104.8162     49.8121   5.0055892985e+01   5.1074109811e+01    0.1850289    0.1624148  79.66  0.001074109    1.359    0.264
       242  -9.6866     54.7126     49.8764   6.6821929348e+01   6.0479920453e+01    0.2303288    0.1916298  36.84 0.0006079228    1.355    0.262
       243 -11.4896    233.0760     48.2212   2.8671609206e+01   2.3469300725e+01    0.2138661    0.1690053 -65.60 0.0003223657    1.028    0.028
       244  -8.9593    194.4993     48.9873   3.3058338080e+01   3.1148359280e+01    0.2056204    0.1498287  74.00  0.001228646    1.292    0.226
       245 -12.0740    163.6596     42.6338   3.5855096340e+01   3.8788318795e+01    0.4875326    0.3367234 -84.43  0.002656694    1.588    0.370
       246  -9.8095    246.4430     47.7081   2.7366073727e+01   2.1076849974e+01    0.2032214    0.1596056 -63.95 0.0007035342    1.053    0.050
       247  -9.6551    153.9852     45.6337   3.8202119414e+01   4.0596970153e+01    0.3567752    0.1438311  59.85  0.001505417    2.231    0.552
       248  -8.6355     38.5950     45.0054   7.1897756056e+01   6.3563787063e+01    0.2363319    0.1397157 -26.85  0.001265197    1.625    0.384
       249  -9.9033     73.0328     44.8955   5.8102243829e+01   5.8133403919e+01    0.2448675    0.2200098 -13.88 0.0005948134    1.181    0.153
       250 -10.0430     67.6236     44.3625   5.9830274300e+01   5.9185094594e+01    0.3535885    0.2375872  34.09 0.0009913164    1.330    0.248
       251 -10.3757     45.0848     44.3218   6.8779493458e+01   6.2793067890e+01    0.2086261    0.1641489 -20.18 0.0002676861    1.184    0.155
       252 -10.0209     33.8881     44.0919   7.3705259472e+01   6.4305911897e+01    0.3377774     0.214386 -25.96  0.001374166    1.444    0.307
       253  -9.7392    176.8370     43.1903   3.4062139090e+01   3.5764854663e+01    0.4750723    0.2343631  85.76  0.001960652    2.900    0.655
       254 -10.3205    107.6078     43.5572   4.7295789095e+01   5.1321391421e+01    0.4651724    0.2219829  57.39  0.001178568    2.045    0.511
       255  -9.4338    209.1804     42.7071   2.9991144757e+01   2.8908122447e+01     0.208586    0.1636365 -54.80  0.001223659    1.184    0.155
       256 -11.0758     62.1470     37.5500   5.9283975004e+01   6.1101776500e+01    0.4988279    0.3996766  13.27  0.001823806    1.083    0.077
       257  -9.7554     76.6861    222.6897   9.7649241719e+01   1.6546899617e+01    0.2289709    0.1885103  29.04 0.0002960326    1.220    0.180
       258  -9.2195    218.1557     41.4583   2.8804427443e+01   2.7256687317e+01    0.2057738    0.1485349 -51.26 0.0005912414    1.258    0.205
       259  -9.2566     28.0330     41.9156   7.5653553516e+01   6.5351456966e+01    0.1869656    0.1514873  -7.43  0.000595455    1.050    0.048
       260  -9.8769    240.4651     39.5905   2.6399365746e+01   2.3222362412e+01    0.3376243    0.2725016   7.43  0.002148462    2.500    0.600
       261 -10.7943    229.9728     39.3235   2.7264772143e+01   2.5224498040e+01    0.3475586     0.221668  88.15 0.0008593032    1.487    0.327
       262  -9.3311     98.0936     41.0807   4.8987000888e+01   5.3680012304e+01    0.3260816    0.1785183  38.04  0.001034335    1.766    0.434
       263  -9.8725    123.3414     39.8680   4.2450924916e+01   4.8304922515e+01    0.4314103    0.1791582  65.99   0.00164551    2.874    0.652
       264 -11.6699    127.0235     34.7422   4.0143779653e+01   4.8089849325e+01    0.5599127     0.341671 -60.93            0    2.252    0.556
       265  -9.9663    123.9348     30.6376   3.9534846412e+01   4.9254717843e+01    0.3010502    0.2031874  64.37  0.001264144    1.344    0.256
       266  -9.1945     74.9413     40.1441   5.5708277975e+01   5.8440297052e+01    0.2416567     0.162852  32.15 0.0005719459    1.327    0.246
       267 -10.5968    201.7978     37.6858   2.9737715522e+01   3.1078289657e+01    0.2910379    0.2070602 -64.01 0.0006652093    1.263    0.209
       268 -10.1774    194.6660     37.2510   3.0444835237e+01   3.2638000204e+01    0.2335326    0.1826486 -72.28 0.0003757202    1.132    0.117
       269 -11.4939     77.2628    219.2705   9.7082574803e+01   1.7265962629e+01    0.7255534     0.450125   5.34  0.003091224    2.448    0.592
       270  -9.2660     91.6238    214.4878   9.2873931864e+01   1.6356689975e+01    0.3271911     0.139102  29.60 0.0007682794    2.358    0.576
       271  -9.8771     32.9787     37.1285   7.1461520277e+01   6.5532132871e+01    0.1879258    0.1486804 -12.68            0    1.096    0.087
       272  -9.2905      2.1614     38.0056   8.7461105563e+01   6.8313093610e+01    0.1886784    0.1348773  -9.39 0.0003125849    1.175    0.149
       273  -9.3754    250.5233     37.0054   2.5126800048e+01   2.1735795702e+01    0.2370229    0.0991334 -53.09  0.001310473    1.920    0.479
       274 -11.1619    246.1908     32.1575   2.4606771659e+01   2.3112269216e+01    0.3470227    0.2037506 -57.32 0.0007275449    1.351    0.260
       275  -8.1420    207.2899     37.3740   2.9084061637e+01   2.9977904888e+01    0.1086364   0.09401003  30.51 0.0007021546    1.725    0.420
       276 -11.0331    169.9021     33.1290   3.2593618581e+01   3.8552627547e+01    0.4244385    0.3094517 -23.66  0.001016313    1.744    0.426
       277  -8.1352    102.2781     37.2646   4.6592601483e+01   5.3268223562e+01    0.1294502   0.09081984  29.25            0    1.479    0.324
       278  -7.4222     39.2803     35.2925   6.7828180350e+01   6.4981565355e+01    0.3744754    0.1490638 -28.84  0.001593262    2.901    0.655
       279  -8.3275     43.1957     34.3913   6.5727321749e+01   6.4558870233e+01    0.3240504    0.2741035 -71.32  0.001925601    2.286    0.563
       280 -10.5149     46.3533     28.7654   6.2068427014e+01   6.4856745014e+01    0.4774832    0.2334294  30.00  0.002055179    1.865    0.464
       281  -9.0811    190.7451     34.8789   3.0376114002e+01   3.3769213633e+01     0.353305    0.2071466 -17.56  0.000916714    2.916    0.657
       282  -9.7205    115.4561     35.5235   4.2847307732e+01   5.0594137492e+01    0.2673055    0.2268253  63.41 0.0008783839    1.125    0.111
       283 -10.2196    114.7310     32.3254   4.2002070292e+01   5.1125698056e+01     0.639473     0.373955  88.95  0.001441122    3.231    0.690
       284  -8.9326    106.2997     35.2154   4.4902375955e+01   5.2645365710e+01    0.2303696    0.1592975  13.64  0.000654908    1.836    0.455
       285 -10.5885     97.2113     33.4723   4.6636655850e+01   5.4803012450e+01    0.2521889    0.2266439 -45.60 -0.0001323831    1.335    0.251
       286  -9.4488    213.6142     57.0917   3.2487870414e+01   2.6048232403e+01    0.2320717    0.1766362 -76.00 0.0006562225    1.192    0.161
       287 -10.0833     73.9579     35.6125   5.4356508798e+01   5.9220643409e+01    0.2327182    0.1857741  -1.11 0.0002423522    1.258    0.205
       288  -9.5810    123.9779    206.0008   8.3407311626e+01   1.3342121575e+01    0.2057537    0.1953358   7.42 -0.007547014    1.009    0.008
       289  -8.8287     90.4861    206.0680   9.1945298019e+01   1.8533267858e+01    0.2259304    0.1922365  39.17  0.001138922    1.140    0.123
       290 -10.8450      4.5214    202.5048   1.1293791644e+02   2.9387692987e+01    0.2613771    0.1530293  57.66  0.001427282    1.627    0.386
       291 -10.5305     74.0063    214.1263   9.7237136755e+01   1.8929708752e+01    0.4780094     0.396707  89.40  0.002008164    1.246    0.198
       292  -9.8696      1.3624    184.9498   1.1237829328e+02   3.3914651683e+01    0.4005122     0.102774 -75.44  0.001433786    3.261    0.693
       293  -8.3017     52.6987    183.6585   9.8813846464e+01   2.9303611095e+01    0.1491721    0.1029667 -37.34 0.0004520115    1.674    0.402
       294  -9.6572     25.0183    173.9809   1.0520130103e+02   3.4753422056e+01    0.2002545    0.1776416 -77.16            0    1.020    0.020
       295  -8.9289      6.0031    168.5307   1.0978053612e+02   3.7701653508e+01     0.173381     0.133487  15.81  0.001021101    1.574    0.365
       296 -10.2364      8.8243    163.8071   1.0855322693e+02   3.8704205752e+01    0.2107643    0.1809315 -85.66 0.0005415659    1.054    0.051
       297 -10.0504      4.5564    163.0373   1.0964642223e+02   3.9201334928e+01     0.249487     0.175727  41.99  0.000459399    1.553    0.356
       298 -10.1267      5.6767    159.7116   1.0900911918e+02   3.9974056132e+01    0.2350233     0.155842 -60.82  0.000541519    1.303    0.233
       299 -10.0080      6.7396    156.3706   1.0836662089e+02   4.0757246290e+01    0.2389887    0.1615572 -85.04 0.0005992786    1.349    0.259
       300 -10.0210    183.0030     25.0105   2.9058516863e+01   3.6595761799e+01    0.2497045     0.204822 -87.38 0.0004551391    1.022    0.021
       301  -8.1915     12.3146     35.3095   8.1095238450e+01   6.8013138302e+01    0.1274923    0.0716836 -18.26 0.0003353801    1.631    0.387
       302 -11.6822     18.0723    158.1526   1.0532343716e+02   3.9456165244e+01     0.476067    0.2908773 -76.31  0.001736442    1.471    0.320
       303 -11.7179     13.8685    152.2329   1.0584588207e+02   4.1316177663e+01    0.4969777    0.2948881 -44.78   0.00250282    1.671    0.401
       304 -11.5216    236.4504     29.5025   2.4887918994e+01   2.5221199468e+01    0.3573703    0.3271664 -23.43  0.002728298    1.651    0.394
       305 -10.8758     29.6358    150.9064   1.0094662376e+02   4.0352527982e+01    0.4378916    0.2324012 -41.33  0.001583423    1.981    0.495
       306 -10.1794     30.8843    146.9982   9.9995460395e+01   4.1261469129e+01    0.2537135    0.2220378 -63.97 0.0002767075    1.012    0.011
       307 -10.5716      2.3758    153.8555   1.0934232968e+02   4.1686081819e+01    0.3801301    0.2093726 -72.54  0.001033777    1.498    0.333
       308  -8.8651     89.8221     33.3230   4.8615013436e+01   5.6364401203e+01    0.1924816     0.154235  68.04 0.0006078585    1.478    0.324
       309 -10.8564     34.8027     27.4082   6.6636533276e+01   6.6711727703e+01    0.3532355    0.2749108  18.76 0.0003929859    1.165    0.141
       310  -9.3085    224.0257     30.8835   2.6182752439e+01   2.7423958452e+01    0.1749961    0.1386936 -78.65 0.0005716555    1.042    0.040
       311  -8.5907     24.5562     31.0012   7.3095641544e+01   6.7472851320e+01    0.1717327    0.1039817 -33.93 0.0006080457    1.549    0.354
       312  -9.8872    216.1726     29.3970   2.6597531229e+01   2.9152890521e+01    0.2451208    0.1914349  83.42  0.000910051    1.180    0.153
       313  -8.9781    201.1814     29.8637   2.8148762763e+01   3.2160999931e+01    0.1826091    0.1297713 -70.03 0.0003662466    1.249    0.200
       314  -8.5453     66.4240     30.4730   5.4982184886e+01   6.1259974725e+01    0.1285346    0.1055136  21.23 0.0001741932    1.018    0.018
       315  -8.5750    229.4690     29.0446   2.5370168344e+01   2.6595127259e+01    0.1598093   0.09592126 -45.62 0.0006122582    1.513    0.339
       316  -8.8643    147.0004     29.2630   3.4990867015e+01   4.4169366358e+01    0.1721419    0.1446846  72.19 0.0002363945    1.034    0.032
       317  -8.5919     93.1625     28.3922   4.5956167312e+01   5.6234544303e+01    0.1622135    0.1123013  60.84 0.0002460456    1.459    0.314
       318 -10.2172     72.1434     25.6929   5.1182161196e+01   6.0754001777e+01    0.4482452    0.2202868  36.14  0.002206876    1.851    0.460
       319 -10.5799      5.9326    147.8382   1.0767358080e+02   4.2998941087e+01    0.4882231    0.2209346  35.11  0.002122541    2.416    0.586
       320 -10.4100     11.4840    144.9730   1.0568014263e+02   4.3363448080e+01    0.2989508    0.2113303  38.68  0.001656984    1.598    0.374
       321 -10.6797     81.7626     26.4282   4.8464086177e+01   5.8790109864e+01    0.4362222    0.3437896  86.35  0.002514505    1.936    0.483
       322 -10.3581     36.2721    143.3173   9.7733907998e+01   4.1708285308e+01    0.5143697    0.1970676 -56.04  0.002004156    2.153    0.535
       323  -9.3017    206.8244     25.9163   2.6772481651e+01   3.1455523169e+01     0.160388    0.1477902 -89.13 0.0007028489    1.257    0.204
       324  -9.3685    189.0988     25.9787   2.8594422061e+01   3.5170503580e+01    0.1787854    0.1495199  89.64 0.0003706726    1.043    0.041
       325  -8.3321    119.5104     26.4774   3.9161932538e+01   5.0699450966e+01      0.13049    0.1093236  50.74 0.0008093311    1.065    0.061
       326 -10.2416      8.8101    137.7453   1.0559890966e+02   4.5400832356e+01    0.3539885    0.2209516  73.23 0.0008392982    1.919    0.479
       327  -9.2544     69.6078     21.1773   5.0248080963e+01   6.1727413475e+01    0.2386294    0.1473246  -3.19 0.0004837195    1.954    0.488
       328 -10.0627    212.2175     22.2402   2.5539374779e+01   3.0780348478e+01    0.2438618    0.2098021 -64.25 0.0007228074    1.195    0.163
       329 -11.6065     21.2340    141.9936   1.0228412709e+02   4.3403914093e+01    0.6859938    0.3679049  55.93  0.001426289    2.412    0.585
       330  -8.4161    158.9046     22.7646   3.1530351361e+01   4.2177067218e+01    0.1646267    0.1255926  88.99  0.001019228    1.211    0.174
       331  -8.4786    129.4493     24.4549   3.6642749749e+01   4.8671756411e+01    0.1278328     0.108566  58.93 9.938859e-05    1.039    0.038
       332  -8.3764    104.0298     23.9413   4.1719143996e+01   5.4383546615e+01    0.1481267    0.1221296  50.53 0.0009268071    1.030    0.029
       333  -9.1752     99.1839     23.8925   4.2858723778e+01   5.5435386133e+01    0.2245541     0.161916  53.83 0.0009783908    1.194    0.162
       334 -10.2243     19.8233    118.8221   9.9164701135e+01   4.9452424007e+01    0.3521199    0.2086001   0.66  0.001106406    2.039    0.509
       335 -10.5669     15.4571    115.7967   1.0018652993e+02   5.0525735313e+01    0.5283652    0.2861929   2.77  0.001645307    2.251    0.556
       336 -10.7245     12.1905    123.3093   1.0250650363e+02   4.8857902030e+01    0.5515752    0.3144846 -13.01  0.002062118    2.173    0.540
       337 -10.7369      4.5922    121.8413   1.0484663870e+02   4.9688803593e+01    0.6166743    0.2411388  11.49  0.002404121    3.105    0.678
       338 -10.3977     15.5388    128.9563   1.0223280678e+02   4.7194580939e+01    0.4925109    0.1692358 -67.60  0.001589416    2.463    0.594
       339 -10.2753     12.0718    128.8824   1.0336295614e+02   4.7451717930e+01    0.4155735    0.2045351  28.55 0.0003835973    2.265    0.558
       340 -10.8769     13.0012    134.8805   1.0390027976e+02   4.5855301905e+01    0.3388253    0.2591482 -52.04 0.0004201804    1.152    0.132
       341 -10.8689    112.1164     15.1436   3.7110756969e+01   5.3454094296e+01    0.1756576    0.1546745  89.32            0    1.250    0.200
       342  -8.7249    143.4177     22.2056   3.3650612615e+01   4.5735693360e+01    0.1628735    0.1096436 -49.19  0.000564069    1.637    0.389
       343  -9.9941    188.2990     20.9502   2.7576364087e+01   3.5900698836e+01    0.2057921    0.1579712  68.73 0.0003171061    1.250    0.200
       344 -10.4871     17.6823    133.8336   1.0224845166e+02   4.5788633985e+01    0.3086909    0.2255267 -60.21 0.0003402118    1.156    0.135
       345  -9.6201      4.0982    131.6691   1.0631138966e+02   4.7237878763e+01    0.3382601    0.2200077  25.46  0.001513404    1.790    0.441
       346 -10.6271      2.5380    141.4918   1.0796879265e+02   4.4830512280e+01    0.5568885    0.2778584 -81.52  0.002594565    1.899    0.473
       347  -9.1618      1.0000    134.9397   1.0768142751e+02   4.6583325636e+01     0.315649   0.09595174 -69.12  0.001074549    2.533    0.605
       348  -8.8463     57.0361    141.4780   9.0755964634e+01   3.9850306719e+01    0.3495461    0.1425514 -45.40  0.001257282    2.413    0.586
       349  -9.8476     44.5091    141.6059   9.4812923980e+01   4.1295529550e+01    0.2867872    0.2436075  42.20 0.0008431826    1.295    0.228
       350 -10.0130     27.9642    141.3007   1.0005959841e+02   4.3015815627e+01    0.3109417    0.2178896 -60.96  0.001400081    1.233    0.189
       351  -8.2107     71.2334    137.6153   8.5410328838e+01   3.8927581394e+01    0.1513178    0.1174995  88.70 0.0006040559    1.632    0.387
       352 -10.3800     31.1191    132.9327   9.7704445299e+01   4.4905470251e+01    0.6499501     0.187121 -49.36  0.002238343    2.909    0.656
       353  -9.2543    117.5767     19.2486   3.7317164315e+01   5.1859314848e+01    0.2266482    0.1502723  59.88 0.0007441393    1.267    0.211
       354 -10.9785     26.2617    130.4231   9.8903044029e+01   4.5982571741e+01     0.464964    0.2954744  12.61 0.0008928234    1.825    0.452
       355 -10.9751     30.7910    125.1350   9.6467892448e+01   4.6940157190e+01    0.4096923    0.3624998  84.82 0.0006994018    1.271    0.213
       356  -8.4749     35.5037    132.4612   9.6167781708e+01   4.4612176918e+01    0.1446758    0.1265757 -50.29  6.03407e-05    1.024    0.023
       357  -9.5645     41.3564    128.0988   9.3404138542e+01   4.5141825746e+01     0.229785    0.1944168 -11.08 0.0005200797    1.261    0.207
       358  -8.1318     92.2324    127.3048   7.6383975273e+01   3.8179565435e+01    0.1537577    0.1144127 -25.98 0.0006824176    1.480    0.324
       359 -10.7168     49.2361    126.3048   9.0364598414e+01   4.4723236423e+01    0.4145411    0.2725846 -32.22  0.001945253    1.598    0.374
       360  -9.3705     97.8262    125.8304   7.4288398282e+01   3.7551847699e+01    0.2533126    0.2382275  -5.91  0.000468901    1.054    0.051
       361  -9.6166     37.4006    124.6700   9.4109110806e+01   4.6427075417e+01    0.3372617    0.1665012 -62.75  0.001435521    1.846    0.458
       362 -10.1350     23.5430    124.9948   9.8922231494e+01   4.7598570934e+01    0.3371522     0.224494 -71.25  0.001155513    1.425    0.298
       363 -10.0291    230.1417    123.6127   4.4041018402e+01   1.2031974632e+01    0.4726405    0.2531687 -54.96  0.002237181    1.923    0.480
       364 -10.1049     67.2515    123.5737   8.3643888236e+01   4.3069558426e+01    0.4236551    0.2268961 -28.67 0.0008842075    2.512    0.602
       365  -9.9760     67.8139    118.0429   8.2164150963e+01   4.4359906581e+01     0.340495    0.2507489  23.43  0.000819497    1.425    0.298
       366 -10.2206     83.4527    118.3423   7.6997965805e+01   4.1848294103e+01    0.4276696    0.2446367 -36.72  0.001712508    1.856    0.461
       367 -11.5300    132.1383     29.6378   3.7657678628e+01   4.7509057328e+01    0.3282529    0.2886587 -48.37            0    1.273    0.214
       368 -10.3212     58.5016    117.8048   8.5326316952e+01   4.5710397901e+01    0.3625588    0.2864381  34.44 0.0008869749    1.363    0.266
       369  -9.2120     98.9616    117.4866   7.1842097707e+01   3.9331611558e+01    0.2568968    0.2230649  -3.00 0.0003784445    1.216    0.178
       370  -8.5205    102.4866    117.5184   7.0768829264e+01   3.8669154119e+01    0.1543759    0.1505025 -20.40 1.454128e-05    1.036    0.035
       371  -9.2595     52.3153    117.5231   8.7430858755e+01   4.6568865867e+01      0.33247    0.1944994 -34.13  0.001450467    1.803    0.445
       372 -10.0048     46.6230    116.6795   8.9259683374e+01   4.7454777408e+01    0.3299251    0.2244489 -40.08  0.001624722    1.366    0.268
       373  -9.9579     31.1353    116.4063   9.4726606833e+01   4.9117295959e+01    0.3735316    0.1862585 -63.48  0.001468047    1.838    0.456
       374  -9.6574     25.4676    116.8504   9.6827852767e+01   4.9500671904e+01    0.2932407    0.2117526 -79.00 0.0008572034    1.502    0.334
       375  -9.9577      1.6910    113.0577   1.0458310361e+02   5.2026287037e+01    0.5899716    0.1278726 -68.45  0.001962354    3.581    0.721
       376  -8.2392    103.2349    113.9507   6.9613640816e+01   3.9351677997e+01    0.1959154    0.1282537 -48.26 0.0002649487    1.516    0.340
       377  -9.1811     84.2118    112.9855   7.5391011143e+01   4.2997684796e+01     0.209056    0.2012148 -72.79 0.0002701417    1.168    0.144
       378  -8.6644    116.9602    112.5488   6.5206373391e+01   3.6977760990e+01    0.2293566    0.1521495  40.22 0.0004222166    1.519    0.342
       379 -10.3797     62.6562    111.9358   8.2484817652e+01   4.6583666427e+01    0.2534721    0.2279326  22.90 0.0001361557    1.168    0.144
       380  -9.4738     49.9911    111.9819   8.7010292688e+01   4.8220119565e+01    0.2330944    0.2248785 -68.22  0.000315565    1.163    0.140
       381  -9.9720     46.7096    109.3133   8.7589097362e+01   4.9259549694e+01    0.2857696    0.2599096 -61.09  0.000824386    1.169    0.144
       382 -11.5360     46.0677    103.8335   8.6542870728e+01   5.0654320323e+01    0.4161527    0.2670717 -49.00 0.0003521865    1.392    0.281
       383  -9.9768    248.5155     22.3670   2.2736828955e+01   2.3867798320e+01    0.2016613    0.1418287 -71.24 0.0002709497    1.075    0.070
       384 -10.7387     35.0446    106.5878   9.1286342003e+01   5.1171549722e+01    0.6459802    0.2865688 -68.20  0.001716571    2.665    0.625
       385 -10.2938     15.9710    105.2222   9.8133172784e+01   5.3097542084e+01    0.5625145    0.2645435 -69.89  0.001941756    2.121    0.529
       386 -10.0987     21.5140    110.1607   9.7011647103e+01   5.1481799755e+01    0.3873428    0.2876936  35.94  0.000914149    1.575    0.365
       387 -10.4142     28.6898    109.9031   9.4331765468e+01   5.0951899160e+01    0.3841763    0.2784169 -25.49  0.001450339    1.381    0.276
       388  -9.8182     25.4990    106.9857   9.4926197294e+01   5.1940859994e+01    0.2881415    0.1929574 -54.34   0.00038102    1.275    0.216
