#   1 NUMBER                 Running object number                                     
#   2 MAG_AUTO               Kron-like elliptical aperture magnitude                    [mag]
#   3 X_IMAGE                Object position along x                                    [pixel]
#   4 Y_IMAGE                Object position along y                                    [pixel]
#   5 X_WORLD                Barycenter position along world x axis                     [deg]
#   6 Y_WORLD                Barycenter position along world y axis                     [deg]
#   7 A_WORLD                Profile RMS along major axis (world units)                 [deg]
#   8 B_WORLD                Profile RMS along minor axis (world units)                 [deg]
#   9 THETA_WORLD            Position angle (CCW/world-x)                               [deg]
#  10 FWHM_WORLD             FWHM assuming a gaussian core                              [deg]
#  11 ELONGATION             A_IMAGE/B_IMAGE                                           
#  12 ELLIPTICITY            1 - B_IMAGE/A_IMAGE                                       
         1  -8.9886     73.9067     19.4548   9.2333268710e+01   6.3622187756e+01    0.2976331     0.192513 -40.12 0.0007125658    1.645    0.392
         2  -8.3447    112.7358     16.9851   7.9114586652e+01   5.4995314115e+01    0.1989448     0.182358  -3.03 0.0003833414    1.083    0.076
         3  -7.9583      7.5194     15.5192   1.2761137407e+02   7.3541197967e+01    0.1230488    0.1026476 -44.29 2.445417e-05    1.077    0.072
         4  -8.5962     55.6611     10.1366   9.5041672447e+01   6.8546154575e+01    0.2022865    0.1877211  34.10 0.0006634704    1.272    0.214
         5  -8.2739     47.4572      9.8085   9.8956495464e+01   7.0033340938e+01    0.2491263    0.1188108 -40.04  0.001119928    2.084    0.520
         6  -8.2713     90.9434      9.0116   8.1113728036e+01   6.1206486793e+01    0.2180807    0.1695426 -59.85 0.0006307738    1.700    0.412
         7  -8.9384    234.9473      7.1990   6.0010702180e+01   2.5793527490e+01    0.2252501     0.156773 -32.35 0.0007977596    1.252    0.201
         8  -7.8791    101.1753      8.1539   7.7892997740e+01   5.8833342961e+01    0.1849572    0.1679635 -62.75 0.0004548746    1.305    0.234
         9  -8.5657     33.7391      5.6958   1.0431474052e+02   7.2812441580e+01    0.2814047    0.1910076 -62.59   0.00125175    2.807    0.644
        10  -8.6721     79.0409      3.7051   8.1973084352e+01   6.4537654546e+01    0.3019944    0.1721334 -38.47   0.00114129    1.970    0.492
        11  -7.4222     44.6686      3.3221   9.6385531788e+01   7.1475694171e+01    0.1195424    0.1067626 -62.90 0.0007049688    1.699    0.411
        12  -8.2505     62.1114      1.4790   8.6903091622e+01   6.8438264621e+01    0.1891954    0.1276435  49.18 0.0004475847    1.500    0.333
        13  -8.9992    120.2844    245.4957   1.3054530639e+02   1.1871180264e+01     0.264696    0.1547266  56.99  0.001428005    2.136    0.532
        14  -9.1963    211.1577    247.3242   1.1456861155e+02   3.5136990388e-01    0.2663615    0.1768557 -45.73  0.001590263    2.768    0.639
        15  -8.4617     93.9846    249.4322   1.3575741608e+02   1.4459159988e+01    0.2263729    0.1157898  58.34  0.001352586    2.272    0.560
        16  -7.1814     86.3310    250.6615   1.3725251394e+02   1.5156115234e+01      0.11057   0.05944632  53.59 0.0007051895    1.740    0.425
        17  -8.6635     55.0702    250.6344   1.4290896244e+02   1.8511430517e+01    0.1445437   0.07394527  34.44            0    1.517    0.341
        18  -8.3792     67.7260    245.4528   1.4031681239e+02   1.7967474388e+01    0.1847505     0.109452  80.50 0.0009293091    2.065    0.516
        19  -9.3449      9.7274    244.5625   1.5061854892e+02   2.3617349640e+01    0.3488901    0.0860403  74.48  0.001498858    5.280    0.811
        20  -9.9497    248.7690    242.1253   1.0783192608e+02  -3.4952443478e+00    0.2995161    0.1708586 -23.19  0.001301786    1.779    0.438
        21  -8.9029    247.9907    234.7334   1.0687856158e+02  -2.7459688054e+00    0.2172374    0.1262618 -18.77  0.000892186    1.605    0.377
        22  -9.5309    246.5198    229.2655   1.0629254839e+02  -2.0712601284e+00    0.3868385    0.1672382 -21.73  0.002224436    2.248    0.555
        23  -8.5512    202.0144    243.4764   1.1559718447e+02   1.8515380460e+00    0.1629471      0.14536 -26.11 0.0008582458    1.710    0.415
        24  -8.3486    169.0423    243.3340   1.2135519628e+02   6.0027740634e+00    0.1636349    0.1367359  44.35 0.0006381253    1.524    0.344
        25  -8.8530     77.9823    243.4593   1.3828455306e+02   1.7146222768e+01    0.2363917    0.1119104  57.58  0.001377444    2.236    0.553
        26  -9.6981    160.4320    240.6778   1.2259889982e+02   7.4263410510e+00     0.303833    0.2325616 -89.11  0.001920034    2.872    0.652
        27  -9.2257    183.0199    240.2399   1.1847554280e+02   4.5841353503e+00    0.2813313    0.1973555  51.80  0.001504062    2.203    0.546
        28  -7.9503    153.4307    242.2473   1.2406439523e+02   8.1280553342e+00    0.1170856    0.1092346 -79.55 0.0005538436    1.643    0.391
        29  -8.2604     88.1582    242.1523   1.3628147442e+02   1.6187735946e+01    0.1451861    0.1009077  56.20 0.0006815569    1.365    0.267
        30  -7.6293     49.3297    242.6603   1.4353166729e+02   2.0301641904e+01     0.112013   0.05360823  54.82  0.000705172    1.739    0.425
        31  -8.9638    241.3490    239.1301   1.0855305575e+02  -2.3940042476e+00    0.3696537    0.1619021  -9.70  0.002003226    2.832    0.647
        32  -8.1236    214.1943    241.2112   1.1324016431e+02   5.9945044828e-01    0.1352371    0.1053163  21.88 0.0006519848    1.322    0.243
        33  -8.8197    194.1016    239.6831   1.1645713832e+02   3.2434390228e+00    0.1570292    0.1328044   9.81 0.0005467692    1.291    0.225
        34  -9.3893    135.5955    239.2292   1.2704644862e+02   1.0803139401e+01    0.1998732     0.133878  51.92 0.0008234771    1.681    0.405
        35  -8.5225    209.2628    238.4801   1.1369316044e+02   1.4824397374e+00    0.2131788   0.08804584 -40.16  0.001005678    3.293    0.696
        36  -8.5949    129.3109    239.1013   1.2821803263e+02   1.1620332976e+01    0.2118499    0.1087003  49.54  0.001090387    2.094    0.522
        37  -8.3230      2.2104    239.5971   1.5178541310e+02   2.5001617805e+01    0.1200332   0.07958078  26.53 0.0009472638    1.620    0.383
        38  -9.1470    231.0509    237.1096   1.0990015791e+02  -1.0102737047e+00    0.1958142    0.1775021  -9.47 0.0008205085    1.811    0.448
        39  -8.0752    189.6954    237.3332   1.1691748537e+02   4.0644060112e+00   0.09818543   0.07836414  42.61 0.0003763231    1.662    0.398
        40  -8.3823     25.6520    236.8405   1.4757495971e+02   2.3469744412e+01    0.2220719   0.07621578  66.30  0.001165248    3.010    0.668
        41  -9.9090    214.8969    233.2294   1.1200690158e+02   1.3346080602e+00    0.3697259    0.3181053  79.48  0.002350958    3.416    0.707
        42  -9.0356    203.1045    234.8098   1.1423824029e+02   2.6420392067e+00    0.2297761    0.1733592 -48.30  0.001470841    2.358    0.576
        43  -9.7549    175.8903    233.5594   1.1889338541e+02   6.2928370007e+00    0.3389093    0.2207951 -54.98  0.002103926    2.685    0.628
        44  -8.0628    170.3995    236.1366   1.2022320312e+02   6.6956283747e+00    0.1203586     0.108982 -53.66 0.0006746089    1.715    0.417
        45  -9.0444     79.1524    234.7438   1.3743280727e+02   1.8349040640e+01    0.2345042    0.1354546  65.69  0.001164778    1.983    0.496
        46  -7.9580     57.9897    237.0000   1.4161316117e+02   2.0304113052e+01     0.174045   0.04732844  31.60 0.0007556562    2.934    0.659
        47  -8.3625    122.8783    234.3365   1.2895208024e+02   1.3107284297e+01    0.1908085    0.1354432  67.87  0.001151829    1.964    0.491
        48  -9.3914    108.7974    234.3013   1.3166623997e+02   1.4883762490e+01     0.307587    0.1901741  51.98  0.001145528    1.599    0.375
        49  -8.3544     99.8021    234.7068   1.3344339954e+02   1.5926163122e+01    0.1975586    0.1203872  64.53  0.001216039    2.063    0.515
        50  -8.8471      8.1106    235.1569   1.5065124594e+02   2.5239685484e+01    0.1436379   0.07950646  55.03 0.0006960755    1.303    0.233
        51  -9.2158     68.7038    232.7810   1.3930372675e+02   1.9827843703e+01    0.4115238    0.1369825  54.80  0.001856507    3.428    0.708
        52  -8.5310    194.7933    233.0571   1.1544389235e+02   3.8958337429e+00     0.158366    0.1273318  26.54 0.0007690462    1.308    0.235
        53  -9.0947    141.6823    231.2975   1.2500804465e+02   1.1096573889e+01    0.5173786    0.1957152  50.34  0.001974783    4.626    0.784
        54  -8.5144    132.7942    233.0082   1.2690469245e+02   1.2020335575e+01    0.1696926    0.1164317  62.46  0.001064345    2.051    0.513
        55  -8.2054     37.2122    233.0454   1.4529449864e+02   2.3017086317e+01    0.1770841   0.08059396  61.39  0.001080884    1.992    0.498
        56  -9.2280    186.5595    230.8081   1.1659955022e+02   5.2250031749e+00    0.2337752    0.2099409  77.57  0.001370967    2.133    0.531
        57  -8.4678     92.7130    231.9181   1.3457765645e+02   1.7206399595e+01    0.1774244    0.1028288  61.79  0.001066592    2.017    0.504
        58  -8.8222      1.8719    231.0667   1.5164946392e+02   2.6402335272e+01    0.2144063   0.08637297  64.89  0.001141364    1.993    0.498
        59  -9.9151    149.7782    226.3573   1.2286387256e+02   1.0700001109e+01      0.44859    0.3103958  82.70  0.002339078    3.599    0.722
        60  -8.1504    229.7820    228.9791   1.0892010190e+02  -5.7660016746e-02     0.133147    0.1217196 -20.54  0.000747825    1.880    0.468
        61  -8.5409     33.0258    229.1686   1.4589999895e+02   2.4050593906e+01    0.1367389     0.122861  44.15 0.0002479853    1.271    0.213
        62  -8.7954    162.2950    227.7803   1.2066187549e+02   8.8260051017e+00    0.2440594    0.1634198  49.68  0.001206834    1.844    0.458
        63  -8.9250    128.1819    227.5483   1.2719664242e+02   1.3404003817e+01    0.2376006    0.1530211  54.10  0.001199086    1.787    0.440
        64  -8.1310    119.9888    227.7670   1.2882812708e+02   1.4438593644e+01    0.1894505    0.1024767  51.34  0.001065569    1.993    0.498
        65  -9.1943    236.2056    229.8236   1.0800682407e+02  -9.1385572210e-01    0.3236885    0.1438615 -26.07  0.001690021    2.258    0.557
        66  -8.8149    206.0360    225.7543   1.1244553685e+02   3.2679972057e+00    0.2723971    0.1486989 -33.88  0.001311827    2.101    0.524
        67  -8.1063     49.2075    226.9533   1.4270087356e+02   2.2844077240e+01    0.1744447   0.08654156  63.42 0.0009788803    1.987    0.497
        68  -8.1783    223.4308    226.5199   1.0960068323e+02   9.7507885648e-01    0.1763676    0.1023408   5.93 0.0007055331    1.564    0.361
        69  -9.3757    225.4265    221.6144   1.0852924993e+02   1.2403054339e+00    0.2342353    0.1747349  -0.97 0.0009160456    1.163    0.140
        70  -8.2508    199.8999    226.1384   1.1357418941e+02   4.0227897677e+00     0.160192    0.1291177  24.00 0.0005431027    1.283    0.221
        71  -9.0522     94.1905    224.4592   1.3362719426e+02   1.8203721309e+01    0.3385044    0.1625876  57.58  0.001573487    2.569    0.611
        72  -8.8125    180.6820    224.5515   1.1680828600e+02   6.7645584809e+00    0.2209411    0.1657889  45.95  0.001018266    1.684    0.406
        73  -8.9169    104.8196    223.8210   1.3143688724e+02   1.6983792858e+01    0.2818088    0.1843324  70.57  0.001650234    2.079    0.519
        74  -8.8563    216.4576    223.2524   1.1028495786e+02   2.2028777783e+00    0.1941304    0.1838382 -43.85  0.001096033    2.006    0.501
        75  -8.9154    173.1130    223.1163   1.1801351093e+02   7.9704749198e+00     0.202953    0.1894945 -50.69 0.0008418919    1.616    0.381
        76  -8.0078    113.9629    224.0168   1.2962760025e+02   1.5785619698e+01    0.1779666    0.1166632  56.99 0.0007363271    1.717    0.417
        77  -7.7392     38.4547    224.5289   1.4464589281e+02   2.4315605207e+01    0.1079049   0.07809941  53.58 7.892837e-05    1.062    0.059
        78  -8.0531    140.1864    222.8529   1.2429797680e+02   1.2487534998e+01    0.1725582    0.1333202  44.31 0.0006873605    1.296    0.228
        79  -8.0928     59.6686    223.3529   1.4043001661e+02   2.2357414288e+01    0.1807029   0.09328086  56.13 0.0006610127    1.760    0.432
        80  -9.2199    239.3206    221.0184   1.0617012463e+02  -4.1720532418e-01    0.3031654    0.1611934 -15.60  0.001508002    1.765    0.433
        81  -9.2744    192.4505    221.2823   1.1420119116e+02   5.5819964884e+00    0.2271069    0.2082199  49.34  0.001170607    1.732    0.423
        82  -9.1577    160.0091    221.0740   1.2022120324e+02   1.0033236735e+01    0.4051589    0.1848747  48.68  0.001637003    2.935    0.659
        83  -9.1829    120.4355    219.4183   1.2783004507e+02   1.5649874714e+01    0.3550083    0.1976624  61.03  0.001789378    2.791    0.642
        84  -8.6256     82.9558    220.7694   1.3556438929e+02   2.0160222719e+01     0.248197    0.1232624  58.48  0.001300837    2.279    0.561
        85  -8.0588     27.5820    221.2311   1.4658233144e+02   2.5895225322e+01    0.1288724    0.0888679 -70.67 0.0009486882    1.673    0.402
        86  -8.2574      6.3189    221.6523   1.5060418134e+02   2.7628669661e+01    0.1124339   0.04847683  56.34 0.0007048713    1.732    0.423
        87  -8.2702    202.6560    220.1572   1.1221392078e+02   4.3514237838e+00    0.1511507    0.1309808  -9.77 0.0007170571    1.389    0.280
        88  -8.0356     72.8277    220.0432   1.3755543481e+02   2.1460860066e+01    0.1818011    0.1021889  65.21 0.0009755036    1.988    0.497
        89  -9.3481    248.1469    217.2536   1.0418430981e+02  -1.1076960548e+00    0.3192213    0.2882625 -72.73  0.002080713    3.517    0.716
        90  -8.2601    209.9410    219.0225   1.1076763112e+02   3.5189057906e+00    0.1748219    0.1402706 -14.32 0.0006640001    1.357    0.263
        91  -8.6467    179.1756    218.1404   1.1618543169e+02   7.7820467464e+00    0.1489926    0.1255461  33.53 0.0005599421    1.340    0.254
        92  -9.2137    132.9759    216.1248   1.2491332076e+02   1.4465740808e+01     0.407195    0.2387206  63.29  0.001981312    3.106    0.678
        93  -8.4951     62.3174    217.7732   1.3951397024e+02   2.3023032378e+01    0.2996901    0.1264475  53.87   0.00158041    2.239    0.553
        94  -8.9108     51.7481    217.3045   1.4161694787e+02   2.4230095588e+01    0.2379737     0.122722  77.92  0.001008448    2.265    0.558
        95  -8.6840    169.3854    216.1806   1.1775653239e+02   9.3988130960e+00    0.2103577    0.1851876  79.38 0.0007774479    1.916    0.478
        96  -8.6762    142.9758    216.6139   1.2297104408e+02   1.3016225579e+01    0.2403479    0.1675151  55.16  0.001402123    1.797    0.443
        97  -7.8235    111.8067    217.2198   1.2934033056e+02   1.7133520604e+01    0.1926572    0.1011621  59.31 0.0009400666    2.735    0.634
        98  -8.9209    232.3814    214.4357   1.0626283131e+02   1.1218047413e+00    0.2795494    0.1634932 -25.75  0.001356947    1.711    0.416
        99  -8.2940    154.3770    215.2472   1.2053682859e+02   1.1627758570e+01    0.1695238     0.150518 -56.21 0.0009780428    1.561    0.359
       100  -8.5071    185.8138    214.4756   1.1441728868e+02   7.3342630830e+00    0.1845883    0.1576341 -52.47 0.0007485943    1.865    0.464
       101  -8.9528     93.4513    214.3172   1.3282340105e+02   1.9962131480e+01    0.3302079    0.1517326  52.85  0.001332111    2.334    0.572
       102  -9.5013     73.5046    212.2836   1.3678970136e+02   2.2718084494e+01    0.5990893     0.190035  53.63  0.002327251    4.027    0.752
       103  -8.4617    224.9261    212.4639   1.0718761217e+02   2.2917023751e+00    0.1826255    0.1450436 -25.69 0.0007556196    1.589    0.371
       104  -9.5865    214.0128    211.7554   1.0893807600e+02   3.8117652970e+00     0.320151    0.2793249 -10.08  0.001532507    1.432    0.302
       105  -8.7591    161.7711    212.4421   1.1870231617e+02   1.0985077081e+01    0.2037384    0.1667447  47.57 0.0007929585    1.467    0.318
       106  -7.9011    106.4307    213.1303   1.3000688033e+02   1.8501300477e+01    0.1425856    0.1096707  86.64 0.0008653732    1.687    0.407
       107  -9.0266    204.4238    210.9914   1.1050320457e+02   5.1995117707e+00     0.220145    0.2001327 -28.23 0.0009142689    1.616    0.381
       108  -9.5349    175.4558    210.2510   1.1574118773e+02   9.3455593697e+00    0.2824543    0.2381398  82.10  0.001337283    2.251    0.556
       109  -9.3510      6.7612    209.6085   1.5016409111e+02   2.9703971815e+01    0.4821269    0.1072348  63.97  0.001928541    4.597    0.782
       110  -8.0964    192.3105    210.4797   1.1261573247e+02   6.9380673128e+00    0.1626365    0.1434937 -50.61 0.0009034169    1.823    0.451
       111  -8.7345    148.0363    210.5068   1.2115680620e+02   1.3213136419e+01    0.2185894    0.1752908  66.17  0.001164627    1.792    0.442
       112  -8.8517    116.1918    210.2565   1.2765415468e+02   1.7677569761e+01    0.2655285    0.1665144  61.49 0.0009039194    2.094    0.522
       113  -8.5623     32.9107    210.7538   1.4503663648e+02   2.7252202284e+01    0.3003794   0.08754253  55.35  0.001363017    3.149    0.682
       114  -9.2405    236.6245    207.7712   1.0449595962e+02   1.2913915764e+00    0.3042558    0.1616816 -30.34  0.001156226    1.951    0.488
       115  -8.2222    139.2791    208.2838   1.2263462322e+02   1.4792343528e+01    0.2218465    0.1525916  59.65     0.001009    1.987    0.497
       116  -9.4470    246.3474    207.2929   1.0285988334e+02   1.1479592042e-01    0.2282512     0.157411 -12.76 0.0006719457    1.273    0.214
       117  -8.0552    156.4166    208.1710   1.1915686550e+02   1.2362562560e+01    0.1413751    0.1192716 -59.77  0.000842393    1.687    0.407
       118  -7.9350    126.4525    208.5287   1.2531090008e+02   1.6552901936e+01    0.1213127   0.09878241  37.73 0.0008066995    1.083    0.077
       119  -9.1129     99.3658    206.1108   1.3073861176e+02   2.0609372420e+01    0.3075095    0.1879125  65.49   0.00137032    2.121    0.528
       120  -8.5501     56.7077    205.8100   1.3980784388e+02   2.5759220402e+01    0.2639245    0.1251534  63.98  0.001198506    2.357    0.576
       121  -8.9574    183.8620    204.1744   1.1321745207e+02   8.9618961911e+00    0.2636816    0.1902493  52.98 0.0008980506    2.047    0.511
       122  -8.1295    109.1861    205.2502   1.2854927676e+02   1.9457461225e+01    0.1646402     0.123225  55.09 0.0006468554    1.368    0.269
       123  -8.5929     85.8476    209.9183   1.3399171174e+02   2.1657626194e+01    0.2726259    0.1398035  53.87  0.001430172    1.976    0.494
       124  -9.4097    250.0979    202.1153   1.0141095510e+02   1.8235937905e-01    0.2955218    0.1400986 -26.65  0.001044923    1.958    0.489
       125  -9.3960    194.9844    203.6017   1.1104684891e+02   7.4403812805e+00    0.2912179     0.245878 -10.67  0.001087969    1.261    0.207
       126  -9.2844    192.4083    197.5216   1.1054138498e+02   8.6116074631e+00    0.2762568    0.2513554 -73.61  0.001427486    1.957    0.489
       127  -9.5616    163.9763    203.1167   1.1691749048e+02   1.2005323462e+01    0.3968188    0.2173534  48.11  0.001180528    2.174    0.540
       128  -8.5338    131.1132    203.8427   1.2373940900e+02   1.6654351263e+01    0.2374925    0.1720574  67.35  0.001027236    1.965    0.491
       129  -8.6629    211.0949    201.9953   1.0787696252e+02   5.3673496663e+00    0.2039176    0.1493105 -41.54 0.0006858687    1.951    0.488
       130  -9.7912    177.3819    200.7392   1.1392225638e+02   1.0377622692e+01    0.3042864    0.2065704 -40.02 0.0007200703    1.751    0.429
       131  -9.3307    243.0355    200.8024   1.0230446820e+02   1.2155980221e+00    0.2825971    0.1426108 -25.27  0.001003759    1.843    0.457
       132  -9.1047    140.6867    201.1782   1.2137863583e+02   1.5706185466e+01    0.3139918    0.2100424  61.77  0.001161367    2.232    0.552
       133  -8.5196     79.8654    201.2363   1.3444618083e+02   2.3937926198e+01    0.3109856    0.1559912  63.94  0.001498712    2.647    0.622
       134  -7.7965     73.3176    202.6294   1.3599564601e+02   2.4468036601e+01    0.1267586   0.07288601  59.72 0.0007034914    1.790    0.441
       135  -8.4412     48.4561    202.2012   1.4130235464e+02   2.7295993680e+01    0.2259378   0.09918115  56.09  0.001182696    2.147    0.534
       136  -7.9631     10.0082    203.0000   1.4930538606e+02   3.0651402038e+01    0.1604493   0.05174156  26.68 0.0007982955    2.914    0.657
       137  -8.0207    221.9525    201.0196   1.0582769561e+02   3.9858094000e+00    0.1487906    0.1384201  -2.14 0.0006821222    1.584    0.369
       138  -9.2740    237.0234    198.0170   1.0280271068e+02   2.3027241755e+00    0.3501938    0.1497448 -29.51  0.001862173    2.257    0.557
       139  -9.4523    149.5669    198.7077   1.1918380667e+02   1.4793483589e+01    0.3189736    0.2471676  81.32  0.001265871    2.242    0.554
       140  -8.8149    123.9907    199.3581   1.2465982686e+02   1.8407385012e+01     0.251682    0.1867476  78.85  0.001240107    1.992    0.498
       141  -9.4964    112.9434    198.5541   1.2693985969e+02   2.0096471725e+01    0.3881437     0.228817  60.60  0.001582563    2.280    0.561
       142  -9.1543     88.8298    198.8867   1.3225000267e+02   2.3249688152e+01     0.324966    0.1979491  72.21  0.001476619    2.187    0.543
       143  -8.4733    202.3017    197.8248   1.0876414644e+02   7.1345711756e+00    0.1892512    0.1830196   4.09 0.0009648143    1.553    0.356
       144  -9.1654     61.5575    197.1561   1.3808645997e+02   2.6838253501e+01    0.3657726    0.1757912  61.09  0.001695723    2.298    0.565
       145  -8.9716     12.9542    197.6572   1.4850772913e+02   3.1414049335e+01    0.2858267    0.1076962  64.09  0.001502313    2.401    0.583
       146  -7.9166     53.8103    196.9887   1.3977085969e+02   2.7716746358e+01    0.1978882    0.1026827  65.32  0.001066193    2.055    0.513
       147  -8.7535    215.8569    195.5426   1.0595906531e+02   5.4862963606e+00    0.2265479     0.160662 -35.33 0.0009161388    1.730    0.422
       148  -8.9240    185.2694    194.9523   1.1147232448e+02   1.0017159352e+01    0.2188164    0.1894048 -20.95 0.0006516636    1.315    0.240
       149  -8.2907    132.9587    195.8113   1.2226012011e+02   1.7708258305e+01    0.1900303    0.1626183 -83.90 0.0005842107    1.588    0.370
       150  -7.8936     35.9746    196.4989   1.4360460235e+02   2.9612671723e+01     0.172579   0.05478261  48.06 0.0007619762    2.511    0.602
       151  -9.5395    245.5259    193.6160   1.0067874306e+02   1.6694101183e+00    0.2428016    0.2058708 -20.31  0.001744234    1.582    0.368
       152  -8.6634    247.3274    189.6943   9.9708793107e+01   1.8618371686e+00    0.1756855    0.1370363   3.57 0.0009792182    1.158    0.137
       153  -9.0442    224.3316    193.4732   1.0413961410e+02   4.5473499420e+00    0.3446218    0.1540837 -34.06   0.00179015    2.324    0.570
       154  -8.9411    160.9798    194.4852   1.1620345307e+02   1.3739698992e+01    0.2721262    0.1942125  55.62   0.00101329    1.916    0.478
       155  -8.9412     43.9062    193.5278   1.4168968999e+02   2.9408744270e+01    0.3795582    0.1608727  59.99  0.001879169    2.431    0.589
       156  -8.3242    231.1998    194.2506   1.0311652136e+02   3.5101847337e+00    0.1450852    0.1230717  -4.85  0.000709539    1.338    0.253
       157  -8.6530     77.0900    193.9397   1.3434767980e+02   2.5632463017e+01    0.2200225    0.1597356  59.69 0.0007027727    1.323    0.244
       158  -8.4079    241.4148    192.2158   1.0109131100e+02   2.3653154045e+00    0.1414615   0.09601031 -27.49 0.0004577318    1.566    0.361
       159  -8.1588    199.0090    191.9899   1.0838670631e+02   8.3772338412e+00    0.1637516     0.151425  52.83 0.0006264212    1.690    0.408
       160  -8.2088    179.1277    191.8551   1.1215208138e+02   1.1379621546e+01    0.1798194    0.1548934  37.02 0.0005489525    1.341    0.254
       161  -8.5024    172.3460    191.9959   1.1351532062e+02   1.2389854195e+01    0.2045904    0.1637459  47.96 0.0008592203    1.530    0.347
       162  -9.1895    139.5367    190.5843   1.2009617992e+02   1.7604371033e+01    0.3354169    0.2584172  88.82  0.001348868    2.112    0.527
       163  -8.9649     21.4398    191.4919   1.4645159753e+02   3.1892763522e+01    0.3378163   0.04538806  46.76  0.001285833    4.114    0.757
       164 -10.3575     91.9921    188.7106   1.3041742214e+02   2.4729107061e+01    0.8638896    0.2191511  44.31  0.003093093    3.647    0.726
       165  -8.1131     90.3420    182.2915   1.3003755690e+02   2.6180601373e+01    0.2409506    0.1237855 -32.34 0.0009645057    3.740    0.733
       166  -9.1949    216.5965    187.7103   1.0447103678e+02   6.3507960143e+00    0.3456661    0.1831309 -30.76  0.001416552    1.888    0.470
       167  -8.5023    148.6306    189.5015   1.1799326630e+02   1.6403395062e+01    0.1859974    0.1573881 -81.99 0.0008597978    1.765    0.433
       168  -8.9889    129.4469    188.7677   1.2202019895e+02   1.9425085477e+01    0.2981616    0.1975448  60.57   0.00118904    2.035    0.508
       169  -8.7255      6.5606    190.2343   1.4955515702e+02   3.3332780470e+01    0.1436066   0.08760086 -74.03 0.0009585631    1.666    0.400
       170  -8.4517    237.1152    188.4727   1.0113024899e+02   3.3679662305e+00    0.2010544      0.13748 -14.73 0.0005111177    1.269    0.212
       171  -9.9013    120.9639    186.8452   1.2362485093e+02   2.1018915073e+01    0.4636512    0.2878838 -79.86  0.002190066    2.899    0.655
       172  -9.0571     34.3227    188.2347   1.4345648529e+02   3.1377696675e+01    0.3038532    0.1418448  70.21  0.001138077    2.262    0.558
       173  -9.2949    156.0224    187.5273   1.1612683249e+02   1.5585643589e+01    0.2884057    0.2080431 -53.83 0.0009023331    1.821    0.451
       174  -8.7049    191.6594    187.4720   1.0899055223e+02   1.0095566199e+01    0.2533547    0.2119652  69.96  0.001310666    2.196    0.545
       175  -9.0071     54.7549    186.9187   1.3875703382e+02   2.9572320871e+01    0.3585988    0.1700164  62.61  0.001536678    2.363    0.577
       176  -7.8045    230.5448    187.5012   1.0204372567e+02   4.3891753717e+00    0.1193363   0.09247448   4.64 0.0001775158    1.067    0.063
       177  -8.7947    164.9209    186.8622   1.1417531937e+02   1.4310374521e+01    0.2212874    0.2056033  80.00  0.001061165    1.565    0.361
       178  -9.2440    109.5279    186.0534   1.2609343689e+02   2.2817710421e+01    0.3421132    0.2239461  66.27  0.001253476    2.054    0.513
       179  -8.6521    249.3300    185.6324   9.8674502079e+01   2.0440737663e+00    0.1986422    0.1718787 -26.10 0.0008181726    1.689    0.408
       180  -8.8830    182.9299    184.8411   1.1022104713e+02   1.1813090306e+01    0.2391442    0.1740951 -36.70 0.0006835327    1.555    0.357
       181  -9.0071    210.1699    184.3052   1.0500774852e+02   7.7313080343e+00    0.2320531    0.1570354 -29.85 0.0005419365    1.536    0.349
       182  -8.7117    202.7390    184.5168   1.0639787517e+02   8.8187985909e+00    0.2476658    0.1601497 -41.68 0.0007774939    1.949    0.487
       183  -9.6646    174.5172    183.2688   1.1162025437e+02   1.3361525049e+01    0.3933729     0.304915 -57.69  0.001498075    1.948    0.487
       184  -8.7706    224.3566    183.1064   1.0230318281e+02   5.8000242121e+00    0.3448748     0.159693 -22.45   0.00165326    2.204    0.546
       185  -8.2089    196.9974    183.6891   1.0731930719e+02   9.8054229607e+00    0.1974032     0.157711 -40.47  0.000686547    1.626    0.385
       186  -8.5071      2.2573    183.8472   1.5024158635e+02   3.4896677390e+01    0.1956698     0.107943  42.48  0.001278623    1.513    0.339
       187  -8.6806    241.4269    181.8941   9.9252248045e+01   3.5333964974e+00    0.2993517     0.239802 -63.50  0.001663316    3.366    0.703
       188  -9.1100     44.5028    182.4778   1.4075314296e+02   3.1537397683e+01    0.3332973    0.1669675  58.67  0.001157972    1.929    0.482
       189  -8.2590    235.3809    181.3112   1.0012839284e+02   4.4438227587e+00    0.2220631   0.09827593 -25.24 0.0007867274    2.134    0.531
       190  -9.2531    147.6868    180.8686   1.1682364853e+02   1.7982120885e+01    0.3135025    0.2404801  70.10  0.001214712    1.998    0.499
       191  -9.5612     25.6237    178.7567   1.4483734024e+02   3.4073260706e+01    0.6322244    0.2000564  70.65  0.002260541    4.798    0.792
       192  -8.7025    137.3846    179.2419   1.1882117455e+02   1.9879199596e+01    0.2575755    0.2145878  79.15 0.0008442322    1.667    0.400
       193  -9.3597    191.5949    178.2914   1.0737894942e+02   1.1406340810e+01    0.2591361    0.2372325  39.61 0.0005904983    1.439    0.305
       194  -9.1691     35.9718    176.9267   1.4232503930e+02   3.3509363358e+01    0.4904797      0.18728  72.68  0.001969341    3.685    0.729
       195  -9.4681    248.6866    176.6725   9.7147569014e+01   3.1342493891e+00    0.3616801    0.1987723 -35.61  0.001941919    2.051    0.512
       196  -8.6470    250.5132    172.8633   9.6156955503e+01   3.3175882645e+00    0.2354812    0.1326882 -22.79 0.0006526381    1.531    0.347
       197  -8.5328    231.2220    177.1090   1.0004501659e+02   5.5432423800e+00    0.1943029    0.1491136 -31.53 0.0004476001    1.562    0.360
       198  -8.5611    217.5464    177.5428   1.0246711767e+02   7.5061680244e+00    0.2027676    0.1924222  -4.37 0.0007872326    1.498    0.332
       199  -8.5644    205.1008    177.6536   1.0472368368e+02   9.3874446818e+00    0.2012985    0.1608523 -27.65 0.0005470492    1.379    0.275
       200  -8.6112    129.4214    177.4792   1.2033080341e+02   2.1432247820e+01    0.2736587    0.1847906  69.32  0.001060299    2.374    0.579
       201  -9.2224    183.1584    176.1212   1.0863181502e+02   1.3067606291e+01    0.2842525    0.2184347 -46.17 0.0006421332    1.683    0.406
       202  -9.4394    104.4327    174.8267   1.2574186768e+02   2.5681470875e+01     0.482404    0.2419603  59.19  0.001805214    3.070    0.674
       203  -7.9116     97.4949    177.5458   1.2775652560e+02   2.6133535452e+01    0.1272061    0.1134591  40.72 0.0003488682    1.011    0.011
       204  -8.6753     89.0492    177.0232   1.2969627505e+02   2.7391343233e+01    0.2375241    0.1715983  62.36 0.0008136856    1.470    0.320
       205 -10.0389     57.3519    173.2037   1.3691450561e+02   3.2080047734e+01    0.7491415    0.3112145  71.82  0.002604443    4.703    0.787
       206  -8.7614     12.9306    176.9469   1.4762246123e+02   3.5487377142e+01     0.242891    0.1222122  59.86  0.000977719    1.701    0.412
       207  -9.3348    158.9940    175.2684   1.1344894852e+02   1.7111099961e+01    0.3384624    0.2440567  65.81   0.00121952    2.302    0.566
       208 -10.6322     76.0523    171.1253   1.3212486666e+02   3.0286311588e+01    0.9443283    0.4128192 -84.78  0.003249634    4.776    0.791
       209  -9.3492     74.6904    160.2696   1.3113318796e+02   3.2755948372e+01    0.2922433    0.1839235   6.76  0.001243016    2.394    0.582
       210  -8.5550    224.4592    174.4241   1.0068760113e+02   6.8710984416e+00    0.1915282    0.1055977 -38.70 0.0008449701    2.121    0.528
       211  -9.1608     66.6332    184.2339   1.3577983212e+02   2.8767440512e+01    0.3386754    0.1986917  69.01  0.001153178    1.947    0.486
       212  -9.4500    175.7223    172.2128   1.0941325808e+02   1.4873440990e+01    0.3321192     0.221432 -29.58  0.001101047    1.555    0.357
       213  -8.2304    143.0282    172.9931   1.1653896568e+02   2.0084902047e+01    0.1985923    0.1574859  63.74 0.0006655739    1.665    0.399
       214  -8.7801    134.7871    172.1079   1.1824776970e+02   2.1565149960e+01    0.1934261     0.175551  59.19 0.0006941954    1.268    0.211
       215  -9.5469    121.4531    170.4994   1.2107129559e+02   2.3964227268e+01    0.3486655    0.2710024  87.11  0.001093495    1.791    0.442
       216  -9.1713     45.0070    170.8262   1.3969585560e+02   3.3897539808e+01     0.383791    0.1968036  81.26  0.001600417    2.260    0.558
       217  -9.0620    230.3541    169.7326   9.8802823842e+01   6.5838206836e+00    0.3592278    0.1968762 -39.57  0.001901084    2.204    0.546
       218  -8.4240    205.8438    170.5453   1.0325861929e+02   1.0249569210e+01    0.2152348    0.1618538 -45.86 0.0007458754    1.851    0.460
       219  -8.7383    198.3961    170.2216   1.0458559759e+02   1.1483863956e+01    0.2445161     0.218535 -45.32  0.001008628    1.578    0.366
       220  -8.3675    237.0939    169.6493   9.7675825209e+01   5.6000985026e+00    0.1936257    0.1471044 -23.00  0.000644202    1.335    0.251
       221  -9.2687    167.3773    168.8836   1.1052890846e+02   1.6785182542e+01    0.3192512    0.2400316  61.64  0.001064532    1.989    0.497
       222  -8.5571    149.8017    169.8657   1.1449579437e+02   1.9530740250e+01     0.215852    0.1891287 -81.55 0.0007511258    1.604    0.376
       223  -8.3684    244.4255    169.2042   9.6416955677e+01   4.5960112829e+00    0.1554775   0.09861428 -31.76 0.0005049072    1.639    0.390
       224  -8.3791     88.7832    168.7280   1.2869216706e+02   2.9106374328e+01    0.2376046    0.1555876  77.01 0.0008391261    2.024    0.506
       225  -8.3564    218.8122    168.2460   1.0049181506e+02   8.5294076763e+00    0.1780119    0.1545084  -0.78 0.0006445794    1.208    0.172
       226  -8.0386    211.4445    167.9489   1.0174255750e+02   9.7216665096e+00    0.1831015    0.1137212 -29.77 0.0004994388    1.575    0.365
       227  -8.6116    111.5534    167.5429   1.2296397546e+02   2.6056819458e+01    0.2822707    0.1819082  67.95 0.0009567759    2.281    0.562
       228  -8.8969    191.8931    166.6151   1.0514218333e+02   1.3070078572e+01    0.2285871    0.1795952 -33.61 0.0005852807    1.403    0.287
       229  -8.8668    184.8963    166.5945   1.0651282724e+02   1.4231032957e+01    0.2312232    0.1685656 -49.64 0.0006328079    1.851    0.460
       230 -10.0811     95.1272    163.1468   1.2633974373e+02   2.9371380618e+01    0.7514451    0.3853326  67.94  0.002641785    4.168    0.760
       231  -9.1542     20.4359    166.1171   1.4529922960e+02   3.7150920091e+01    0.3304579      0.13727  59.83  0.001245149    2.300    0.565
       232  -9.9072    136.8676    164.5744   1.1648641661e+02   2.2611291974e+01    0.5881097    0.2773368  51.62  0.002328882    2.820    0.645
       233  -7.6672    251.0000    164.9685   9.4587210136e+01   4.1603136321e+00    0.1863886   0.05734453 -29.62 0.0006098061    2.875    0.652
       234  -8.5662    234.0065    165.0632   9.7299011010e+01   6.6227176812e+00    0.1901499    0.1467306  -4.38 0.0005339131    1.049    0.047
       235  -8.7261    159.6268    164.4180   1.1135634864e+02   1.8832859886e+01     0.227888    0.2022918 -84.00  0.000793328    1.636    0.389
       236  -9.6678     33.6410    163.5134   1.4189398132e+02   3.6565688322e+01    0.5380458    0.1636061  51.05  0.002185019    3.190    0.687
       237  -8.0718    239.8941    164.2702   9.6190157175e+01   5.8460389972e+00    0.1695566    0.1284144  -1.66 0.0004905215    1.022    0.022
       238  -8.5824    213.0067    163.7976   1.0065517702e+02   1.0042139559e+01    0.2139823    0.1633573 -18.69 0.0005580202    1.218    0.179
       239  -8.8967     60.3593    161.1339   1.3491591223e+02   3.4313352381e+01    0.4058797    0.2826854 -67.98  0.002277753    1.449    0.310
       240  -9.3724    245.9584    161.8758   9.4767218405e+01   5.2482347628e+00    0.3938769    0.1474984 -33.79  0.001843282    2.514    0.602
       241  -8.4879    204.9780    163.0244   1.0196401030e+02   1.1446812959e+01    0.1965552    0.1664511   3.18 0.0005492418    1.074    0.069
       242  -9.5335      3.4655    162.4253   1.4915598416e+02   3.9198441257e+01    0.3867415    0.1356343  48.50  0.001766073    2.326    0.570
       243  -8.8957    151.6421    161.1130   1.1249748905e+02   2.0764458878e+01    0.2706636    0.2274531 -83.42 0.0009743019    1.770    0.435
       244  -9.0568    177.4616    160.6377   1.0686337077e+02   1.6422202738e+01    0.2409745    0.2277302 -89.73 0.0009110228    1.532    0.347
       245  -8.7514    227.3418    159.0192   9.7219332099e+01   8.4151358233e+00    0.2690699    0.1865468 -45.81   0.00104122    2.090    0.521
       246  -9.6509    250.2043    157.7501   9.3306687976e+01   5.1240420979e+00    0.2937755     0.141586 -27.49 0.0009008137    1.802    0.445
       247  -8.6245    237.1276    158.9169   9.5585886259e+01   6.9218755613e+00    0.1804968    0.1521978 -17.71 0.0007809382    1.298    0.229
       248  -9.3217    167.7833    157.6213   1.0829749022e+02   1.8589594299e+01    0.3180758     0.269509 -87.65  0.001101923    1.900    0.474
       249  -8.6134    128.0465    158.7398   1.1753226889e+02   2.5169660968e+01    0.2937029    0.2004029 -45.55  0.001536824    1.572    0.364
       250  -9.6714    105.7179    157.6259   1.2283260705e+02   2.8946454927e+01    0.4721831    0.3543906 -74.74  0.001502273    1.606    0.377
       251  -8.4142    196.4818    158.0716   1.0257769003e+02   1.3580950752e+01    0.1904446     0.177693  12.13 0.0005101282    1.260    0.206
       252  -8.6531    188.0265    157.6020   1.0412962649e+02   1.5091866405e+01    0.2352212    0.1824164 -46.32  0.000696909    1.632    0.387
       253  -8.6013    218.0212    156.6371   9.8341667662e+01   1.0216754327e+01    0.2339097    0.1639253 -39.77   0.00108472    1.705    0.414
       254  -9.3117    157.6161    156.0614   1.1020140633e+02   2.0629777746e+01    0.2872636    0.2359811 -61.73 0.0009835222    1.633    0.388
       255  -9.3648    119.6205    155.4715   1.1900334148e+02   2.7192309749e+01    0.3708666    0.2686998  81.74  0.001477695    2.106    0.525
       256  -9.6648     81.5371    154.8035   1.2861964083e+02   3.3038943993e+01    0.4742138    0.2607051  63.76  0.001491992    2.490    0.598
       257  -9.3166     49.7386    155.4547   1.3705838784e+02   3.6742014190e+01    0.4033246    0.2003389  57.99  0.001622868    2.161    0.537
       258  -8.6917    144.5556    154.9839   1.1294868485e+02   2.3093876405e+01    0.2703768    0.2258744  75.86 0.0009345631    1.666    0.400
       259  -8.5191    243.2405    150.1145   9.2852186342e+01   7.0910193880e+00    0.2157232    0.1477963 -34.66 0.0008776057    1.588    0.370
       260  -8.8171    238.4301    150.0192   9.3588518103e+01   7.8449462306e+00     0.333082    0.1351463  27.98  0.001383005    3.066    0.674
       261  -8.0517    242.7525    154.9747   9.3906999817e+01   6.5624410276e+00    0.1565896    0.1305815 -16.23 0.0003233362    1.262    0.208
       262  -7.9563    239.7284    153.3354   9.4054794544e+01   7.2257594614e+00    0.1808562    0.1588573 -17.63 0.0002922852    1.348    0.258
       263  -8.0063    204.7531    155.5841   1.0051706505e+02   1.2554185249e+01    0.1646132    0.1202605  43.42 0.0003402952    1.552    0.356
       264  -9.8076    132.7243    152.8944   1.1534201851e+02   2.5520697449e+01    0.4579442    0.3413601  69.14  0.001215129    1.902    0.474
       265  -9.3770    133.4780    148.4852   1.1431789649e+02   2.6250814785e+01    0.3094487     0.247908 -35.97  0.001145322    1.308    0.235
       266  -9.6634     68.1144    153.8992   1.3203370321e+02   3.4975741662e+01    0.4352541    0.2419097  62.76  0.001531746    2.169    0.539
       267  -8.0183    232.7164    154.1292   9.5345155617e+01   8.2098343483e+00    0.1836905     0.140954 -31.50 0.0006191393    1.443    0.307
       268  -8.9434    151.1246    135.7652   1.0747367251e+02   2.5510381407e+01    0.3363556    0.2316876  15.56  0.001594949    1.692    0.409
       269  -9.0676    151.6137    152.7853   1.1090378755e+02   2.2267595590e+01    0.2617567    0.1986396 -57.59 0.0008919982    1.679    0.404
       270 -10.3256    149.0351    145.1014   1.0994628937e+02   2.4143368171e+01    0.6014557    0.4281307 -74.61  0.001870563    2.469    0.595
       271  -9.2623     20.1801    152.8954   1.4451887425e+02   4.0049377165e+01     0.187564    0.1300845  65.58 0.0005744004    1.279    0.218
       272  -7.7715    228.2686    152.6574   9.5781687309e+01   9.1042365986e+00    0.1135378   0.09643148 -40.66 0.0003091776    1.607    0.378
       273  -8.2819    182.6152    151.5840   1.0398956359e+02   1.6985278974e+01    0.2320631    0.1570921 -55.33 0.0008681146    2.230    0.552
       274  -9.8486     29.2952    150.8369   1.4199998713e+02   3.9753308961e+01    0.4360471    0.1865712  63.04  0.001959157    2.589    0.614
       275  -9.4940    248.8542    149.3725   9.1841532378e+01   6.3319909618e+00     0.302996     0.158203 -27.42 0.0007092362    1.655    0.396
       276  -8.8751    189.4894    150.3281   1.0235314837e+02   1.5973408264e+01    0.2727144    0.2241578 -41.45 0.0009126263    1.448    0.309
       277  -8.2923    162.4978    150.5760   1.0803047491e+02   2.0733132107e+01    0.2593036    0.1349605 -41.09 0.0007566165    2.008    0.502
       278  -8.7946     98.2364    150.7206   1.2362346487e+02   3.1532848139e+01    0.2695941    0.2001258  81.45  0.000867449    1.723    0.420
       279  -8.1305    213.0402    150.0308   9.7868059653e+01   1.1958502181e+01    0.1753223    0.1621675 -51.90 0.0004972825    1.592    0.372
       280 -10.0010     39.7231    147.3772   1.3890868592e+02   3.9579554229e+01    0.6006495     0.330652  79.11  0.003004161    2.007    0.502
       281  -8.7407      2.6440    149.1622   1.4876358952e+02   4.2120711533e+01    0.2367241   0.08671469  85.69  0.001083752    2.582    0.613
       282  -8.5211    198.8960    148.9268   1.0023945565e+02   1.4542036477e+01    0.2188764    0.1728169 -34.17  0.000519993    1.370    0.270
       283 -10.0118     89.0585    146.1182   1.2530630475e+02   3.3888268951e+01    0.6376686    0.3716716  83.02  0.002527421    3.110    0.678
       284  -8.9887    233.4819    147.5429   9.3873805126e+01   8.9434714435e+00    0.2308896     0.176466 -11.92 0.0007208114    1.094    0.086
       285  -9.2165     78.0912    147.3157   1.2845456572e+02   3.5154041724e+01     0.293561    0.2027511  79.40 0.0009598854    1.761    0.432
       286 -10.6265     54.8009    143.6837   1.3436319310e+02   3.8853331231e+01    0.8722482    0.5167247  89.29   0.00310525    1.931    0.482
       287  -8.0560    223.1961    146.8235   9.5430773696e+01   1.0710894159e+01    0.1780665    0.1282627   4.50  0.000343885    1.272    0.214
       288  -8.0008    206.7517    146.7252   9.8311366851e+01   1.3506747485e+01    0.1625289     0.154487 -15.06 0.0008975625    1.325    0.245
       289 -10.0355    139.1848    145.0131   1.1225330211e+02   2.5925233967e+01    0.4880147    0.3200163 -66.12  0.001259977    2.309    0.567
       290  -8.9497    123.3191    146.9970   1.1653488398e+02   2.8288197153e+01    0.2505021    0.1920231  23.35 0.0003108304    1.319    0.242
       291  -9.9401    124.9100    142.7929   1.1532182166e+02   2.8870429371e+01    0.4771552     0.341178 -79.59  0.001463792    2.147    0.534
       292 -10.2156    106.7017    144.5688   1.2034640391e+02   3.1533242448e+01    0.7077286    0.5628756 -76.03  0.002661895    1.486    0.327
       293  -8.2051    104.6819    139.3036   1.1991535591e+02   3.2989222249e+01    0.2543491    0.1908325 -37.18 0.0007525472    1.456    0.313
       294  -9.4946     13.6321    146.2399   1.4577917627e+02   4.2031603379e+01    0.3772606    0.1591286  54.53  0.001414912    2.220    0.550
       295  -8.2179    175.6327    146.1617   1.0429611136e+02   1.9125944134e+01    0.1999001      0.16912 -48.35 0.0006824313    1.454    0.312
       296  -9.2741    241.2716    144.5437   9.2016349762e+01   8.0960950507e+00    0.3852847    0.1998301  16.97   0.00163858    2.433    0.589
       297  -9.2390    243.6921    140.3059   9.0761579397e+01   8.2518663442e+00    0.3335713    0.2531308 -66.32  0.001746681    2.930    0.659
       298 -10.7595     69.2319    141.8597   1.3009630086e+02   3.7546411316e+01    0.5250702    0.4365959 -65.07   0.00225221    1.199    0.166
       299  -9.5893     68.5209    134.8056   1.2925024414e+02   3.9264332747e+01    0.5708229    0.3003027   6.70   0.00206427    3.843    0.740
       300  -8.8798    247.0673    144.0030   9.1016291091e+01   7.2632478323e+00    0.2557409    0.1576736 -10.35 0.0005009288    1.468    0.319
       301  -8.0503    250.1765    141.1409   8.9960741221e+01   7.1387009239e+00    0.1761865    0.1324908 -12.02 0.0004505958    1.065    0.061
       302  -8.0348    194.3959    144.1853   1.0009556088e+02   1.6062596309e+01    0.1780217      0.12231 -41.17 0.0004619466    1.624    0.384
       303  -9.1058    165.4726    143.9307   1.0599664068e+02   2.1361441289e+01     0.278979    0.2427722  48.20 0.0009634452    1.317    0.241
       304  -9.5282      2.7755    141.5601   1.4835741071e+02   4.3804905802e+01    0.4509165    0.1732608  74.93  0.002073711    2.581    0.613
       305  -8.4266    182.0897    141.7358   1.0201228637e+02   1.8683874874e+01    0.2221758    0.1855072 -41.26 0.0006074471    1.375    0.273
       306  -9.3388    140.1973    137.6179   1.1047547376e+02   2.7181143829e+01    0.3575429    0.2123931  11.36  0.001375609    2.780    0.640
       307 -10.0696     23.3184    138.1045   1.4256887204e+02   4.3159579568e+01    0.5357794    0.2401974  62.20  0.002485569    2.391    0.582
       308  -7.8570    218.6452    138.7936   9.4500185670e+01   1.2593439245e+01    0.1799227    0.1105667 -35.38 0.0006312506    1.622    0.384
       309  -8.7079    172.4506    138.4249   1.0329922640e+02   2.1027042604e+01    0.2704262    0.2201179 -60.42  0.000817159    1.693    0.409
       310  -8.1890    207.4737    137.9994   9.6301334098e+01   1.4666598418e+01     0.195488    0.1217653 -31.78 0.0005007997    1.528    0.346
       311  -8.6038    197.7382    137.6505   9.8032482625e+01   1.6472980075e+01    0.2474431    0.1741159 -42.27 0.0008149451    1.615    0.381
       312  -9.3749    188.1485    136.9191   9.9733844755e+01   1.8351314062e+01    0.3859369    0.2070282 -44.54  0.001002171    2.146    0.534
       313  -8.4338    162.7193    136.5689   1.0500847068e+02   2.3181184195e+01    0.2140606     0.179198 -65.03 0.0005330003    1.625    0.385
       314  -9.4337     39.0242    136.1368   1.3794016564e+02   4.2247216460e+01    0.3161367    0.1815866  78.99  0.001134467    1.916    0.478
       315  -9.1692    250.6062    129.7142   8.7498424974e+01   8.4860859282e+00    0.4302485    0.1025461 -29.47  0.001484056    3.626    0.724
       316  -8.9034    248.3059    135.3104   8.9020096263e+01   8.1521261267e+00     0.235295    0.1805496 -26.87 0.0008372385    1.282    0.220
       317  -8.7355    246.9052    130.3732   8.8177478511e+01   8.9955208101e+00     0.290115     0.164984 -40.75 0.0005626084    1.998    0.499
       318 -10.3905     83.2459    133.1898   1.2475141366e+02   3.7633826684e+01    0.6839367    0.3516782 -58.98  0.001861186    1.946    0.486
       319  -8.3255    231.5074    134.4344   9.1418075602e+01   1.1001872796e+01    0.2147688    0.1121064 -27.67 0.0001257686    1.699    0.412
       320 -10.1568    234.6600    130.8877   9.0147575256e+01   1.0945163829e+01    0.3278919    0.2740657 -59.50 0.0007465529    1.895    0.472
       321  -8.5134    179.5784    133.8105   1.0077393181e+02   2.0470262245e+01    0.2467611    0.2092051 -61.11 0.0007725975    1.623    0.384
       322  -9.1909    112.8429    133.2469   1.1654606158e+02   3.2942098150e+01     0.333264     0.258951  80.09 0.0009287592    1.732    0.423
       323  -9.2281    143.0529    131.8863   1.0853621628e+02   2.7770286889e+01    0.3218571    0.2575727 -69.81 0.0007955637    1.689    0.408
       324 -11.0772    132.6252    129.8712   1.1067112339e+02   3.0118983203e+01    0.9107214    0.5178592 -42.22  0.002857476    1.803    0.445
       325 -10.3891     98.2171    130.2809   1.1996696741e+02   3.6014498769e+01    0.6289555    0.2823212 -57.78  0.001691249    2.377    0.579
       326  -8.9297     99.1786    120.8987   1.1778073393e+02   3.7965825825e+01    0.4939145    0.2950266   0.21  0.001707806    3.649    0.726
       327  -8.4536    204.7107    130.3980   9.5110851208e+01   1.6305261465e+01    0.2364945    0.1530771 -39.59 0.0005834955    1.635    0.388
       328  -8.7222    153.6843    123.6568   1.0411350787e+02   2.7301412941e+01    0.2559425    0.1770756  13.74  0.001170538    1.753    0.430
       329  -9.8931     73.2504    129.2650   1.2698123376e+02   3.9936219559e+01    0.4757319    0.2945059 -86.72  0.001461918    2.120    0.528
       330  -9.9442     12.9765    129.4119   1.4480489060e+02   4.5944506085e+01    0.4881092    0.2103609  65.54  0.002141424    2.470    0.595
       331  -7.8932    220.5410    129.9769   9.2240374169e+01   1.3506937358e+01    0.1983704    0.1171921 -27.19 0.0004882212    1.528    0.345
       332  -8.2182    192.8988    130.1629   9.7278314314e+01   1.8545778917e+01    0.1966436    0.1875859 -34.79 0.0005467882    1.288    0.223
       333  -9.4694    168.2666    129.2970   1.0214327058e+02   2.3418127937e+01     0.317688    0.2411266 -55.11 0.0009197584    1.687    0.407
       334  -8.7018     25.4434    130.3713   1.4128042175e+02   4.4800711893e+01    0.2275321    0.1138979  -2.42 0.0009546457    3.529    0.717
       335  -7.9614      1.4897    130.4738   1.4811612756e+02   4.6404596451e+01    0.1191654   0.09684753  80.83 5.833644e-05    1.021    0.021
       336  -8.0966    211.6071    128.8888   9.3533256664e+01   1.5267070480e+01    0.1901343      0.11511 -39.70 0.0006966563    1.743    0.426
       337  -8.8493     84.6254    123.0746   1.2249392262e+02   3.9764149451e+01    0.3926478    0.2566573 -14.44  0.001444672    2.447    0.591
       338 -10.7447     44.8948    123.6585   1.3468652153e+02   4.4636709618e+01     1.109282    0.5066403  71.54  0.003994677    3.693    0.729
       339 -10.3308    118.1548    125.1776   1.1341099605e+02   3.3739614214e+01    0.6101179    0.4483164 -87.88  0.002057948    2.092    0.522
       340 -10.4909     60.0407    125.3434   1.3029987853e+02   4.2548003864e+01    0.7396107    0.4075416  73.49   0.00276037    2.693    0.629
       341  -9.0902     58.8010    115.7725   1.2912948854e+02   4.4998471128e+01     0.435199    0.2620262 -20.98  0.001858598    2.661    0.624
       342  -8.1838    228.3980    125.3277   8.9911378288e+01   1.2770794650e+01    0.1763761    0.1102948 -33.62 0.0007547482    1.512    0.339
       343  -8.9420    179.1863    124.7971   9.8773756330e+01   2.2067986863e+01    0.2682902    0.2456408  22.83 0.0007046139    1.116    0.104
       344 -10.2022     28.2076    122.0944   1.3962321885e+02   4.6551334840e+01    0.7809368    0.3123076  70.87  0.002783806    3.901    0.744
       345  -8.4362     26.7577    114.2325   1.3920436947e+02   4.8573386680e+01    0.2757933    0.1643774  -8.85   0.00119245    2.469    0.595
       346  -8.5061    188.4923    124.0763   9.6725792543e+01   2.0370597882e+01    0.2106433    0.1320123 -34.07 0.0005927758    1.543    0.352
       347  -9.6703    158.9430    121.9336   1.0248873223e+02   2.6581972554e+01    0.3730792    0.2944777  85.55  0.001263037    2.037    0.509
       348  -9.4985    152.7635    128.8526   1.0553982571e+02   2.6501279100e+01    0.4581541     0.261243 -52.71 0.0009871329    2.191    0.544
       349  -7.9633    195.0345    122.0100   9.4971902797e+01   1.9433026058e+01    0.2072815    0.1699931 -58.47 0.0005822072    1.681    0.405
       350  -8.8971    172.0160    121.8447   9.9578345248e+01   2.3993448705e+01    0.2453695    0.1998877 -32.01 0.0004888144    1.218    0.179
       351  -9.5385     71.0181    120.1088   1.2605894225e+02   4.2397213097e+01    0.3823957    0.2434145  76.52   0.00120852    2.187    0.543
       352  -9.1829     15.3154    119.8881   1.4334841495e+02   4.8043940957e+01    0.4429845    0.1862751 -23.98  0.001538123    5.338    0.813
       353 -10.2425    141.5828    117.7400   1.0560599994e+02   3.0835495088e+01    0.7105147    0.3488492 -47.64  0.001621556    2.183    0.542
       354  -9.6590    130.6701    118.0821   1.0846244050e+02   3.2898130486e+01    0.5135132    0.3194559 -56.53  0.001516509    1.930    0.482
       355  -9.6770      3.0978    117.5757   1.4686850088e+02   4.9331388434e+01    0.4910839    0.1999198  64.03  0.002239281    2.569    0.611
       356  -7.5884    231.4798    117.4975   8.7657553822e+01   1.3295226090e+01    0.1322517     0.112392 -16.34 0.0002025728    1.097    0.088
       357  -8.2331    219.4464    116.5329   8.9354879130e+01   1.5616230380e+01      0.13673    0.1163989  -9.28 8.027936e-05    1.019    0.019
       358  -8.5796    185.5227    116.0239   9.5378984785e+01   2.2278979514e+01    0.2140873    0.1341008 -34.40 0.0005392194    1.538    0.350
       359  -9.2064    181.4226    115.7228   9.6128004801e+01   2.3155423648e+01    0.2556785    0.1754446 -22.73 0.0008429576    1.450    0.310
       360  -9.9379    109.2171    114.1940   1.1339486058e+02   3.7729224139e+01     0.480088    0.3388006 -78.54  0.001281004    2.076    0.518
       361  -9.3670    109.2402    107.8400   1.1186247310e+02   3.9125349812e+01    0.3653604    0.2534471   9.45  0.001602621    1.972    0.493
       362  -8.2838    192.9193    115.2254   9.3745551234e+01   2.0928986504e+01    0.2040331    0.1875823 -40.56 0.0004964838    1.264    0.209
       363 -10.1216     92.6470    112.3329   1.1785090071e+02   4.0994888099e+01    0.5872567    0.3451482 -69.74     0.001461    2.253    0.556
       364  -9.0440     93.1947    105.1962   1.1603822205e+02   4.2546129046e+01    0.2859977    0.2036001  -5.14  0.001281157    1.981    0.495
       365  -9.9891     78.7958    112.5910   1.2218601311e+02   4.3087097777e+01    0.5532986     0.370451  82.47  0.001652501    2.160    0.537
       366  -8.9317     78.9370    105.1152   1.2054392350e+02   4.4837571819e+01    0.3970821    0.2557644   2.35  0.001293836    2.427    0.588
       367  -8.2625    167.3941    114.2997   9.8729647270e+01   2.6260455872e+01    0.1988914    0.1354126 -44.03 0.0005118779    1.560    0.359
       368  -9.0400    174.8820    112.0579   9.6564891771e+01   2.5114638850e+01    0.3353992    0.1913697 -45.69 0.0008150466    1.948    0.487
       369 -10.3817    133.5013    109.3569   1.0556976866e+02   3.4127546010e+01    0.6473854    0.3966448 -55.33  0.002351802    1.969    0.492
       370 -10.2058    128.5377    102.1306   1.0499569003e+02   3.6606355067e+01    0.3797089    0.3058394 -70.38  0.001208153    1.599    0.375
       371 -10.0169    121.8180    112.2584   1.0941011762e+02   3.5812806182e+01    0.4082293    0.2837768 -50.27 0.0008428064    1.495    0.331
       372  -9.8160     14.2017    111.1938   1.4291145494e+02   5.0212259456e+01    0.4216601    0.2054138  62.19  0.002017423    2.227    0.551
       373  -8.6198    159.2794    111.8664   9.9927574936e+01   2.8371788501e+01     0.254678    0.2207136 -66.66 0.0006554531    1.476    0.322
       374 -10.2018     66.2249    110.1303   1.2571498288e+02   4.5428237537e+01     0.557918    0.3441425 -72.90  0.002020039    1.763    0.433
       375  -9.1724     41.3664    110.3006   1.3392485564e+02   4.8241671968e+01    0.2781827    0.1578234 -25.09  0.001055459    2.659    0.624
       376 -10.4895    248.7733    106.9019   8.2746847632e+01   1.1660202019e+01    0.5136474    0.2133213 -26.26  0.002328633    2.074    0.518
       377  -7.6464    182.7241    109.3567   9.4278214750e+01   2.3955251496e+01     0.141281    0.1139295 -60.40 0.0003701706    1.652    0.395
       378  -8.3299    189.2618    107.8391   9.2613838995e+01   2.2857783899e+01    0.2613036    0.1589378 -35.63 0.0006689628    1.577    0.366
       379  -9.5235    139.9987    104.4393   1.0262650568e+02   3.3788870504e+01    0.4873457    0.3079283 -47.36  0.001575321    1.670    0.401
       380 -10.5635     45.4528    102.1757   1.3124061489e+02   4.9830419496e+01    0.8364456    0.4333697  69.19    0.0032783    3.028    0.670
       381  -9.1262     45.9078     92.6413   1.2933879508e+02   5.2139870155e+01    0.4318945    0.1817056  18.40  0.001665219    3.104    0.678
       382 -10.6214     22.9237    102.8706   1.3912377770e+02   5.1652942618e+01    0.7524211    0.3459547  66.65  0.002857942    2.852    0.649
       383  -8.6675    166.5116    104.2635   9.6349088610e+01   2.8231542499e+01    0.2697713    0.2323652 -48.65 0.0008098246    1.303    0.232
       384  -9.6902    150.6013    103.1331   9.9677438847e+01   3.1818831562e+01    0.4780629    0.2843021 -56.50  0.001277893    2.340    0.573
       385  -8.2575    175.6869    102.3725   9.3906899521e+01   2.6608017348e+01    0.2661265    0.1695225 -43.97 0.0007189604    1.666    0.400
       386  -8.4549    159.7373    100.9528   9.6972218219e+01   3.0273764061e+01    0.2650098    0.1991301 -51.13 0.0005031905    1.526    0.345
       387 -10.3721    108.9073     98.8159   1.0965310500e+02   4.1169278734e+01    0.5912824    0.4048507  70.21   0.00130396    2.273    0.560
       388  -9.1054    108.4230     92.4634   1.0807040197e+02   4.2645749082e+01    0.5500714    0.3113251  23.21  0.002086786    2.478    0.597
       389  -9.1917     82.0813    100.0763   1.1836291638e+02   4.5544866429e+01    0.3428214    0.2552287 -88.48 0.0009053921    1.767    0.434
       390  -9.2068     95.0058     97.1845   1.1348248805e+02   4.4068085681e+01    0.3246703    0.2377667 -59.68 0.0005599107    1.451    0.311
       391 -10.1304     63.8145     96.0249   1.2362390708e+02   4.9165474765e+01    0.5284874    0.3391616  79.08  0.001563819    2.349    0.574
       392  -9.2263      6.8229    103.4004   1.4461004098e+02   5.2536858559e+01    0.2742543    0.1640788  55.47  0.001174219    1.713    0.416
       393  -8.4813    164.7896     93.8388   9.3910623445e+01   3.0445801094e+01    0.2936783    0.1950908 -43.38 0.0006798815    1.560    0.359
       394  -9.4755    138.9868     91.9106   9.9435068225e+01   3.6458447642e+01     0.469617    0.3048712 -51.81 0.0006165049    1.766    0.434
       395 -10.7871    123.9642     90.7703   1.0309666138e+02   3.9879030870e+01    0.8329383    0.5727269 -13.75  0.001476247    1.918    0.479
       396  -8.1202    176.3247     93.0814   9.1287969862e+01   2.8038614016e+01    0.2128685    0.1778311 -32.27 0.0005399677    1.165    0.142
       397  -9.5112      5.1358     92.2615   1.4416954894e+02   5.5341667948e+01    0.3651345    0.1816641  54.83  0.001101577    2.196    0.545
       398  -8.3635    157.6836     91.4959   9.4830494816e+01   3.2432072863e+01    0.2572261    0.1356206 -35.53 0.0005554328    1.854    0.460
       399  -9.5075     34.8504     90.1147   1.3296689624e+02   5.3851229176e+01    0.4545169     0.255858  82.53  0.001853105    2.347    0.574
       400  -9.0034     23.0791     90.3146   1.3739183489e+02   5.4752486792e+01    0.2868358    0.2356085  -2.05  0.001515963    1.452    0.311
       401  -7.5655    183.2853     90.3082   8.9164041142e+01   2.6966394963e+01    0.1492142    0.1096052   8.60 0.0002605178    1.569    0.363
       402  -8.3289    150.9093     89.1404   9.5721910363e+01   3.4363997685e+01    0.2287474    0.2112221 -65.44  0.000634118    1.264    0.209
       403 -10.2205     86.7610     85.2029   1.1295557907e+02   4.8228610025e+01    0.8786623    0.5164742 -45.09  0.001535427    1.635    0.388
       404  -9.0579     65.9767     87.4613   1.2085997234e+02   5.0939745995e+01    0.5826175     0.307449   2.41  0.001799298    4.718    0.788
       405  -7.9083    188.2174     87.0268   8.7345417141e+01   2.6404815619e+01    0.1962728    0.1128011 -30.22 0.0006276548    1.641    0.391
       406  -9.8888     48.6305     84.5037   1.2663707277e+02   5.3848622924e+01    0.5271658    0.3090234  67.43   0.00204284    2.617    0.618
       407  -7.8201    179.2970     85.6743   8.8654265104e+01   2.8598461713e+01    0.1467481    0.1153625 -61.80 0.0004023975    1.628    0.386
       408  -9.7615    104.8258     83.2915   1.0652347220e+02   4.5324690526e+01    0.4512538    0.3242219 -64.81 0.0009867509    1.766    0.434
       409  -8.6589    105.4816     77.0227   1.0439716498e+02   4.6523937979e+01    0.3407635     0.230344   1.73   0.00133953    2.247    0.555
       410  -8.3822    158.0265     84.0360   9.2608468904e+01   3.3680602828e+01    0.2291947    0.2137397 -25.73 0.0003901275    1.065    0.061
       411  -9.1622    140.6463     82.6624   9.6300600896e+01   3.7857109279e+01    0.4069051    0.2590079 -47.32 0.0008664758    1.687    0.407
       412  -8.0720     35.3804     82.7612   1.3141358134e+02   5.5629968837e+01    0.2066763    0.1034617 -56.24 0.0009520942    1.703    0.413
       413  -9.3815     10.0388     81.2919   1.4112866264e+02   5.7800063055e+01    0.3972147    0.1731946  52.69  0.001592491    2.791    0.642
       414  -7.9900    185.2913     82.6527   8.6678302685e+01   2.7738520059e+01     0.148363     0.111952 -58.45 0.0007027808    1.664    0.399
       415  -9.5634     24.7670     80.7701   1.3524533903e+02   5.7002748215e+01     0.431296    0.2376479  74.44  0.001201176    2.415    0.586
       416  -8.4145    150.4140     80.8043   9.3384274856e+01   3.5987121362e+01     0.284314    0.1395892 -40.98 0.0006275835    2.026    0.506
       417  -9.1282    119.3322     79.9809   1.0118074044e+02   4.3046466826e+01    0.4329071    0.2627144 -50.36  0.001354794    1.801    0.445
       418  -8.9401     74.5939     80.3898   1.1587237424e+02   5.1337723160e+01    0.3290457    0.2413363 -73.51  0.001358099    1.668    0.401
       419  -8.8133    166.8292     79.7132   8.9448273758e+01   3.2407731571e+01    0.2585959    0.1945661 -19.04 0.0005766046    1.349    0.259
       420  -9.3185     65.3790     78.1749   1.1867713238e+02   5.3239135247e+01    0.3653528    0.2635265 -75.81  0.001506058    1.682    0.405
       421  -9.7810     63.3977     73.6402   1.1817801543e+02   5.4591194482e+01    0.4396825    0.2502536 -65.14  0.001273818    2.009    0.502
       422  -8.1210    184.0481     78.3303   8.5693070669e+01   2.8691598352e+01    0.1995788    0.1889586  13.08 0.0005026086    1.059    0.055
       423  -7.9868    174.6310     77.8654   8.7339189048e+01   3.0915760375e+01    0.2238588    0.1270809 -41.74 0.0008279088    1.780    0.438
       424  -9.4053    128.0835     75.4373   9.7321012035e+01   4.2033091243e+01     0.394386    0.2785633 -60.71 0.0007252212    1.852    0.460
       425  -7.6570    157.2942     76.6622   9.0575557817e+01   3.5127333595e+01    0.1528465    0.1195582 -64.89 0.0005312661    1.649    0.394
       426  -8.7578    140.2601     75.1119   9.4072346161e+01   3.9339243077e+01    0.3118862    0.2343106 -49.69 0.0009029619    1.459    0.314
       427  -9.7244     82.3454     72.6494   1.1077788735e+02   5.1822388315e+01    0.6394654    0.3108191 -55.73  0.002396612    2.287    0.563
       428  -8.2956     85.6729     63.6975   1.0664251498e+02   5.3172372887e+01    0.4154131    0.2146083  20.96  0.001395231    3.356    0.702
       429  -8.1810    163.4650     73.4464   8.8280513483e+01   3.4227433581e+01    0.2618133    0.1304273 -42.69 0.0008600882    2.070    0.517
       430  -8.8956    115.8155     73.2390   1.0005971455e+02   4.5146097437e+01    0.2590513    0.2070306 -50.07 0.0006050928    1.331    0.249
       431  -7.8057    151.4493     73.4716   9.0904047926e+01   3.7037445434e+01    0.1524143    0.1452081  -8.38 0.0001692677    1.015    0.015
       432  -9.2326    105.8778     71.9550   1.0264659094e+02   4.7493466366e+01    0.3297023    0.2129692 -56.14 0.0008166461    1.851    0.460
       433  -8.5495     42.4734     72.7456   1.2638094609e+02   5.7399746673e+01    0.2602031    0.1300077 -68.49 0.0006547292    2.058    0.514
       434  -7.7614    175.5136     72.5371   8.5610858525e+01   3.1555992086e+01    0.1492234    0.1397245  -6.48 9.433155e-05    1.010    0.010
       435  -9.2136     95.1474     71.1316   1.0584934998e+02   4.9804098718e+01    0.3824731    0.2461117 -58.97  0.000841779    1.900    0.474
       436  -9.2427     28.7450     70.8278   1.3173411414e+02   5.9155595819e+01    0.4228774    0.1971015 -35.09  0.001788405    2.532    0.605
       437  -7.4673    170.6143     71.2950   8.6187306207e+01   3.2897472594e+01     0.153383    0.1175929 -71.43 0.0007015775    1.769    0.435
       438  -9.5282     51.4001     69.6349   1.2187931230e+02   5.7131322596e+01    0.4525484    0.2670011 -74.61  0.001399098    2.184    0.542
       439  -8.6980    146.9909     68.4759   9.0350635740e+01   3.8944417345e+01    0.2901984    0.2024223 -47.07 0.0005891836    1.544    0.352
       440  -8.9056    138.6354     66.2123   9.1606897671e+01   4.1305409902e+01     0.333373    0.2377194 -56.31 0.0007929725    1.718    0.418
       441  -8.8302    121.6131     66.1395   9.6042357687e+01   4.5241078368e+01    0.3299442    0.2429328 -61.06 0.0008011016    1.744    0.427
       442  -7.3693    203.2974     66.7203   7.9235174798e+01   2.6046319687e+01    0.1382323    0.1051187 -57.60 0.0003115098    1.538    0.350
       443  -7.3397    163.6566     65.7128   8.5866759769e+01   3.5430910276e+01    0.1575132    0.1129668  20.94 0.0004690149    1.647    0.393
       444  -9.2207    110.2345     63.2870   9.8369633897e+01   4.8297060486e+01    0.4983576    0.2535732 -42.73  0.001236439    1.956    0.489
       445  -8.6911     64.5154     63.5718   1.1469284369e+02   5.6755984608e+01    0.4177066    0.2363172 -19.52  0.001559123    2.953    0.661
       446  -8.7427     37.3008     64.3495   1.2651248696e+02   5.9966545585e+01    0.2707554    0.2085935  74.14 0.0008892053    1.631    0.387
       447  -8.3380    157.0218     69.9667   8.8578102242e+01   3.6320298786e+01    0.2369581    0.1809771 -61.61 0.0004625831    1.643    0.392
       448  -7.3572    187.5318     63.5071   8.0818921785e+01   3.0102315220e+01    0.1455426    0.1360352 -23.51 0.0008096384    1.027    0.026
       449  -8.4255    158.1572     61.8043   8.5757896878e+01   3.7371173736e+01    0.2046861    0.1708853  14.70 0.0003649162    1.277    0.217
       450  -8.8860     16.6802     70.2157   1.3677897235e+02   6.0167269966e+01    0.2742408    0.1828318  78.26 0.0009258227    1.697    0.411
       451  -9.4525     97.8397     60.3213   1.0124873806e+02   5.1491559479e+01      0.47209    0.3339737 -28.44  0.001803313    1.446    0.309
       452  -9.5789     73.3721     59.5595   1.0981999868e+02   5.6235622279e+01    0.4277588    0.2719247 -61.21 0.0009646305    1.933    0.483
       453  -7.7991    164.4915     60.4257   8.4042591865e+01   3.6052469249e+01    0.1491674    0.1423611   3.00 8.352502e-05    1.017    0.017
       454  -8.2854    147.1541     59.1935   8.7275682343e+01   4.0453071576e+01    0.2072799    0.1771034 -55.70 0.0004785748    1.311    0.237
       455  -7.9623     88.8371     59.3756   1.0399304054e+02   5.3473889232e+01    0.2058337    0.1816987 -45.63  0.000539835    1.162    0.139
       456  -9.8237     23.5556     56.6910   1.3092303645e+02   6.3014339140e+01    0.4849381    0.2765813  80.66   0.00212026    2.719    0.632
       457  -9.5769      7.5559     57.4030   1.3866244346e+02   6.3800082493e+01    0.3386326    0.2078649  73.65  0.001256085    1.953    0.488
       458  -8.8135    130.8027     57.7705   9.0698301050e+01   4.4615308083e+01    0.3093471    0.2017873 -44.36 0.0006557719    1.611    0.379
       459  -9.3581    119.3154     56.0656   9.3154574155e+01   4.7599058317e+01    0.3341592    0.2586406 -62.02 0.0007442859    1.638    0.390
       460  -9.5385     54.3951     55.7177   1.1638346347e+02   5.9985816658e+01    0.3683013    0.2582674 -70.70  0.001067326    1.785    0.440
       461  -8.7850     44.0625     55.8143   1.2105601011e+02   6.1267646469e+01    0.2955745    0.1959953 -67.77 0.0009773317    1.648    0.393
       462  -9.2047    245.2153     55.3354   7.1017234011e+01   1.8660419090e+01    0.2241211    0.1806429 -28.28  0.000443141    1.048    0.046
       463  -8.2842    139.8900     56.0995   8.7893041494e+01   4.2715461439e+01    0.2389881    0.2023854 -58.33 0.0005354097    1.354    0.261
       464  -8.6809    105.8984     53.3765   9.6107590325e+01   5.1106824196e+01    0.2820717    0.2048703 -52.10 0.0006013223    1.581    0.367
       465  -9.6185     92.3788     50.8326   9.9559866112e+01   5.4456667149e+01    0.4707935    0.2552972 -50.58   0.00108043    2.164    0.538
       466  -8.4086     74.5053     52.0014   1.0662792372e+02   5.7640803370e+01    0.3016609    0.1778758   0.13  0.001037928    3.462    0.711
       467  -7.8274    158.4907     49.5214   8.1677766522e+01   3.9149487552e+01     0.148345    0.1443049 -26.43 -6.521203e-06    1.042    0.041
       468  -8.0576    144.6731     48.8146   8.4279275073e+01   4.2686851780e+01    0.2179698    0.1304794 -38.26 0.0007270771    1.662    0.398
       469  -8.5060    129.8928     49.1502   8.7843867107e+01   4.6261987435e+01    0.2290729    0.2078171 -61.09 0.0005212361    1.250    0.200
       470  -8.8412    120.9786     47.1777   8.9409700709e+01   4.8722305954e+01    0.2848893    0.2100836 -29.40 0.0006379842    1.341    0.254
       471  -8.4075    112.1983     46.9645   9.1770123902e+01   5.0816970059e+01    0.2292272    0.2003549 -55.67 0.0006095358    1.312    0.238
       472  -9.0751     82.0633     46.7493   1.0166082743e+02   5.7293706562e+01    0.2832341    0.2306384 -55.33 0.0007553763    1.424    0.298
       473  -8.4700     45.1444     44.7998   1.1683594587e+02   6.3637873238e+01    0.2340017    0.1743843 -59.93 0.0006785552    1.408    0.290
       474  -8.6928     16.7328     44.8428   1.3138738150e+02   6.6325874773e+01    0.2322301    0.1635577 -85.63 0.0007979408    1.619    0.382
       475  -8.7385    132.8636     43.4808   8.5035739754e+01   4.6416299160e+01    0.2893508    0.2259216 -60.07 0.0008012519    1.549    0.355
       476  -8.6049     92.8553     42.8166   9.6187352608e+01   5.5832439741e+01    0.2396302    0.1967374   6.94  0.001031508    1.275    0.216
       477  -9.3593     69.6147     41.5517   1.0444876351e+02   6.0606776916e+01    0.4001518    0.2725338 -59.72  0.001188292    1.951    0.487
       478  -8.9335     58.0691     42.5442   1.0988542237e+02   6.2316009942e+01    0.2664718    0.1927872 -60.71 0.0009095052    1.668    0.400
       479  -9.6513      5.1739     41.8652   1.3686365531e+02   6.7647700158e+01    0.3904135    0.1996968 -88.03  0.001545089    2.305    0.566
       480  -8.7971    105.9890     41.4456   9.1412964938e+01   5.3166736664e+01    0.2819073     0.199528 -47.15 0.0005990449    1.572    0.364
       481  -7.9850    186.2428     41.5594   7.4467714999e+01   3.3364421006e+01     0.189305    0.1299384  48.78 0.0004611554    1.505    0.336
       482  -8.1196    140.4289     41.4958   8.2594059037e+01   4.4823984308e+01    0.1483245    0.1445983 -22.39 0.0002282902    1.052    0.050
       483  -8.4005     36.8124     40.9353   1.1960127684e+02   6.5476525752e+01    0.2377655    0.1822411 -71.20 0.0008795876    1.548    0.354
       484  -8.9297     95.3982     38.0382   9.3330210286e+01   5.6107714207e+01    0.3070056    0.2114041 -50.60 0.0009972926    1.730    0.422
       485  -8.1261     80.5776     36.7814   9.8026354351e+01   5.9433447517e+01    0.2021929    0.1326276 -46.42 0.0004236701    1.656    0.396
       486  -9.5110     26.1827     35.5162   1.2337359866e+02   6.7752472136e+01     0.345826    0.2317634 -72.87 0.0009529085    1.778    0.437
       487  -8.0053    125.9509     35.5378   8.3654297157e+01   4.9292649857e+01    0.2192798    0.1455744  55.67 0.0003584456    1.497    0.332
       488  -8.5916    111.9108     34.5240   8.6862127574e+01   5.2867060993e+01    0.2802473    0.1955279 -45.87 0.0006139057    1.595    0.373
       489  -8.5051    119.0969     33.1042   8.4377580299e+01   5.1331341621e+01    0.3233093    0.1748589 -49.36 0.0009307087    2.340    0.573
       490  -7.9704     88.5225     34.5022   9.4126815974e+01   5.8185307806e+01     0.146747    0.1368658  -2.76 3.111306e-05    1.036    0.035
       491  -8.9745     48.4290     33.3308   1.1060598036e+02   6.5630336238e+01    0.3014854    0.2165201 -53.25 0.0008806226    1.488    0.328
       492  -8.5750     60.8804     32.9033   1.0446228350e+02   6.3778049839e+01    0.2087111    0.1932698 -19.73 0.0005597408    1.099    0.090
       493  -8.2142    139.6463     32.1211   7.9297215041e+01   4.6306185964e+01    0.2378203    0.1727943 -44.19  0.001138761    1.460    0.315
       494  -8.8020     72.0169     30.9979   9.8772780449e+01   6.2123318000e+01    0.3202287    0.1938175 -44.47 0.0008081393    1.742    0.426
       495  -8.9187     12.8455     30.2682   1.2937804152e+02   6.9954592385e+01    0.3492423    0.1731742 -71.96  0.001456529    2.176    0.540
       496  -8.0592    101.4945     29.5183   8.7713099260e+01   5.6068074775e+01     0.235574    0.1309212 -40.30 0.0006382017    1.894    0.472
       497  -8.1379     41.9429     30.3142   1.1262538943e+02   6.7128339778e+01    0.1853321    0.1646852 -12.47 0.0005025436    1.073    0.068
       498  -8.8744     81.5055     27.7825   9.3566654915e+01   6.0763032578e+01    0.3111711     0.233062 -61.59 0.0008743373    1.922    0.480
       499  -8.5898      3.4921     27.5304   1.3433422914e+02   7.1066290445e+01    0.2501151    0.1582536  64.51  0.001039451    2.282    0.562
       500  -8.8971    152.1121     27.7998   7.5350619924e+01   4.3645987793e+01    0.3251392    0.1257579  71.95  0.001040756    3.388    0.705
       501  -8.7795     91.8413     26.2713   8.9263918829e+01   5.8754231411e+01    0.3044976    0.1897049 -43.73 0.0009020698    1.796    0.443
       502  -7.5490    130.6285     27.2805   7.9333983222e+01   4.9225762528e+01     0.151578    0.1141248 -69.76  0.000701232    1.696    0.410
       503  -8.1113    104.4615     23.0031   8.3950941610e+01   5.6277061308e+01    0.2163276    0.1412622 -25.62 0.0005154168    1.531    0.347
       504  -8.0189     34.7730     23.2114   1.1334438731e+02   6.9464850180e+01    0.1902601    0.1422098  76.22 0.0009258235    2.616    0.618
       505  -8.7744     63.6159     21.1348   9.7485055340e+01   6.5372587277e+01    0.2837154      0.21392 -53.29 0.0008375757    1.728    0.421
       506  -8.8043     48.4437     21.7418   1.0508393556e+02   6.7855413881e+01    0.2414239    0.2037359 -43.78 0.0006569666    1.305    0.234
       507  -8.0808     19.6184     21.7188   1.2196443379e+02   7.1341069830e+01    0.1697256    0.1121059 -61.57 0.0004819561    1.556    0.357
       508  -7.5627    120.6821     21.3006   7.9110343183e+01   5.2487567719e+01    0.1470284    0.1130851 -63.82  0.000539266    1.619    0.382
       509  -9.0597    175.7803    247.5380   1.2066184361e+02   4.6650791314e+00    0.2410224    0.2073138 -55.75  0.001089751    1.955    0.488
       510  -8.1617     38.7981     18.5837   1.0870340923e+02   6.9840071505e+01    0.1654805    0.1240793  37.89 0.0004939691    1.554    0.357
       511  -8.6132    156.4661    248.2844   1.2419345705e+02   6.9988110189e+00    0.1988253    0.1457427  54.48 0.0009284377    1.861    0.463
       512  -8.0446    113.3781    248.6957   1.3211927825e+02   1.2274523279e+01    0.1558019    0.1059998 -69.93 0.0008171208    2.108    0.526
       513  -9.0274    243.0903    246.8431   1.0937382185e+02  -3.2826413708e+00    0.2765976    0.1242337 -21.78  0.001775347    2.222    0.550
       514  -8.8854    232.7296    247.3452   1.1106761010e+02  -2.1656202554e+00    0.1791089     0.139812  -8.81  0.000765524    1.455    0.313
       515  -8.5339    218.7320    247.4231   1.1333328424e+02  -5.5508766071e-01    0.2248476    0.1323342 -32.97  0.001548699    2.122    0.529
       516  -7.9513     29.9747     16.0201   1.1265199988e+02   7.1447752895e+01     0.177904    0.1597901 -81.43 0.0004676862    1.638    0.389
       517  -8.6621    131.9180    247.7241   1.2860834703e+02   1.0136845625e+01    0.1651113    0.1509747  61.09  0.000635975    1.409    0.290
       518  -9.0237    103.8959    246.8401   1.3371537190e+02   1.3665941160e+01    0.2791107    0.1685917 -86.80   0.00173294    2.769    0.639
       519  -8.2163     87.8263     17.7848   8.6502753619e+01   6.0852397728e+01    0.1836229    0.1704976 -58.52 0.0004009272    1.316    0.240
       520 -10.0795    224.0772    244.4251   1.1205527598e+02  -8.9388688333e-01    0.3515413    0.2027213 -39.01  0.002332686    2.614    0.618
       521  -8.8218    147.1133    246.1241   1.2565348694e+02   8.4417332283e+00    0.2340483    0.1623708  62.51  0.001364084    2.302    0.566
       522  -8.4010    146.8812    240.3789   1.2506250405e+02   9.2057963660e+00    0.2753473    0.1884267  65.28  0.001688635    2.539    0.606
       523  -7.3026     76.3320     10.6635   8.6750708620e+01   6.4323280662e+01    0.1367043    0.1103732 -61.78 0.0007052114    1.737    0.424
