#   1 NUMBER                 Running object number                                     
#   2 MAG_AUTO               Kron-like elliptical aperture magnitude                    [mag]
#   3 X_IMAGE                Object position along x                                    [pixel]
#   4 Y_IMAGE                Object position along y                                    [pixel]
#   5 X_WORLD                Barycenter position along world x axis                     [deg]
#   6 Y_WORLD                Barycenter position along world y axis                     [deg]
#   7 A_WORLD                Profile RMS along major axis (world units)                 [deg]
#   8 B_WORLD                Profile RMS along minor axis (world units)                 [deg]
#   9 THETA_WORLD            Position angle (CCW/world-x)                               [deg]
#  10 FWHM_WORLD             FWHM assuming a gaussian core                              [deg]
#  11 ELONGATION             A_IMAGE/B_IMAGE                                           
#  12 ELLIPTICITY            1 - B_IMAGE/A_IMAGE                                       
         1 -14.0576     68.6573    144.4017   9.6591105535e+01   3.7491962446e+01     4.400099     2.316834  75.81  0.004094898    4.614    0.783
         2 -13.4599    218.6395     30.3824   3.5355162458e+01   2.7466826010e+01      0.98274    0.8256234  41.04  0.006413468    1.681    0.405
         3 -13.6417    205.8265     41.8710   3.9210943909e+01   2.8776871697e+01     1.724962     1.347455  30.48  0.008119247    1.920    0.479
         4 -10.2423      2.2638     17.4169   8.9149127342e+01   7.1877510040e+01    0.2733286   0.09600255 -53.90  0.001209036    3.636    0.725
         5 -12.0163    247.3610      7.7181   2.8679679803e+01   2.4292862810e+01    0.6452816    0.4109328 -29.10  0.004143805    2.018    0.504
         6 -12.2163    241.9837      7.7143   2.9018431719e+01   2.5332627853e+01    0.7552589    0.3847712 -39.54  0.004551601    1.840    0.456
         7 -10.1651     50.5601      3.5816   5.8799593721e+01   6.7400129026e+01    0.4115848    0.2124469  63.20  0.001828408    3.541    0.718
         8  -9.3914      1.7761      4.0402   8.3312291142e+01   7.3876266231e+01    0.1392328   0.07537223 -37.62 0.0007089833    1.694    0.410
         9 -10.0077    186.8507    174.9911   7.2632550731e+01   9.0716689111e+00    0.3426679    0.3004601 -51.57  0.001370888    1.244    0.196
        10 -14.3697     36.9964    196.6665   1.1231751263e+02   2.8552493414e+01     2.948483     1.398234  78.18  0.008759474    2.701    0.630
        11 -13.6980     46.4266    187.7979   1.0908250641e+02   2.9571182484e+01     1.857416     1.150174  64.81  0.009359471    1.673    0.402
        12 -11.2181     68.1085    167.9926   1.0074581140e+02   3.1626753374e+01    0.3487483    0.2896262 -19.41 0.0005552925    1.516    0.341
        13 -16.4881     16.1716    242.7778   1.2023659681e+02   2.0704551851e+01     6.972905     2.665637  22.98   0.02914713    4.210    0.762
        14  -9.1143    115.3125    173.3229   8.9053194391e+01   2.2685358978e+01    0.1524045     0.118898 -15.15 0.0007039586    1.656    0.396
        15 -11.9975     84.9738    152.7408   9.3399423698e+01   3.2899749260e+01     1.595727    0.6152624 -57.34  0.002794318    2.507    0.601
        16 -11.9185     77.6668    159.1760   9.6639903878e+01   3.2433267183e+01    0.8013768    0.5472335  56.15 0.0004265984    1.590    0.371
        17 -12.7218     65.0089    154.8647   9.9500986697e+01   3.5364554825e+01    0.5258583    0.4369256 -36.13  0.001143969    1.343    0.255
        18  -9.3392    119.7032    245.4823   9.9097964539e+01   6.5727192780e+00    0.3099362    0.1011096 -49.65  0.001220882    3.510    0.715
        19  -8.4350    110.5140    167.4914   8.9204660518e+01   2.4927152293e+01    0.1512856    0.1447534  71.28 8.125473e-05    1.040    0.039
        20  -9.3283     45.9493    166.8119   1.0663129608e+02   3.4800483893e+01    0.2294555    0.1814718  82.96 0.0004633336    1.229    0.186
        21  -9.6507     32.4814    155.9943   1.0894089442e+02   3.9000266874e+01    0.3242194    0.1550298 -48.25  0.001086179    2.196    0.545
        22 -10.2432     28.8035    155.5787   1.0991802868e+02   3.9472579902e+01    0.2401948    0.1928472  46.95 0.0009340581    1.307    0.235
        23 -10.3668    133.5970    144.2360   7.8327960089e+01   2.6037163206e+01      1.15156    0.2872244 -54.65  0.002472439    6.645    0.850
        24  -8.9623    174.5500    149.4755   6.9847641871e+01   1.6587666940e+01    0.1487993    0.1420616 -24.68 8.561048e-06    1.013    0.013
        25 -10.2208     54.4956    146.1875   1.0112275529e+02   3.8962577462e+01    0.4249934    0.1928309 -55.91  0.001756159    1.985    0.496
        26  -9.2252     25.6707    148.6878   1.0994106864e+02   4.1498009923e+01    0.1917517    0.1354775  17.15 0.0008730629    1.712    0.416
        27 -10.2298     22.2265    146.0094   1.1059468110e+02   4.2481117938e+01     0.289676    0.2059804  74.73 0.0005831265    1.466    0.318
        28  -9.0318     34.6817    144.6723   1.0677167098e+02   4.1624712195e+01    0.2736508    0.1495326 -64.96  0.001023425    1.603    0.376
        29  -9.5181     31.5320    143.4833   1.0753505433e+02   4.2242247850e+01    0.3334856     0.239784 -45.44  0.001817568    1.429    0.300
        30 -11.7067     87.0910    138.3725   8.9913026249e+01   3.6129876070e+01    0.3896832    0.3158337 -73.44 0.0004183641    1.309    0.236
        31 -10.0951     99.8075    138.9249   8.6324863120e+01   3.3786337162e+01      0.53629    0.3609461 -13.29  0.002129439    2.393    0.582
        32  -9.6778    105.9871    130.7481   8.2705607463e+01   3.4619387743e+01    0.3605826    0.3490681 -16.72  0.001377172    1.065    0.061
        33  -9.5896    109.6564    129.6798   8.1411061800e+01   3.4173640940e+01    0.3106492    0.2478447  -7.16 0.0008634059    1.589    0.371
        34  -9.2878    193.6607    205.3022   7.7051161538e+01   2.2203230525e+00    0.1252352    0.1091607  71.86 0.0003378367    1.671    0.401
        35  -9.7632    135.4727    129.2552   7.4351718962e+01   2.9063291375e+01    0.3889169    0.1529485 -49.33  0.001298662    2.589    0.614
        36  -9.5637     86.4514    175.5060   9.6998987083e+01   2.7021597766e+01    0.4218398    0.2712004 -82.41  0.001861696    1.924    0.480
        37 -10.3076    240.0778    169.3096   6.1628735877e+01   1.1594760989e+00    0.1743734    0.1570285  -9.86 0.0004359467    1.106    0.096
        38  -9.7542     97.1427    125.2447   8.3991761461e+01   3.7575078054e+01     0.307274    0.2490858  -4.48  0.001088256    1.516    0.340
        39  -8.5548    116.3296    124.2846   7.8242081563e+01   3.4124690424e+01    0.1559489    0.1240532  -3.38  0.000362758    1.611    0.379
        40  -9.0151    106.8169    118.5734   7.9526904428e+01   3.7323282539e+01      0.23774    0.1982811 -37.61 0.0003494232    1.218    0.179
        41 -10.0244    231.3021    113.7495   5.1685381263e+01   1.2237716115e+01    0.2712514     0.223019 -45.94 0.0007158774    1.055    0.052
        42 -10.5769    193.1254    194.7718   7.5208211223e+01   4.2156809923e+00    0.7505169    0.3970571 -64.53  0.002220378    5.954    0.832
        43 -11.0452    246.1632    110.7811   4.9003907434e+01   1.0038650554e+01    0.3084485    0.2289874  18.83  0.001706388    2.066    0.516
        44  -9.3291    205.5692    110.1224   5.4924084414e+01   1.7943580871e+01    0.2526052    0.2055007  44.92 0.0006581347    1.368    0.269
        45  -9.2960    111.0163    203.3496   9.5214891139e+01   1.6522813459e+01     0.202218    0.1683183  42.82 0.0004267235    1.119    0.106
        46  -9.5836    241.9522    102.0000   4.7762575865e+01   1.2240149817e+01    0.1903182   0.07463244  56.03 0.0005432781    2.962    0.662
        47 -11.4043    244.2283     93.9983   4.5833947632e+01   1.3118620974e+01    0.3834488     0.189298 -56.06  0.001787608    2.126    0.530
        48  -8.8882     31.7084     95.4461   9.9009083570e+01   5.4012301846e+01    0.2438789    0.1228359  29.86  0.001141013    2.140    0.533
        49  -9.4103     53.4753     90.5052   8.9739380796e+01   5.2650168554e+01    0.1394473    0.1275104 -32.19 3.007531e-05    1.010    0.010
        50  -9.4554     18.1460     90.1894   1.0300346991e+02   5.6405476854e+01     0.163967    0.1479623  80.16 0.0004114878    1.314    0.239
        51  -8.3047    160.4839     83.5085   5.6724444625e+01   3.2796123826e+01    0.1466869    0.1407594 -88.25 0.0001170871    1.004    0.004
        52  -8.6366     71.9225     82.9893   8.0988487346e+01   5.1543574842e+01    0.2098386    0.1741711  72.70 0.0005771146    1.627    0.385
        53  -8.4777     47.9970     62.4598   8.3657443337e+01   5.9251077507e+01    0.1834813    0.1246198  29.70 0.0004105116    1.494    0.331
        54 -10.5238     13.4896     60.0545   9.7822290306e+01   6.3320952942e+01    0.2790278     0.200758 -55.17 0.0004381687    1.313    0.239
        55 -11.4343     63.3304    172.7673   1.0275707072e+02   3.1098806198e+01    0.4902095    0.3161252 -31.97  0.002216954    2.170    0.539
        56 -12.2118    196.1561     48.3913   4.1899633227e+01   3.0058185197e+01    0.6496829    0.5169351  52.56  0.001382787    1.419    0.295
        57 -15.6574     10.6061    209.6166   1.1933214533e+02   2.8305133940e+01     9.644043     1.480427 -77.57   0.02620717    7.101    0.859
        58  -8.2553    234.3278     45.2847   3.6952447223e+01   2.2285527921e+01    0.1073041   0.09550386  39.72 0.0003066408    1.607    0.378
        59  -9.6879    122.3291    199.1353   9.1828326349e+01   1.5561167199e+01    0.2838148    0.2455991 -82.74  0.001156246    1.301    0.232
        60  -9.2073    197.9367     23.7173   3.5946580700e+01   3.2795762829e+01     0.242843    0.1835792 -10.54  0.001100682    1.980    0.495
        61 -10.6856     95.2218    241.5663   1.0388022974e+02   1.0956213152e+01    0.3487955    0.1774591 -63.94  0.001339667    2.259    0.557
        62  -8.9209    189.6874     15.0116   3.4790856372e+01   3.5627912513e+01    0.1717123    0.1451458 -76.10 0.0007616004    1.069    0.064
        63  -8.6730    169.0475    235.7882   8.7275980429e+01   7.4453738601e-01    0.1733653    0.1497132  11.84 0.0003857304    1.038    0.037
        64  -9.2281     99.2531    180.9299   9.4546392813e+01   2.3640710292e+01    0.2503453    0.2078679  38.21 0.0007197073    1.187    0.157
        65  -8.6671     74.3075    180.6091   1.0099266591e+02   2.7613320891e+01    0.3092513     0.130774 -66.82  0.001168336    2.510    0.602
