#   1 NUMBER                 Running object number                                     
#   2 MAG_AUTO               Kron-like elliptical aperture magnitude                    [mag]
#   3 X_IMAGE                Object position along x                                    [pixel]
#   4 Y_IMAGE                Object position along y                                    [pixel]
#   5 X_WORLD                Barycenter position along world x axis                     [deg]
#   6 Y_WORLD                Barycenter position along world y axis                     [deg]
#   7 A_WORLD                Profile RMS along major axis (world units)                 [deg]
#   8 B_WORLD                Profile RMS along minor axis (world units)                 [deg]
#   9 THETA_WORLD            Position angle (CCW/world-x)                               [deg]
#  10 FWHM_WORLD             FWHM assuming a gaussian core                              [deg]
#  11 ELONGATION             A_IMAGE/B_IMAGE                                           
#  12 ELLIPTICITY            1 - B_IMAGE/A_IMAGE                                       
         1 -11.9429    215.4864     37.4616   3.7750884640e+01   2.7844255218e+01     0.820323    0.6167701 -64.02  0.004639196    1.160    0.138
         2 -11.6538    236.7665     18.9726   3.2119688968e+01   2.5766648419e+01     0.646125    0.4690987 -54.85  0.002780873    1.100    0.091
         3 -10.6761      2.0814     11.4664   9.1019814688e+01   7.4767824703e+01     1.128943    0.1118485 -52.28  0.003060948    8.170    0.878
         4 -11.4303    112.1062    230.6158   9.8871253424e+01   1.1456718906e+01     0.764392    0.4879357  52.43  0.004061926    1.733    0.423
         5 -11.7065     68.4580    244.2126   1.1002886921e+02   1.4500297813e+01    0.8752635    0.6478421  79.01  0.005371767    1.489    0.328
         6 -13.0043      9.1324    207.6396   1.2073036095e+02   2.8340359459e+01     1.424801    0.9958835 -64.55  0.008952405    1.531    0.347
         7 -11.1637     57.0713    240.7255   1.1221908601e+02   1.6511586506e+01    0.6281218    0.3766792  30.35  0.002338422    1.498    0.333
         8 -12.0596     10.6755    232.0556   1.2159439190e+02   2.3023306776e+01    0.9158527    0.5180597  80.91  0.001170997    1.649    0.393
         9 -13.8715     35.1356    193.6078   1.1349835455e+02   2.9125528492e+01     7.786317     2.866298  76.78   0.02228852    5.896    0.830
        10 -11.3359     24.4497    203.8228   1.1692162247e+02   2.7821142879e+01    0.4279056    0.3603532 -29.11 0.0009652038    1.553    0.356
        11 -11.2084     99.9960    229.0593   1.0144227204e+02   1.3411032249e+01    0.5056126    0.3754386  52.81  0.002961088    1.367    0.268
        12  -9.1751     76.3376    222.8545   1.0624219364e+02   1.7785295460e+01    0.3079224    0.2037304 -50.00  0.001010298    1.745    0.427
        13 -10.3961     73.6381    219.5851   1.0653765503e+02   1.8814412955e+01    0.5150747    0.1809384  45.48  0.002053041    2.648    0.622
        14  -9.4412     43.0661    217.9570   1.1358100995e+02   2.2781160730e+01    0.2644845    0.1803251  84.30 0.0005454045    1.491    0.329
        15 -13.0443     32.2254    249.2625   1.1802839163e+02   1.7561783164e+01     4.430629    0.9563938  24.54   0.01318856    6.802    0.853
        16 -10.9443    125.5301    229.9760   9.5765879392e+01   9.7107066387e+00    0.4524306    0.2786853   6.45  0.002199911    2.104    0.525
        17  -9.1328    163.9999    225.0251   8.6658651293e+01   5.1619076685e+00    0.1598692    0.1357755   5.50 0.0007156659    1.033    0.032
        18 -11.7111      8.5090    189.3411   1.1984233623e+02   3.2556748705e+01     0.733631    0.3466362 -89.28  0.003595089    2.012    0.503
        19 -10.7275      2.4298    188.5003   1.2127870343e+02   3.3223024001e+01    0.5792085    0.2937276 -86.81   0.00303145    1.782    0.439
        20  -9.3558     46.6290    183.3400   1.0951289703e+02   3.0347108323e+01    0.3933385    0.2103847  70.37  0.001705873    2.298    0.565
        21  -9.8239      2.1578    177.7966   1.2073917505e+02   3.5765964594e+01    0.5088513    0.1288186 -74.96  0.001920143    3.271    0.694
        22 -10.2607     60.7560    171.6548   1.0421939460e+02   3.1539097786e+01    0.3862625    0.2927731 -14.32  0.001089207    1.706    0.414
        23 -10.1114     54.8699    177.0824   1.0655664634e+02   3.0920608239e+01    0.4432748    0.2859199 -32.03   0.00208295    2.064    0.515
        24  -8.2257     73.0126    172.9667   1.0095248087e+02   2.9602245441e+01    0.2061713    0.1978664  56.88  0.001198039    1.012    0.012
        25  -9.9527     71.5107    162.3164   9.9776254624e+01   3.2451647310e+01    0.2789117    0.2604109 -45.15 0.0002800889    1.115    0.103
        26 -11.6623     58.0911    158.2948   1.0312913424e+02   3.5235944931e+01    0.5603903    0.3226081 -38.65  0.001372477    2.110    0.526
        27  -9.4149     35.2842    159.4421   1.1005578620e+02   3.7507679541e+01    0.5690426    0.2348065  59.34  0.002015425    3.346    0.701
        28 -11.1026     78.6850    155.9485   9.6622944694e+01   3.3026128399e+01    0.7684878    0.5991445   7.41  0.002030365    1.505    0.335
        29 -10.7417     84.3565    220.4249   1.0409145633e+02   1.7248623527e+01    0.5415628    0.3776441 -73.69  0.001684037    1.654    0.395
        30 -11.1421     69.8149    146.1438   9.7604667586e+01   3.6784089859e+01    0.6606265    0.4799494 -60.75  0.001572793    1.343    0.256
        31 -10.8886     67.5289    142.5136   9.7676433654e+01   3.8031592198e+01    0.5238021    0.4233322  41.04  0.001274599    1.254    0.202
        32  -9.4866     94.4793    142.0644   8.9291481998e+01   3.4002233865e+01    0.4530144    0.3092398 -15.47  0.001898822    2.083    0.520
        33 -10.5035     82.5457    140.4783   9.2597663248e+01   3.6331223442e+01    0.3435066    0.2963398 -41.65 0.0006852889    1.172    0.147
        34 -10.7215     58.4176    133.4096   9.8982019772e+01   4.1597272885e+01    0.9617823    0.3986194 -77.85   0.00273254    4.565    0.781
        35  -9.0656    106.8251    131.2162   8.3268926118e+01   3.4466984388e+01     0.357355    0.2820678  22.13  0.001004009    1.360    0.265
        36  -9.9694     66.0957    127.4430   9.5287327580e+01   4.2093322082e+01     0.597426    0.3326432  64.62  0.002151437    2.976    0.664
        37  -9.5001     93.8792    127.3376   8.6281791402e+01   3.7721605551e+01    0.2964217     0.262947 -36.78 0.0004578501    1.131    0.116
        38  -9.9988      7.8100    125.4918   1.1489560405e+02   4.8468451653e+01    0.2493789    0.2206494 -77.52 0.0008783997    1.021    0.021
        39  -7.8973    105.0711    119.5107   8.1001642452e+01   3.7566475450e+01    0.2193038    0.1529532  35.87 0.0003787829    1.449    0.310
        40 -11.7936      3.1017    245.5904   1.2367107278e+02   2.1021782734e+01     1.701241    0.4377328 -80.59  0.007439802    3.842    0.740
        41  -8.3321    205.1989    110.6358   5.5876642676e+01   1.8984381028e+01    0.1842805    0.1266622  39.64 0.0009511641    1.676    0.403
        42  -9.3387      1.7959     95.5139   1.1348221952e+02   5.6402247703e+01     0.315043    0.1506205 -65.66  0.001515556    1.694    0.410
        43  -8.2540     41.5841     92.1962   9.6642890015e+01   5.4103992610e+01    0.2078014    0.1150687 -47.58 0.0004723461    1.643    0.391
        44  -9.8720      2.1376     80.2249   1.1105330769e+02   6.0154528984e+01    0.5002277   0.05819977 -68.02  0.001424315    5.009    0.800
        45  -7.9450    162.5158     83.4905   5.6830856781e+01   3.2714710535e+01    0.1442634    0.1388523 -63.14 0.0008103993    1.007    0.007
        46  -8.5128     59.3055     77.6558   8.5468564612e+01   5.5186573890e+01    0.1415595    0.1161535  77.36 0.0007041903    1.690    0.408
        47  -9.2781     13.2377     60.0164   1.0152991280e+02   6.4282913905e+01     0.210531    0.1770398  -7.61 0.0004863306    1.187    0.157
        48  -9.1283      1.8896     48.7288   1.0463389544e+02   6.7462750700e+01    0.2841241    0.1184211 -62.15   0.00134076    2.077    0.519
        49 -11.7695    208.0389     42.3185   3.9602672039e+01   2.8790438961e+01    0.6405137     0.442403 -52.30   0.00265552    1.276    0.216
        50  -9.5271     27.1226    241.1803   1.1863142407e+02   1.9640743752e+01     0.265794    0.1454797  27.96  0.001181783    1.754    0.430
        51 -11.4213    223.0707     30.9135   3.5633406532e+01   2.7089961739e+01    0.5121418    0.4116048  46.03  0.001878836    1.665    0.399
        52  -8.3742    127.1544     34.9033   4.9415779238e+01   4.8524501025e+01    0.2027484    0.1745513 -76.72 0.0004360967    1.247    0.198
        53  -7.7068    129.8844     29.7945   4.7180424144e+01   4.8488317567e+01    0.1774229    0.1496065 -78.33  0.000460827    1.256    0.204
        54 -10.3460     91.5564    238.0855   1.0435542913e+02   1.2786850472e+01     0.377529    0.1623466  29.38  0.001731271    2.063    0.515
        55  -8.9940      7.9913     26.4999   9.3640753339e+01   7.1621100859e+01    0.1806299    0.1089545  13.36    0.0010431    1.620    0.383
