#   1 NUMBER                 Running object number                                     
#   2 MAG_AUTO               Kron-like elliptical aperture magnitude                    [mag]
#   3 X_IMAGE                Object position along x                                    [pixel]
#   4 Y_IMAGE                Object position along y                                    [pixel]
#   5 X_WORLD                Barycenter position along world x axis                     [deg]
#   6 Y_WORLD                Barycenter position along world y axis                     [deg]
#   7 A_WORLD                Profile RMS along major axis (world units)                 [deg]
#   8 B_WORLD                Profile RMS along minor axis (world units)                 [deg]
#   9 THETA_WORLD            Position angle (CCW/world-x)                               [deg]
#  10 FWHM_WORLD             FWHM assuming a gaussian core                              [deg]
#  11 ELONGATION             A_IMAGE/B_IMAGE                                           
#  12 ELLIPTICITY            1 - B_IMAGE/A_IMAGE                                       
         1 -12.5025    189.9721     35.5171   5.8869137075e+01   3.4126663081e+01    0.9496621    0.7270814  -6.89  0.004145744    1.908    0.476
         2 -12.8602    195.5441     28.1362   5.6313862899e+01   3.3765596223e+01     1.368534    0.8377594  40.35  0.003129241    2.120    0.528
         3 -11.2575    218.2902      2.9966   4.8142753130e+01   3.1482296813e+01    0.5922961    0.2865684  54.81  0.002642597    2.148    0.534
         4 -10.8936    213.9774      2.4876   4.8473497901e+01   3.2488708323e+01    0.4368012     0.226534  69.17  0.002086017    1.601    0.376
         5 -10.0463     60.2704      2.7526   7.7771937027e+01   6.3916189527e+01    0.2795762    0.0967473  36.79   0.00137976    2.521    0.603
         6  -9.9073    149.8511    222.6519   1.0892307298e+02   6.1248318146e+00    0.3271452    0.2273632   9.67  0.001495543    2.394    0.582
         7  -9.7003    140.4199    250.1239   1.1479596703e+02   2.6102540338e+00     0.276217    0.1434515  54.58   0.00133154    1.883    0.469
         8 -19.4667     14.8934    139.2004   1.2718623678e+02   4.4249301745e+01     18.65527     2.661782 -69.02   0.04956911    6.813    0.853
         9  -9.9818    194.4892    197.4686   9.5167796727e+01   2.7094241308e+00     0.390861    0.2193299 -66.05  0.001433909    3.268    0.694
        10  -8.6599    208.6050    196.7891   9.2163953046e+01   1.7748646918e-01    0.1909819    0.1322304 -52.42 0.0006846568    1.611    0.379
        11 -11.7635     68.5691    190.4532   1.2160873046e+02   2.6644389076e+01    0.7619941    0.6304094 -59.77   0.00380544    1.284    0.221
        12  -9.1785     60.8387    187.6036   1.2291577955e+02   2.8341487323e+01    0.2845539    0.2007118 -86.25  0.001619736    1.296    0.228
        13  -8.5117     82.0731    195.2864   1.1932574205e+02   2.3587522468e+01    0.2606489    0.2121715 -23.36  0.001433289    1.875    0.467
        14  -8.6624     99.6460    180.8222   1.1320698878e+02   2.4162941676e+01    0.2169146    0.1930395  44.77 0.0005952626    1.216    0.178
        15 -10.4757     79.7357    175.6739   1.1700263842e+02   2.8489991998e+01    0.3462749    0.2570531 -37.73  0.001822857    1.721    0.419
        16 -10.7792     83.0097    170.9687   1.1549856187e+02   2.9112825127e+01    0.6423876     0.296338 -54.00  0.001409873    2.037    0.509
        17  -9.0483    127.6289    173.2118   1.0532650775e+02   2.0983961286e+01    0.2147871    0.1348793 -46.21 0.0009526864    1.670    0.401
        18 -10.1386    116.3649    173.3416   1.0800472967e+02   2.3026484425e+01    0.3349902    0.1773386  47.90  0.001411517    1.901    0.474
        19  -9.0758    104.6563    172.6306   1.1064946325e+02   2.5244547518e+01    0.2149999     0.176082 -22.59  0.001099819    1.655    0.396
        20  -8.5249    164.8254    171.2205   9.6361722884e+01   1.4076487903e+01    0.2201624    0.1979007  79.93 0.0004504503    1.174    0.148
        21  -8.7233     94.4692    250.3563   1.2352519655e+02   1.0067096066e+01     0.216807     0.118782  60.45 0.0006698346    1.687    0.407
        22  -8.4891    201.0670    168.7917   8.8051436326e+01   7.1516857230e+00    0.3112051      0.18934 -68.49  0.001182315    2.703    0.630
        23  -9.2531    193.7536    166.4736   8.9081609218e+01   9.1252059345e+00    0.2748503    0.2684145 -37.74 0.0006879228    1.016    0.016
        24 -10.9094     88.5460    162.6507   1.1278271589e+02   3.0238954560e+01    0.6842729    0.4824469  31.99  0.001411228    1.645    0.392
        25 -10.5650     70.2254    134.6459   1.1235467828e+02   3.9524662486e+01    0.3304896    0.2932772  47.56   0.00128801    1.242    0.195
        26 -13.0608     59.2253    131.0154   1.1460321994e+02   4.1773200872e+01     2.610274    0.9552413 -72.17  0.006803895    6.463    0.845
        27 -11.9484     78.7681    156.8604   1.1418157302e+02   3.3088178514e+01    0.5116241    0.4129511 -39.67  0.001362651    1.406    0.289
        28 -12.2391     68.4595    144.3390   1.1459293613e+02   3.7489431364e+01    0.9477817    0.6203547  85.77  0.003521639    1.988    0.497
        29  -8.1936     77.5050    166.9420   1.1615948696e+02   3.0878639409e+01    0.2015827    0.1252099 -65.89 0.0004174324    1.480    0.324
        30 -10.6047     96.0014    154.6814   1.0950600061e+02   3.0944833812e+01    0.6489764    0.4308859 -33.83  0.002627657    1.958    0.489
        31  -8.5934    189.9883    156.0000   8.7630520553e+01   1.2111204357e+01    0.2551152   0.08653788  45.70 0.0008088753    2.987    0.665
        32  -8.7443    113.8429    151.5179   1.0442969420e+02   2.8619239247e+01    0.3028823    0.1939088 -73.31  0.001297113    1.910    0.477
        33  -9.8070     54.4313    150.3331   1.1912565194e+02   3.7846527417e+01    0.3441099     0.200935 -89.79  0.001591489    2.200    0.545
        34 -10.7277     57.0473    144.8549   1.1758841962e+02   3.8816665484e+01    0.4122964    0.3709805 -75.79  0.002616467    1.053    0.051
        35  -8.1898    143.3258    147.6804   9.6374737854e+01   2.3803666048e+01    0.1599219    0.1209825  85.21 0.0007046389    1.679    0.405
        36  -9.7527    133.8240    145.8673   9.8286806000e+01   2.6138358684e+01     0.888671    0.2457939 -55.95  0.002201902    5.079    0.803
        37  -8.7063    114.3390    142.3040   1.0239164457e+02   3.0693395639e+01    0.1494281    0.1193034 -13.81 0.0007039563    1.674    0.403
        38 -10.2182    107.1914    140.2544   1.0378713729e+02   3.2455724267e+01    0.5464986      0.30049 -34.66  0.002123992    2.465    0.594
        39 -10.6915     95.7518    139.9011   1.0667662321e+02   3.4482600123e+01    0.2985309    0.2681055 -37.63  0.000584471    1.183    0.155
        40  -7.6833    174.3366    148.6863   8.9416325264e+01   1.7029602537e+01    0.1598971    0.1224253  88.58 -1.99307e-05    1.691    0.409
        41  -9.6690    106.1604    130.5378   1.0195324908e+02   3.4895712874e+01     0.439814    0.2513569 -57.67  0.001900368    1.756    0.431
        42 -10.1618    114.6645    130.4176   9.9699665118e+01   3.3388629325e+01    0.3264532    0.2701816 -12.31  0.001339652    1.508    0.337
        43  -8.1624    160.3143    127.6797   8.7768308175e+01   2.4673972818e+01    0.1596686    0.1227253 -87.65 0.0006105329    1.654    0.396
        44  -9.4742    102.3726    126.3511   1.0202371532e+02   3.6516412072e+01    0.3137275    0.2274134 -30.78 0.0008103449    1.599    0.374
        45  -8.4670    204.1586    164.5264   8.6520549744e+01   7.3923222489e+00    0.3050824    0.1901435 -60.39  0.001278033    2.000    0.500
        46  -9.9185    120.0689    124.3748   9.6900720014e+01   3.3745624388e+01    0.2727944     0.202538 -38.98  0.001060227    1.387    0.279
        47  -9.6554     72.9545    218.0739   1.2407372266e+02   1.9863215785e+01    0.3200296    0.2893837 -31.30  0.002054523    1.644    0.392
        48  -8.6524    109.9902    119.0692   9.8304993517e+01   3.6815782338e+01    0.2203618    0.2031301 -41.10 0.0003664054    1.063    0.060
        49  -8.4237    168.2349    113.0928   8.2435254445e+01   2.6008686766e+01    0.2589291    0.1746967 -70.53  0.001071384    1.978    0.494
        50  -9.4481    163.6465    217.6610   1.0523946357e+02   4.5764616985e+00    0.2152696     0.171036   2.63 0.0008769085    1.671    0.401
        51  -9.2815    120.5135    110.5037   9.3421339183e+01   3.6718352987e+01     0.277842    0.1394932 -57.65  0.001036996    2.407    0.585
        52  -8.5239    205.7757    110.2049   7.4043067035e+01   1.8046672814e+01    0.1989176    0.1809097   6.46 0.0004937304    1.344    0.256
        53 -10.3694     58.9361    103.4621   1.0909440767e+02   4.7977805949e+01    0.2596909    0.1749043 -68.49   0.00137391    1.658    0.397
        54 -11.5550     41.4200     91.2548   1.1164593404e+02   5.2446157940e+01    0.4992009    0.1759247 -53.29  0.001637367    2.287    0.563
        55  -8.3587    111.4895    217.5602   1.1615908518e+02   1.3937012292e+01    0.1370461    0.1189372  70.06 0.0001915874    1.008    0.008
        56  -8.8142    129.8384    212.0620   1.1147910313e+02   1.1910781493e+01    0.3099463    0.1636513  64.81  0.001157882    2.686    0.628
        57  -8.5744     71.4319    204.5556   1.2278811954e+02   2.3046985300e+01    0.2754675    0.1653662  89.90  0.001387208    1.776    0.437
        58  -8.6892     70.1593     72.1484   9.7745299782e+01   5.2831233067e+01    0.1590501    0.1549619  56.65 0.0005793483    1.301    0.231
        59  -9.7062    164.5409     65.4295   7.0985106638e+01   3.5734839130e+01    0.2811793    0.2323802 -85.40 0.0007488782    1.350    0.259
        60 -11.2107    176.5406     47.5178   6.4036749636e+01   3.5645574047e+01    0.4087118    0.4072616 -20.77  0.001105642    1.156    0.135
        61  -9.6017    107.9865    203.5116   1.1487742077e+02   1.7582812020e+01     0.253656    0.1957999 -67.74 0.0003375671    1.278    0.217
        62 -10.7660    125.2523    243.0149   1.1680903002e+02   6.4878946126e+00    0.3677303    0.2821622 -89.53   0.00218772    1.408    0.290
        63  -8.2029     75.9313    232.4947   1.2508260865e+02   1.6395396612e+01    0.1736573    0.1119153  45.54  0.000514553    1.489    0.328
        64  -9.2760     95.0117    200.0724   1.1718820923e+02   2.0491044091e+01      0.27893    0.1860552 -76.27  0.000892303    1.511    0.338
        65 -10.4447    168.7017    223.7276   1.0520041890e+02   2.4823207865e+00    0.4775838    0.1752966  38.00  0.001778136    2.686    0.628
        66  -9.9750    178.1005    222.4279   1.0305573470e+02   1.0122914582e+00    0.2500108    0.2057087 -58.36 0.0007050875    1.382    0.277
