#   1 NUMBER                 Running object number                                     
#   2 MAG_AUTO               Kron-like elliptical aperture magnitude                    [mag]
#   3 X_IMAGE                Object position along x                                    [pixel]
#   4 Y_IMAGE                Object position along y                                    [pixel]
#   5 X_WORLD                Barycenter position along world x axis                     [deg]
#   6 Y_WORLD                Barycenter position along world y axis                     [deg]
#   7 A_WORLD                Profile RMS along major axis (world units)                 [deg]
#   8 B_WORLD                Profile RMS along minor axis (world units)                 [deg]
#   9 THETA_WORLD            Position angle (CCW/world-x)                               [deg]
#  10 FWHM_WORLD             FWHM assuming a gaussian core                              [deg]
#  11 ELONGATION             A_IMAGE/B_IMAGE                                           
#  12 ELLIPTICITY            1 - B_IMAGE/A_IMAGE                                       
         1 -10.5154     19.8644     15.8202   3.3466048240e+01   7.4770834131e+01    0.2823656    0.2016422   6.31 0.0008239634    1.475    0.322
         2 -10.2199     66.8601     14.1551   8.2305944112e+00   6.5770771120e+01    0.2673128     0.186523  -6.59  0.001357023    1.779    0.438
         3 -12.0249     49.8190     13.8725   1.4568150223e+01   6.9592794509e+01    0.8593721    0.5041488  12.06  0.003481981    2.780    0.640
         4 -10.3901     45.4835     12.0551   1.5457684462e+01   7.0727953822e+01    0.2465653    0.2136583  36.70 0.0006673238    1.029    0.029
         5 -10.5474     27.9517     12.3624   2.5482762021e+01   7.4032056974e+01    0.4101446    0.1762488 -43.96  0.001805969    2.672    0.626
         6 -10.3405     34.9945     13.9245   2.2135524049e+01   7.2544571020e+01    0.2333855    0.2234206   2.65 0.0004607927    1.134    0.119
         7 -10.4609     32.5684     10.2928   2.1198602926e+01   7.3498596925e+01    0.2370943    0.1993325   9.06 0.0008292929    1.152    0.132
         8 -11.0434    162.2959     11.7117   3.5082032160e+02   4.2911514523e+01    0.2302207    0.1604991 -64.77 0.0006650644    1.245    0.197
         9  -9.6160     78.9372     11.5251   3.3884715525e+00   6.3196040900e+01    0.1973373    0.1649418  63.36  0.001170378    1.072    0.067
        10 -11.4919     85.4260      7.2589   3.5982859450e+02   6.2031728049e+01    0.3069123    0.2501797 -85.48  0.001100282    1.242    0.195
        11 -10.7014     79.2470      7.4607   1.3459649097e+00   6.3519385625e+01    0.3238428    0.1889265  64.70  0.001641289    1.510    0.338
        12 -10.2585    178.9764      1.4638   3.4683407134e+02   4.0179098447e+01    0.1710766    0.1344111 -71.52 0.0002999428    1.045    0.043
        13 -12.5442    177.8817      7.7068   3.4851745475e+02   3.9819953084e+01    0.5763171    0.3090496 -70.36  0.002673391    1.713    0.416
        14 -11.8545    174.4692      3.5478   3.4766232444e+02   4.0970378147e+01    0.3540281    0.2626388 -73.06  0.001070031    1.119    0.106
        15  -9.8051     69.3379      9.9213   5.2488188161e+00   6.5648909984e+01    0.1750389    0.1666458  14.19 0.0005124038    1.137    0.121
        16  -9.8289    218.6109      8.8110   3.4638942098e+02   3.1407053600e+01    0.1611974    0.1335948 -79.23 0.0004608646    1.229    0.187
        17  -9.5416    212.9581      8.4749   3.4660128183e+02   3.2519035060e+01    0.1563459   0.09949672  86.46  0.001017631    1.556    0.357
        18 -11.3912    124.2210      7.0498   3.5332473644e+02   5.2450476137e+01    0.4091101    0.2286902  88.13  0.002028637    1.735    0.424
        19 -11.0017     97.4787      6.2586   3.5700786803e+02   5.9148274257e+01    0.4699887    0.1941516 -42.80  0.002023472    2.522    0.604
        20  -9.6455     16.0702      4.5119   2.8627198365e+01   7.7119548627e+01    0.1836111     0.110191  35.68 0.0006631109    1.531    0.347
        21  -9.3216    131.4565      3.4964   3.5126856954e+02   5.0997630883e+01     0.128911    0.1105204 -83.11 0.0001794379    1.010    0.010
        22  -8.8427     40.2721      8.3472   1.5659240114e+01   7.2250168880e+01    0.1316085   0.09112497  18.57 0.0004372037    1.624    0.384
        23 -11.2189    113.6402      1.7223   3.5273214642e+02   5.5525167377e+01    0.3069899    0.1625302  76.65 0.0007871009    1.676    0.403
        24 -10.7701    236.3560      7.1636   3.4524073629e+02   2.8348592756e+01    0.1854722    0.1304617 -83.86  0.001380539    1.394    0.283
        25  -9.2503    229.7062      1.6842   3.4440116300e+02   3.0072188645e+01   0.08732638    0.0840729  18.95 0.0004666814    1.601    0.375
        26  -9.8390     91.5285    116.1658   3.6964682272e+01   4.0584869905e+01    0.2211388    0.2100548  35.16  0.001161428    1.076    0.071
        27 -10.2378     21.0666    115.6438   6.3129428841e+01   5.0498088385e+01    0.3301242    0.1536711 -54.30  0.001335896    2.000    0.500
        28  -9.1918     96.4051    111.5034   3.4273046469e+01   4.0814273030e+01    0.1538662    0.1481536 -48.77 0.0001591289    1.033    0.032
        29  -9.5519     79.4955    110.8831   3.9671952311e+01   4.4056969472e+01    0.2312651     0.150592 -54.09 0.0009133883    1.504    0.335
        30 -10.6638     22.9916    109.0104   6.1380540636e+01   5.2175461301e+01    0.2455272    0.1558006 -40.54 0.0004778904    1.668    0.401
        31 -10.6981     25.9128    106.4033   5.9726523324e+01   5.2631546752e+01     0.251307    0.1981597  88.83 0.0006320391    1.293    0.226
        32 -10.1132      1.4592    108.5344   7.0433658160e+01   5.3793836809e+01    0.2312576    0.1264474 -78.82  0.000457123    1.649    0.394
        33 -10.8964      1.7796    104.9264   6.9948287519e+01   5.4772255769e+01    0.3295029     0.173527 -66.42 0.0007627211    1.659    0.397
        34  -9.9379     13.1749    106.1306   6.5167500907e+01   5.3752213509e+01    0.2026334    0.1579586  66.50 0.0004439259    1.327    0.246
        35  -9.9940    224.5289    105.5065   6.6701989683e+00   1.7703927003e+01    0.1241273   0.09775284 -40.83 0.0008098956    1.015    0.015
        36  -9.3761    102.8301    105.6335   3.0787530437e+01   4.0956420547e+01    0.2338198    0.1397852  52.72 0.0009513124    1.848    0.459
        37  -9.0350    108.0468    100.9756   2.7998677738e+01   4.0970060775e+01     0.178071    0.1744124 -79.69 0.0003187842    1.013    0.013
        38  -9.4453     48.6269    101.7141   4.9198028285e+01   5.1296071388e+01    0.1598282    0.1137878 -23.96 0.0007018077    1.713    0.416
        39 -11.5310     28.3652     99.5088   5.7451860702e+01   5.4288896644e+01    0.3846863    0.2530421 -26.63  0.001748724    1.784    0.440
        40 -10.4688    102.9702     95.5979   2.7996301401e+01   4.3221942320e+01    0.3059596    0.2187798 -43.99  0.001411775    1.394    0.283
        41 -11.2774     64.6635     96.1611   4.1368134518e+01   5.0318593853e+01    0.3086433    0.2938352  51.84 0.0006234254    1.068    0.064
        42 -10.8095      4.9469     95.5213   6.7489002245e+01   5.7189856086e+01    0.3504895    0.1491108 -44.60  0.001396917    2.326    0.570
        43 -11.1723     16.1041     94.2668   6.2122519978e+01   5.6802749522e+01    0.3357692    0.2633108  -6.17  0.001240464    1.411    0.291
        44 -10.1879     90.0543     94.1334   3.1643898271e+01   4.6169287621e+01    0.2280272    0.2239806  63.06 0.0005347319    1.025    0.024
        45 -10.4552     37.9938     93.4845   5.1913116073e+01   5.4856872598e+01    0.2231371    0.1477777  25.37 -7.471204e-05    1.568    0.362
        46  -9.7163    108.1672     89.9129   2.4838533200e+01   4.3382050802e+01    0.2471339    0.2063863 -88.01  0.001217709    1.375    0.273
        47  -9.5777     90.8843     89.6604   3.0070339093e+01   4.7034374105e+01    0.2118389    0.1887831  51.36  0.000363021    1.132    0.117
        48  -9.9369      2.3686     88.2355   6.7793690584e+01   5.9306539036e+01    0.1967706    0.1230394 -88.06 0.0007592146    1.582    0.368
        49 -10.1049    186.0555     81.8760   6.5216504141e+00   2.8272814101e+01    0.2772095     0.165995 -79.03  0.001221791    2.625    0.619
        50 -10.2285    160.1745     81.1786   1.0492372808e+01   3.3734553417e+01    0.1965292    0.1524042 -64.93 0.0004030602    1.316    0.240
        51 -12.4173     54.5214     78.7909   4.0647169304e+01   5.6294011156e+01    0.3262029    0.2951951  73.41 0.0003982168    1.218    0.179
        52  -9.1963     78.0001     78.0132   3.0946002018e+01   5.2245608268e+01    0.1772134    0.1692845  45.45 0.0009476349    1.047    0.045
        53  -9.6630    143.9600     77.3006   1.2497931449e+01   3.7968138971e+01    0.1997975    0.1814746  66.99 0.0005957498    1.140    0.123
        54 -10.2489    152.3820     76.1386   1.0545138992e+01   3.6304264390e+01    0.2336561    0.1714922  68.04 0.0009253007    1.462    0.316
        55 -10.5418      2.8629     75.1332   6.5670061481e+01   6.2786746828e+01    0.2058665    0.1855564  67.69 0.0005269122    1.199    0.166
        56  -9.5430    130.4473     74.5067   1.4559539345e+01   4.1520838663e+01    0.1451748    0.1398167 -62.04 0.0001204829    1.052    0.049
        57  -9.4971     48.5076     73.5502   4.1750601137e+01   5.8508042748e+01    0.1467672    0.1415104 -22.31 2.020721e-05    1.020    0.020
        58  -9.5097    176.5227     71.0034   5.2007105122e+00   3.1950352992e+01    0.2303893    0.1388568  53.20  0.001152438    1.863    0.463
        59 -11.1138     64.1178     69.5964   3.3562252690e+01   5.6785502857e+01    0.2560834    0.2306334 -45.54 0.0002904414    1.111    0.100
        60 -10.4480      7.9049     68.9802   6.1781038250e+01   6.4112124927e+01    0.2104487    0.1918292 -52.25 0.0006104933    1.008    0.008
        61 -10.4663    191.6216     66.1490   1.9603817920e+00   2.9595506861e+01    0.2876887    0.2081965  37.99   0.00109861    1.921    0.479
        62  -9.4778     70.2016     66.6096   3.0055610817e+01   5.6282478840e+01    0.2040566    0.1404271  30.96 0.0003935417    1.577    0.366
        63  -9.1504     40.2437     66.0023   4.3352290660e+01   6.1535860012e+01    0.1838722    0.1199104 -55.35 0.0003316908    1.507    0.336
        64  -9.4018    204.4893     65.5006   2.9707448004e-01   2.7171913570e+01    0.1288615    0.1030752 -52.77 0.0008103984    1.031    0.030
        65 -10.8621      4.1474     64.0089   6.2965133048e+01   6.5611427833e+01    0.2948422    0.2149196 -66.92 0.0007434588    1.266    0.210
        66 -11.0527      2.9742     59.5122   6.2758355037e+01   6.6816417713e+01    0.4114974    0.2713419 -16.49      0.00153    1.581    0.367
        67 -10.6364     99.8318     62.7600   1.8592158569e+01   5.0712760231e+01    0.3919794    0.2258889 -55.01   0.00155525    1.984    0.496
        68  -9.4651     75.4578     64.5528   2.7300217530e+01   5.5662943306e+01    0.2767265    0.1466396  42.25 0.0007566549    1.879    0.468
        69  -9.9601     78.4541     62.9518   2.5616377224e+01   5.5370200904e+01    0.2254254    0.2030409  77.13  5.53636e-05    1.199    0.166
        70 -11.1563    230.6241     60.1551   3.5655011908e+02   2.3169231347e+01    0.3432852    0.1946569 -67.33  0.001958408    1.957    0.489
        71  -9.6908    114.5949     60.8939   1.3998827790e+01   4.7634535310e+01    0.2408539    0.1943936  47.17 0.0005573307    1.290    0.225
        72 -11.8264    248.6835     55.0571   3.5407974178e+02   2.0837753102e+01    0.6706905    0.1314649 -43.98  0.002798173    3.157    0.683
        73 -10.3987    124.8434     59.8154   1.1252640308e+01   4.5411848019e+01    0.2254924    0.2176442 -88.80 0.0003459421    1.057    0.054
        74 -10.6536     13.9465     60.7676   5.6379571590e+01   6.5766760538e+01    0.4492615   0.07854764  23.74  0.001323781    4.634    0.784
        75  -9.5146     65.8045     57.7897   2.8574768592e+01   5.8990427037e+01    0.2481258    0.1774985  86.05  0.001069999    2.232    0.552
        76 -10.8214     22.2221     57.8174   5.0611787828e+01   6.5722721028e+01    0.2343552    0.2231571  79.35 0.0005016628    1.188    0.158
        77  -9.6411     28.9646     57.2386   4.6507561660e+01   6.5096706871e+01    0.2386589    0.1505504 -17.25  0.001068871    1.999    0.500
        78  -9.3371    152.5393     56.4810   4.9601138774e+00   3.9485694098e+01    0.1386652    0.1262066 -66.37 5.891062e-05    1.025    0.025
        79  -8.9394     45.4592     56.5146   3.7375949488e+01   6.2918924732e+01    0.1424313    0.1361652  -8.77 0.0001479236    1.006    0.006
        80  -8.9221    133.4576     55.5005   8.0851059776e+00   4.4086142940e+01     0.143833    0.1309945 -73.88 0.0001745149    1.021    0.021
        81  -9.1619     79.0405     55.4637   2.2606992095e+01   5.6711290226e+01    0.2148385    0.1231333  27.76 0.0008095044    2.580    0.612
        82  -9.8146     88.6389     52.8480   1.8384383026e+01   5.5066209087e+01    0.2355902    0.1916667  42.79 0.0005100393    1.238    0.192
        83 -10.7409     16.2022     50.6700   5.2060135282e+01   6.8021333242e+01    0.3145798    0.1854955 -19.88  0.001453859    1.973    0.493
        84  -9.3526    145.9722     49.7392   4.0529649503e+00   4.2021997980e+01    0.1745081    0.1162863  66.20 0.0008590139    1.500    0.333
        85 -11.3409     94.0042     48.6303   1.5147510650e+01   5.4561194090e+01    0.2445499    0.2084552 -41.61 0.0002485043    1.212    0.175
        86 -10.5585      5.6550     46.7074   5.7879484912e+01   6.9802822920e+01    0.5700897     0.159683 -38.91  0.001862596    3.875    0.742
        87 -10.6618    248.9169     44.2343   3.5193618846e+02   2.2122058847e+01    0.2373929    0.1207697 -59.88  0.001443206    1.782    0.439
        88 -10.6737     39.0906     43.5399   3.5475674378e+01   6.6681955709e+01    0.3139465    0.2980916  21.03  0.001507584    1.070    0.066
        89  -9.2236    220.4837     44.5453   3.5405330251e+02   2.6985423907e+01    0.1216178   0.09113587 -54.00 7.821061e-05    1.042    0.040
        90  -9.1492     24.3337     44.2959   4.4574681928e+01   6.8602581803e+01    0.1435779   0.09754083 -19.90 0.0007028359    1.643    0.392
        91  -9.7177     31.6359     43.6195   3.9798834920e+01   6.7787850188e+01     0.256572    0.1302703  25.30 0.0007776559    2.094    0.523
        92 -10.2035    119.0804     41.4223   6.3218457221e+00   4.9677025840e+01     0.290949    0.2248641  11.60   0.00146414    1.833    0.455
        93 -10.6432    158.8085     39.3412   3.5909354090e+02   4.0491019284e+01    0.2381396    0.2076552 -63.09 0.0002647648    1.032    0.031
        94  -9.2275     96.0033     38.0072   1.0455674076e+01   5.5761181875e+01    0.1693402    0.1539804  67.46 0.0003897568    1.037    0.035
        95  -9.6934     47.1717     35.8137   2.7625232479e+01   6.6766057070e+01    0.3681793    0.1813289 -50.32  0.001549921    2.374    0.579
        96 -10.4188     49.5959     32.4786   2.4786782139e+01   6.6889081130e+01    0.4271585    0.2400766  55.07  0.001526474    2.058    0.514
        97 -10.9793    119.1526     34.9927   4.0492080528e+00   5.0555440708e+01    0.2474505    0.2095439  58.18 0.0003283919    1.188    0.158
        98 -10.5819     40.3588     35.5832   3.1115846699e+01   6.8021175270e+01    0.3535905    0.2176539  51.67  0.001264723    1.911    0.477
        99  -9.6444    174.1748     34.8296   3.5601155634e+02   3.7602802709e+01    0.1592085    0.1534075 -24.12  0.001054118    1.297    0.229
       100  -9.6291    153.6988     31.9611   3.5760681403e+02   4.2626044985e+01    0.1841684    0.1570549 -64.01  0.000443378    1.042    0.040
       101 -10.3130      4.7079     31.5815   5.3594061357e+01   7.3336826292e+01    0.3623948    0.1615876  38.00  0.001602346    2.592    0.614
       102 -10.1643     92.8670     31.0671   8.4729528994e+00   5.7498553933e+01    0.2458661    0.1894291  62.44 0.0007548672    1.212    0.175
       103  -9.5907     27.5259     31.0024   3.6572293668e+01   7.0919423504e+01    0.2041308    0.1666677  22.99 0.0005089837    1.167    0.143
       104 -10.0207     17.8995     31.0899   4.3263608162e+01   7.2168925805e+01    0.1975348    0.1781479  -7.89 0.0005145908    1.022    0.022
       105  -9.1242    167.5081     30.5835   3.5558145825e+02   3.9617604020e+01    0.1283801    0.1118679 -71.19 0.0001472965    1.045    0.043
       106 -10.4855     59.4713     28.2097   1.8201649395e+01   6.5564148318e+01    0.3998973    0.2714974 -14.56  0.001594657    1.877    0.467
       107  -9.6048    104.0152     28.2498   4.6655523128e+00   5.5153163282e+01    0.1939965    0.1655639  73.56 0.0003220322    1.087    0.080
       108 -10.9822     46.9724     26.9466   2.3237798541e+01   6.8306566139e+01    0.2362771    0.2079551 -29.42 0.0003737245    1.189    0.159
       109  -9.9570    160.8822     27.0489   3.5532043846e+02   4.1553696261e+01    0.1971601    0.1667115 -70.24 0.0005620997    1.010    0.010
       110  -9.1622    120.6654     25.2863   3.2407508970e-01   5.1412844505e+01    0.1433787   0.09511726 -70.46 0.0007015083    1.625    0.385
       111 -10.3677    110.7802     24.9588   2.0047092732e+00   5.3892393074e+01    0.2590952    0.1882299  78.07 0.0006679258    1.316    0.240
       112  -9.8832     88.2771     24.7976   7.0192272663e+00   5.9426479733e+01    0.2205849    0.1647619 -54.72  0.001172251    1.466    0.318
       113  -9.8398    217.6510     24.1700   3.4978945916e+02   2.9942239382e+01    0.1555019   0.09770244 -27.15  0.000535072    1.710    0.415
       114  -9.5600    129.1030     23.8705   3.5846855568e+02   4.9505410205e+01    0.1760795    0.1524694  50.19 0.0003660345    1.288    0.224
       115  -9.6450    196.2600     23.0012   3.5100546115e+02   3.4292858471e+01    0.1559063   0.09044313 -36.50 0.0006814284    1.531    0.347
       116 -10.5459     98.3931     22.6098   3.6484550556e+00   5.7227276679e+01    0.2340909    0.2189143  55.14 0.0004868123    1.102    0.092
       117  -9.6130     38.5060     22.8565   2.5481790733e+01   7.0551268942e+01    0.1817626    0.1296336 -37.64 0.0004379331    1.474    0.322
       118  -9.8347      2.4886     23.5166   5.2149288300e+01   7.5235583608e+01    0.1284876     0.108203 -23.46 0.0008101991    1.027    0.026
       119 -10.6491     66.2853     20.9258   1.1908212408e+01   6.5082317027e+01    0.2989398    0.1697907  49.00 0.0007106476    1.602    0.376
       120  -9.3734    159.2500     20.5990   3.5364657426e+02   4.2670307278e+01    0.1642308    0.1113077  67.40 0.0002329547    1.476    0.322
       121  -9.2404     84.7789     20.3573   5.9758018611e+00   6.0812453188e+01    0.1918508    0.1127984  54.48    0.0004459    1.540    0.351
       122  -9.7322     79.1649     19.7447   7.2341624565e+00   6.2230825459e+01    0.2396516    0.1364497 -68.13 0.0009427008    2.862    0.651
       123 -10.3186    108.8783     18.5082   3.5989673210e+02   5.5102859238e+01    0.2759268    0.1941027 -64.80  0.001462042    1.498    0.333
       124  -9.6382     16.4519     18.5024   3.7745600759e+01   7.4772515290e+01    0.1967508    0.1392046  -8.44 7.156732e-05    1.507    0.336
       125  -9.9359     23.5963     16.7586   3.1306501560e+01   7.4055273449e+01    0.1875592    0.1615161  69.73 0.0003357045    1.668    0.400
       126 -10.1261      1.8246    183.6919   7.5063283509e+01   3.3706531059e+01    0.3583628    0.1593339  76.43  0.001583319    2.200    0.545
       127  -9.1788    147.4982     17.5053   3.5399766277e+02   4.5766639117e+01    0.1322118    0.1119475 -74.23 0.0008106177    1.016    0.016
       128 -10.9084    183.3131     14.9338   3.4998271518e+02   3.7902105023e+01    0.2638197    0.1641503 -87.48 0.0008224538    1.516    0.340
       129  -9.9374    133.1181     15.0786   3.5494729515e+02   4.9487761958e+01     0.192534     0.168779  60.58 0.0004243209    1.230    0.187
       130  -8.9189    243.6830    179.6742   1.8014858649e+01   4.1736959292e+00     0.115018   0.06836877 -13.88 0.0007044793    1.673    0.402
       131 -10.8918     20.2810    174.8213   6.9248245830e+01   3.4497898192e+01    0.3081263    0.1969875  45.64  0.001063363    1.419    0.295
       132 -10.7692     21.5087    170.3016   6.8544486932e+01   3.5558398373e+01    0.2747098    0.2404784 -73.20 0.0004998697    1.167    0.143
       133 -10.3479    224.4722    173.0193   1.9656893943e+01   7.3284334650e+00    0.1816168   0.09424694 -37.56 0.0008342387    1.578    0.366
       134 -11.0681    112.3475     14.1608   3.5763038761e+02   5.4701312555e+01    0.4843364    0.1323384  63.01  0.001757061    2.949    0.661
       135  -9.7871     27.5279    159.0144   6.5698283529e+01   3.7991206143e+01    0.2160221    0.1344779 -78.57 0.0007039597    1.560    0.359
       136 -11.1548      3.1296    156.3035   7.3322834123e+01   4.0650119002e+01    0.3191397     0.207235  87.57  0.000473296    1.417    0.294
       137 -10.2135     39.9773    147.8736   6.0355635882e+01   3.9739216719e+01    0.2224948    0.2071514  67.16 0.0004731165    1.025    0.024
       138  -9.6113    191.6820     11.3020   3.4849222191e+02   3.6505478850e+01    0.1298457   0.06794931 -59.81 0.0002163804    1.622    0.384
       139  -9.7190     24.5004    146.4720   6.5469465350e+01   4.1659375171e+01    0.2344557    0.2012077 -40.92 0.0007902631    1.283    0.220
       140 -10.9265     22.2119    141.9168   6.5795660282e+01   4.3109108172e+01    0.2985855      0.28749  77.11 0.0008526002    1.056    0.053
       141 -11.0163      7.2790    141.2671   7.0955280709e+01   4.4428455982e+01    0.4021515     0.156501 -70.02  0.001592054    2.264    0.558
       142 -11.0906      3.7919    136.6390   7.1839624583e+01   4.5915987991e+01    0.3422552    0.2308064  83.96  0.001744636    1.381    0.276
       143 -10.5488     28.5018    138.0766   6.3142268255e+01   4.3597133916e+01    0.2619608    0.2159195  24.59 0.0004348716    1.271    0.213
       144 -10.2707     11.3024    133.9575   6.8924866052e+01   4.6160286079e+01    0.2003328    0.1741478 -86.71 0.0006964543    1.054    0.052
       145  -9.7555    108.5393    132.6123   3.5664983674e+01   3.3494257067e+01    0.3287102    0.1489566 -53.15  0.001214385    2.198    0.545
       146 -10.2246     17.7016    132.1486   6.6403502671e+01   4.6181009697e+01    0.2313125    0.1819793  45.68 0.0003633215    1.264    0.209
       147  -9.9216      5.4992    125.4643   7.0337231604e+01   4.8888289044e+01    0.2392226    0.1282594 -79.08 0.0005913508    1.696    0.410
       148 -10.2862      6.9666    121.9577   6.9461467698e+01   4.9769202210e+01    0.1987796    0.1796498 -86.71 0.0003050064    1.005    0.005
       149 -10.4758    135.8425    123.9730   2.6513061190e+01   3.0341103543e+01    0.3662546    0.2144731  31.08   0.00153836    2.062    0.515
       150  -8.9779     30.3093    122.2449   6.0382173538e+01   4.7813461789e+01    0.1445736    0.1078937 -32.48 0.0002351704    1.504    0.335
       151  -9.7250     61.8858    120.6349   4.8132664338e+01   4.4352120513e+01    0.2268518     0.132318  42.09 0.0009387346    1.728    0.421
       152 -10.3734     54.5760    117.9577   5.0297288161e+01   4.6113862822e+01    0.4869037    0.2850417   0.64   0.00179532    2.712    0.631
       153 -10.7134      2.2933    118.1317   7.0953049354e+01   5.1099417290e+01    0.2473275    0.2022544  50.55 0.0003276099    1.240    0.193
       154 -10.4584     13.7574    117.1741   6.6278572346e+01   5.0643362104e+01    0.2752592    0.1610278 -30.47  0.001207537    2.031    0.508
