#   1 NUMBER                 Running object number                                     
#   2 MAG_AUTO               Kron-like elliptical aperture magnitude                    [mag]
#   3 X_IMAGE                Object position along x                                    [pixel]
#   4 Y_IMAGE                Object position along y                                    [pixel]
#   5 X_WORLD                Barycenter position along world x axis                     [deg]
#   6 Y_WORLD                Barycenter position along world y axis                     [deg]
#   7 A_WORLD                Profile RMS along major axis (world units)                 [deg]
#   8 B_WORLD                Profile RMS along minor axis (world units)                 [deg]
#   9 THETA_WORLD            Position angle (CCW/world-x)                               [deg]
#  10 FWHM_WORLD             FWHM assuming a gaussian core                              [deg]
#  11 ELONGATION             A_IMAGE/B_IMAGE                                           
#  12 ELLIPTICITY            1 - B_IMAGE/A_IMAGE                                       
         1 -13.8045     68.5301    143.6060   1.1028245790e+02   3.7337166005e+01     3.667099     1.895813 -89.80  0.004195091    2.722    0.633
         2 -13.5887     58.3541    131.4503   1.1108051805e+02   4.1542987456e+01     4.085829     1.105028 -72.49  0.009920791    7.040    0.858
         3 -13.0901    191.7379     35.5251   5.1964025930e+01   3.2522472521e+01     1.777574     1.113731  18.19  0.007326433    2.370    0.578
         4 -11.9686    216.9205      4.7353   4.0265775870e+01   2.9609189714e+01    0.8914803    0.6303501  79.78  0.004521966    1.392    0.282
         5 -11.0406     57.7826      4.2506   6.9832710018e+01   6.8225101498e+01    0.4294148    0.3119193  -4.95  0.002566615    1.239    0.193
         6  -9.2528    106.8380    211.3824   1.1062658008e+02   1.7649797572e+01     0.171949    0.1031895  34.02 0.0009509303    1.729    0.422
         7  -9.8869    139.6820    250.0673   1.0888501473e+02   6.7594077807e+00    0.3619233    0.1354712  44.42   0.00189346    2.027    0.507
         8 -10.0174    140.2813    245.4999   1.0829418980e+02   7.2910992121e+00    0.2185661    0.1562986 -62.74  0.001202651    1.854    0.461
         9 -19.4995     15.0223    143.1848   1.2350784987e+02   4.3290868069e+01     18.46974     2.649565 -76.64   0.05069867    6.674    0.850
        10  -9.2072    114.0423    195.4704   1.0724627502e+02   1.9423627943e+01    0.2849824    0.2024172   5.88  0.001427692    2.581    0.613
        11  -8.8124     82.5012    195.0057   1.1364764298e+02   2.4272697146e+01    0.2542417     0.188656  76.27  0.001607124    1.237    0.191
        12  -8.2770     78.7484    193.7464   1.1428009179e+02   2.5047460486e+01    0.2411817    0.1229128  53.29 0.0009054324    1.742    0.426
        13 -11.8442     68.8279    188.0182   1.1573027502e+02   2.7549628457e+01    0.7104101    0.6070666  87.60  0.004895194    1.131    0.116
        14  -9.0448     96.7011    192.8575   1.1048063931e+02   2.2616840365e+01    0.2904117    0.2307013 -21.43  0.001505853    2.048    0.512
        15  -8.0308    207.6701    193.6937   8.8744023246e+01   3.7352848753e+00    0.1315755   0.08709044  12.01 0.0003810277    1.658    0.397
        16  -9.0408     71.6156    178.8632   1.1414857004e+02   2.9071361047e+01     0.294241    0.1700387  41.96  0.001605995    1.643    0.391
        17  -8.9749     59.3050    185.6373   1.1747974075e+02   2.9272388682e+01    0.2897498    0.1692412  87.81  0.001622204    1.697    0.411
        18  -7.7993    154.3205    185.6676   9.7546284886e+01   1.4368305297e+01    0.1325416    0.1008707  73.89 0.0007049223    1.697    0.411
        19  -8.3645    147.4885    184.4668   9.8740429337e+01   1.5795537693e+01    0.1325334    0.1191227  41.19 0.0008094874    1.027    0.026
        20  -9.0778     99.3708    180.8725   1.0837944487e+02   2.4591120433e+01      0.22761    0.1751765  41.40   0.00054781    1.292    0.226
        21 -11.7273     81.2214    171.4394   1.1112875557e+02   2.9299875767e+01     1.016047    0.7953046 -11.07  0.003102636    2.204    0.546
        22 -10.0154    127.1466    249.4765   1.1096660044e+02   8.6489452406e+00    0.3287921    0.1181196  38.36   0.00164115    2.301    0.565
        23  -9.9764     49.4409    150.8785   1.1598249179e+02   3.8076019432e+01    0.4275464      0.19561 -58.35  0.001307915    2.086    0.521
        24 -11.0869     55.4061    146.2986   1.1394954376e+02   3.8415669405e+01     1.033268    0.3977792 -55.22  0.004421535    2.543    0.607
        25  -8.1694    168.9690    235.7246   1.0212810083e+02   4.2904925872e+00     0.158635    0.1221059  37.85  0.000467467    1.033    0.032
        26  -9.6433     74.5516    164.7164   1.1177313000e+02   3.1712745767e+01    0.2805236    0.1918293  81.33 0.0004377897    1.468    0.319
        27  -9.7141    235.8695    158.8937   7.7059207377e+01   3.7189355945e+00     0.217412    0.1628961   8.03  0.001252492    1.276    0.216
        28 -10.9171     95.9719    153.2679   1.0503502733e+02   3.1022815722e+01    0.6114115    0.4782721 -26.64  0.002418096    1.823    0.452
        29  -8.5725    113.8478    151.4946   1.0045474038e+02   2.8386448128e+01    0.2357209    0.1890381  87.16  0.001262699    1.347    0.258
        30  -9.7250    134.2785    147.6943   9.4931153740e+01   2.5423286041e+01    0.8559214    0.1987928 -54.02  0.002064801    6.306    0.841
        31  -8.4623    143.6695    146.3118   9.2495424483e+01   2.3878563634e+01    0.1482504     0.114133  82.04 0.0007043255    1.672    0.402
        32 -12.0399     78.5950    155.3989   1.0954120487e+02   3.3211744180e+01    0.5169933    0.4294266 -81.41  0.001152869    1.102    0.092
        33 -10.4653    107.7758    139.0562   9.9583119640e+01   3.2217427318e+01    0.4670425    0.3388631 -25.20   0.00220779    1.995    0.499
        34 -10.6377     95.6467    138.8585   1.0259906270e+02   3.4339420004e+01       0.2729    0.2523604 -44.97   0.00053671    1.223    0.182
        35  -9.3811    106.0394    130.9418   9.8388600568e+01   3.4369172374e+01    0.3464796     0.293614 -76.59  0.001238805    1.171    0.146
        36 -10.1769    114.7393    129.7339   9.5911434835e+01   3.3053690590e+01    0.3457545    0.2839381 -26.06 0.0008952973    1.490    0.329
        37  -8.5269    162.6382    128.9204   8.4342303842e+01   2.3469605484e+01    0.3792149    0.2454452  83.37  0.001363665    3.150    0.683
        38  -9.3537    102.3456    125.7654   9.8261954488e+01   3.6215325353e+01    0.2561975    0.2322727 -26.45 0.0005644275    1.295    0.228
        39  -8.6573    135.2038    120.2111   8.8602681815e+01   3.1108510172e+01     0.246768     0.114587 -54.98 0.0006150068    2.484    0.598
        40  -8.6937    109.9734    118.9174   9.4725339942e+01   3.6403025045e+01    0.2200703    0.2095331 -74.03 0.0003557003    1.011    0.011
        41  -9.8751    113.5572    208.0226   1.0892604972e+02   1.7218088113e+01    0.2671866    0.1733419  68.87  0.001191546    1.711    0.415
        42  -8.9513    167.8243    112.8872   7.9201541585e+01   2.5478300420e+01    0.3452425     0.228439 -68.54  0.001370409    2.300    0.565
        43  -9.8543     61.5281    113.0228   1.0703676911e+02   4.5566954866e+01    0.2465388    0.2131934  44.58 0.0006179763    1.291    0.225
        44 -10.5513    119.6530    111.1481   9.0292485350e+01   3.6284594446e+01    0.3555843    0.2763667 -66.73  0.001557676    1.382    0.277
        45  -8.1966    205.5201    110.4387   7.1106553258e+01   1.7394836417e+01    0.1481488    0.1392064 -22.74 0.0008068761    1.034    0.033
        46  -8.5897    134.6889    106.1236   8.5127620040e+01   3.4250943160e+01    0.3074891    0.1336993 -50.61  0.001065539    2.429    0.588
        47  -8.1104    127.2942    208.3733   1.0628695366e+02   1.4996349822e+01     0.116289   0.09552713  -0.78 0.0007025486    1.734    0.423
        48  -9.3343    107.9829    203.9556   1.0953579907e+02   1.8806969251e+01    0.2000715    0.1295902  70.58 0.0006741684    1.709    0.415
        49 -10.3583     89.8334    160.6632   1.0765275305e+02   3.0354303318e+01    0.5569469    0.3330371 -73.28 0.0006074331    1.767    0.434
        50  -9.9131    119.3306    172.9618   1.0285919828e+02   2.2925501172e+01    0.2333491    0.2237418 -89.41  0.001471395    1.100    0.091
        51  -8.1516    185.0038     85.0000   6.8002744998e+01   2.6604908165e+01    0.2550423   0.08965325  55.20 0.0008079106    2.981    0.664
        52  -8.0286     86.9561    203.0411   1.1361086862e+02   2.2092905623e+01    0.1676188    0.1499642  -9.63   0.00111934    1.711    0.415
        53 -10.1053    114.5601    172.6611   1.0386251744e+02   2.3797616225e+01    0.3122805    0.2209564 -78.68  0.001657011    1.624    0.384
        54  -8.2055     68.8202     71.8387   9.4702011167e+01   5.4287297474e+01    0.1847324     0.161429 -84.12 0.0004020081    1.320    0.243
        55  -9.5255     96.9928    200.7004   1.1134833093e+02   2.1072215244e+01    0.3052495     0.261721 -17.93  0.001255026    1.786    0.440
        56 -10.0942    161.8359     63.0881   6.5874552587e+01   3.6176537131e+01     0.347385     0.301055 -82.93 0.0005037505    1.302    0.232
        57  -9.4139    163.3129     56.0337   6.3272188887e+01   3.6958812925e+01    0.2222785    0.1959127 -31.49 0.0003312738    1.108    0.097
        58 -11.4267    176.7500     49.8011   5.8777108314e+01   3.4442277757e+01    0.5750253    0.4832195 -17.41   0.00116488    1.237    0.192
        59 -10.0976    178.5365    217.3998   9.7885312434e+01   5.2645477408e+00    0.2916529    0.1970265  56.21  0.001707747    1.754    0.430
        60  -8.9113    190.7781    190.7796   9.1318694404e+01   7.0629611322e+00    0.4058057    0.2199769 -61.91  0.001424971    5.156    0.806
        61  -9.2795    156.8057    217.9933   1.0195768818e+02   8.6938689684e+00    0.2089735    0.1493732  41.27 0.0004114254    1.156    0.135
