#   1 NUMBER                 Running object number                                     
#   2 MAG_AUTO               Kron-like elliptical aperture magnitude                    [mag]
#   3 X_IMAGE                Object position along x                                    [pixel]
#   4 Y_IMAGE                Object position along y                                    [pixel]
#   5 X_WORLD                Barycenter position along world x axis                     [deg]
#   6 Y_WORLD                Barycenter position along world y axis                     [deg]
#   7 A_WORLD                Profile RMS along major axis (world units)                 [deg]
#   8 B_WORLD                Profile RMS along minor axis (world units)                 [deg]
#   9 THETA_WORLD            Position angle (CCW/world-x)                               [deg]
#  10 FWHM_WORLD             FWHM assuming a gaussian core                              [deg]
#  11 ELONGATION             A_IMAGE/B_IMAGE                                           
#  12 ELLIPTICITY            1 - B_IMAGE/A_IMAGE                                       
         1 -14.3726     68.4838    144.2664   9.9588841910e+01   3.7443745082e+01      4.61784     2.436162  73.81   0.01443848    4.160    0.760
         2 -13.4113    201.5876     41.6164   4.0298964509e+01   2.9862739644e+01     1.215503     1.058994 -27.76  0.005362325    1.337    0.252
         3 -11.3536      1.9928     42.9567   1.0184709441e+02   6.7610149681e+01    0.9816535    0.1338907 -60.77   0.00276633    6.702    0.851
         4 -12.2683      2.3524     27.9608   9.6705684704e+01   7.0436357782e+01    0.8406388    0.3249964 -35.50  0.003692632    2.054    0.513
         5 -11.2390      2.6669     19.3359   9.3141024021e+01   7.1919906595e+01     0.440192    0.2502256 -53.68  0.002638384    1.918    0.479
         6 -11.9391      1.9167      7.5485   8.8249272578e+01   7.3850066060e+01    0.8400185    0.3907428 -37.67  0.004997783    1.729    0.421
         7 -13.5211    212.7808     31.1069   3.6542942867e+01   2.8660921335e+01    0.9316697    0.7894398  37.22  0.002338106    1.583    0.368
         8 -12.0942    241.4023      6.1847   2.8895564333e+01   2.5433582897e+01    0.6000658    0.4342058 -31.39   0.00404666    1.635    0.388
         9 -12.0686    235.0474      5.3119   2.9142651795e+01   2.6817695261e+01    0.5884519    0.3679613 -38.91  0.003734634    1.574    0.364
        10  -8.8892     58.5175      7.4567   5.9227456599e+01   6.6382187736e+01    0.1262041   0.09826334  22.03  5.26973e-06    1.024    0.024
        11  -8.3685    224.1810    206.6025   7.3809495671e+01  -2.9509715271e+00    0.1714454    0.1101382  18.67 0.0001860441    1.532    0.347
        12  -9.5318    102.2170    250.1651   1.0607354199e+02   8.2853340794e+00    0.2126378    0.1550347  41.50 0.0005494271    1.140    0.123
        13 -10.3324    101.5028    244.9618   1.0565024110e+02   9.3547952502e+00    0.3895356    0.1316866 -62.70  0.001552226    3.671    0.728
        14 -13.3826     52.2681    187.1978   1.1031540506e+02   2.8732481415e+01     1.516769     1.082964  71.41  0.008298892    1.379    0.275
        15 -15.3998      6.4617    170.3969   1.1993155755e+02   3.7357844724e+01     8.630116     1.029199 -74.24   0.02377699    5.947    0.832
        16  -9.1891    147.5228    186.3914   8.6334915242e+01   1.3818161244e+01    0.3618702    0.1419167 -45.96  0.001295691    2.617    0.618
        17  -8.2246     76.4406    184.5031   1.0386975536e+02   2.6174811006e+01     0.142354    0.1290986  77.69 4.002161e-05    1.031    0.030
        18  -8.6476     82.6227    182.1786   1.0193867923e+02   2.5833916280e+01    0.2257442    0.1748095 -22.13 0.0006783123    1.722    0.419
        19  -9.0307     79.4574    181.9668   1.0272624946e+02   2.6354290930e+01    0.3240011    0.2075853 -88.77  0.001465097    1.905    0.475
        20  -9.4894     99.3519    180.8691   9.7395542105e+01   2.3533139412e+01     0.258213    0.2136591  25.56 0.0006719846    1.289    0.224
        21  -8.0940     88.6696    179.2730   9.9916532752e+01   2.5621261074e+01    0.1503943    0.1060232  64.81 0.0005892689    1.590    0.371
        22 -16.9618     15.6189    242.7724   1.2263227767e+02   2.0542309819e+01     5.787971     2.120591  26.22   0.02630868    3.659    0.727
        23  -9.8615    187.4189    175.5284   7.5057817064e+01   8.7037191018e+00    0.3415217    0.3047357 -61.36  0.001327537    1.378    0.275
        24 -12.2553     80.3157    159.3589   9.8860883629e+01   3.1865836779e+01     1.123172    0.6455633  62.84 0.0007276449    2.374    0.579
        25 -12.8907     68.3575    154.5464   1.0143015502e+02   3.4822851328e+01    0.6781693    0.4845149 -53.18  0.001021727    1.345    0.256
        26 -10.1195    119.8272    245.2550   1.0181328048e+02   6.5858115496e+00    0.2767482    0.1847502 -64.90  0.001446128    1.853    0.460
        27 -11.4595     67.2021    172.6697   1.0458548198e+02   3.0388027418e+01    0.4577489    0.3150794 -30.35  0.002168568    1.968    0.492
        28 -10.5558    240.3409    169.1313   6.3515642370e+01   7.7467060710e-01    0.2165707    0.1712711   7.43 0.0006285037    1.291    0.225
        29  -8.4199    110.6431    167.7846   9.2091714802e+01   2.4782600513e+01    0.2127235     0.143857 -67.23 0.0004821029    1.664    0.399
        30  -8.2931    120.5201    165.5753   8.9044702147e+01   2.3539571348e+01    0.1521532    0.1478875  55.63 0.0001339449    1.036    0.035
        31 -10.1876     33.3698    156.2063   1.1155322284e+02   3.8532221725e+01    0.2587878    0.2353694  57.07  0.000862898    1.175    0.149
        32 -11.6342     87.5924    152.7615   9.5588676685e+01   3.2408264502e+01    0.6653615    0.4752849 -16.09  0.001852721    1.970    0.492
        33 -10.5721    133.6453    144.9193   8.1122897347e+01   2.5933430840e+01     1.238359    0.3231088 -54.42  0.002757993    5.924    0.831
        34  -8.8646    111.4881    149.6992   8.8205580332e+01   2.9056622784e+01    0.3910824     0.225518  66.75  0.001303793    3.157    0.683
        35 -10.8996     54.2075    147.5960   1.0439342647e+02   3.8447382263e+01    0.6994384    0.2499018 -59.28  0.002618842    2.389    0.581
        36 -11.3761     71.5326    168.0069   1.0271854909e+02   3.0959122012e+01    0.4537643    0.2997611 -45.64 0.0009829534    1.630    0.387
        37  -9.3627     31.0548    143.8699   1.1062251044e+02   4.1887627756e+01    0.3312631    0.1787246 -45.80  0.001554883    1.924    0.480
        38  -9.2699    174.7088    149.1331   7.2065445502e+01   1.6580734024e+01    0.2449867    0.1919392 -58.59  0.000743818    1.459    0.315
        39 -10.4465    101.7398    138.6094   8.8556778081e+01   3.3572549689e+01    0.6118693    0.3690814 -21.67  0.002185169    2.776    0.640
        40 -11.5539     88.9458    138.2328   9.2257329138e+01   3.5870421310e+01    0.3094133    0.2680138 -38.64  0.000381835    1.167    0.143
        41  -9.9590     25.9227    137.5742   1.1128667668e+02   4.3948452041e+01    0.3702725    0.1857957  38.81  0.001173595    2.158    0.537
        42  -9.9349    105.9880    131.0152   8.5563801940e+01   3.4672546537e+01    0.4110566    0.3440466 -56.32  0.001607754    1.191    0.161
        43  -9.5598    111.0750    129.3626   8.3682567981e+01   3.4112967050e+01    0.3443368    0.2588483   3.95 0.0008846907    1.740    0.425
        44 -10.2613    135.3548    129.2967   7.6914716167e+01   2.9227126777e+01    0.4443862     0.218393 -47.17  0.001637153    2.012    0.503
        45  -8.8446    160.4130    127.1777   7.0088039818e+01   2.4311364632e+01    0.2343922     0.146877 -53.25 0.0009550773    1.731    0.422
        46 -10.2632     98.1559    125.4052   8.6559931664e+01   3.7484524549e+01    0.3149166    0.2688182  -3.24 0.0007602518    1.327    0.247
        47  -8.2828    147.7320    174.3256   8.3913202611e+01   1.6421543562e+01    0.1466531    0.1222105  85.43 0.0001881458    1.572    0.364
        48 -10.2916    118.5113    122.6603   7.9873225439e+01   3.4251474305e+01    0.6477702    0.3820275  -8.70  0.001807067    4.597    0.782
        49  -8.5617    163.4832    121.4510   6.7920900575e+01   2.4861742072e+01    0.1562484    0.1520212 -28.77 0.0001739084    1.006    0.006
        50  -9.4460     44.1479    129.8321   1.0450202727e+02   4.4167720930e+01    0.2154407    0.1850737 -89.74 0.0009031866    1.192    0.161
        51  -9.2073    107.5110    118.5750   8.2037158575e+01   3.7393108006e+01    0.2590384    0.2241196  27.44  0.001280717    1.198    0.165
        52  -8.9799     85.0052    119.0513   8.9118966065e+01   4.1325143843e+01    0.2420865     0.187211  76.21 0.0005974837    1.711    0.416
        53 -10.1440     32.6732    118.8075   1.0631069720e+02   4.8114219438e+01    0.2819661    0.1692637 -46.15  0.000916676    1.545    0.353
        54 -10.1437    231.2721    113.7091   5.3104317630e+01   1.2023302147e+01    0.2821969    0.2556318 -29.40 0.0007569288    1.090    0.083
        55 -10.3866    112.6643    173.4988   9.2631334649e+01   2.3050290241e+01    0.4011359    0.2670117  19.67  0.001746923    1.845    0.458
        56  -9.4627    205.3187    110.2790   5.6594463639e+01   1.7906953510e+01    0.2928782    0.2052951  44.31 0.0009872924    1.569    0.362
        57 -10.4843     33.5589    108.4975   1.0413667075e+02   5.0616614201e+01     0.336385    0.2161691 -68.01  0.001715976    1.441    0.306
        58 -11.9062    246.5969    106.7660   4.9362401975e+01   1.0323777819e+01    0.5031517    0.3162745 -46.90   0.00268458    1.386    0.278
        59  -9.7975     34.7438    171.7900   1.1300095092e+02   3.4488214056e+01     0.230657    0.1998452  71.93  0.000498099    1.097    0.088
        60  -9.0383    114.9842    109.5150   7.7421936508e+01   3.8021399276e+01    0.2253606     0.140024  15.84 0.0008100564    2.513    0.602
        61 -10.0824     36.3145    100.9965   1.0164390620e+02   5.2206499254e+01    0.2442994    0.1879733  57.20  0.001330154    1.623    0.384
        62  -9.2770     52.7588     90.9589   9.3181259119e+01   5.2805395468e+01    0.1951192    0.1090496 -52.73 0.0004471456    1.609    0.378
        63 -13.8916     19.8118    220.6115   1.2054041322e+02   2.4673515898e+01    0.8511333    0.7315819  79.28  0.002064245    1.145    0.126
        64  -9.2539    233.9905     85.7661   4.6457053137e+01   1.6198682443e+01    0.1647609     0.112904  61.75 0.0005529575    1.635    0.388
        65  -8.3973     75.2521     85.3772   8.3337374352e+01   5.0839072439e+01    0.1966589    0.1360617  43.28 0.0005377147    1.600    0.375
        66  -9.1024    151.0343     82.8624   6.0289780402e+01   3.5479723346e+01    0.2322991    0.2012501 -80.29 0.0004893011    1.308    0.235
        67  -9.1000    159.4908     82.4934   5.8302440087e+01   3.3533157742e+01    0.1495355    0.1488394  76.88 0.0004140892    1.020    0.019
        68  -8.0410     69.2733     81.2737   8.4263630224e+01   5.2687024017e+01    0.1429571    0.1047542 -16.26            0    1.486    0.327
        69  -8.6017    109.9797     80.0095   7.0217493852e+01   4.5382748562e+01    0.2304906    0.1902375  84.82 0.0007713673    1.643    0.391
        70  -8.4026     58.4444     67.4015   8.4003339420e+01   5.7219985627e+01    0.1384672    0.1223001 -14.79 5.592825e-05    1.021    0.020
        71 -10.7056     13.4050     59.8526   1.0112652000e+02   6.3478514036e+01    0.2520271    0.1987019 -53.63 0.0005196386    1.197    0.165
        72 -12.9967    191.9803     48.7148   4.3338220023e+01   3.1142383167e+01     1.041748     0.822522  36.84   0.00137185    1.575    0.365
        73 -10.9499    193.2650    195.5797   7.7851959269e+01   3.8490397354e+00     1.167937    0.6014227 -62.22  0.003270896    6.475    0.846
        74 -10.0665    110.8661    203.3615   9.8100011884e+01   1.6449692479e+01    0.3099632    0.2167576  65.92  0.001504971    1.702    0.412
        75  -9.8384    107.6056    203.7753   9.8945694462e+01   1.6886018739e+01    0.2055851    0.1864266  80.29 0.0009703251    1.140    0.123
        76 -15.1703     41.1804    195.8829   1.1390921671e+02   2.7961367727e+01     7.275999     2.386961  61.46   0.02021623    6.067    0.835
        77 -10.2028    121.3598    197.4072   9.4620224936e+01   1.6023062814e+01    0.4436066    0.2458826 -68.78  0.001759563    2.491    0.599
        78 -14.8556      9.4804    207.4928   1.2183357762e+02   2.8518346175e+01     1.313571      1.10378 -12.89  0.008973717    1.827    0.453
        79  -8.7547    189.4844     14.9949   3.5147028500e+01   3.5852757441e+01    0.1758939    0.1221491 -35.40 0.0006167002    1.541    0.351
        80  -8.6128     37.3018     56.9332   8.9412648038e+01   6.2003367908e+01    0.1822126    0.1443848 -33.21 0.0003497118    1.091    0.083
        81  -9.2001     89.2102    211.2612   1.0435132229e+02   1.8075352906e+01      0.24046     0.185186 -78.36 0.0005872324    1.374    0.272
        82 -10.5791    189.4197    209.8078   8.1334611852e+01   1.9211192913e+00    0.3326778    0.2500605 -59.67  0.001745565    1.918    0.479
