#   1 NUMBER                 Running object number                                     
#   2 MAG_AUTO               Kron-like elliptical aperture magnitude                    [mag]
#   3 X_IMAGE                Object position along x                                    [pixel]
#   4 Y_IMAGE                Object position along y                                    [pixel]
#   5 X_WORLD                Barycenter position along world x axis                     [deg]
#   6 Y_WORLD                Barycenter position along world y axis                     [deg]
#   7 A_WORLD                Profile RMS along major axis (world units)                 [deg]
#   8 B_WORLD                Profile RMS along minor axis (world units)                 [deg]
#   9 THETA_WORLD            Position angle (CCW/world-x)                               [deg]
#  10 FWHM_WORLD             FWHM assuming a gaussian core                              [deg]
#  11 ELONGATION             A_IMAGE/B_IMAGE                                           
#  12 ELLIPTICITY            1 - B_IMAGE/A_IMAGE                                       
         1 -14.3955    164.2928     54.6463   7.2721191581e+01   3.7332398593e+01     1.788388     1.494664  16.34  0.006416737    1.570    0.363
         2 -14.3172    178.2768     39.1070   6.6410616893e+01   3.6160984341e+01     0.992659    0.8359938  66.44  0.003201598    1.124    0.111
         3 -13.7106    182.6999     32.2394   6.4092192359e+01   3.5989938545e+01    0.6071748    0.5684367  63.11  0.001321533    1.222    0.182
         4 -12.7932    189.8887     14.6983   5.9075071594e+01   3.6340191078e+01     0.376206    0.2793103 -69.17  0.001474686    1.271    0.213
         5 -14.6825    197.9486      6.9568   5.6504771156e+01   3.5325557103e+01     1.115156    0.8503489  67.35  0.004137392    1.269    0.212
         6 -11.3015     63.8614      7.1117   8.1326306623e+01   6.4074356642e+01    0.1640046    0.1445882  30.41 0.0004764375    1.229    0.186
         7 -12.6411    228.5922      2.4332   5.2910968285e+01   2.9146895253e+01    0.8832648    0.1921469  74.10    0.0032831    4.142    0.759
         8 -11.3071    191.4979    192.0017   9.9745316605e+01   4.2339445075e+00     1.977467     1.063339  66.19  0.005509119    5.827    0.828
         9 -13.8798    246.5324    243.1579   9.8497158454e+01  -1.3247248215e+01     1.332205    0.6424541 -30.84  0.007082251    1.962    0.490
        10 -17.1758     61.6542    237.0956   1.3529252140e+02   1.6803812752e+01     10.10574     7.757998 -81.74   0.05769277    1.235    0.190
        11 -12.4403    153.4942    200.8485   1.0980417552e+02   9.5226674909e+00    0.4980084     0.344135 -43.56  0.001923831    1.520    0.342
        12  -9.6644    172.5153    189.0015   1.0325630695e+02   8.4526696380e+00    0.2196132    0.1461907 -49.44 0.0009838302    1.535    0.349
        13 -11.0785     60.3907    202.4759   1.3179989335e+02   2.4809219021e+01    0.2049984    0.1710392  74.95 0.0002194111    1.059    0.056
        14 -11.4940     29.3973    184.7692   1.3689843078e+02   3.2816148156e+01    0.1868693    0.1714197  76.44  0.000510597    1.184    0.156
        15 -10.1727    169.1505    178.0623   1.0180141021e+02   1.1483326758e+01    0.2674277    0.2087788 -72.04 0.0005004206    1.558    0.358
        16 -11.1979    204.6490    176.4594   9.3882146433e+01   4.9067887080e+00    0.4684812    0.3119451 -52.80  0.001641362    1.600    0.375
        17 -10.6955     73.1018    174.8267   1.2489476001e+02   2.9769888407e+01    0.2658518    0.1931685 -61.07 0.0005371649    1.290    0.225
        18 -10.4118    165.4039    172.3398   1.0146394417e+02   1.3503145235e+01    0.2687059    0.2445369 -82.56 0.0005428894    1.200    0.167
        19 -10.3753    205.0213    166.9670   9.1820815830e+01   6.7549041201e+00     0.304972    0.2681054  29.56 0.0009712309    1.201    0.167
        20 -11.5756    230.2066    166.6711   8.6986083289e+01   2.1323190844e+00    0.3477064    0.1719502 -53.41  0.001412184    2.377    0.579
        21 -10.3148    200.9559    168.4982   9.2962555936e+01   7.2303348050e+00    0.2766635     0.243554 -65.56 0.0006991033    1.260    0.206
        22 -11.7402    189.2418    155.0059   9.2464455174e+01   1.2407137194e+01    0.7267526    0.4386104 -49.28  0.003149193    1.629    0.386
        23 -11.8177    193.4647    165.7240   9.3911847338e+01   9.2813150476e+00    0.3905127    0.3251496 -57.37 0.0007254095    1.256    0.204
        24 -10.6268    191.3573    161.7049   9.3486211180e+01   1.0551498527e+01    0.2642483    0.2178579 -62.40 0.0007499938    1.315    0.239
        25  -9.2743      2.2775    164.2852   1.4114295524e+02   4.0150138789e+01    0.1171912   0.07690386 -54.24 0.0006924794    1.512    0.339
        26  -9.8098    125.0312    162.2478   1.0913498333e+02   2.3961836407e+01    0.2109439    0.1980466  58.68 0.0002537959    1.064    0.060
        27 -10.8216    113.1946    160.3568   1.1180602622e+02   2.6678985943e+01    0.2758163    0.2418269 -67.85 0.0005702991    1.118    0.106
        28 -10.2017    128.8560    156.3196   1.0690222541e+02   2.4643153219e+01    0.2516205    0.1920578  64.77  0.000641453    1.479    0.324
        29 -12.1923    134.0149    145.9211   1.0327706026e+02   2.6088449340e+01     1.420143     0.348174 -54.66  0.003144205    5.934    0.831
        30 -10.9834    163.8187    151.6084   9.7314361689e+01   1.8500840539e+01    0.3035015    0.2341798  79.80  0.001177329    1.656    0.396
        31 -12.0314    149.2242    149.5431   1.0030871594e+02   2.2066352528e+01    0.6377932    0.3463354  63.62  0.002068149    2.931    0.659
        32 -10.7298    174.4386    148.7270   9.4255210483e+01   1.6881422194e+01    0.3580693    0.2926023 -79.18   0.00103838    1.444    0.307
        33 -12.6429    111.2448    138.2757   1.0755824372e+02   3.2446724339e+01    0.7320809    0.4991021 -28.23  0.003115309    1.892    0.471
        34 -13.0333    100.9003    137.5823   1.1026845754e+02   3.4531869803e+01     0.452954    0.3470905  27.70   0.00127787    1.464    0.317
        35 -12.1049    105.9668    130.8394   1.0729805464e+02   3.5229889353e+01    0.4741991    0.3649183 -57.78  0.001152982    1.284    0.221
        36 -11.3540    106.0367    124.7875   1.0583203705e+02   3.6651356214e+01    0.2834788    0.2507402  -1.26 0.0004712268    1.293    0.227
        37 -11.6962    135.6253    126.2583   9.8192716584e+01   3.0332633501e+01    0.8317943    0.2203776 -49.94  0.002220658    4.013    0.751
        38 -11.2928    117.6284    128.9630   1.0362207101e+02   3.3423970364e+01    0.3306462    0.2762204 -29.39 0.0006983338    1.310    0.237
        39 -10.9029    161.0121    128.0103   9.2431020145e+01   2.4383388895e+01    0.4275323     0.322649 -85.63  0.001472429    1.724    0.420
        40 -10.4387    121.5300    123.0956   1.0112188182e+02   3.4001361588e+01    0.3371142    0.2191997 -19.10  0.001280233    2.457    0.593
        41 -10.3491    112.5081    118.3357   1.0240907402e+02   3.6900671889e+01    0.2613285    0.2272487  48.66 0.0004422314    1.183    0.155
        42 -11.2015    167.6198    112.6402   8.7148846806e+01   2.6171439347e+01    0.4436281    0.3183502 -85.96  0.001313563    1.896    0.472
        43 -10.7024    205.4588    110.1806   7.9081779183e+01   1.8115317022e+01    0.3115788    0.2143459  45.84  0.001026428    1.616    0.381
        44 -19.0874     39.0286     99.4596   1.2072120368e+02   5.2364621957e+01     15.70841      1.09098 -58.50   0.02802585   12.703    0.921
        45 -10.6856    134.5557    105.3068   9.3086693837e+01   3.5163887275e+01    0.4645969    0.1494166 -45.52  0.001436612    3.117    0.679
        46  -9.9050    150.0975     81.1234   8.2781218549e+01   3.6366053455e+01     0.218768    0.2023597  17.50 0.0005241095    1.217    0.179
        47 -10.6802     83.9537     76.9098   9.9506924112e+01   5.0908625239e+01    0.2064864     0.191365  -4.90 0.0003437384    1.009    0.009
        48 -11.5659    176.2274     74.5113   7.5710384539e+01   3.1358717845e+01    0.3304292    0.2481394 -82.84  0.001650032    1.489    0.328
        49 -11.3943    167.5440    231.7863   1.1208715584e+02   7.3190618132e-01    0.3088551    0.2465155   4.72 0.0007856241    1.416    0.294
        50 -10.2076    228.0026    231.9773   9.9953563060e+01  -9.0171920114e+00    0.1985961    0.1338114  -7.11   0.00067199    1.575    0.365
        51 -11.7660    160.1450    197.9641   1.0776036083e+02   8.8926579296e+00    0.5984049     0.410873 -78.09  0.002262394    2.197    0.545
        52 -10.3882     13.5086     59.9366   1.2036287361e+02   6.2693729603e+01    0.1701826    0.1558429  16.25 0.0004293387    1.368    0.269
        53 -10.2356    112.9788     21.9309   7.3477343434e+01   5.3148099879e+01    0.1910816      0.16208  54.70 0.0003670763    1.077    0.072
        54  99.0000     11.8713    205.2646   1.4258229080e+02   2.9792893177e+01    0.3473103    0.2475674 -71.05  0.002249625    1.303    0.233
        55 -10.3301     25.4184    206.3056   1.3987222573e+02   2.8170743776e+01    0.1137251    0.1008868 -74.97 0.0004812644    1.273    0.215
        56 -11.9190    193.6677    195.9916   1.0007552271e+02   3.0365757530e+00     1.124614    0.6497332 -71.50   0.00353854    4.761    0.790
