#   1 NUMBER                 Running object number                                     
#   2 MAG_AUTO               Kron-like elliptical aperture magnitude                    [mag]
#   3 X_IMAGE                Object position along x                                    [pixel]
#   4 Y_IMAGE                Object position along y                                    [pixel]
#   5 X_WORLD                Barycenter position along world x axis                     [deg]
#   6 Y_WORLD                Barycenter position along world y axis                     [deg]
#   7 A_WORLD                Profile RMS along major axis (world units)                 [deg]
#   8 B_WORLD                Profile RMS along minor axis (world units)                 [deg]
#   9 THETA_WORLD            Position angle (CCW/world-x)                               [deg]
#  10 FWHM_WORLD             FWHM assuming a gaussian core                              [deg]
#  11 ELONGATION             A_IMAGE/B_IMAGE                                           
#  12 ELLIPTICITY            1 - B_IMAGE/A_IMAGE                                       
         1 -14.9547    161.6401     43.3397   8.0482629998e+01   3.9722203871e+01     1.436661      1.11952 -15.55  0.003936519    1.440    0.306
         2 -13.3337    189.7177     13.0888   6.6701371013e+01   3.6025594204e+01     1.069307    0.5024427 -40.93  0.004604471    2.101    0.524
         3 -13.4574    172.8880     15.2758   6.9571829598e+01   4.0229070055e+01    0.8664753    0.4091213  75.30  0.002904082    2.180    0.541
         4 -14.6826    175.0960      9.3319   6.7415164293e+01   4.0252972990e+01      1.69931    0.8978574  69.95  0.007668379    1.721    0.419
         5  99.0000     12.8052    242.7830   1.5073340466e+02   2.4615100476e+01    0.2398421   0.09345826 -63.00  0.001396859    3.260    0.693
         6 -20.1397     77.1486    176.7286   1.3365349839e+02   2.9560031277e+01     16.44177     6.294816 -66.93   0.07017374    2.638    0.621
         7 -13.7010    155.3089    197.6361   1.2004700691e+02   1.2153487383e+01    0.7669772    0.5203668 -79.03  0.003794516    2.259    0.557
         8 -14.0220    164.8206    188.6606   1.1662635356e+02   1.1945409928e+01     0.826262    0.4603146  46.23  0.003050942    1.598    0.374
         9 -11.7670    139.6286    200.4232   1.2365088721e+02   1.4507125775e+01    0.3495696    0.2519699  49.07 0.0007372233    1.190    0.160
        10 -10.0691    135.4521    196.2257   1.2387889362e+02   1.6022225629e+01    0.2299134    0.1470107  56.30  0.001195014    1.480    0.324
        11 -11.8907    146.0170    189.5514   1.2064880270e+02   1.5332249991e+01    0.3035648    0.2267666  -8.01  0.001523589    2.149    0.535
        12 -13.5736    210.1923    187.6880   1.0758595216e+02   3.4813129219e+00    0.9558316    0.3700953 -50.15  0.003229268    4.663    0.786
        13 -11.7827    201.1511    163.6421   1.0455516929e+02   9.0809179873e+00    0.5725959     0.384389 -42.48  0.002863538    1.604    0.376
        14 -13.0921    206.4255    178.1897   1.0647317259e+02   5.6589431167e+00    0.6162401    0.3761402  29.71   0.00300902    1.680    0.405
        15 -13.0112    203.6597    171.9758   1.0577080227e+02   7.1958564376e+00     0.771232    0.5454506 -43.54  0.004056375    1.572    0.364
        16 -11.0154    126.8446    250.7740   1.3231053378e+02   8.3704804096e+00    0.1513427   0.07210451  46.56 0.0008404673    1.574    0.365
        17 -10.4039    151.0539    241.8555   1.2702589493e+02   5.8271362841e+00    0.1697139    0.1538187  37.10 0.0006124239    1.206    0.171
        18 -10.5034     28.8092    240.3524   1.4810718695e+02   2.3331744573e+01    0.1417499   0.08133756  57.10  0.000475833    1.262    0.207
        19 -11.6640     30.7824    182.4760   1.4407825476e+02   3.4117371409e+01    0.1935842    0.1700005  84.47 0.0004053075    1.255    0.203
        20 -11.5523     27.7286    179.9571   1.4449990630e+02   3.4960229896e+01    0.2659338    0.2174558 -40.90  0.001846275    1.884    0.469
        21 -12.2783    199.4976    179.0690   1.0796759008e+02   6.8579914305e+00    0.4971496    0.2931574 -58.08   0.00191776    2.724    0.633
        22 -13.4838    195.6780    169.5843   1.0683980004e+02   9.1820209433e+00    0.5284218    0.4624354 -44.69  0.001323094    1.276    0.216
        23 -14.8302    174.8647    187.2635   1.1434972847e+02   1.0263730645e+01     1.614744    0.5594038 -46.96  0.006028183    3.350    0.702
        24 -12.5735    193.6076    164.7654   1.0626855334e+02   1.0425634645e+01    0.3701309    0.3302713  31.29  0.001233287    1.038    0.036
        25 -11.0289     26.1179    172.7824   1.4426291812e+02   3.6635131415e+01    0.2634441     0.182436  83.25  0.001065823    1.138    0.121
        26  -9.8303     17.6542    173.7653   1.4608787199e+02   3.7243126475e+01   0.09472354   0.08164515 -56.93 0.0005962156    1.557    0.358
        27 -12.1425    165.2879    171.7963   1.1346982830e+02   1.4913030887e+01    0.2999988    0.2120498  66.90  0.001451077    1.730    0.422
        28 -11.1900     21.7750    238.9582   1.4916163489e+02   2.4332956740e+01     0.133781    0.1001655  88.98 0.0006796024    1.318    0.241
        29 -12.1360    230.1760    166.8793   9.9841465770e+01   2.8616419225e+00    0.2857502    0.1822424 -44.29  0.001443492    1.812    0.448
        30 -11.0012    131.1611    236.1176   1.2995026472e+02   9.9186271948e+00    0.2227813    0.1602875 -64.30 0.0009307318    1.706    0.414
        31 -10.4474      7.6944    236.6060   1.5127212299e+02   2.6177183806e+01   0.09389837   0.06624953  78.01  0.000342581    1.143    0.125
        32 -12.3036    170.6474    185.3519   1.1486015824e+02   1.1407710611e+01    0.3971953     0.319721 -67.90  0.001128075    1.556    0.357
        33 -10.3920     17.6679    158.7281   1.4492492487e+02   4.0452416340e+01    0.1676964    0.1400652  87.37   0.00066093    1.141    0.124
        34 -11.1834     17.7218    154.5055   1.4455951016e+02   4.1366838757e+01    0.3130756    0.1546763 -86.26  0.001355884    1.725    0.420
        35 -11.1754    192.8773    157.8653   1.0497368554e+02   1.1781963176e+01    0.2291673    0.1904786  13.81 0.0007611448    1.284    0.221
        36 -13.4717    163.6259    156.1515   1.1071974871e+02   1.8239502015e+01    0.5003188    0.4079477 -55.81  0.001626948    1.336    0.251
        37 -12.8829    159.9975    151.9975   1.1064712851e+02   1.9818726477e+01    0.3794587    0.3144711 -24.67  0.001847182    1.399    0.285
        38 -14.7231    134.4194    146.9698   1.1544339048e+02   2.6133800756e+01      1.62263    0.5737093 -57.86   0.00488866    4.010    0.751
        39 -11.3952    139.0105    250.2207   1.3012604791e+02   6.5526028923e+00    0.2511108    0.1883425  41.24  0.001749777    1.160    0.138
        40 -10.4523     22.9447    156.0776   1.4352757253e+02   4.0550104496e+01    0.1758814    0.1364163  86.83 0.0004288768    1.010    0.010
        41 -11.9300    139.0508    242.6903   1.2927632370e+02   7.6453962112e+00    0.3431345    0.2358471 -56.67   0.00152757    1.849    0.459
        42 -12.7467    173.8750    148.7458   1.0693638400e+02   1.7497086886e+01    0.4078117    0.3722713  62.65  0.001592506    1.130    0.115
        43 -14.5747    143.9137    145.0447   1.1281760989e+02   2.4605504192e+01    0.9817264     0.614513 -64.34  0.003544686    1.985    0.496
        44 -11.3136     27.4495    145.6661   1.4148196888e+02   4.2437919966e+01    0.2409943    0.1894238 -76.06 0.0009373596    1.137    0.121
        45 -10.9415    133.5450    248.8156   1.3093237441e+02   7.6149734487e+00     0.157476    0.1270887 -68.56  0.000354488    1.556    0.357
        46 -14.2818    135.8179    128.0218   1.1096680074e+02   2.9929073682e+01     1.992027    0.4188653 -50.77  0.004717273    5.739    0.826
        47 -11.5666    173.3064    139.6486   1.0502802335e+02   1.9378397466e+01     0.267924    0.1842529 -53.83 0.0007320665    1.625    0.385
        48 -10.8363     17.0302    224.9741   1.4925712545e+02   2.7288190367e+01    0.1299933   0.08768615 -80.58 0.0007597165    1.444    0.307
        49 -12.9096     22.7815    220.2269   1.4804497634e+02   2.7555404372e+01    0.2626166     0.159005 -71.89  0.001599156    1.697    0.411
        50 -11.4872    130.4508    212.8371   1.2722149114e+02   1.3899052156e+01    0.2708144    0.1877005  88.61 0.0009560961    1.848    0.459
        51 -12.9712    160.7173    128.0913   1.0510618901e+02   2.4483866723e+01    0.4992556    0.3858275 -60.00  0.001891354    1.432    0.302
        52 -12.1189    134.0734    244.5432   1.3037338434e+02   8.1632873198e+00    0.2084675    0.1715135 -36.95  0.001176506    1.732    0.423
        53 -12.6657    140.7057    120.6937   1.0802263708e+02   3.0459024996e+01    0.4452299     0.261912  67.82  0.001329641    2.531    0.605
        54 -11.0473    167.6823    112.6865   9.9698030316e+01   2.5975104447e+01    0.3232254     0.229931 -81.98  0.001330413    2.090    0.521
        55 -12.1188    207.1589    210.9009   1.1227463209e+02   6.7857662704e-01    0.1888349    0.1665243  45.07 0.0008135932    1.258    0.205
        56 -11.2245     16.0372    209.4821   1.4862900704e+02   3.0252469235e+01    0.1028555    0.0908201 -37.70 0.0004792927    2.009    0.502
        57 -12.9860     11.4706    206.1055   1.4925165612e+02   3.1340460168e+01    0.4007035    0.2375309  39.67  0.002204476    1.783    0.439
        58 -10.8767    205.3046    110.2502   9.1415914966e+01   1.7523607724e+01    0.3207382    0.2076279  45.62  0.001047325    1.571    0.363
        59 -10.4469    180.8028    106.7588   9.5329954626e+01   2.3995801382e+01    0.2178015    0.1839298 -80.29 0.0008829412    1.388    0.280
        60 -10.1514     22.7030    205.1199   1.4719198309e+02   3.0412513619e+01    0.1726548    0.1216658 -49.72  0.001155943    2.232    0.552
        61 -13.9193    154.1958    186.3726   1.1841941328e+02   1.4380737843e+01    0.6933534    0.5187448 -66.23  0.003755516    1.614    0.381
        62 -13.9653    177.1053    170.8321   1.1082375657e+02   1.2710803127e+01    0.7406971     0.566835 -51.60  0.003930612    1.478    0.324
        63 -12.0073    169.8325    195.3318   1.1675596156e+02   9.8463471452e+00    0.2508552    0.2199821  54.28 0.0006470794    1.128    0.113
        64 -13.0929    180.4897    193.4787   1.1432916078e+02   8.1498615165e+00    0.4655064    0.4308641 -72.74  0.002021506    1.315    0.240
        65 -10.4147    143.7317     80.5812   9.6277098192e+01   3.7983789405e+01    0.2090657     0.150578  63.26 0.0003496468    1.522    0.343
        66 -14.4303    150.4049     57.8538   8.7548276454e+01   4.0386806969e+01     1.217078     1.020523  -5.46 0.0009714306    1.352    0.260
        67 -13.0507    162.7285    201.6105   1.1919776224e+02   1.0105792201e+01    0.7617214    0.4478417 -70.02  0.002502273    3.081    0.675
        68 -10.9807     13.5244     59.9574   1.3266643081e+02   6.2748410128e+01    0.1772988    0.1567567  62.29 0.0004204816    1.425    0.298
        69 -13.1134    165.4846     34.8998   7.7032299029e+01   3.9867665453e+01    0.4387526    0.4089844 -17.85 0.0008630189    1.150    0.131
        70 -12.5764    168.0591    242.4338   1.2405734470e+02   2.9689581240e+00    0.3350349    0.1927994 -44.94  0.001442464    2.241    0.554
        71  -9.3058    160.2777    243.3345   1.2555816707e+02   4.1150995468e+00    0.1109957   0.08368935  18.00 0.0004410189    1.608    0.378
