#   1 NUMBER                 Running object number                                     
#   2 MAG_AUTO               Kron-like elliptical aperture magnitude                    [mag]
#   3 X_IMAGE                Object position along x                                    [pixel]
#   4 Y_IMAGE                Object position along y                                    [pixel]
#   5 X_WORLD                Barycenter position along world x axis                     [deg]
#   6 Y_WORLD                Barycenter position along world y axis                     [deg]
#   7 A_WORLD                Profile RMS along major axis (world units)                 [deg]
#   8 B_WORLD                Profile RMS along minor axis (world units)                 [deg]
#   9 THETA_WORLD            Position angle (CCW/world-x)                               [deg]
#  10 FWHM_WORLD             FWHM assuming a gaussian core                              [deg]
#  11 ELONGATION             A_IMAGE/B_IMAGE                                           
#  12 ELLIPTICITY            1 - B_IMAGE/A_IMAGE                                       
         1 -10.6858      9.0030     25.0027   1.2696456493e+02   6.9093311734e+01    0.7892008    0.1238445 -43.60  0.002916289    4.128    0.758
         2 -11.3573     25.3138     20.3071   1.1772066674e+02   6.8655732796e+01    0.5342725    0.2419569 -24.84  0.002530699    2.741    0.635
         3 -11.0638    217.6736     16.0056   6.7853789559e+01   2.8414345300e+01    0.5448007    0.2018169  52.30  0.002056196    2.771    0.639
         4 -10.8248     82.4043     17.0641   9.3944949468e+01   6.1112399986e+01    0.5196151    0.2990055   6.12  0.002363629    2.323    0.570
         5 -10.8363     60.6099     14.5375   1.0030844978e+02   6.5169452365e+01    0.3031997     0.101472 -37.12  0.001014302    2.758    0.637
         6 -11.2645    133.0305     11.9686   7.8894867387e+01   5.0639954700e+01    0.3391926    0.2231776   5.35  0.000902956    1.735    0.424
         7  -9.7498     30.5088     11.4995   1.1142525043e+02   6.9569766924e+01    0.1711581   0.08797222 -31.91 -0.0001557209    1.602    0.376
         8 -10.7378     99.1521     12.4006   8.6950823997e+01   5.8341875022e+01    0.4290537    0.2094254 -40.71  0.001882426    2.412    0.585
         9 -10.9628     26.6023     13.2601   1.1405402689e+02   6.9697950354e+01    0.2311807    0.1389662 -30.04 0.0009884411    1.336    0.252
        10  -9.7010    115.1844     13.1831   8.3245357760e+01   5.4736221445e+01    0.1797649    0.1611819 -49.70 0.0005566282    1.328    0.247
        11 -11.6440     81.0486      6.4594   8.9449337622e+01   6.2623458423e+01    0.3830853    0.2177423  19.53 0.0005213514    1.968    0.492
        12  -9.6072      7.3407      8.6013   1.2140804514e+02   7.2092374035e+01    0.1678976   0.08375438  38.16 0.0009494094    3.073    0.675
        13  -9.7400     59.7206      5.3900   9.6151021196e+01   6.6486739703e+01    0.2988293    0.1052127  42.80  0.001317418    2.840    0.648
        14  -9.9644     91.2295      3.8038   8.5236390833e+01   6.0887119113e+01    0.1815388    0.1683701 -21.10 0.0006770724    1.247    0.198
        15  -9.3830     75.4590      4.4663   9.0243749909e+01   6.3883880829e+01    0.1292369    0.1055527   8.15 0.0001615871    1.027    0.026
        16 -11.2237     27.3049      3.1467   1.0878060195e+02   7.1153513544e+01    0.2135081    0.1709103  10.04 0.0004734979    1.295    0.228
        17  -9.5901    160.9695    250.0000   1.2983561520e+02   4.2612250868e+00    0.1879489   0.04944308  43.61 0.0005114543    2.867    0.651
        18 -10.2014    243.0683    247.6645   1.1620444073e+02  -8.1095815957e+00    0.1563925    0.1257332  28.53 0.0005822713    1.237    0.192
        19 -10.9414    247.4720    249.9243   1.1585174054e+02  -8.9487869670e+00    0.4249882    0.1241757  37.99  0.002064952    2.591    0.614
        20 -10.8342    250.2935    244.4699   1.1459989780e+02  -8.8569092581e+00    0.3289147    0.1835281 -21.81  0.002162877    1.980    0.495
        21 -11.2216    181.0079    249.0512   1.2641335352e+02   1.2309379476e+00    0.3029698    0.1561828 -38.27  0.001806415    2.588    0.614
        22 -11.4088    179.8202    243.8121   1.2594409396e+02   2.0518709990e+00    0.4096214    0.1339146  42.22  0.001916082    2.357    0.576
        23  -9.4722    168.2296    250.6282   1.2871221725e+02   3.0465952860e+00    0.1545218   0.08199949  37.96 0.0002008635    1.541    0.351
        24 -10.2782    127.9242    249.6237   1.3524112585e+02   9.3933852781e+00     0.153966    0.1479914 -89.26 0.0009926003    1.365    0.267
        25  -9.4673     72.5505    249.9474   1.4415085909e+02   1.7109535030e+01     0.116373   0.08260867 -47.35 0.0008077915    2.481    0.597
        26 -12.2829     21.6223    249.0630   1.5172850470e+02   2.3160431084e+01    0.3491722    0.1528918  53.44  0.002376503    1.605    0.377
        27 -11.7213     27.8608    245.9700   1.5068118954e+02   2.2992321711e+01    0.3093765    0.1520776 -80.29  0.001923954    1.880    0.468
        28  -9.4475    215.6425    240.3031   1.1952157673e+02  -3.2302596872e+00    0.1059436   0.08171863  57.64 0.0007038884    1.717    0.418
        29 -10.9105     73.5484    232.9971   1.4272686901e+02   1.9674618647e+01    0.2159488    0.1515753  70.58 0.0008217625    1.128    0.114
        30 -11.6978    177.5676    234.9760   1.2516370992e+02   3.5300744872e+00    0.3572893    0.2131295  23.83  0.001993487    2.058    0.514
        31 -11.5128     74.0450    238.6467   1.4308468883e+02   1.8689516419e+01    0.4546749    0.1950484  49.56  0.002717166    1.770    0.435
        32 -11.4314    156.2342    240.7434   1.2953468824e+02   6.2217647685e+00    0.2180302      0.14645  60.44  0.001403754    1.516    0.340
        33 -10.9264    159.6137    235.8010   1.2835140429e+02   6.3503028880e+00    0.2265707    0.1339315  43.16 0.0009352165    1.332    0.249
        34  -9.6462     50.0207    240.4869   1.4703077544e+02   2.1383049017e+01    0.1446705   0.07904699  47.86 0.0005573658    1.510    0.338
        35 -10.6081    167.1126    233.8734   1.2681404055e+02   5.3894945898e+00    0.2049008    0.1620196  43.64 0.0007690966    1.006    0.006
        36 -10.5794    153.1481    234.0782   1.2925182068e+02   7.6383370149e+00    0.1783021    0.1413967  28.18  0.001223815    1.370    0.270
        37  -9.6947     53.6616    234.7055   1.4608547207e+02   2.1894828173e+01   0.08384918   0.08080947  64.57 0.0004759732    1.651    0.394
        38  -9.9781    241.0028    231.3026   1.1403310918e+02  -6.2077044351e+00    0.1812283    0.1307538   4.57  0.000558975    1.298    0.230
        39 -10.0013     79.5250    231.2670   1.4159100360e+02   1.9165243513e+01    0.1937891    0.1186281  49.94  0.000558916    1.327    0.247
        40  -9.7311    235.9872    230.2960   1.1468454213e+02  -5.3329754934e+00    0.1641161    0.1178412  25.69   0.00054737    1.069    0.065
        41  -9.5373     59.0000    229.9703   1.4489423292e+02   2.2034281330e+01    0.1534736   0.05356666 -71.02 0.0007993422    2.921    0.658
        42 -10.2162    169.8808    228.8721   1.2566976753e+02   5.6129591874e+00    0.1811085    0.1407216  30.28 0.0009745781    1.239    0.193
        43 -10.4448    144.6366    227.7832   1.2996038142e+02   9.9345693068e+00    0.2601952    0.1095575 -62.64  0.001119844    4.060    0.754
        44 -10.4007    116.3830    229.2072   1.3508210660e+02   1.4186286159e+01    0.1479079    0.1017698 -82.64 0.0009514238    1.699    0.411
        45  -9.2861     93.6628    229.3230   1.3902236998e+02   1.7526120097e+01    0.1203564   0.06768247  66.86 0.0007050828    1.715    0.417
        46 -10.4803    129.4336    226.6318   1.3250521826e+02   1.2556716850e+01    0.3599231    0.1699934  59.47  0.001601717    2.360    0.576
        47 -10.5790    190.5055    226.4576   1.2174212203e+02   2.4874250127e+00    0.2045966    0.1778168  26.27 0.0006719557    1.116    0.104
        48 -10.1669     86.2326    233.5763   1.4066289203e+02   1.7872490218e+01    0.2061674    0.1073695  82.53  0.001140722    2.412    0.585
        49 -10.3937     88.1224    227.1367   1.3977129913e+02   1.8670314910e+01    0.1599786    0.1411768  59.35  0.001232215    1.284    0.221
        50 -10.6504     81.4325    224.9808   1.4072728707e+02   1.9958704872e+01    0.2235213    0.1654191  84.07 0.0008456886    1.231    0.188
        51 -10.4535     66.5646    226.3231   1.4336562197e+02   2.1700031767e+01    0.2369927    0.1158869  47.92   0.00082523    1.654    0.395
        52 -10.0554     25.1653    226.3717   1.5009694696e+02   2.6502602378e+01    0.1418768   0.06462476  52.82 0.0006773507    1.665    0.399
        53  -9.6500    115.6658    225.3293   1.3478948796e+02   1.4915995817e+01    0.1228984    0.0745692  67.69 0.0007052005    1.724    0.420
        54 -10.7020    182.0028    223.1852   1.2274846244e+02   4.3513453229e+00    0.2899238    0.1705838 -32.08  0.001638028    2.210    0.548
        55  -9.1174    156.3692    224.2516   1.2743130508e+02   8.5216674544e+00     0.118223   0.08248127  26.68 0.0003129519    1.631    0.387
        56  -9.2436    109.3742    223.2869   1.3568138593e+02   1.6209674601e+01    0.1063137     0.087814  22.63 0.0002928301    1.718    0.418
        57 -10.6594     13.2081    222.2402   1.5175241350e+02   2.8415590531e+01    0.1650522    0.1320155  86.13 0.0004776466    1.328    0.247
        58 -11.5173    141.5788    221.3074   1.2969384317e+02   1.1419981417e+01     0.284346    0.1955021  32.00  0.001202148    1.569    0.363
        59 -10.9832    123.5780    221.3226   1.3292972590e+02   1.4328403778e+01    0.2550624    0.2048279  47.20  0.001103946    1.150    0.130
        60  -9.0910     51.6688    222.6794   1.4558492017e+02   2.4173973932e+01   0.08795706   0.08279832 -61.01 0.0003591692    1.695    0.410
        61  -9.0773     41.6804    221.3108   1.4714533687e+02   2.5577924617e+01    0.1128933   0.05691107  67.16 0.0007035597    1.645    0.392
        62 -10.6032    174.2905    219.8327   1.2362768729e+02   6.1273896479e+00    0.2429243    0.1706329  26.76 0.0007945247    1.475    0.322
        63  -9.9695    165.8343    220.1973   1.2519004523e+02   7.5176581025e+00     0.159102    0.1300547  23.59 0.0004036267    1.312    0.238
        64  -9.9318     21.9909    220.0357   1.5025960839e+02   2.7923302653e+01    0.1221761   0.08426318  71.16 0.0003752235    1.028    0.027
        65  -9.6893    250.2816    219.0421   1.1053956465e+02  -6.3603237250e+00    0.1614544    0.1245552   8.30 0.0007900072    1.105    0.095
        66  -9.0914    233.4939    219.4731   1.1334859368e+02  -3.7654712606e+00     0.119469   0.09359644  23.38 8.632622e-05    1.018    0.017
        67 -10.8766    192.6471    216.5088   1.1987133265e+02   3.4323806863e+00    0.3518828    0.2032282  23.68  0.001816651    2.065    0.516
        68  -9.6434     50.3500    218.2782   1.4549129899e+02   2.5102737059e+01   0.08625825   0.08457176 -84.17 0.0003339787    1.642    0.391
        69 -10.8021     10.1004    216.9545   1.5198587761e+02   2.9631052501e+01    0.2579083    0.1457042  64.55  0.001261642    1.289    0.224
        70 -10.5411    201.6671    216.1178   1.1822525494e+02   1.9355269358e+00    0.2621143    0.1554334  45.02   0.00127781    1.463    0.317
        71  -9.5103    137.2076    215.6407   1.2976189938e+02   1.3037155710e+01    0.1749761   0.09863194  37.93 0.0009410206    1.689    0.408
        72 -11.3915    210.0216    211.7427   1.1606045798e+02   1.0678665317e+00    0.4029935    0.2231088  31.88  0.001273993    1.640    0.390
        73 -10.1590    170.1818    213.1551   1.2339033381e+02   7.8009945660e+00    0.1879931    0.1522739  32.36  0.001009175    1.158    0.137
        74  -9.1583    115.0000    214.9746   1.3374367639e+02   1.6731079407e+01    0.1676869   0.06693652 -58.36 0.0005826348    2.869    0.651
        75 -11.1836     20.6777    211.5812   1.5000804320e+02   2.9552020927e+01    0.2560546    0.1256151  73.24   0.00067964    1.664    0.399
        76 -11.5642      5.3143    207.5921   1.5230119124e+02   3.1734271160e+01    0.3784153    0.1509672 -89.80  0.002299252    2.086    0.521
        77 -10.1296      1.5424    207.3070   1.5289387328e+02   3.2122638708e+01    0.1853815   0.09401818 -83.85  0.001056482    1.566    0.361
        78  -9.1833     32.2731    209.6814   1.4796058436e+02   2.8691957297e+01    0.1101524    0.0579421  70.42 0.0004181778    1.567    0.362
        79 -12.2389     11.8866    206.1276   1.5115684676e+02   3.1391680935e+01    0.4030981    0.2150306 -82.36  0.002844688    1.537    0.349
        80  -9.7302    247.3754    206.9363   1.0892228307e+02  -4.5884275442e+00    0.2125174    0.1016036 -37.74  0.001090187    2.517    0.603
        81  -9.5812    238.7436    201.3833   1.0936037828e+02  -2.5289847035e+00    0.1727861   0.09506165  32.32 0.0005840482    1.591    0.372
        82 -10.9477    210.4727    200.9965   1.1416347385e+02   2.4013184759e+00    0.1799388    0.1651516 -53.76 0.0006814636    1.461    0.316
        83 -11.8436    215.5798    194.1026   1.1203647658e+02   2.4224468772e+00    0.3558381    0.2103938 -37.95  0.001761035    1.913    0.477
        84 -11.5286    227.3453    196.6793   1.1044725101e+02   4.7518540086e-06    0.3689819    0.2118384  11.87  0.001150107    2.330    0.571
        85 -12.1674    231.8086    191.8067   1.0878618543e+02  -1.5433228050e-01    0.4248404    0.2177405  23.34  0.001953787    2.340    0.573
        86 -12.0025    192.0201    194.6763   1.1640415867e+02   6.6314804387e+00    0.3303192    0.2842678  66.90  0.001778015    1.414    0.293
        87  -9.3714     59.8047    192.6084   1.4167769166e+02   2.8709753562e+01    0.1595733   0.08540174  53.97  0.000551977    1.620    0.383
        88 -10.5345    250.1919    189.9422   1.0535418090e+02  -3.0722908255e+00    0.2473847    0.1634839 -40.06 0.0009119855    1.899    0.473
        89 -10.7003    246.3591    189.8572   1.0596929562e+02  -2.4168828380e+00    0.2923281    0.1707562   7.37  0.001047246    2.069    0.517
        90 -11.2910    224.0511    190.3082   1.0985018970e+02   1.4147894482e+00    0.2404211     0.165801   6.47   0.00133885    1.587    0.370
        91  -9.9850    203.0269    195.9692   1.1461761015e+02   4.4317362175e+00    0.1974033    0.1718676  26.11 0.0006706932    1.031    0.030
        92 -11.4863    187.5076    189.0689   1.1626216331e+02   8.3189022418e+00     0.358768    0.2226065 -22.30  0.001776257    2.152    0.535
        93 -10.1174    163.5545    190.6601   1.2111123762e+02   1.2525720359e+01    0.2226949    0.1295127 -39.92  0.000775288    2.025    0.506
        94 -10.2684    218.3437    206.7039   1.1376893093e+02   2.8027257358e-01    0.2504595    0.1513477  13.91  0.001022031    2.029    0.507
        95  -9.4150    179.3402    189.3194   1.1785153284e+02   9.8087072414e+00      0.13529   0.09749369  15.16 0.0007049702    1.714    0.417
        96 -10.3976    218.2859    187.7982   1.1039787958e+02   2.7964500587e+00    0.2484671    0.1078214 -41.57  0.001090244    2.705    0.630
        97  -9.6095    200.5180    185.5326   1.1319579341e+02   6.4143141211e+00    0.1331004    0.1155971  28.23 0.0001793649    1.002    0.002
        98  -9.3218    170.2645    185.6466   1.1895922800e+02   1.2110040533e+01    0.1271307    0.1025163  84.86 0.0003341515    1.622    0.383
        99 -10.2689    166.7784    183.3433   1.1923944739e+02   1.3154385994e+01     0.272824    0.1881316  62.46 0.0006635945    1.660    0.398
       100  -9.4438     61.6172    184.8255   1.4056789200e+02   3.0011802628e+01    0.1676901   0.09552711 -84.75 0.0009510715    1.699    0.411
       101 -11.6801     16.0565    183.1259   1.4908116591e+02   3.5336615802e+01    0.3349509    0.1687912  87.92  0.002100013    1.637    0.389
       102 -13.0988    244.6513    177.8786   1.0393853518e+02  -6.1711163621e-01    0.9545807    0.4776058  14.03  0.003692878    3.480    0.713
       103 -10.0255    142.1919    183.6110   1.2417726833e+02   1.7667089257e+01    0.1955556    0.1157079  36.29 0.0009565622    1.740    0.425
       104 -12.0241    249.1341    182.4174   1.0408507953e+02  -1.9723009527e+00    0.4500636    0.2523533  16.83  0.002219791    2.085    0.520
       105  -9.5914    203.3364    181.2891   1.1188178301e+02   6.5177344075e+00    0.1376162   0.09507752  17.05 0.0004145473    1.635    0.388
       106 -10.8522    188.1915    180.8579   1.1464507997e+02   9.4780918475e+00    0.1886685    0.1487925  17.25 0.0004207038    1.351    0.260
       107 -10.1601     22.7102    180.9977   1.4770519178e+02   3.5123392901e+01    0.1837927    0.1378292 -25.25   0.00119013    2.711    0.631
       108 -10.9265      2.1900    179.6791   1.5138201445e+02   3.7224002674e+01    0.2941494    0.1252083 -82.00  0.001169255    1.830    0.454
       109 -12.0233    224.0837    178.3246   1.0755918009e+02   3.0477226625e+00    0.3124915    0.2605255  27.29 0.0005943351    1.068    0.064
       110  -9.8157    175.6316    179.6922   1.1685515777e+02   1.2082035478e+01    0.1403931    0.1009307  15.75 0.0007035793    1.757    0.431
       111 -11.2882    200.9626    176.3831   1.1138502638e+02   7.7195793795e+00    0.3614033    0.2113182  39.56    0.0013239    1.557    0.358
       112  -9.3841     70.4286    177.5215   1.3801602381e+02   3.0335160339e+01    0.1207326    0.1005357  82.23 0.0001248346    1.037    0.036
       113 -10.2464    211.6145    174.7185   1.0909066201e+02   5.9214876230e+00    0.2218745    0.1502429  11.15  0.001115704    1.769    0.435
       114  -9.8108    154.3142    184.3014   1.2186577234e+02   1.5322239362e+01    0.1288025    0.1023161  13.27 0.0002979619    1.613    0.380
       115 -10.0488    231.6640    172.6700   1.0511011551e+02   2.4294929034e+00    0.1413394   0.09211326  12.77 0.0007052085    1.730    0.422
       116  -9.6677     74.4755    171.4920   1.3645963993e+02   3.1024433730e+01    0.1237865    0.1045232  82.30 0.0001164874    1.028    0.027
       117 -10.7419    196.8810    169.1484   1.1073602729e+02   9.6578827141e+00    0.2066024    0.1891014  61.75 0.0007764496    1.251    0.200
       118  -9.8006      4.5878    167.7491   1.5021943781e+02   3.9380237927e+01    0.2062974   0.07569419 -74.16  0.001138478    2.109    0.526
       119 -10.1520     55.0372    160.4867   1.3927838163e+02   3.5850734208e+01    0.2043914    0.1451422 -65.99 0.0005493762    1.337    0.252
       120 -10.3431     40.8769    165.1462   1.4277840225e+02   3.6486882528e+01    0.1776762    0.1234915  77.40 0.0002660762    1.227    0.185
       121  -9.3859    229.5025    164.5603   1.0383004023e+02   3.9815652456e+00    0.1366246    0.1169692  13.36 0.0001640551    1.034    0.033
       122 -11.8070    246.5002    162.4646   1.0049781434e+02   1.0895844465e+00    0.2414223    0.2221028  -4.92 0.0008327946    1.173    0.148
       123 -11.3960    247.5869    158.7542   9.9538769424e+01   1.3936067739e+00     0.405466    0.2753317 -34.38   0.00223105    1.512    0.338
       124 -10.3958     51.9738    164.0262   1.4033497321e+02   3.5465377389e+01     0.341868    0.1826085 -40.40  0.001552471    3.547    0.718
       125  -9.3601    200.0350    162.7814   1.0884498547e+02   1.0055446759e+01    0.1852221    0.1069119  45.63 0.0004537204    1.632    0.387
       126 -11.1044     36.1418    160.4293   1.4330196460e+02   3.7980950720e+01    0.2199855    0.1532261 -81.04 0.0002161232    1.175    0.149
       127 -10.1312    238.4001    158.8220   1.0109107904e+02   3.1047898780e+00    0.1873913     0.118998 -16.42 0.0006250103    1.646    0.393
       128  -9.1116    115.3154    159.2404   1.2579962414e+02   2.7212573437e+01    0.1221352    0.1072207  10.63 0.0001502143    1.509    0.337
       129 -10.2348     48.0266    158.9985   1.4062171523e+02   3.6989782611e+01    0.1806803    0.1457879  89.29 0.0004048441    1.022    0.021
       130 -10.0201    209.9878    166.3141   1.0770327423e+02   7.5127492094e+00    0.1965333    0.1657724  29.52 0.0004669103    1.078    0.073
       131  -9.0972     23.7099    152.6634   1.4519337428e+02   4.0841350360e+01    0.1856429   0.09085055 -71.04 0.0005901004    1.654    0.395
       132 -10.5406     23.5438    156.5004   1.4557620990e+02   4.0046750357e+01    0.1844324    0.1589323  82.45  0.000819297    1.194    0.162
       133 -10.1940    217.7377    154.6031   1.0382142468e+02   7.7791074116e+00    0.2767367    0.1221794  42.59  0.001136138    2.164    0.538
       134 -10.2386    205.4306    152.2989   1.0560320296e+02   1.0660130648e+01    0.2649904    0.1372533 -30.71  0.001129577    2.086    0.521
       135  -9.9719    197.0213    153.5309   1.0747689921e+02   1.2198185035e+01    0.2239674    0.1336942  46.12  0.001034217    1.600    0.375
       136 -10.6680    178.3917    151.5053   1.1074386543e+02   1.6435576643e+01    0.3074066    0.2689915  82.95  0.001569561    1.369    0.269
       137  -8.9641    151.6377    153.3152   1.1673334776e+02   2.1583789676e+01    0.1486093    0.1104628  80.43 0.0007027498    1.761    0.432
       138  -9.2615    105.6883    153.6233   1.2699620784e+02   3.0033628715e+01    0.1329317    0.1070915 -22.95 0.0007029099    1.791    0.442
       139 -10.2221     10.3349    152.6934   1.4800619829e+02   4.1992670473e+01    0.1603771   0.08981018  43.70 0.0003947675    1.855    0.461
       140  -9.2975    154.5184    150.5537   1.1555156956e+02   2.1540110052e+01    0.1426107    0.1349073  55.03 0.0001970105    1.011    0.011
       141  -9.6179     92.7936    148.1682   1.2903587072e+02   3.3297015793e+01    0.1747937    0.1594102 -38.80  0.001067184    1.344    0.256
       142  -9.4585    233.5087    146.9883   9.9365157348e+01   5.7717099992e+00    0.2064428    0.1296725 -28.31 0.0006965682    1.552    0.356
       143 -10.1854     17.2938    146.7906   1.4603503524e+02   4.2656912637e+01    0.1810928    0.1614206   8.66 0.0009778283    1.695    0.410
       144  -8.9526     37.5152    146.5010   1.4153971053e+02   4.0821521476e+01    0.1203836   0.09487899 -88.68 0.0001210172    1.010    0.010
       145  -9.7437    215.6809    145.6784   1.0223771435e+02   9.6037434460e+00    0.1487246    0.1050753  11.80 0.0004817123    1.668    0.401
       146 -10.1498     52.4835    144.9274   1.3793277833e+02   3.9523594964e+01    0.1802572    0.1045362 -69.22 0.0003156323    1.488    0.328
       147 -10.4518    206.8775    145.9861   1.0394120756e+02   1.1394139465e+01    0.2491369    0.1982138  41.53 0.0007171942    1.215    0.177
       148 -11.1932      2.9686    143.8200   1.4885838441e+02   4.4417105583e+01    0.2029405    0.1665318  71.38  0.001051781    1.231    0.188
       149 -10.7000    212.0535    142.0173   1.0208143923e+02   1.0953589216e+01    0.4270445    0.2567685  33.07   0.00193645    1.768    0.435
       150 -11.0627     12.0405    140.9847   1.4666020477e+02   4.4326067231e+01    0.1691685    0.1108418 -55.72 0.0007080649    1.642    0.391
       151 -11.5468     57.4727    138.2915   1.3585011317e+02   4.0397648313e+01    0.3916778    0.2214312  72.87  0.001199297    2.165    0.538
       152 -10.2737     43.3531    137.5023   1.3910931293e+02   4.2183201388e+01    0.4342827    0.2018016  78.61  0.001779671    3.351    0.702
       153 -11.1871      9.3988    136.6292   1.4685621273e+02   4.5461649674e+01    0.2079875    0.1753394 -62.99 0.0001504367    1.353    0.261
       154 -10.3221      2.7792    136.0387   1.4827671364e+02   4.6071716416e+01    0.2096949    0.1252056 -80.13  0.001002174    1.250    0.200
       155 -10.3685      6.0351    133.9233   1.4736986932e+02   4.6289621126e+01    0.1686509    0.1272793 -80.65 0.0005678944    1.078    0.073
       156 -10.2878     21.6787    136.4948   1.4405721832e+02   4.4495179921e+01    0.2891378   0.08264393  36.95   0.00133529    3.410    0.707
       157  -9.9467    138.3596    135.2777   1.1591235654e+02   2.7871497176e+01    0.2696508    0.1737067  35.06 0.0007954966    1.726    0.421
       158 -11.9141     36.4646    130.9723   1.3992282256e+02   4.4340527351e+01    0.3385212    0.2187365 -70.42 0.0009937658    1.267    0.211
       159 -10.4649    249.4995    130.4767   9.2991352781e+01   5.0106658730e+00    0.2745779    0.2377529 -44.68  0.001247436    1.328    0.247
       160 -10.1437    126.5122    129.4804   1.1741923493e+02   3.1427984695e+01    0.1436528    0.1384257 -87.71 8.199557e-05    1.009    0.009
       161 -10.2215     74.1049    129.3122   1.3033461127e+02   4.0246116141e+01    0.2252158    0.1667856 -53.74 0.0007482864    1.321    0.243
       162 -11.5159     44.6819    125.7815   1.3718471986e+02   4.4654737026e+01    0.2258654    0.1914656 -68.72 0.0005244304    1.126    0.112
       163 -10.3715    219.3812    124.5152   9.6652242446e+01   1.2226308727e+01     0.248985    0.2291331  -4.18 0.0004486672    1.021    0.021
       164  -9.2497    164.6828    125.3164   1.0769728975e+02   2.4307838941e+01    0.1519876    0.1204534 -85.24 0.0005531082    1.652    0.395
       165  -9.1052     16.6702    125.7532   1.4408971201e+02   4.7253018349e+01     0.104824   0.07607149 -50.41 0.0001886299    1.545    0.353
       166  -9.3933     81.6814    124.6790   1.2756760693e+02   4.0200543958e+01    0.1325152    0.1028338 -30.77 0.0007043057    1.666    0.400
       167 -11.8253     10.0402    122.3516   1.4532617160e+02   4.8497111160e+01    0.3396594    0.2807023  -4.57  0.001809503    1.814    0.449
       168 -11.4075     18.1538    116.4602   1.4265241338e+02   4.9180059766e+01    0.4636723    0.2169896 -58.38  0.002057494    1.792    0.442
       169 -10.0131     13.4585    113.5132   1.4349450045e+02   5.0183930340e+01    0.1559535    0.1374268 -61.36 -0.0001591011    1.269    0.212
       170 -12.3717     16.4692    108.4141   1.4207889620e+02   5.1087202435e+01    0.3973252    0.2484241 -54.15   0.00108012    1.488    0.328
       171 -10.8410     21.7059    121.1599   1.4232892860e+02   4.7856316319e+01    0.3461512    0.1953534 -39.14  0.001009421    2.443    0.591
       172  -9.3439     56.3301    121.6701   1.3357137066e+02   4.4267383522e+01    0.1335862   0.08870927  77.89 0.0007051675    1.715    0.417
       173 -10.0139    166.4921    119.0660   1.0576871087e+02   2.5116815250e+01    0.2222616    0.1496624 -39.11 0.0005322237    1.499    0.333
       174 -10.1050    179.1582    116.1596   1.0233779359e+02   2.2785612836e+01    0.2273918    0.2047937  14.08 0.0003886577    1.165    0.142
       175  -9.0166    107.7160    115.6594   1.1896975363e+02   3.7942881597e+01    0.1421384    0.1121581 -21.71 0.0003802762    1.634    0.388
       176 -11.1216     34.9944    113.0153   1.3780531861e+02   4.8498363880e+01    0.3390938    0.1694319 -68.97  0.001787744    1.643    0.391
       177 -10.3828     42.3413    110.4803   1.3543259133e+02   4.8346685437e+01    0.2137914    0.1580827 -65.24 0.0002765908    1.122    0.109
       178  -9.9601    167.3370    109.0057   1.0300954967e+02   2.6862225943e+01     0.272985    0.2150749  20.09 0.0008409885    1.496    0.331
       179  -9.8452    133.5375    107.2945   1.1040541576e+02   3.4698317560e+01     0.255649    0.1864477  22.65  0.001162844    1.761    0.432
       180  -9.0898     49.6168    107.3151   1.3289033338e+02   4.8288138086e+01    0.1328844   0.08836635  75.07  0.000702098    1.819    0.450
       181 -11.0144     23.1230    106.3260   1.4001186019e+02   5.1034963728e+01     0.298204    0.1355005 -66.34 0.0006992262    1.690    0.408
       182 -10.5922      5.8438    106.2111   1.4460768248e+02   5.2305280558e+01    0.2325814    0.1597045 -56.13 0.0008680091    1.372    0.271
       183 -10.6356      2.5247    105.4433   1.4538840249e+02   5.2678990941e+01     0.194839    0.1364695 -59.31 0.0006270772    1.300    0.231
       184  -9.7696    223.2994    103.9636   9.0879525253e+01   1.4669642086e+01    0.2108659     0.179424 -28.28 0.0005224962    1.118    0.105
       185 -11.9992     70.2769    102.8686   1.2621352686e+02   4.6746477818e+01    0.4847336    0.2482321  31.02  0.001595716    2.398    0.583
       186 -10.2670    247.5103    102.4879   8.6665680050e+01   9.5334256301e+00    0.1422436    0.1283824 -15.00 0.0008104204    1.017    0.017
       187 -10.1380    120.3056    101.3657   1.1219423380e+02   3.8649445691e+01    0.2785526      0.22995  -9.47 0.0008065302    1.500    0.333
       188  -9.2405     96.5607    102.5638   1.1882268701e+02   4.2781349689e+01    0.1411465    0.1302499 -63.25 7.059187e-05    1.020    0.020
       189  -9.4922     91.6907    101.2917   1.1985159325e+02   4.3877259605e+01    0.1387493    0.1077035  86.64 0.0002710949    1.583    0.368
       190 -10.2965     28.1141    100.9802   1.3782694113e+02   5.1814805360e+01    0.1720459    0.1613753  72.39 0.0006800165    1.244    0.196
       191 -11.0315     19.6985    100.2991   1.4008212578e+02   5.2643429532e+01    0.3337678    0.1592499 -52.88  0.001821094    1.829    0.453
       192 -10.6380      4.7074    100.9654   1.4428708767e+02   5.3522122747e+01    0.2030394    0.1535806  52.18   0.00146772    1.538    0.350
       193 -10.7671     64.0142     98.3513   1.2702394915e+02   4.8592957171e+01     0.422353    0.2107472  29.76  0.001947052    2.500    0.600
       194  -9.8468     67.2264     94.9032   1.2531845874e+02   4.8944719030e+01    0.2581883    0.1470344 -65.37   0.00123523    1.756    0.430
       195 -10.0894     49.3542     97.8958   1.3118559570e+02   5.0443465209e+01    0.1808052    0.1600264  82.68 0.0002946618    1.200    0.166
       196 -10.8633      8.4706     94.5466   1.4242139855e+02   5.4692726404e+01    0.2768928    0.1712812 -48.97  0.001763057    1.564    0.361
       197 -10.3378     10.1013     91.4748   1.4152365206e+02   5.5262490135e+01    0.1789809    0.1213321 -58.80 0.0007222082    1.224    0.183
       198 -10.2504      2.0153     93.1988   1.4406284150e+02   5.5373249912e+01    0.3524454   0.08272221 -55.04  0.001540288    3.042    0.671
       199  -9.2086     98.7200     93.3256   1.1587201020e+02   4.4423016239e+01    0.1418378     0.110771 -82.85 0.0004162125    1.594    0.372
       200 -10.2187     20.8692     92.5896   1.3856117169e+02   5.4264918247e+01    0.2853356   0.07123883 -56.55  0.001126842    2.765    0.638
       201 -11.4154     78.0206     90.1013   1.2098427608e+02   4.8487429364e+01    0.5069905    0.3130361 -84.27  0.002084041    2.876    0.652
       202 -10.0145    185.0453     90.9066   9.4394848319e+01   2.5978006907e+01    0.2300328    0.2030384 -65.74 0.0004118587    1.256    0.204
       203 -10.4657     96.9791     89.9952   1.1546918709e+02   4.5444570941e+01    0.2320724    0.1748142 -16.81  0.001142787    1.711    0.415
       204  -9.6041     25.5195     91.8880   1.3707656536e+02   5.4056788207e+01    0.1785842   0.09581292 -66.21 0.0003072057    1.467    0.318
       205 -11.0201     47.3044     84.2304   1.2892392323e+02   5.3716878769e+01    0.4693642    0.2866411  85.54  0.002197219    2.642    0.621
       206  -9.8547    110.7971     85.5860   1.1037764454e+02   4.3827861779e+01    0.2046284    0.1403692  57.59  0.000947832    1.713    0.416
       207 -10.4261     85.3288     83.7115   1.1713279523e+02   4.8744599483e+01    0.3926455    0.1988497 -36.64  0.001491956    2.220    0.550
       208 -11.0230     67.3889     84.8684   1.2285693705e+02   5.1143943165e+01    0.2427743    0.1826434 -37.03 0.0005560932    1.337    0.252
       209  -9.5706     23.9936     85.4870   1.3641078901e+02   5.5595512860e+01     0.148516    0.1218118  21.59  0.001023543    1.564    0.361
       210 -11.4483    118.3181     82.9327   1.0756183615e+02   4.2873324191e+01    0.4466896    0.2967448 -18.37  0.001158339    2.056    0.514
       211 -10.0787    121.0397     76.4693   1.0487466097e+02   4.3593892659e+01    0.2499042    0.2124873 -57.91 0.0005268396    1.260    0.207
       212  -8.9111    107.3007     84.3144   1.1097564925e+02   4.4762301784e+01    0.1459456    0.1137255 -10.12 0.0003877418    1.612    0.380
       213  -9.5079    130.3008     82.3131   1.0424463076e+02   4.0468628282e+01    0.1522758    0.1194517   2.18 0.0004127069    1.610    0.379
       214 -11.4192     77.9409     71.9539   1.1602781238e+02   5.2385439479e+01    0.3371546    0.2976725 -55.15  0.001170368    1.125    0.111
       215 -11.4119     71.8472     79.1279   1.1997635798e+02   5.1770919385e+01    0.4364008    0.3175178  57.21 0.0003279909    1.727    0.421
       216 -10.9403     74.5961     76.1595   1.1829597963e+02   5.2005921964e+01    0.3886202    0.2621645 -50.16  0.001183734    1.315    0.240
       217 -10.5764      7.5750     80.1981   1.4056695643e+02   5.7879286299e+01    0.3207427    0.1774017  82.27  0.001082474    2.256    0.557
       218  -9.8614      3.0060     78.7349   1.4174996630e+02   5.8454546425e+01    0.2148643    0.1514706 -61.68 0.0006871868    1.103    0.094
       219 -11.3243      8.3007     73.7646   1.3926498807e+02   5.9228103513e+01    0.4295533    0.2231014   2.95  0.002392682    2.953    0.661
       220 -10.0543      2.4829     71.9967   1.4084351577e+02   5.9931128792e+01     0.260339    0.1166435 -58.95  0.001494664    1.592    0.372
       221  -9.9383     36.7021     78.3508   1.3097942409e+02   5.6076382123e+01    0.2217186    0.1266643 -62.13  0.001004871    1.450    0.310
       222 -11.6638     23.7969     78.0493   1.3507010133e+02   5.7244355682e+01    0.2319937    0.1245501 -52.81 0.0009022055    1.488    0.328
       223 -10.0922    150.2372     77.9459   9.8066268625e+01   3.6757413296e+01    0.2391768    0.2029745 -57.91  0.001186043    1.279    0.218
       224 -10.1866    100.5019     78.5059   1.1119162872e+02   4.7229737208e+01    0.1447502    0.1334378 -33.06  -0.00019056    1.031    0.030
       225 -10.5956     88.2782     77.3824   1.1445468005e+02   4.9601110843e+01    0.2721521    0.2197871  66.78 0.0007140205    1.553    0.356
       226 -11.0906     93.6211     76.7235   1.1266753242e+02   4.8826934127e+01    0.4538554    0.2871841 -18.77  0.001940134    2.344    0.573
       227  -9.3747    142.5025     77.5740   9.9778430941e+01   3.8637112995e+01    0.1516016    0.1476502  -1.32 5.497035e-05    1.020    0.020
       228 -11.2375     42.9870     68.3104   1.2649429548e+02   5.7630299991e+01    0.1990189    0.1650448  44.52  0.001005696    1.478    0.323
       229 -12.2401     49.6176     69.8078   1.2464780457e+02   5.6597648240e+01    0.4599794    0.3477909 -38.38  0.001794446    1.230    0.187
       230 -11.7223     58.2654     75.7036   1.2336291755e+02   5.4314876198e+01    0.4205027    0.2957535 -86.47  0.001847956    2.011    0.503
       231 -10.4568     54.6788     72.0541   1.2356425865e+02   5.5532940095e+01    0.1969126    0.1709255 -15.25 0.0002244957    1.279    0.218
       232 -10.9027    108.1028     75.8917   1.0823580605e+02   4.6324989469e+01    0.2874884    0.2336578  24.79 0.0005590889    1.370    0.270
       233 -10.2830     40.7868     73.2409   1.2846494781e+02   5.6794432439e+01    0.2661364    0.2123493 -81.57  0.001678311    1.390    0.281
       234 -10.1591     18.5198     79.5534   1.3703537267e+02   5.7307462478e+01    0.1201997   0.09122506 -59.56 0.0001139006    1.059    0.056
       235 -10.9871    151.1409     72.3700   9.6137950621e+01   3.7551678561e+01    0.3017377    0.1447921  49.21  0.001139473    2.078    0.519
       236 -10.1919    136.8600     70.7108   9.9004292322e+01   4.1205210152e+01    0.2697988    0.2064378 -22.20  0.001289604    1.385    0.278
       237 -10.1342    115.7779     70.7421   1.0448962140e+02   4.5797964478e+01    0.3153083    0.1893098 -45.72  0.001396567    1.640    0.390
       238 -12.2805     96.6600     66.8851   1.0870518231e+02   5.0265321588e+01    0.5594263    0.4592004   1.59  0.003021855    1.388    0.280
       239 -10.2953     93.6284     61.5831   1.0787179492e+02   5.1841314467e+01    0.2990687    0.2353941 -38.20 0.0006386226    1.169    0.144
       240 -10.6442     68.5756     67.4052   1.1767223893e+02   5.4705177144e+01    0.3049472    0.1968015 -34.35  0.001119335    1.537    0.349
       241  -9.3300    232.0127     69.0000   8.0413371567e+01   1.8007286142e+01    0.2278382   0.08376909  60.67  0.000693972    2.890    0.654
       242 -10.8235     31.1877     66.4951   1.3008531490e+02   5.9136932085e+01     0.268864     0.170327 -59.24  0.000797538    1.281    0.219
       243 -10.1678      6.4445     68.0735   1.3885923530e+02   6.0555578935e+01    0.1846803    0.1297101 -39.05 0.0005707737    1.441    0.306
       244  -9.7517     64.1241     68.1881   1.1936570571e+02   5.5154384182e+01     0.163533    0.1460627 -73.34 0.0002214527    1.267    0.211
       245 -10.1404    156.4891     66.4983   9.3092936607e+01   3.7276106185e+01    0.1524722    0.1502191 -15.49 0.0008105379    1.017    0.016
       246 -10.3098    119.2730     65.8823   1.0196282032e+02   4.5983228152e+01    0.2744381    0.2118546  36.38 0.0005457185    1.354    0.262
       247 -11.6573     84.9508     64.2726   1.1143939898e+02   5.2822631558e+01    0.5701535    0.3362068 -60.77  0.002097051    2.252    0.556
       248 -10.5972     86.0368     58.0232   1.0902109154e+02   5.3852361010e+01    0.2889911    0.2159277 -44.11  0.000415768    1.257    0.205
       249 -11.5370     62.0714     71.8433   1.2108211345e+02   5.4656958475e+01    0.3585683    0.2863577 -77.27 0.0003628955    1.487    0.327
       250 -10.8466     38.0250     66.4947   1.2772652303e+02   5.8511093936e+01    0.2070319    0.1262659  16.98 0.0009583824    2.139    0.532
       251 -10.2892     41.4771     64.4873   1.2600781812e+02   5.8594663681e+01    0.1265731    0.1032883 -49.62  5.25642e-05    1.008    0.008
       252 -10.8347    137.1572     65.2005   9.7152058105e+01   4.2128185585e+01    0.4524322    0.1783231  54.59  0.001548695    2.746    0.636
       253 -10.8320     76.7295     65.2493   1.1436325000e+02   5.3944139428e+01     0.312185    0.1789878  53.95  0.001407584    2.441    0.590
       254 -10.8688    174.4534     63.9114   8.8559667560e+01   3.3203413632e+01    0.2965556    0.2523429  73.08 0.0004121087    1.267    0.211
       255 -10.1671     51.8133     62.6445   1.2190681869e+02   5.7851287318e+01    0.2533055    0.1638483 -35.81 0.0007374072    1.473    0.321
       256 -11.1624     11.3417     61.8211   1.3595302627e+02   6.1596899889e+01    0.3121079    0.1813255 -48.99  0.001015109    1.382    0.277
       257 -10.5282      2.8205     62.9651   1.3914539220e+02   6.1835053951e+01    0.2138082    0.1328257 -83.72 0.0007900184    1.639    0.390
       258 -10.3255    122.0221     61.7882   9.9865132277e+01   4.6138750810e+01    0.2466317    0.1639886  22.24  0.001067228    1.951    0.487
       259 -11.1925     64.9263     60.3461   1.1671376726e+02   5.6652003682e+01    0.3121184    0.1722297  46.55  0.001353551    2.285    0.562
       260  -9.8760     70.3707     58.3113   1.1422264570e+02   5.6283100911e+01    0.3008932    0.1599742 -31.56 0.0007284458    2.071    0.517
       261  -9.3404     56.3005     62.2832   1.2025356615e+02   5.7385447596e+01    0.1288119   0.08955086 -26.23 0.0002581748    1.550    0.355
       262 -10.3917     70.5569     61.5104   1.1519597527e+02   5.5620532560e+01    0.3778511    0.1918647  44.17 0.0003389168    2.334    0.572
       263 -10.8150     27.3477     61.1490   1.3012204385e+02   6.0593705627e+01    0.3144019    0.1652511  25.05  0.001297778    2.353    0.575
       264 -10.3080     32.6464     60.6766   1.2811037830e+02   6.0238285155e+01    0.2908817    0.1529725 -35.32  0.001167152    1.991    0.498
       265 -10.5768     18.1169     59.4403   1.3301594634e+02   6.1654250332e+01    0.2548721    0.1449293 -70.76 1.496568e-05    1.684    0.406
       266 -11.1113      4.9388     58.6292   1.3755993137e+02   6.2636317999e+01    0.2668003    0.2100451  59.37  0.001546086    1.653    0.395
       267 -11.3744    135.6126     50.4927   9.2555862908e+01   4.4966326046e+01    0.4774148    0.3202486 -75.67  0.001347313    2.546    0.607
       268 -10.6725    137.1774     57.8116   9.4691195601e+01   4.3398880488e+01    0.2347945    0.2123724  11.54 0.0002622445    1.126    0.112
       269 -10.5718    138.1778     54.6104   9.3364806109e+01   4.3694360522e+01     0.258178     0.226422   2.91  0.001028286    1.184    0.155
       270  -9.1406     47.6458     58.3150   1.2209413481e+02   5.9219167847e+01     0.120612   0.09711646  87.37 0.0006247461    1.739    0.425
       271  -9.8688    114.8222     57.3239   1.0027710873e+02   4.8475233542e+01    0.2027606    0.1292023  38.13 0.0002868977    1.659    0.397
       272 -10.2027     96.1699     53.0695   1.0415338322e+02   5.2953099013e+01    0.2122366    0.1760886 -12.13  0.000356116    1.207    0.172
       273 -10.7575    102.6055     55.8327   1.0321663184e+02   5.1223510658e+01    0.2964297    0.2451925   5.32  0.001599011    1.303    0.233
       274 -10.6972     98.3652     56.2221   1.0460671098e+02   5.1968510725e+01    0.3863217    0.2290377  29.49  0.001724061    2.039    0.509
       275 -10.4954    122.0058     56.2634   9.7980930875e+01   4.7114078825e+01    0.2025297    0.1900578  25.60 0.0003846896    1.070    0.065
       276 -12.5401    128.1077     51.3383   9.4690799773e+01   4.6573452191e+01    0.4645402    0.3275797 -19.25 0.0003347107    1.511    0.338
       277 -11.0746    157.2043     53.2394   8.8652417680e+01   3.9260848292e+01    0.2910672    0.2469973  -4.06 0.0004623125    1.263    0.208
       278 -10.2814     80.7785     57.0387   1.1036658971e+02   5.4917715790e+01    0.2086135    0.1916571   6.22 0.0003644593    1.134    0.118
       279 -11.2804     38.4439     52.3309   1.2364738099e+02   6.1407614983e+01    0.4077202    0.2988493 -43.05  0.002434515    1.105    0.095
       280 -11.2134      5.2361     52.6725   1.3619054386e+02   6.3860265720e+01    0.4230113    0.1963597 -25.52  0.002221089    2.829    0.646
       281 -10.2396     86.9340     52.6828   1.0687672340e+02   5.4695022819e+01    0.1882305    0.1729532  20.62 0.0008101763    1.150    0.130
       282 -10.3005     73.8859     52.6415   1.1112283793e+02   5.6848307486e+01     0.268977     0.165335 -55.96 0.0006453198    1.901    0.474
       283 -12.0495     13.7417     49.8774   1.3231766295e+02   6.3931483151e+01    0.5855169    0.2208786 -41.76  0.002334784    2.331    0.571
       284 -12.4032      7.9952     44.1116   1.3308785942e+02   6.5453918984e+01     0.510566    0.3421507 -51.74  0.003514301    1.099    0.090
       285 -10.7132     45.1930     51.1299   1.2077155599e+02   6.0939460323e+01    0.2429379    0.1891988 -24.62  0.001127369    1.253    0.202
       286 -11.8702    142.1415     46.3391   8.9590751439e+01   4.4046601984e+01    0.5499603    0.3369776 -36.11  0.002419362    1.620    0.383
       287 -10.2525     83.1562     51.1772   1.0754826341e+02   5.5619705231e+01    0.2129202    0.1711655 -16.02 0.0007524293    1.233    0.189
       288 -10.8081     52.0595     49.4913   1.1770954014e+02   6.0465358834e+01    0.3117286    0.1890397 -43.66  0.001474904    1.375    0.273
       289 -10.5135     48.4302     43.4991   1.1700387029e+02   6.2048752379e+01    0.2197921    0.1809759 -43.97 0.0007851466    1.141    0.123
       290 -11.0002     51.4843     45.4604   1.1654373126e+02   6.1309897959e+01     0.218144    0.2135233  72.69 0.0006499093    1.338    0.253
       291 -10.4702     52.2341     42.0322   1.1504330212e+02   6.1860610564e+01    0.2399343    0.1510079 -39.19 0.0007108327    1.331    0.249
       292 -10.6596    114.8697     49.5190   9.7500244173e+01   4.9804741524e+01    0.2868944    0.2356261  -8.77 0.0005951311    1.248    0.198
       293 -10.5751     77.0732     49.2919   1.0886728850e+02   5.6969245772e+01    0.2684813    0.1923108 -22.45 0.0007383346    1.401    0.286
       294 -10.5408    100.4931     49.0209   1.0139527406e+02   5.2836361272e+01    0.2207558    0.1318927 -35.86    0.0010275    1.574    0.365
       295 -11.1282    153.3114     47.4046   8.7522913674e+01   4.1126767765e+01    0.3489352    0.2054785 -60.42  0.001329093    2.524    0.604
       296 -10.6940    122.0302     45.1729   9.4025891319e+01   4.8937142405e+01    0.2549899    0.2385438 -42.80  0.001067812    1.153    0.133
       297 -11.4821    120.3327     39.9996   9.2549789695e+01   5.0112079430e+01    0.4484411     0.360788 -68.76 0.0008999264    1.659    0.397
       298 -10.0112    123.4727     38.5279   9.1204388768e+01   4.9619167625e+01    0.2073405    0.1335401 -39.42 0.0004968489    1.593    0.372
       299 -10.5901     91.9325     45.4012   1.0264329297e+02   5.5086115134e+01    0.2910293    0.1844126 -36.59 0.0005241608    1.466    0.318
       300 -11.9327     82.7209     36.5888   1.0216095989e+02   5.8214758801e+01    0.3663543    0.3286487  43.23 0.0008719771    1.302    0.232
       301 -10.6243     95.8107     40.6149   9.9630126726e+01   5.5148588672e+01    0.3128815    0.2541887  78.86  0.001444733    1.813    0.448
       302 -11.0533     89.9514     40.3803   1.0134193245e+02   5.6293194028e+01    0.2946588    0.2303244 -58.82 0.0008019606    1.682    0.406
       303  -9.4856     22.6752     46.1965   1.2785834710e+02   6.4040109853e+01    0.1673107   0.07957023 -49.43 0.0003350309    1.578    0.366
       304  -9.7921    233.1402     45.1764   7.3952531091e+01   2.1043114185e+01     0.202242    0.1880973   3.75 0.0004918646    1.191    0.160
       305 -10.6185     86.3844     44.8725   1.0419114017e+02   5.6181875885e+01    0.2170766    0.1598952  31.84 0.0007436784    1.432    0.301
       306 -10.0723     98.8956     44.5207   1.0019654333e+02   5.3909442879e+01    0.2020374    0.1368086  42.61  0.001010985    1.533    0.348
       307  -9.3026    108.3011     54.3239   1.0104422926e+02   5.0355467472e+01    0.1480603    0.1098452   2.59 0.0003437724    1.633    0.388
       308 -11.9021     65.3036     40.8693   1.0981000835e+02   6.0297442324e+01    0.5303556    0.3351848   1.79  0.001138859    2.235    0.552
       309  -9.5681    207.9917     41.9827   7.6359269068e+01   2.7764524520e+01     0.175136    0.1654704 -43.31 0.0003326425    1.041    0.039
       310  -9.8854    163.3132     42.2944   8.3801942184e+01   3.9326133395e+01    0.1560176    0.1118496  27.31 0.0002744478    1.597    0.374
       311 -10.5680     24.0369     41.6043   1.2594149974e+02   6.4841715520e+01    0.2330402    0.1995286  -0.81  0.001653159    1.339    0.253
       312  -9.8416    226.2064     40.7920   7.3628681849e+01   2.3316956605e+01    0.1926338    0.1671502  31.90 0.0006730317    1.306    0.234
       313 -10.2157     44.3634     39.9212   1.1729368891e+02   6.3191166640e+01     0.358036    0.1470487 -41.90  0.001680178    2.017    0.504
       314 -10.2737    197.7252     39.9800   7.7255626103e+01   3.0683388384e+01    0.2048326    0.1993441 -42.00 0.0009702155    1.033    0.032
       315 -10.7875    135.7085     37.5570   8.7924886119e+01   4.6886914104e+01    0.2847675    0.1317786  51.13  0.001024147    2.057    0.514
       316 -11.6291    104.6847     35.4799   9.5028330926e+01   5.4169801487e+01    0.5402478    0.3426352  14.52  0.002436979    2.057    0.514
       317 -10.8240    110.7602     34.1735   9.2838427632e+01   5.3076529043e+01    0.4125441    0.2108641 -43.36  0.001332043    2.182    0.542
       318 -11.2675     24.5741     35.3566   1.2369529428e+02   6.6001899476e+01    0.2169281    0.1804707 -35.70 0.0002115942    1.090    0.083
       319 -10.7908     96.2079     34.4221   9.7071614590e+01   5.6041194098e+01    0.3543586    0.1897649 -24.00  0.001575642    1.946    0.486
       320 -11.1340      9.5550     33.7872   1.2955822635e+02   6.7397862833e+01    0.3990409    0.2446492 -62.00  0.002554499    1.479    0.324
       321 -12.2828    226.2225    245.5239   1.1856091524e+02  -5.4053978627e+00    0.5936525    0.3213714  17.52  0.003397393    2.143    0.533
       322  -9.4010    151.2864     34.3327   8.3444186747e+01   4.3478081487e+01    0.1543934    0.1094034  23.11 0.0007013924    1.621    0.383
       323 -11.7341    144.9010     31.8830   8.3876595227e+01   4.5401951808e+01    0.4047488     0.265336  28.33  0.000520336    1.735    0.424
       324 -12.0572     78.1594     30.0117   1.0098016463e+02   6.0047183797e+01    0.4383197    0.2882443  23.39 0.0002654878    1.664    0.399
       325 -11.2662     54.0947     33.4105   1.1105527370e+02   6.3166607646e+01    0.3808429    0.2144845  -1.20  0.001651785    3.086    0.676
       326 -11.7082      6.6619     29.6741   1.2954973887e+02   6.8360990245e+01    0.5173053    0.2281625  -2.24  0.002571992    3.560    0.719
       327 -10.6215     49.8148     28.4556   1.1070935613e+02   6.4568379408e+01    0.3188815    0.1588145 -28.46  0.001190179    2.023    0.506
       328  -9.2276    120.2737     27.7128   8.7860600493e+01   5.1847963600e+01    0.1330972    0.1103405 -60.09 0.0006919769    1.509    0.337
       329  -9.4670     24.8157     26.6996   1.2048406039e+02   6.7579939402e+01    0.1644013    0.1307194 -28.49  0.001116659    1.073    0.068
       330 -12.3019    231.6323    247.0767   1.1792184807e+02  -6.3721948221e+00    0.4718471    0.2556258  28.45  0.002962682    1.521    0.342
       331 -11.3078     20.1835     18.9363   1.1950985088e+02   6.9346826249e+01     0.202528    0.1702625 -13.71 0.0003951438    1.200    0.167
       332 -10.8514     76.3237     33.6890   1.0312132322e+02   5.9781414407e+01    0.2272934    0.1902908  18.86 0.0005454848    1.200    0.167
       333 -10.3964    129.0486     23.4599   8.4158896243e+01   5.0328690648e+01    0.2347095    0.1894985 -32.10 0.0004934406    1.284    0.221
       334 -11.1995    113.1909     24.6418   8.8411885680e+01   5.3841427880e+01    0.4371299    0.2178432 -38.39  0.001543878    2.106    0.525
       335  -9.9680     90.5395     26.5511   9.5548620687e+01   5.8295222136e+01    0.1355346    0.1197604  -1.96  4.14936e-05    1.014    0.014
       336 -10.9832     71.1007     25.9269   1.0166197476e+02   6.1856817010e+01     0.313702    0.2076729  31.76 0.0008283877    1.564    0.360
       337 -11.8808     67.1049     21.5378   1.0114895161e+02   6.3155607256e+01     0.320703    0.2530801  11.56  0.001532848    1.212    0.175
       338 -10.6644    100.1416     22.6503   9.1084495680e+01   5.6901498412e+01    0.3000638    0.2293544 -36.44  0.001245611    1.389    0.280
       339 -10.4643     54.1313     23.5283   1.0690650629e+02   6.4794420857e+01    0.2351293    0.1649318 -19.34 0.0006038721    1.273    0.214
       340  -9.6238     48.4216     23.2167   1.0903957167e+02   6.5608232167e+01    0.1657298    0.1034299 -45.11 0.0006233449    1.623    0.384
       341 -10.1028    124.0957     21.7813   8.4629768973e+01   5.1701825312e+01    0.1943737    0.1909589  79.70 0.0003723048    1.164    0.141
       342 -10.6763     84.1568     22.1579   9.5651164070e+01   6.0112273846e+01    0.2080427    0.1608634   5.40 0.0006192168    1.242    0.195
       343  -9.7447    137.1934    246.8348   1.3342280324e+02   8.3731939007e+00    0.1424711    0.1161169  35.43 0.0006101896    1.319    0.242
       344 -10.5190    103.4377     19.7874   8.8970274965e+01   5.6570364599e+01    0.2542574    0.1643638  -7.77 0.0009660246    1.654    0.395
       345 -10.5366    106.9987     16.7504   8.6750224010e+01   5.6166026182e+01    0.3836266    0.2028241  54.94  0.001076217    1.892    0.472
       346  -9.8275     45.0534     20.5213   1.0922966609e+02   6.6467104626e+01    0.1640568    0.1148726  26.99 0.0005462885    1.555    0.357
       347  -9.7750    166.2204     19.0281   7.5500451974e+01   4.1475099840e+01    0.1842105    0.1193736 -21.86 0.0004214392    1.624    0.384
       348 -11.1632    156.3342    246.0144   1.3014160196e+02   5.5034080523e+00     0.155167    0.1260566  46.90 0.0006747119    1.067    0.063
       349  -9.6913     34.9541     19.5209   1.1308742979e+02   6.7813807523e+01    0.1644465    0.1110265  20.63 0.0002343268    1.626    0.385
       350  -9.3363      5.3678     18.1856   1.2624268895e+02   7.0562898003e+01    0.1503278   0.08714948 -59.96 0.0008382651    1.705    0.413
       351  -9.3095     76.3671     16.2572   9.5540054691e+01   6.2315564127e+01    0.1342328   0.08771319  16.07 0.0006970858    1.637    0.389
       352 -11.6875     14.5046    244.6541   1.5255982238e+02   2.4578987119e+01     0.233011    0.1036945  76.75  0.001471944    1.798    0.444
       353 -10.6977      6.3326    245.0692   1.5373810696e+02   2.5312110476e+01    0.1895793    0.0970374  85.77 0.0005751641    1.521    0.343
       354 -11.7868      8.5117    241.6945   1.5329837958e+02   2.5639317265e+01    0.3081612    0.1433293  68.85  0.002253711    1.542    0.352
       355 -11.1283    147.2671    244.1523   1.3144556978e+02   7.1781028493e+00    0.2076776    0.1244388  39.56 0.0008438681    1.412    0.292
       356  -9.5810    115.5045    244.4964   1.3678387794e+02   1.1982042358e+01    0.1121039    0.0842169  56.23 0.0008106701    1.002    0.002
       357 -10.2933    110.0564    243.3543   1.3757690101e+02   1.2952924357e+01    0.2079841    0.1300266  85.03   0.00132559    1.930    0.482
       358 -10.0534     71.9989    244.0015   1.4381231956e+02   1.8103575031e+01    0.1623369    0.1209102  63.92 0.0006780696    1.064    0.060
       359 -11.9281     34.8642    241.7447   1.4942533943e+02   2.2909243344e+01    0.3646772    0.2007945  44.79  0.002658895    1.654    0.396
       360 -10.6733     31.7052    237.1900   1.4966204747e+02   2.3995384823e+01    0.2719239    0.1146584  73.29  0.001004734    2.156    0.536
       361 -10.5301     28.8046    232.9801   1.4988296877e+02   2.5003720581e+01    0.4000877    0.1004965  44.48  0.002140792    2.825    0.646
       362 -11.4767     19.9854    238.0509   1.5146842943e+02   2.5088304445e+01     0.378336    0.1284924  48.09  0.002374423    2.125    0.529
