#   1 NUMBER                 Running object number                                     
#   2 MAG_AUTO               Kron-like elliptical aperture magnitude                    [mag]
#   3 X_IMAGE                Object position along x                                    [pixel]
#   4 Y_IMAGE                Object position along y                                    [pixel]
#   5 X_WORLD                Barycenter position along world x axis                     [deg]
#   6 Y_WORLD                Barycenter position along world y axis                     [deg]
#   7 A_WORLD                Profile RMS along major axis (world units)                 [deg]
#   8 B_WORLD                Profile RMS along minor axis (world units)                 [deg]
#   9 THETA_WORLD            Position angle (CCW/world-x)                               [deg]
#  10 FWHM_WORLD             FWHM assuming a gaussian core                              [deg]
#  11 ELONGATION             A_IMAGE/B_IMAGE                                           
#  12 ELLIPTICITY            1 - B_IMAGE/A_IMAGE                                       
         1 -14.4681     68.7931    144.3232   9.9909216584e+01   3.7527187082e+01     5.338557      2.61012  65.88   0.01625969    4.482    0.777
         2 -13.3885    199.2730     41.9549   4.1873902504e+01   3.0304528770e+01     1.142596     1.057908 -32.87  0.003226075    1.233    0.189
         3 -13.7107    209.2227     32.3768   3.8398250565e+01   2.9240901500e+01     1.106005    0.8727778 -10.79  0.001495106    1.731    0.422
         4 -12.9317    234.5129      6.2470   3.0481189556e+01   2.6720958598e+01    0.8173751    0.6093033 -83.93  0.005165361    1.136    0.120
         5  -9.4539    158.3223    223.6786   9.1238200305e+01   5.0500232937e+00    0.1306484    0.1023661  63.66 0.0006083295    1.675    0.403
         6 -10.3207    140.3358    249.6893   9.8749450028e+01   3.3698739708e+00    0.2812882    0.1961399  48.20  0.001668517    1.381    0.276
         7 -14.9231     46.0222    199.5919   1.1336384901e+02   2.6988716644e+01     9.004174     3.334772  67.89   0.02110509    6.289    0.841
         8  -9.3999    183.6589    207.6888   8.3167580630e+01   3.7244963794e+00    0.1433235   0.09906292   1.11 0.0007045683    1.696    0.410
         9  -8.3266    224.2896    206.6901   7.4983606937e+01  -2.5613869476e+00     0.109854     0.105214 -62.91 0.0002087977    1.580    0.367
        10 -11.0307    111.3328    203.9604   9.8676192094e+01   1.6710680414e+01     0.363324    0.2533299  80.67  0.001037888    1.906    0.475
        11 -11.0173    107.5220    203.5314   9.9503690829e+01   1.7419930793e+01    0.4062584    0.2601773  65.59   0.00189645    1.939    0.484
        12  -8.5325     96.3241    202.3012   1.0195715773e+02   1.9459762742e+01    0.1329743    0.1089982 -14.29 0.0003793495    1.634    0.388
        13 -10.2191    203.0037    200.0208   7.7813050288e+01   1.8640472520e+00    0.2001494    0.1779032  83.32  0.001151008    1.752    0.429
        14 -11.0475    192.8950    195.1695   7.8926845361e+01   4.4055056985e+00    0.8101395    0.4352797 -60.91  0.002854455    4.102    0.756
        15 -10.7106    121.3748    196.8756   9.5202801689e+01   1.6575262756e+01    0.4455296    0.2550999 -71.98  0.001284077    2.543    0.607
        16 -10.2015     60.2073    197.6904   1.0988108603e+02   2.5668600286e+01    0.2334107    0.2077437  64.53 0.0002647458    1.066    0.062
        17 -15.4619      2.4960    202.1501   1.2300888678e+02   3.0818337375e+01      15.4387          nan -74.31  0.009901167   13.386    0.925
        18  -8.5835     77.0000    213.9288   1.0788961939e+02   1.9763337430e+01    0.2076382    0.0725983 -64.47 0.0008070241    2.974    0.664
        19 -10.5207     43.5315    177.9783   1.1165781539e+02   3.2357804635e+01    0.6560207    0.3899159 -32.06  0.002700341    2.712    0.631
        20 -12.7726     55.5317    186.3053   1.0967512730e+02   2.8927486140e+01    0.8178089    0.7290559  80.86  0.002954433    1.021    0.020
        21  -9.6648     49.1077    180.5023   1.1056720786e+02   3.1100323386e+01    0.2326838    0.1613926  37.59 0.0007813159    1.486    0.327
        22  -9.8044    147.7096    187.2986   8.7322565970e+01   1.3985469113e+01    0.3308502    0.1808207 -55.09  0.001258842    2.087    0.521
        23  -8.9320     79.3705    183.0720   1.0333632063e+02   2.6453091890e+01    0.1981813    0.1672966 -78.53 0.0004983701    1.150    0.131
        24  -8.6237     69.0304    182.6997   1.0587833774e+02   2.8011829265e+01    0.1939004    0.1692509  58.78 0.0005624208    1.097    0.089
        25  -9.9802     99.4293    180.7509   9.7918568846e+01   2.3893378605e+01    0.2607277    0.2551869  56.27 0.0006258901    1.059    0.056
        26  -9.2941     37.3113    180.8445   1.1349976956e+02   3.2361095699e+01    0.2150871     0.154558  55.67 0.0006969495    1.335    0.251
        27  -8.2853     89.5284    180.4521   1.0037593669e+02   2.5541636385e+01    0.1438311    0.1316716  72.89 0.0004075134    1.044    0.042
        28 -10.0186    187.2465    175.6937   7.6225628996e+01   9.0419343095e+00    0.3524273    0.3146243 -56.73  0.001211017    1.323    0.244
        29 -13.0848     70.5449    154.0703   1.0112302795e+02   3.4834477265e+01    0.6512763    0.6164284 -28.64  0.001076139    1.181    0.153
        30 -17.2481     14.6586    242.8433   1.2292888499e+02   2.1268332538e+01     6.877278     5.363796  74.68   0.02474696    1.086    0.079
        31 -11.3246     73.8330    167.4471   1.0241145746e+02   3.1043052798e+01    0.4041617    0.2991402 -58.11  0.002105464    1.308    0.235
        32  -8.5125    147.8437    174.5513   8.4825422072e+01   1.6684125486e+01    0.1972528    0.1387663  50.68 0.0009119447    1.521    0.342
        33  -8.1950     84.2797    173.6635   1.0064904143e+02   2.7978435635e+01    0.1481956    0.1061395  74.96 0.0002491336    1.616    0.381
        34  -8.7723     34.8871    171.6659   1.1311054577e+02   3.4829344548e+01    0.1803757    0.1502987  65.66  0.001049415    1.150    0.131
        35  -8.6136    193.4915    170.5010   7.3845760691e+01   8.8864263816e+00    0.1446228    0.1330087  -9.65 -0.0001710186    1.017    0.017
        36  -9.8681    240.4700    169.4927   6.4847921708e+01   9.4378014511e-01    0.1346038    0.1107663 -16.97 -2.586021e-05    1.037    0.036
        37 -12.0442     82.0740    159.3630   9.8846273909e+01   3.1819679459e+01     1.090696    0.6512209  72.35 0.0005098051    2.520    0.603
        38 -10.2853    104.4798    209.4656   1.0106355795e+02   1.6624807973e+01    0.2786531    0.1349434 -58.86  0.001223928    2.213    0.548
        39  -9.7224     32.8043    155.9955   1.1182656361e+02   3.8888121378e+01    0.2863032    0.1581197 -40.69  0.001334375    2.244    0.554
        40 -11.5600     89.3318    152.1632   9.5522738750e+01   3.2461118092e+01     0.726002    0.4830847 -24.34  0.003095335    2.168    0.539
        41 -10.3413    134.2994    147.2749   8.2375510602e+01   2.5434477889e+01    0.8075278    0.2617618 -52.97  0.002355514    3.540    0.717
        42 -10.1742    133.0000    141.0002   8.1273918889e+01   2.7138874607e+01    0.5691162    0.2119434 -53.95  0.001755135    3.136    0.681
        43 -10.6370     54.0080    148.9585   1.0495489279e+02   3.8300601253e+01    0.6989052    0.4769425  65.33  0.003206415    1.667    0.400
        44  -9.5232    174.7097    149.0961   7.3157339312e+01   1.6811786912e+01    0.2594751    0.2131412  56.08 0.0006372425    1.371    0.270
        45 -10.0638     38.9321    146.3468   1.0885434160e+02   4.0668495235e+01    0.3118112    0.2422082  71.32 0.0008942505    1.337    0.252
        46 -10.1205    102.6889    138.4808   8.8935074160e+01   3.3546022785e+01    0.5283566    0.3337028 -25.43  0.002089538    2.279    0.561
        47 -11.5959     90.2160    137.9758   9.2408687579e+01   3.5827823731e+01    0.2982264    0.2657593 -32.69 0.0004266538    1.177    0.150
        48 -10.0373    105.9242    130.8510   8.6273947647e+01   3.4799960910e+01    0.3677175    0.3374644 -68.06   0.00118196    1.119    0.106
        49 -10.6039    135.6593    128.1829   7.7502230215e+01   2.9516468254e+01    0.6226354    0.1771803 -49.43  0.001716203    3.755    0.734
        50  -9.6514    111.9232    129.2734   8.4196032893e+01   3.4044628265e+01      0.33996    0.2709624  10.29  0.001188204    1.516    0.341
        51 -10.5243     43.3020    129.4298   1.0491766291e+02   4.4451263218e+01     0.376933    0.1877566  49.62   0.00160722    2.439    0.590
        52 -10.7509     31.3518    128.7087   1.0847779674e+02   4.5833553189e+01    0.3506355    0.3134437  51.04  0.002186527    1.247    0.198
        53 -10.1135     67.2698    126.6974   9.6945299929e+01   4.2159912909e+01     0.565421    0.2875588 -58.99   0.00237886    1.829    0.453
        54  -9.1166    160.1822    127.1539   7.1220602128e+01   2.4488415863e+01    0.2176901    0.1905266 -78.25  0.001074686    1.332    0.249
        55 -10.3187     99.0624    125.1324   8.6911802337e+01   3.7429546781e+01    0.3200894    0.2666594 -19.86  0.001070645    1.352    0.260
        56 -10.6052    118.9452    122.8744   8.0655895246e+01   3.4165022693e+01    0.6300611    0.3957113   2.69  0.002112295    3.297    0.697
        57  -8.8528     90.4914    123.5368   8.9093906891e+01   3.9320868798e+01    0.2466191    0.1380046  48.05 0.0002097079    2.006    0.501
        58  -8.3680     87.6399    121.3105   8.9435970145e+01   4.0344024062e+01    0.2200762    0.1515615  53.71 0.0006796709    1.690    0.408
        59  -9.3465    108.0901    118.3674   8.2595918454e+01   3.7349117633e+01    0.2386058    0.2051457 -34.54 0.0003625892    1.165    0.142
        60 -11.4853     35.0261    118.7537   1.0567817894e+02   4.7961929103e+01    0.3417441    0.2836403 -26.54   0.00194608    1.325    0.245
        61  -9.9606    231.2765    113.7045   5.4392100888e+01   1.2097714766e+01    0.2630118    0.2459518 -54.09 0.0007472534    1.100    0.091
        62 -10.1846    134.8647    111.8400   7.3490865635e+01   3.3308696492e+01    0.6353062    0.1235204 -41.68  0.001434027    5.551    0.820
        63 -12.0588     18.4523    109.2284   1.0950124910e+02   5.1710967696e+01    0.4889915    0.3577406 -67.51  0.002890553    1.162    0.139
        64  -9.5236    205.3162    110.2611   5.7842743818e+01   1.7992860445e+01    0.3307789    0.2238686  36.10  0.001150637    1.755    0.430
        65 -10.6254    115.8990    108.5012   7.7751677312e+01   3.8052230976e+01    0.4793552    0.4154901  73.38  0.002386414    1.355    0.262
        66 -11.5129     69.3246    172.2897   1.0433416480e+02   3.0490317188e+01    0.5104948    0.3039531 -37.67  0.002255325    2.241    0.554
        67 -11.1451     45.2197    105.8398   9.9745869994e+01   5.0074545726e+01    0.3141564    0.2622452  31.99  0.001066978    1.342    0.255
        68  -8.5185    139.1494    106.1155   7.0840451106e+01   3.3591471027e+01    0.2095208    0.1861138 -79.02 0.0005174527    1.283    0.221
        69 -10.3633     29.8471     98.8751   1.0367111606e+02   5.3286875068e+01    0.2759517    0.1991099   8.17  0.001548472    1.625    0.385
        70  -9.0571    127.1830     94.6630   7.0739121266e+01   3.8623203036e+01    0.2361495    0.1936058  68.12 0.0005367387    1.423    0.297
        71  -9.0196     53.0000     90.9929   9.3455023200e+01   5.2665608314e+01    0.2333932   0.07311911 -55.19 0.0007299833    2.899    0.655
        72  -9.3670    156.0174     88.0494   6.1784552617e+01   3.3318329744e+01    0.4005681    0.2541507 -74.82  0.001486225    2.725    0.633
        73  -8.7210    115.7934     84.8213   7.0954664648e+01   4.3090157794e+01    0.2078845    0.1805087  72.79  0.001048029    1.361    0.265
        74  -9.3357    158.4878     82.9598   5.9809799732e+01   3.3670554994e+01     0.230955    0.1484343 -37.57 0.0005273366    1.558    0.358
        75  -8.3880    184.6750     76.7209   5.3017837177e+01   2.8546709993e+01    0.1424929     0.113962  23.63 0.0002421867    1.591    0.371
        76  -8.5632     56.7816     66.6087   8.4872583173e+01   5.7434085392e+01    0.1763321    0.1259284  39.52 0.0004696068    1.581    0.367
        77 -12.9909    188.6999     50.0238   4.5354276477e+01   3.1694671434e+01    0.9487715    0.8018054  27.36  0.000960488    1.490    0.329
        78 -11.5552    133.8099    211.3414   9.4652587881e+01   1.1453739857e+01    0.5243406    0.2649844  34.04  0.002317031    1.873    0.466
        79  -9.9019     28.9257     35.8529   8.5813827478e+01   6.6619339742e+01    0.1987183    0.1395094 -13.80  0.000728208    1.267    0.211
        80 -11.3218     20.8799     33.6794   8.8910826228e+01   6.7810180732e+01    0.3805735    0.1866987  31.25  0.001677802    2.250    0.556
        81 -14.4442     10.4158    206.4766   1.2165044598e+02   2.9173330660e+01    0.8834113    0.7106339  17.13  0.002633978    1.718    0.418
        82  -9.3211     89.4835    211.2976   1.0474624154e+02   1.8527671742e+01    0.2278277    0.1837088  57.52 0.0002173875    1.139    0.122
        83  -9.1262    198.1554     23.3282   3.7422506976e+01   3.2851713202e+01    0.1979814    0.1757941 -25.45 0.0006098921    1.355    0.262
        84  -9.2583    189.3471     14.9732   3.6307301667e+01   3.5816930895e+01    0.1767123    0.1537607 -60.02 0.0007410218    1.140    0.123
        85  -9.1589     67.6051     52.0566   7.5606153740e+01   5.8493558017e+01    0.2430917    0.1855718  50.19 0.0007698348    1.621    0.383
