#   1 NUMBER                 Running object number                                     
#   2 MAG_AUTO               Kron-like elliptical aperture magnitude                    [mag]
#   3 X_IMAGE                Object position along x                                    [pixel]
#   4 Y_IMAGE                Object position along y                                    [pixel]
#   5 X_WORLD                Barycenter position along world x axis                     [deg]
#   6 Y_WORLD                Barycenter position along world y axis                     [deg]
#   7 A_WORLD                Profile RMS along major axis (world units)                 [deg]
#   8 B_WORLD                Profile RMS along minor axis (world units)                 [deg]
#   9 THETA_WORLD            Position angle (CCW/world-x)                               [deg]
#  10 FWHM_WORLD             FWHM assuming a gaussian core                              [deg]
#  11 ELONGATION             A_IMAGE/B_IMAGE                                           
#  12 ELLIPTICITY            1 - B_IMAGE/A_IMAGE                                       
         1 -13.0424    248.7258    132.7292   7.9968080203e+01   6.8446305874e+00     1.409232    0.6746681 -27.39  0.006684325    2.025    0.506
         2 -12.8440    198.4575     33.0992   6.1310894392e+01   3.0892071003e+01     1.245169    0.7683558  44.98  0.005634824    1.605    0.377
         3 -13.6013    213.3390     15.1221   5.3967575647e+01   2.8854095507e+01      1.43719    0.9476042  27.02  0.006836344    1.729    0.422
         4 -11.3956      2.2157     13.9809   1.1295362651e+02   7.1240306382e+01    0.6944985   0.09428336 -59.70  0.002215985    5.642    0.823
         5 -11.0036      2.1203      4.0208   1.0922551084e+02   7.3085104689e+01    0.3820107    0.1713496 -57.47  0.002167482    1.920    0.479
         6 -11.8429    143.1241    241.9779   1.1567197668e+02   1.2009399503e+01    0.3835743    0.2929573  24.47  0.002977037    1.567    0.362
         7 -10.7272    184.6635    250.1665   1.1011072089e+02   5.0243870563e+00    0.2844988    0.1093083  40.23  0.001637022    1.865    0.464
         8 -10.8332    169.5074    248.7042   1.1226861410e+02   7.4027770462e+00    0.2561691    0.1830446  15.84 0.0008168043    1.766    0.434
         9 -10.9787    149.9851    248.6331   1.1527214504e+02   1.0252656289e+01     0.255163    0.2092719  88.16  0.002130494    1.638    0.390
        10 -10.4234    142.8178    249.0974   1.1642413981e+02   1.1226036619e+01    0.2815249    0.1238959  52.59  0.001696947    1.936    0.484
        11 -10.8920     79.1704    224.7444   1.2439126229e+02   2.3035749787e+01    0.4889668    0.2461934  87.51   0.00294526    2.663    0.625
        12 -11.5667    100.3793    247.8974   1.2283939652e+02   1.7159641932e+01    0.5098919    0.3104931  50.66   0.00258419    1.164    0.141
        13 -11.6976    135.0504    248.9346   1.1760636574e+02   1.2342852448e+01     0.726863    0.1662055  42.78  0.003297026    3.184    0.686
        14 -10.8918    121.5908    244.8109   1.1931502509e+02   1.4712701180e+01    0.4643233    0.2564566  73.48  0.002816925    2.709    0.631
        15 -12.5242    124.3201    240.9692   1.1853869819e+02   1.4811967833e+01    0.6160472    0.5274484  87.24  0.005346972    1.388    0.280
        16 -11.2692     84.7546    230.7840   1.2395785253e+02   2.1465250248e+01    0.3783215    0.1873759 -71.96  0.002516907    2.412    0.585
        17 -11.1368    113.4241    231.2052   1.1937627548e+02   1.7598676439e+01     0.269575    0.2467691 -45.46  0.001726024    1.578    0.366
        18 -11.9130    105.2843    227.9189   1.2040073600e+02   1.9168148505e+01    0.9519007    0.4198812  64.47  0.004815581    3.153    0.683
        19 -10.7393     98.2972    223.4512   1.2114919520e+02   2.0744211469e+01    0.3450435    0.2077571  55.45  0.001732218    1.304    0.233
        20 -11.1472     98.2417    231.5392   1.2185764744e+02   1.9613583907e+01    0.3350587    0.2254155 -89.58  0.002321965    1.705    0.413
        21 -11.1253    115.0129    250.3773   1.2080670788e+02   1.4921211904e+01    0.6437814    0.2052737  40.42  0.003248682    2.558    0.609
        22 -11.8251    109.0961    245.9188   1.2134560262e+02   1.6266969167e+01    0.6006064    0.3440489  84.89   0.00101947    2.570    0.611
        23 -11.4321     91.0593    240.5710   1.2371334442e+02   1.9315960489e+01    0.4635896    0.2465127  83.21  0.002239405    2.563    0.610
        24  -9.7931     91.1155    250.3400   1.2442167609e+02   1.8026402979e+01    0.2719314    0.1049419  40.04  0.001643004    2.189    0.543
        25 -10.9189     86.9565    248.1634   1.2489362104e+02   1.8826549936e+01     0.270986    0.2060126  37.90 0.0007883243    1.518    0.341
        26 -10.7076     81.9573    247.0584   1.2557054334e+02   1.9587048244e+01    0.2790094    0.2203553  87.79  0.002528486    1.375    0.273
        27 -10.6718     84.1979    241.8329   1.2486539248e+02   2.0008614335e+01    0.3023597    0.2071837 -85.84  0.002489323    1.607    0.378
        28  -9.0483     62.9737    250.1909   1.2858373917e+02   2.1408285101e+01    0.1526531    0.1105109  29.90 0.0009944922    2.010    0.503
        29 -11.1567     60.3726    245.6763   1.2870690243e+02   2.2310564960e+01    0.3554702    0.2185143  52.52   0.00181503    1.171    0.146
        30  -9.9070     66.9604    243.8300   1.2761558698e+02   2.1807890545e+01    0.2738342    0.1108089  40.24  0.001750452    2.115    0.527
        31 -11.7222     57.2436    208.5887   1.2681342059e+02   2.8135710565e+01    0.8684159    0.3504419  52.89  0.003210449    1.963    0.491
        32 -12.9538      3.2008    186.6137   1.3466662778e+02   3.7086596675e+01     1.928171    0.2424276 -78.35  0.007117186    6.816    0.853
        33 -12.1278     18.5923    216.9437   1.3354536122e+02   3.0827442560e+01    0.8029519    0.5657552   9.81  0.005654827    3.405    0.706
        34 -10.6458     22.3323    200.5249   1.3214874926e+02   3.3086956826e+01    0.3111737    0.1429559  88.35  0.002081686    1.986    0.496
        35 -13.2296     10.3923    209.0178   1.3447504829e+02   3.2807621480e+01     1.543813    0.6110554 -64.30   0.01012479    2.864    0.651
        36 -13.1211     28.4067    246.8228   1.3338386513e+02   2.5528688432e+01    0.9630485    0.5429545  57.19  0.008357943    1.191    0.161
        37 -13.2986      5.0523    245.1729   1.3656233063e+02   2.7930408173e+01    0.9006254    0.3884872  69.44  0.007164675    1.706    0.414
        38 -13.1319     13.5235    239.5664   1.3520155760e+02   2.7954190217e+01     0.792052    0.4414605  85.44  0.003382792    1.514    0.339
        39 -12.7185     31.5677    227.1093   1.3203508887e+02   2.8034438978e+01    0.3364193    0.2361122 -74.72 0.0007924242    1.623    0.384
        40 -13.8014     37.8053    218.5764   1.3062395635e+02   2.8689753016e+01    0.9647074    0.6133035  44.89  0.007790877    1.445    0.308
        41 -10.6337    141.9365    221.7354   1.1369239789e+02   1.4701321053e+01    0.3013479    0.1781313  34.30   0.00108909    1.643    0.391
        42 -11.7045    135.5936    241.2259   1.1678465633e+02   1.3184312551e+01    0.3525227    0.2281728  36.93  0.001975216    1.396    0.284
        43 -10.7780    135.9724    224.9940   1.1504930185e+02   1.5174058400e+01    0.2731203    0.2004397 -49.35  0.001132293    1.803    0.445
        44 -10.4998    132.1959    223.4125   1.1550681617e+02   1.5944555034e+01    0.2056394    0.1813075  62.04 0.0008617031    1.186    0.157
        45 -11.6523    134.8606    236.9151   1.1647392141e+02   1.3818495128e+01      0.34401    0.2377651  31.96  0.001578186    1.526    0.345
        46 -11.3842    176.2513    242.4914   1.1052697405e+02   7.0512613830e+00     0.305781    0.1541777  50.14  0.001618541    1.684    0.406
        47 -11.1215    166.5736    242.4946   1.1204054113e+02   8.4986654179e+00    0.3535738    0.1069934  46.43  0.001672053    2.478    0.596
        48  -9.8938    152.4841    242.9611   1.1430113605e+02   1.0530667856e+01    0.1251032   0.08463953  85.70 0.0008097093    2.530    0.605
        49  -9.3894     53.7842    240.6339   1.2939941224e+02   2.3741558071e+01     0.149999     0.106592  84.72  0.000704852    1.330    0.248
        50 -11.0514    116.6281    238.5022   1.1952919721e+02   1.6194228563e+01    0.2902867    0.2258352 -26.08  0.001555956    2.294    0.564
        51 -11.0305    129.0871    234.8856   1.1719825478e+02   1.4904637163e+01    0.3062098    0.1636025  61.66  0.001883594    2.043    0.510
        52 -11.3484    122.4311    233.5454   1.1814015901e+02   1.6025659775e+01    0.3306372    0.2443299  56.44  0.001720332    1.103    0.094
        53  -9.0848    173.1516    236.1354   1.1027179178e+02   8.2008206819e+00    0.1378173    0.1037547  53.31  0.001033905    1.302    0.232
        54  -9.6434     54.9778    235.7528   1.2894002462e+02   2.4297983845e+01    0.2277111      0.11149  55.64   0.00108301    1.484    0.326
        55 -11.3530     96.9700    239.5607   1.2271461193e+02   1.8690792388e+01    0.3321294     0.269932  22.73  0.002023197    1.834    0.455
        56 -10.5734    156.7120    231.9388   1.1242155766e+02   1.1182569107e+01    0.1915928     0.170137  17.57 0.0005137484    1.354    0.262
        57 -11.4532    134.7686    231.3670   1.1592318752e+02   1.4529322306e+01    0.2896342    0.2441904  11.27  0.001469485    1.654    0.395
        58  -9.7145    142.1781    227.1562   1.1425949711e+02   1.3966431911e+01    0.1874724    0.1280924  78.24 0.0007223032    2.040    0.510
        59  -8.1122     57.4359    231.4124   1.2830210578e+02   2.4646051351e+01    0.0961385   0.06780405  61.58 0.0008005218    1.010    0.010
        60  -9.0459     45.8743    231.1178   1.3006417544e+02   2.5961367046e+01    0.1551459   0.08604246  63.04  0.001197593    1.356    0.263
        61  -9.2719     61.4468    239.0024   1.2815150296e+02   2.3109649306e+01    0.1458638   0.09268254  53.13 0.0006038272    1.154    0.133
        62 -10.5419    116.9588    224.5109   1.1815634336e+02   1.8011803179e+01    0.2505234    0.1882703  40.21 0.0004896559    1.276    0.216
        63  -9.5785     92.6864    226.0702   1.2229737457e+02   2.1114312079e+01    0.1773107    0.1149939  49.47 0.0006429759    1.186    0.157
        64  -9.2231     64.9585    224.5766   1.2667135774e+02   2.4781898174e+01    0.1585124    0.1258667 -61.18  0.001327892    1.729    0.422
        65  -9.0552     87.5801    223.7468   1.2293938861e+02   2.2113720202e+01    0.1813951   0.09088175  57.79  0.001155109    1.690    0.408
        66 -10.6528    245.7610    220.7420   9.6821212432e+01  -1.5245931438e+00    0.2754524   0.08912258 -23.82  0.001318489    3.826    0.739
        67  -9.2285    111.1374    220.8297   1.1876594507e+02   1.9349968319e+01    0.2222029   0.06838094 -55.09  0.001087758    3.973    0.748
        68 -10.1566     70.1305    218.3175   1.2538101792e+02   2.5104314376e+01    0.4076225    0.2155856  83.03   0.00262219    2.166    0.538
        69  -8.8812     89.0266    218.3546   1.2224461553e+02   2.2718124618e+01    0.1506963    0.1034019  54.42 0.0005887327    1.110    0.099
        70  -8.6980    118.6536    217.6899   1.1718036085e+02   1.8719005422e+01    0.1011137   0.07894055  22.83 7.845343e-05    1.706    0.414
        71  -9.6831    137.0290    214.2921   1.1366639653e+02   1.6446817769e+01    0.1605155    0.1129285  47.46 0.0003783705    1.105    0.095
        72  -9.2081     88.1477    213.0018   1.2192351992e+02   2.3638316326e+01    0.1848301     0.119873  78.87 0.0009767349    1.597    0.374
        73  -9.2189    101.9342    211.6547   1.1943158640e+02   2.1976360737e+01    0.2729703    0.1010009  53.55  0.001363629    2.498    0.600
        74  -9.1516    106.6545    210.1438   1.1846250901e+02   2.1539816436e+01     0.130221   0.09756137 -50.23 0.0006443992    1.767    0.434
        75  -9.5906    112.7971    208.3325   1.1720107172e+02   2.0928356352e+01    0.1980221    0.1524307  62.97 0.0008045672    1.139    0.122
        76  -9.6905    156.1107    208.0355   1.0959516748e+02   1.4280301487e+01    0.1687382    0.1332771  45.80 0.0003145522    1.027    0.026
        77  -8.7766     74.2402    208.2714   1.2389605385e+02   2.6153036732e+01    0.1416974   0.09160566  66.72   0.00039803    1.320    0.242
        78  -9.1032    125.8251    206.4138   1.1469652943e+02   1.9274056504e+01    0.1552765    0.1348208 -58.14  0.001174342    1.430    0.301
        79 -10.0590     90.7904    204.9672   1.2072301753e+02   2.4528198987e+01    0.3951296    0.1490828  41.96  0.001691982    2.214    0.548
        80  -9.0112     32.8861    207.0288   1.3076698778e+02   3.1005081583e+01     0.119718    0.1053963 -72.73 0.0003884604    1.558    0.358
        81 -10.3608    250.1371    201.4059   9.3059408833e+01  -5.1542860885e-01    0.3268683     0.141602  -9.73  0.001518663    3.351    0.702
        82  -8.0561    133.0000    202.9928   1.1301514625e+02   1.8666960698e+01    0.1525428   0.06619775 -52.25 0.0004394178    2.837    0.648
        83  -9.6455    103.2964    202.8741   1.1829831709e+02   2.3125031901e+01    0.2864614    0.1435429  52.31   0.00168736    1.672    0.402
        84  -9.9364     84.1700    201.3907   1.2155309619e+02   2.5976607746e+01    0.2109603    0.1760642 -53.21  0.001447193    1.616    0.381
        85  -8.5948     64.4912    201.5681   1.2503471713e+02   2.8417834763e+01    0.1055863   0.07827672  64.97 9.726559e-05    1.037    0.036
        86  -8.4011    127.7117    199.6834   1.1355482601e+02   1.9979358337e+01    0.1041621   0.08571802  17.54 0.0003893948    1.591    0.372
        87  -9.0269     45.4784    198.8228   1.2813049400e+02   3.1031772572e+01    0.2154254   0.09026094  53.59  0.001322854    1.917    0.478
        88 -10.2220     27.9209    196.3783   1.3098162204e+02   3.3237773293e+01    0.2879146    0.2343531  76.34   0.00203703    1.185    0.156
        89  -9.4631     26.2693    192.6752   1.3104706019e+02   3.4017830995e+01    0.2068862    0.1001456  56.56  0.001106684    1.635    0.388
        90  -8.7671    145.1754    198.1635   1.1021477261e+02   1.7421659980e+01    0.1506352    0.1201826  64.86 0.0003289927    1.297    0.229
        91 -10.8661    103.1566    195.9610   1.1757707944e+02   2.4234333195e+01    0.2061597    0.1755018  50.51 0.0003330095    1.155    0.134
        92  -9.5430     97.0159    196.1351   1.1871592331e+02   2.5078164690e+01    0.3824918    0.1624029  54.27  0.001994919    2.192    0.544
        93  -9.5597     53.9870    198.4700   1.2662758503e+02   3.0149482879e+01    0.2431767    0.1157116  44.31 0.0009859512    1.766    0.434
        94 -11.6293     58.8195    194.3159   1.2544962376e+02   3.0287443585e+01    0.2820477    0.2480855 -65.82   0.00104726    1.484    0.326
        95  -8.4379    107.3160    196.2894   1.1685454480e+02   2.3579355207e+01    0.1006944   0.08564159  19.77 0.0003119575    1.592    0.372
        96 -13.2041     40.1213    243.5053   1.3156015122e+02   2.4803921333e+01    0.8849038    0.5535616  71.49  0.007306796    1.234    0.190
        97 -10.4598    249.6814    193.6492   9.1807462441e+01   2.7053308638e-01    0.2697875    0.1955324   3.50  0.001639107    1.250    0.200
        98 -10.2762    250.2332    187.8330   9.0701513343e+01   7.3053644164e-01    0.2902122    0.1523403 -16.60  0.001634568    2.026    0.506
        99  -8.3561     85.7182    195.6876   1.2072486030e+02   2.6696570440e+01    0.0908535   0.08626258  -0.39 0.0002357349    1.570    0.363
       100  -9.1909     20.9192    194.9757   1.3208828885e+02   3.4136489084e+01    0.1553885    0.1037429 -58.45   0.00115033    1.995    0.499
       101  -8.9683    114.1881    189.3906   1.1476995933e+02   2.3657568318e+01    0.1755057    0.1486092  29.59 0.0007005138    1.391    0.281
       102  -8.5834     72.5898    193.1398   1.2286693174e+02   2.8818976155e+01    0.1220273   0.09442613 -65.28 0.0002389651    1.490    0.329
       103 -10.2297     15.6208    192.0859   1.3283092615e+02   3.5103004392e+01    0.1807322    0.1210329  81.99 0.0003388883    1.159    0.137
       104  -9.6280    191.5113    191.4375   1.0099240542e+02   1.0435119207e+01    0.2133417    0.1693062  35.61 0.0006512094    1.017    0.017
       105  -8.4936     38.5168    192.4225   1.2890385935e+02   3.2840127166e+01    0.1006346   0.07563904  69.92 0.0001129828    1.019    0.018
       106 -12.3795     44.4619    208.3374   1.2893510952e+02   2.9593425160e+01     1.105468    0.4189982  69.79  0.005716516    3.202    0.688
       107  -9.2876     31.8829    190.0047   1.2990828644e+02   3.3923472873e+01    0.2906551   0.06030391  45.96  0.001420444    3.251    0.692
       108  -9.2341     77.0337    188.5307   1.2161366988e+02   2.9031386289e+01    0.1504844    0.1231258  75.26 0.0001675468    1.073    0.068
       109  -9.2887     40.8294    188.6595   1.2823323597e+02   3.3241183132e+01    0.1783021    0.1214227  78.79  0.001359119    1.203    0.169
       110 -11.4684     65.5979    186.5310   1.2354670896e+02   3.0806359687e+01    0.2775451    0.1909011 -66.32 0.0007868996    1.557    0.358
       111  -9.8708     10.1009    187.6963   1.3354657690e+02   3.6327262782e+01     0.182749     0.121801  81.26 0.0006658324    1.138    0.121
       112 -10.1250     83.6407    186.8133   1.2020683737e+02   2.8455842394e+01    0.1893794    0.1430837  65.06 0.0003012065    1.108    0.097
       113  -9.4763     28.8442    184.3323   1.3008136006e+02   3.5197904143e+01    0.2274056     0.178424  17.89  0.001133441    2.044    0.511
       114  -9.0488     24.1389    184.0599   1.3090241336e+02   3.5693642360e+01    0.1507123    0.1216199  53.63 0.0006176532    1.305    0.234
       115 -10.6378    127.8199    182.7063   1.1132199525e+02   2.2593719021e+01    0.1981847    0.1790327  76.17 0.0002960745    1.145    0.127
       116  -8.8642    140.1550    183.1922   1.0905130544e+02   2.0485735914e+01     0.158508    0.1261272  65.34 0.0002908813    1.286    0.222
       117  -9.2685     36.7812    182.7951   1.2854484931e+02   3.4677221369e+01    0.1441211    0.1220196 -87.31  0.001203692    1.264    0.209
       118  -8.4820    107.5898    182.5071   1.1516513834e+02   2.5784247442e+01    0.1156974   0.09710077  62.05 0.0001220953    1.020    0.020
       119 -12.2721    248.4692    174.2908   8.8499509032e+01   2.3645477443e+00    0.8194134    0.3822594 -24.68  0.004254652    2.227    0.551
       120 -11.9869    245.2207    163.5690   8.6950250196e+01   4.0563698697e+00    0.5069976    0.2818122 -34.85  0.002708743    2.097    0.523
       121 -11.8573    246.9109    158.0343   8.5583869175e+01   4.3499289456e+00    0.9791404    0.6949029  78.09  0.004637318    3.372    0.703
       122  -9.8439     86.0332    180.2404   1.1904386979e+02   2.9263003620e+01    0.2059952    0.1514966  78.84  0.000321582    1.304    0.233
       123  -8.6877     27.1152    180.1571   1.3012114412e+02   3.6094134953e+01     0.143469   0.08758642  68.15 0.0006246471    1.318    0.242
       124  -8.7594     47.7402    179.6656   1.2628108851e+02   3.4071213479e+01     0.142225   0.07781275  49.17 0.0009280589    1.563    0.360
       125  -8.4347     92.6816    178.2591   1.1752917650e+02   2.8683978524e+01    0.1164794    0.0742503  65.34 0.0001727525    1.542    0.352
       126  -8.6145     12.5081    178.4984   1.3264733178e+02   3.7707544600e+01   0.09868777   0.07194518  75.75 -7.009944e-05    1.009    0.009
       127  -8.3928    125.7227    177.2973   1.1096765384e+02   2.3812208139e+01    0.1176629   0.08507525  71.14 0.0001861868    1.534    0.348
       128 -11.8314     65.3356    175.7284   1.2257164042e+02   3.2738172817e+01    0.2183391    0.1746033  61.26 0.0003328039    1.092    0.084
       129 -10.8519     62.3267    172.5460   1.2284337043e+02   3.3676519480e+01    0.2254502    0.1834367  40.55   0.00166714    1.390    0.281
       130  -9.8953    103.0083    176.0182   1.1523452914e+02   2.7572837364e+01     0.171377    0.1460029  62.78  0.001202765    1.011    0.011
       131 -10.7219     75.8404    174.8312   1.2043133596e+02   3.1574965421e+01    0.2240089    0.1734939  69.00 0.0004656238    1.096    0.088
       132 -10.2905     19.2446    173.3438   1.3112361433e+02   3.8030678993e+01    0.3259576    0.1591331  70.47  0.001882235    1.808    0.447
       133 -10.3337     11.7712    173.9145   1.3252428075e+02   3.8578758094e+01    0.2110405    0.1255474 -60.46  0.001528386    1.960    0.490
       134  -9.4964    107.5996    172.8685   1.1391545859e+02   2.7424680420e+01    0.2086142    0.1472237  54.99 0.0006027895    1.248    0.198
       135  -9.7737     45.9556    172.2315   1.2599819184e+02   3.5600228688e+01    0.1722408    0.1342453  74.52 0.0003787391    1.010    0.010
       136 -10.5980     45.0865    167.1129   1.2572277084e+02   3.6631849434e+01    0.4796203    0.3438062  81.09  0.002926234    1.172    0.146
       137  -8.5609     90.7367    172.6383   1.1723809696e+02   2.9946709608e+01    0.1031187   0.09030169 -29.67 0.0006983615    1.637    0.389
       138  -9.8263     27.7817    171.4993   1.2940868854e+02   3.7576156957e+01    0.2400545    0.1440851 -66.91   0.00135784    1.666    0.400
       139 -11.5012     83.7459    166.1752   1.1785626064e+02   3.2085721926e+01    0.4792179    0.3732889  44.22  0.003271188    1.281    0.219
       140 -11.0181     14.1858    166.8875   1.3166289112e+02   3.9636306638e+01    0.2552587    0.2373013  -3.72   0.00187915    1.734    0.423
       141 -10.8431      6.6927    166.9223   1.3306310040e+02   4.0248545944e+01    0.2176992    0.1507035 -81.40  0.001145015    1.274    0.215
       142  -8.6183     61.1835    164.6620   1.2227004432e+02   3.5262602208e+01    0.1361714   0.09833046  36.83 0.0002502501    1.541    0.351
       143 -10.4152     12.5089    161.5073   1.3164473873e+02   4.0761716763e+01    0.1924947    0.1008984  86.91  0.001291094    1.599    0.374
       144 -11.8907     11.1421    151.0280   1.3122573309e+02   4.2830594042e+01     0.412261    0.2145679  80.55 0.0008398555    1.669    0.401
       145 -10.2568     16.2786    158.3945   1.3070822327e+02   4.1022087255e+01    0.1680091    0.1260479  89.32 0.0002828095    1.093    0.085
       146 -10.6922     22.8799    149.8759   1.2874699684e+02   4.2061427313e+01    0.2359876    0.1701706  -0.31  0.001423449    2.565    0.610
       147 -11.0810     21.9649    154.8159   1.2931945069e+02   4.1200850977e+01    0.2907533    0.1713511 -84.66  0.002010796    1.415    0.293
       148  -9.9705     84.7799    155.2778   1.1624407367e+02   3.3970228684e+01    0.1805177    0.1548357 -75.59 0.0002178656    1.166    0.142
       149 -10.8593     31.9169    155.2733   1.2733692795e+02   4.0194516699e+01    0.2683254    0.1963901 -51.58  0.001096562    1.745    0.427
       150  -8.6204    228.3537    155.2702   8.8037950150e+01   8.1104243731e+00    0.1616125    0.1158081 -30.62   0.00049098    1.545    0.353
       151 -10.8659    249.5384    151.0221   8.3744319992e+01   4.6356263352e+00    0.4205824    0.2558661 -25.32  0.002337005    1.651    0.394
       152 -13.0008    247.5803    100.9643   7.2777948455e+01   1.0825094763e+01     2.097042    0.9196595 -10.44  0.007590866    3.188    0.686
       153  -9.2427     89.6240    153.2278   1.1492624683e+02   3.3670100147e+01    0.1829406    0.1348481  42.05 0.0005658614    1.354    0.261
       154  -8.7220    113.8271    151.2428   1.0942984304e+02   3.0302171448e+01    0.2676583   0.09492126 -59.17  0.001009226    3.606    0.723
       155 -10.1539     96.4304    151.0059   1.1313710653e+02   3.3087352093e+01    0.2674096    0.2217093 -57.90  0.001323906    1.293    0.227
       156  -8.9934     86.0000    149.9375   1.1524506410e+02   3.4815509038e+01    0.1874345   0.06530324 -59.90 0.0005559177    2.899    0.655
       157 -12.0070     68.3488    144.3099   1.1836137435e+02   3.8282867319e+01    0.5782362    0.3670597  74.29  0.002080402    1.704    0.413
       158  -8.5666     18.3292    148.2970   1.2956299315e+02   4.2758930672e+01   0.09478119   0.07263774 -53.63 0.0003630783    1.636    0.389
       159 -12.0632      2.7653    142.6326   1.3237277749e+02   4.5066845804e+01       0.5696     0.214918 -75.37  0.003339889    2.094    0.522
       160 -12.7557      2.7336    128.3050   1.3138597240e+02   4.7854866613e+01    0.9562876    0.2773805 -79.71   0.00459933    2.898    0.655
       161 -10.0614    236.1192    145.9926   8.4835603550e+01   7.7300553099e+00    0.2346755    0.1677742  34.80 0.0006604608    1.232    0.188
       162  -8.8507    100.1905    146.2295   1.1158251524e+02   3.3419432941e+01    0.1927014    0.1352103 -16.48 0.0009421845    2.748    0.636
       163  -9.9360    133.4835    141.3279   1.0345405539e+02   2.8694695631e+01    0.4520448    0.2323048 -53.96  0.002079326    2.216    0.549
       164 -11.7029      9.6007    143.3290   1.3100474518e+02   4.4422065120e+01    0.3470142    0.2136435  48.10  0.002533468    1.573    0.364
       165 -10.4293     32.7680    140.6926   1.2582535507e+02   4.2943753302e+01    0.2395558     0.140243  75.98  0.001315582    1.649    0.394
       166 -11.9244     16.1562    139.2514   1.2930668015e+02   4.4693713044e+01    0.5608932     0.173065  51.32  0.002786503    3.103    0.678
       167  -9.2825     37.1419    140.1802   1.2481059233e+02   4.2620859023e+01    0.1564941    0.1074482  77.37 0.0009828365    1.307    0.235
       168  -9.7682     41.3924    147.5496   1.2463623177e+02   4.0740267228e+01    0.1851896    0.1541373  75.03 0.0005671144    1.073    0.068
       169 -11.0644     60.0313    136.5339   1.1921712941e+02   4.0855573412e+01     0.259472    0.2002264 -87.05  0.000541597    1.168    0.144
       170  -9.5673    109.0928    136.1301   1.0789013553e+02   3.3926269592e+01    0.3177058    0.2381499   0.87  0.001432584    2.188    0.543
       171 -10.8798     44.5294    130.7459   1.2207453406e+02   4.3765308383e+01    0.3134788    0.2069124 -72.14  0.001499905    1.324    0.245
       172  -8.4556    104.5439    153.4509   1.1176307322e+02   3.1383983777e+01    0.1241558     0.108027  68.61 0.0001096638    1.045    0.043
       173 -10.4348     67.0929    128.2840   1.1640005220e+02   4.1658566782e+01    0.2748043    0.1834511 -74.60  0.001635601    1.434    0.303
       174  -9.9953     33.3949    128.1989   1.2438071347e+02   4.5391031464e+01    0.1641885   0.08948649 -85.01 0.0009501753    1.726    0.421
       175  -9.6834     23.5373    127.5140   1.2660144727e+02   4.6414936354e+01    0.1104689   0.08594576  87.44 5.840504e-05    1.041    0.039
       176  -9.9929    209.9126    125.6814   8.4823766738e+01   1.5662926705e+01    0.2519616    0.2126282  -9.33 0.0005178916    1.167    0.143
       177 -10.5037     59.6325    127.9105   1.1812933974e+02   4.2653168084e+01    0.2508894    0.2242066 -86.46  0.001193861    1.065    0.061
       178  -8.5417     50.3071    122.6585   1.1964592332e+02   4.4803584406e+01    0.1230576   0.07875803  75.51 0.0004663578    1.687    0.407
       179 -10.9724     23.1796    121.0966   1.2602601675e+02   4.7750386332e+01    0.1930913     0.139163  49.00  0.001377729    1.450    0.310
       180 -12.5522      9.3173    114.2056   1.2867509822e+02   5.0228780930e+01    0.4285194    0.2702252 -77.06  0.002768709    1.246    0.198
       181 -12.3835      5.4426    108.8408   1.2911831439e+02   5.1589373596e+01    0.5941321    0.3912217 -26.33  0.003213688    2.368    0.578
       182  -9.9614    167.9435    113.0756   8.9926420764e+01   2.6717771644e+01    0.3273534    0.2663893 -76.54  0.001004887    1.661    0.398
       183  -9.6190    231.6272    116.2685   7.8918400752e+01   1.2302258378e+01    0.1946187    0.1233119 -12.03 0.0006817363    1.638    0.389
       184 -11.9794    247.7957    142.4535   8.2220114688e+01   5.9133455880e+00    0.8117638    0.5511051  50.45   0.00455658    1.609    0.379
       185  -8.8463    203.5832    111.2649   8.2527921525e+01   1.9089968531e+01    0.2012613     0.134392 -13.17 0.0009459823    1.656    0.396
       186  -9.8751    249.7085    117.9204   7.6476334049e+01   8.3732279316e+00    0.2958536    0.2151514   7.43 0.0007070015    1.302    0.232
       187 -10.2628     16.9769     99.0708   1.2507679647e+02   5.2809291405e+01    0.1791038    0.1419439  88.96 -0.001877172    1.114    0.102
       188  -8.3442     71.6776     99.7757   1.1023660445e+02   4.6988354590e+01    0.1139449   0.09673134 -16.58 0.0001906909    1.502    0.334
       189 -11.2320     15.0540    105.3515   1.2632468402e+02   5.1640043493e+01     0.302758     0.183091 -53.70  0.001003596    1.642    0.391
       190 -11.5581    248.5727    112.8752   7.5473117143e+01   9.1982568450e+00    0.8567247    0.4805515  12.81  0.003803355    2.237    0.553
       191 -11.8479    199.5392    246.8217   1.0745168149e+02   3.1414987364e+00     0.445839    0.1907123  44.10  0.002695371    1.698    0.411
       192  -8.5069    184.6838     77.6444   7.7101362245e+01   2.8508559319e+01    0.1632196    0.1117885  18.37 0.0007045402    1.745    0.427
       193 -10.6589    192.8089    248.8366   1.0871670201e+02   3.9499293759e+00    0.2283225    0.1431357  34.39  0.001273091    1.200    0.166
       194  -9.7410     73.8131    243.1396   1.2653890085e+02   2.1095393767e+01    0.1826182    0.1155955  63.28  0.001478357    1.221    0.181
       195  -9.8743     16.2690     25.3961   1.1020853816e+02   6.8137508096e+01    0.1641864    0.1406366  31.50 0.0008192208    1.508    0.337
       196  -8.8635     68.9069    247.0000   1.2752000069e+02   2.1152543508e+01     0.157205   0.04006602  41.31 0.0008097693    2.993    0.666
