#   1 NUMBER                 Running object number                                     
#   2 MAG_AUTO               Kron-like elliptical aperture magnitude                    [mag]
#   3 X_IMAGE                Object position along x                                    [pixel]
#   4 Y_IMAGE                Object position along y                                    [pixel]
#   5 X_WORLD                Barycenter position along world x axis                     [deg]
#   6 Y_WORLD                Barycenter position along world y axis                     [deg]
#   7 A_WORLD                Profile RMS along major axis (world units)                 [deg]
#   8 B_WORLD                Profile RMS along minor axis (world units)                 [deg]
#   9 THETA_WORLD            Position angle (CCW/world-x)                               [deg]
#  10 FWHM_WORLD             FWHM assuming a gaussian core                              [deg]
#  11 ELONGATION             A_IMAGE/B_IMAGE                                           
#  12 ELLIPTICITY            1 - B_IMAGE/A_IMAGE                                       
         1 -15.4829    187.2931     10.7906   4.5502754816e+01   3.6613375741e+01     3.342088     1.769383  76.85   0.01496405    1.876    0.467
         2 -12.1473      3.3815      3.6133   9.7534424696e+01   7.3456938960e+01    0.2970682    0.1791879 -27.45  0.002044617    1.253    0.202
         3 -10.7841    109.1029    245.8458   1.1513327738e+02   1.0776691810e+01    0.2249422    0.1592903 -52.80  0.001269581    1.845    0.458
         4 -13.5438    247.3353    246.3416   9.1085239955e+01  -1.0536407492e+01    0.7388667    0.4607942   4.11  0.004889467    1.516    0.341
         5  -9.9534      6.2812    228.6034   1.3117677158e+02   2.6507416766e+01    0.1126753   0.08447636  49.93 0.0004733572    1.457    0.314
         6  -9.8467    166.3241    219.7996   1.0136294586e+02   5.6755133931e+00    0.1532214    0.1165693 -32.17 0.0005025422    1.590    0.371
         7 -13.8878     37.0047    249.1834   1.2738676682e+02   1.9728261803e+01    0.3257824    0.2885885 -19.21  0.002551102    2.388    0.581
         8 -12.4748     11.2808    206.5770   1.2926893422e+02   3.0117809284e+01    0.3795511    0.2945214  28.02  0.002381841    1.901    0.474
         9  -9.9597    124.2010    240.7602   1.1192381113e+02   9.2904152220e+00     0.145716    0.1227323  34.60 0.0003869248    1.299    0.230
        10 -12.1456    135.4429    238.9833   1.0968987438e+02   7.8041649309e+00    0.2793867    0.2349023 -64.91  0.001501055    1.447    0.309
        11  -9.8416    222.8589    187.8225   8.5088704844e+01   5.3225186917e-01    0.1584094    0.1528114  22.56  0.001016122    1.287    0.223
        12 -18.7917     64.4516    227.8661   1.2138820225e+02   2.0101603423e+01     3.546865     2.589226  57.77   0.01478357    1.125    0.111
        13 -12.3780     30.4619    182.7766   1.2409310567e+02   3.3025268525e+01    0.3021372    0.1703676  68.52  0.001798969    1.586    0.370
        14 -10.2650    189.8821    178.3634   8.9549486000e+01   8.1897527389e+00    0.3797156    0.1985648  56.44   0.00123191    2.563    0.610
        15 -11.9643     43.4930    177.7844   1.2098205179e+02   3.2675727275e+01    0.3380773    0.1841294 -58.82  0.001655912    1.881    0.468
        16 -12.4631     45.8868    171.6869   1.1985937205e+02   3.3731213523e+01    0.4389584     0.298381  15.44   0.00207575    2.408    0.585
        17 -13.1885     94.8337    175.1381   1.0948832166e+02   2.6290472799e+01    0.5696389     0.504218  45.77  0.003402593    1.212    0.175
        18 -10.1660    187.6283    232.5020   9.9294019279e+01   2.3492474586e-01    0.1668043    0.1172953 -37.16 0.0005882418    1.711    0.415
        19 -10.8010     26.1680    172.9221   1.2414454237e+02   3.5563139595e+01    0.1905494    0.1260946  76.67  0.001224877    1.268    0.211
        20 -11.6710     59.9114    168.9754   1.1647658107e+02   3.2634627035e+01    0.2553972    0.1887967  44.83 0.0005072282    1.406    0.289
        21 -11.2164     43.5762    166.8372   1.1985206764e+02   3.5065546112e+01    0.2134543    0.1875257  66.71 0.0005909823    1.200    0.167
        22 -10.2104    120.6711    164.7936   1.0193622743e+02   2.4159935886e+01    0.3001968    0.1855263  71.81  0.001070067    2.294    0.564
        23 -10.9480    100.5334    164.5448   1.0655555151e+02   2.7694335763e+01    0.2455996    0.1877172 -56.28 0.0007224036    1.334    0.250
        24 -10.2997    102.4276    160.8000   1.0549110940e+02   2.8213179099e+01    0.3123354    0.1741384 -45.09  0.001397889    2.062    0.515
        25 -12.1455    126.6958    229.3748   1.1015654560e+02   1.0737375123e+01    0.2841072    0.2565939  15.28   0.00162617    1.416    0.294
        26 -10.9672     51.3248    165.4226   1.1797653397e+02   3.4485450742e+01    0.2059981    0.1239859  30.82 0.0007915814    2.025    0.506
        27 -12.4625     35.7579    158.3436   1.2069162763e+02   3.7809664718e+01    0.6709002    0.2844263 -70.16  0.003004936    1.964    0.491
        28 -10.4022     42.8274    155.3643   1.1874648466e+02   3.7730048647e+01    0.1853514     0.162091  -6.30 0.0006194186    1.696    0.411
        29  -9.9613    106.7505    153.2420   1.0313240862e+02   2.9174931607e+01    0.1791308    0.1675019 -20.60 0.0003865673    1.294    0.227
        30 -11.6832     96.3839    146.8201   1.0449923943e+02   3.2389843187e+01    0.3355571    0.2481256 -39.97 0.0006719029    1.579    0.367
        31 -11.5439     88.8164    145.6637   1.0617738790e+02   3.3873146430e+01    0.3490003    0.1619239 -46.46  0.001416171    2.391    0.582
        32 -13.1502     68.7026    144.1439   1.1096379977e+02   3.7167183458e+01    0.7350117    0.4218976  61.65    0.0034887    2.025    0.506
        33 -11.3534     75.4662    138.0140   1.0822701684e+02   3.7666652233e+01    0.2369226    0.2035677   6.57 0.0008824352    1.557    0.358
        34 -14.7101    248.2498    108.5051   6.3138634999e+01   8.0480795157e+00     1.390881    0.6254217 -35.16   0.00582718    1.952    0.488
        35 -12.2528     64.9784    134.0128   1.1026937717e+02   4.0049178123e+01    0.3509398    0.2737493 -60.18  0.001377712    1.182    0.154
        36 -10.3219    106.8610    134.0432   9.9341256531e+01   3.3546295479e+01     0.212034    0.2024299 -81.18 0.0004383643    1.021    0.021
        37 -10.7588     59.3923    130.8210   1.1120798401e+02   4.1519010523e+01    0.1928513    0.1058412 -55.16 0.0003978082    1.645    0.392
        38 -10.3763     74.7045    126.4344   1.0631863105e+02   4.0515335174e+01      0.25196    0.1295061  41.69  0.001131858    2.070    0.517
        39  -9.4564    212.2530    107.9873   6.8966656347e+01   1.5987340183e+01    0.1874114    0.1246254 -34.57 0.0002374436    1.424    0.298
        40 -11.4415     68.8045    134.6195   1.0937130751e+02   3.9395757895e+01    0.2416597    0.1959058  43.68 0.0009515192    1.345    0.257
        41  -9.7596    115.4894     68.4890   7.9222496037e+01   4.6209898239e+01    0.1511506    0.1426802 -15.42 6.387449e-05    1.001    0.001
        42  -9.9488    152.5219     63.4596   6.8182979218e+01   3.8509935332e+01    0.1527233    0.1509467   1.51 0.0001831073    1.014    0.014
        43  -9.3903    171.9843     49.9934   5.9884060231e+01   3.5712101329e+01    0.1741771    0.1708214  64.06 0.0009480072    1.009    0.009
        44 -12.0556    165.8559     47.6531   6.0294941098e+01   3.7638922967e+01    0.2716259    0.2162992 -11.95  0.001333304    1.387    0.279
        45 -11.8988    169.4174     40.8169   5.7442235251e+01   3.7691436734e+01    0.3344487    0.2759093   7.19 0.0007237761    1.389    0.280
        46 -10.1882    128.0317    246.5729   1.1187765921e+02   7.8003111476e+00    0.1574529    0.1406748  69.43 0.0006000738    1.193    0.162
        47 -10.5911     15.0122     17.9935   9.7812589241e+01   7.0227678364e+01    0.1398684    0.1029941 -29.75 0.0009768094    1.002    0.002
