#   1 NUMBER                 Running object number                                     
#   2 MAG_AUTO               Kron-like elliptical aperture magnitude                    [mag]
#   3 X_IMAGE                Object position along x                                    [pixel]
#   4 Y_IMAGE                Object position along y                                    [pixel]
#   5 X_WORLD                Barycenter position along world x axis                     [deg]
#   6 Y_WORLD                Barycenter position along world y axis                     [deg]
#   7 A_WORLD                Profile RMS along major axis (world units)                 [deg]
#   8 B_WORLD                Profile RMS along minor axis (world units)                 [deg]
#   9 THETA_WORLD            Position angle (CCW/world-x)                               [deg]
#  10 FWHM_WORLD             FWHM assuming a gaussian core                              [deg]
#  11 ELONGATION             A_IMAGE/B_IMAGE                                           
#  12 ELLIPTICITY            1 - B_IMAGE/A_IMAGE                                       
         1 -15.4756     27.8156    178.1388   1.3745809808e+02   3.4773326666e+01     11.41661     4.656788  66.15   0.04646971    2.978    0.664
         2 -13.0652    197.3643     33.4871   6.1663567457e+01   3.1678850709e+01     1.207023    0.9759952  74.39  0.006250443    1.158    0.137
         3 -13.8647    212.1823     16.9033   5.6039815695e+01   3.0095781648e+01     1.427521      1.08685  32.86  0.008224719    1.930    0.482
         4 -11.1906      1.7207      7.4528   1.1205529192e+02   7.4413119294e+01    0.6219004    0.1148961 -47.03  0.002521968    3.980    0.749
         5 -11.4200      2.0586     13.5824   1.1467143356e+02   7.3418300071e+01    0.4063909    0.1627639 -50.15  0.001736255    2.217    0.549
         6 -12.4186    106.9139    243.8927   1.2658915648e+02   1.0014838851e+01    0.6240875    0.3955036  65.83  0.002381104    1.737    0.424
         7 -12.0433    174.1976    249.0459   1.1362041587e+02  -1.4268073979e+00    0.6221712    0.2375578  42.98  0.002774737    2.336    0.572
         8  -8.8686     62.9923    250.5158   1.3596046769e+02   1.5100467797e+01    0.1774378   0.09267469  43.24 0.0004209531    1.527    0.345
         9 -11.1168     31.0222    247.9413   1.4179044996e+02   1.9534916302e+01    0.4184406     0.397797  10.58     0.003272    1.679    0.404
        10  -9.2751      7.9557    250.4741   1.4600621643e+02   2.1548256515e+01    0.2574767   0.08033223  51.39  0.001382391    2.190    0.543
        11 -10.9371      2.1292    247.9526   1.4690301020e+02   2.2593995110e+01    0.4225062     0.184116 -86.64   0.00103217    2.020    0.505
        12 -10.7308     95.1590    241.8362   1.2877937783e+02   1.2174796194e+01    0.1978081    0.1446469  60.08 0.0006278888    1.208    0.172
        13 -10.7941     55.2764    239.6579   1.3662690687e+02   1.8172784429e+01    0.4685923    0.2249122  84.86  0.001595807    2.482    0.597
        14  -9.2649     48.8299    237.3250   1.3772125968e+02   1.9449025948e+01    0.2038282    0.1329084  78.24 0.0006375957    1.381    0.276
        15  -9.5709     45.6533    233.3152   1.3805498577e+02   2.0639415768e+01    0.2352901    0.1320603  67.36  0.001000043    1.584    0.369
        16  -9.8254     41.9603    230.4770   1.3858375337e+02   2.1660633592e+01    0.3153874    0.1281737  56.80  0.001537819    2.152    0.535
        17 -11.8934     12.6381    239.6117   1.4469832934e+02   2.3120740200e+01     0.562217    0.2660352  80.74  0.002649484    1.852    0.460
        18  -9.8765     19.9928    235.1097   1.4311826016e+02   2.3229240453e+01    0.2097386    0.1554506  16.77  0.001374344    2.118    0.528
        19 -12.0726    140.1612    248.7045   1.2037877474e+02   3.9784801896e+00    0.4527419    0.3430251  51.47  0.002833882    1.254    0.203
        20 -12.5141     32.0861    224.9200   1.4016694636e+02   2.3951545248e+01    0.2891597      0.24991  84.60  0.000763158    1.228    0.186
        21 -10.9732      6.0195    225.2729   1.4523263675e+02   2.6606145617e+01    0.2538235    0.1618121  70.81  0.001029833    1.178    0.151
        22 -11.5519     59.8789    192.4528   1.3124291475e+02   2.7640073735e+01    0.4256614    0.2683972 -45.37  0.001780814    2.079    0.519
        23  -8.4123    181.5283    192.4946   1.0276994360e+02   6.7827651014e+00    0.1427131    0.1280504  14.63 3.293494e-05    1.031    0.030
        24 -11.6483     65.8577    185.3278   1.2895893406e+02   2.8486849836e+01    0.2970675    0.2452001 -52.58 0.0006262434    1.394    0.283
        25 -10.9018     76.0556    173.5807   1.2480248589e+02   2.9818460252e+01    0.2579132    0.2483486 -84.47 0.0003936769    1.135    0.119
        26 -13.7107     38.6691    216.6013   1.3822729215e+02   2.4931733680e+01    0.8699441    0.6991823  67.43  0.004174964    1.048    0.046
        27 -13.1806     62.8747    170.8667   1.2784431216e+02   3.2358923165e+01    0.5468829    0.2947845 -46.29  0.001655022    2.249    0.555
        28 -11.9118     83.6060    164.6788   1.2143779719e+02   3.0818984094e+01    0.7998999    0.5772526  61.07  0.003999707    1.417    0.294
        29 -12.8614     65.6981    141.7023   1.2257550200e+02   3.9199911759e+01     2.256817     1.125958  86.95  0.006005807    4.497    0.778
        30 -10.4196     83.4797    230.7478   1.3006355887e+02   1.6041672451e+01    0.2460235    0.1558866  43.81   0.00138542    1.331    0.248
        31  -9.7310     96.9512    149.6835   1.1509639254e+02   3.2270390854e+01    0.2877787    0.2536527 -57.30 0.0007680419    1.139    0.122
        32  -9.0967    100.2261    145.5708   1.1335930980e+02   3.2695332937e+01    0.2765203    0.2104224 -29.01 0.0008042438    1.639    0.390
        33 -11.9550     85.4361    148.5055   1.1810682648e+02   3.4509386706e+01    0.3128801    0.2631419 -44.48  0.000556315    1.278    0.217
        34  -9.3409    108.9420    135.5617   1.0875507373e+02   3.3503892258e+01    0.3301269    0.2344002 -23.39  0.001321292    1.939    0.484
        35 -10.3990     96.1723    132.5098   1.1175187385e+02   3.6620664641e+01    0.2805469    0.2313741 -31.42 0.0005111306    1.373    0.272
        36  -9.0914    106.3304    122.8310   1.0652823833e+02   3.7060245621e+01    0.2052054    0.1874241 -43.11  0.000341047    1.108    0.097
        37  -9.9477    167.7736    112.7456   8.7975086788e+01   2.5753197885e+01    0.3691639    0.2801057 -81.13  0.001443864    1.727    0.421
        38  -9.1427    204.0416    111.2234   8.0312658700e+01   1.7685225614e+01    0.3067937    0.1658227  33.81  0.001157639    2.656    0.623
        39 -13.1179     10.1277    206.9791   1.4347113864e+02   3.0018054165e+01    0.7576451    0.5776219  30.74  0.002964556    1.612    0.380
        40 -11.4801    242.6945     94.0937   7.0298574027e+01   1.2387578384e+01    0.4578434    0.1495707 -41.24  0.001738987    2.575    0.612
        41 -10.7752    226.7321    202.2338   9.5657939843e+01  -2.6174962694e+00    0.4681375    0.2861534 -56.91  0.001058011    3.066    0.674
        42  -9.6982     13.4652     61.5083   1.2459395292e+02   6.3611525570e+01    0.1247896   0.09817767 -42.55 1.277552e-05    1.030    0.029
        43 -11.9503    126.6358    246.2323   1.2282201286e+02   6.5297266907e+00    0.4467105     0.211135  48.54  0.002162178    1.893    0.472
        44 -12.6562     94.9172    249.2701   1.2958071757e+02   1.0849286690e+01    0.8503177    0.4282376  33.18 0.0009182045    1.926    0.481
        45 -11.0277     39.2077    247.0231   1.4022364078e+02   1.8751879471e+01    0.4365897     0.305686  78.60  0.003024516    1.223    0.183
        46  -8.9018     16.6592     25.3048   1.1117195543e+02   7.0358332850e+01   0.09927897   0.09274679  52.00 0.0007040812    1.680    0.405
