#   1 NUMBER                 Running object number                                     
#   2 MAG_AUTO               Kron-like elliptical aperture magnitude                    [mag]
#   3 X_IMAGE                Object position along x                                    [pixel]
#   4 Y_IMAGE                Object position along y                                    [pixel]
#   5 X_WORLD                Barycenter position along world x axis                     [deg]
#   6 Y_WORLD                Barycenter position along world y axis                     [deg]
#   7 A_WORLD                Profile RMS along major axis (world units)                 [deg]
#   8 B_WORLD                Profile RMS along minor axis (world units)                 [deg]
#   9 THETA_WORLD            Position angle (CCW/world-x)                               [deg]
#  10 FWHM_WORLD             FWHM assuming a gaussian core                              [deg]
#  11 ELONGATION             A_IMAGE/B_IMAGE                                           
#  12 ELLIPTICITY            1 - B_IMAGE/A_IMAGE                                       
         1 -14.3295     24.9689     57.0349   9.3524484918e+01   6.3270933903e+01     1.400407     1.019743  81.35  0.007193119    2.587    0.613
         2 -12.9181     75.6399     43.1130   6.7488247077e+01   5.8690508298e+01     1.117751    0.3440851 -44.16  0.000690495    4.045    0.753
         3 -12.0232    217.3329     11.1813   3.1677737530e+01   3.0481160236e+01    0.2783359    0.2533067 -12.76 0.0009418151    1.566    0.361
         4 -13.0200     46.5308     11.5380   6.5078631429e+01   6.7900033909e+01    0.2490984    0.2004043  16.78 0.0005113924    1.043    0.041
         5 -12.5447     64.7278     10.6763   5.7704477761e+01   6.4823830646e+01    0.3720779     0.228101  34.60  0.001077867    1.411    0.291
         6 -11.2269     36.5972     11.0550   6.9274253334e+01   6.9471031947e+01    0.2065277    0.1468836  27.31  0.000335265    1.255    0.203
         7 -12.5697    194.4540      8.8122   3.3120011504e+01   3.5766215205e+01    0.4255001    0.1872682  62.42  0.002107724    2.088    0.521
         8 -10.7027    114.8651      7.1984   4.3304627744e+01   5.4520105089e+01    0.1787041    0.1528991  76.46 0.0002933976    1.163    0.141
         9 -13.1761     55.7301      5.3037   5.8408138776e+01   6.6986625170e+01    0.7684597    0.3054449  52.93  0.003434684    2.586    0.613
        10 -10.4973    127.1215      5.9351   4.0699302547e+01   5.1783447619e+01    0.1934276    0.1544728  89.75 0.0007397628    1.282    0.220
        11 -10.0547    189.5272      3.5696   3.2341883370e+01   3.7400126318e+01    0.1241666   0.09836737 -82.10 8.672746e-05    1.048    0.046
        12 -11.4750    152.8347    229.6505   9.1290835436e+01   4.2207860239e+00    0.2965406    0.2180296  49.23  0.001237816    1.453    0.312
        13 -10.3934    127.3353    230.6998   9.6991460026e+01   8.0248717784e+00    0.1366563   0.09593916  60.66 0.0005442376    1.657    0.396
        14 -10.9312     72.0006    228.8059   1.0895108122e+02   1.6585594633e+01    0.2188697     0.178367 -86.23 0.0007124044    1.223    0.182
        15 -10.3846    127.2975    227.6375   9.6570520760e+01   8.6313402215e+00    0.1369879   0.09955067  67.56 0.0005843395    1.715    0.417
        16 -11.0082     51.8001    227.6102   1.1319422243e+02   1.9462674476e+01    0.1868262   0.09426638  45.85 0.0009517189    1.701    0.412
        17 -11.5884    149.6531    223.0587   9.0959596253e+01   5.9619670878e+00    0.3589052    0.3070299  88.00  0.002076247    1.541    0.351
        18 -11.3942     35.7937    223.1988   1.1622362784e+02   2.2314002224e+01    0.2928297    0.1732946 -89.12  0.001124147    1.594    0.373
        19 -11.1595    183.5813    222.4550   8.3642084161e+01   7.0067580079e-01    0.2912025    0.2142942 -55.85  0.001603391    1.780    0.438
        20 -10.2378     55.5569    223.4530   1.1201106791e+02   1.9895259538e+01    0.1307447     0.104934  66.85 0.0008052202    1.063    0.059
        21 -11.0265    174.0809    221.3470   8.5432477796e+01   2.3798395354e+00    0.2560541    0.2018109 -47.16  0.001475515    1.436    0.304
        22 -12.1430    238.8327    214.6640   7.1686350440e+01  -6.0055121866e+00    0.5729164    0.2056004 -47.30  0.002164651    4.057    0.754
        23 -11.0564    179.9881    216.7882   8.3418321091e+01   2.2649069662e+00    0.2214541    0.1806168 -60.73  0.001241977    1.622    0.384
        24 -10.6332    192.8002    210.0129   7.9578557550e+01   1.4484787475e+00    0.2017416    0.1643685 -78.18  0.001078294    2.030    0.507
        25 -10.9644     22.6862    218.0105   1.1859396580e+02   2.4870604257e+01    0.1779249    0.1393601  82.90  0.001178914    1.071    0.067
        26 -11.6006      3.3822    197.6150   1.2135142263e+02   3.1286149767e+01    0.3068795    0.2241444 -86.18  0.001512847    1.137    0.121
        27 -11.4935    161.4503    193.4159   8.3244385734e+01   9.8797369311e+00    0.3856619    0.3272604  50.15  0.002098725    1.285    0.222
        28 -10.8539    173.1889    191.3756   8.0255209898e+01   8.2351618348e+00    0.2724496    0.2227546  68.55  0.001410172    1.661    0.398
        29 -10.6720    182.9998    184.0054   7.6703466156e+01   7.9800585889e+00    0.3285517    0.1826777 -56.74  0.001348569    2.384    0.581
        30 -11.0215    147.4319    178.7957   8.3695684559e+01   1.5535751385e+01    0.5023107    0.1417766 -48.27  0.001521137    3.520    0.716
        31 -10.8483    191.5543    177.2971   7.3561902734e+01   7.7888993222e+00    0.3533596     0.132328 -41.64   0.00129486    2.557    0.609
        32 -12.6888     33.3930    175.9565   1.1249826373e+02   3.3663062580e+01    0.5325859    0.2623182 -87.10  0.002350465    2.145    0.534
        33 -12.8815     27.1028    173.9764   1.1388802857e+02   3.4790254374e+01    0.6241642    0.4903452  47.39  0.003778698    1.311    0.237
        34 -10.2034    217.7504    175.9645   6.8152959807e+01   3.5514535449e+00    0.1888409    0.1059415 -38.33 0.0008940856    1.610    0.379
        35 -10.4888    159.3886    175.2242   8.0179723503e+01   1.4100314303e+01    0.2152919     0.141528 -58.05 0.0009503346    1.752    0.429
        36 -11.0961     59.0074    175.9983   1.0587547768e+02   3.0663411201e+01     0.308379    0.1923209 -80.22 0.0008013767    1.627    0.385
        37 -11.2597     11.6026    172.6880   1.1763858943e+02   3.6509071301e+01    0.3928844    0.1386537 -64.54   0.00171822    2.315    0.568
        38 -10.5380    176.0000    170.9939   7.5572225866e+01   1.1894593937e+01     0.250233   0.08171683 -45.24 0.0008083286    2.983    0.665
        39 -10.6022    121.3125    169.6602   8.8381162565e+01   2.2436553240e+01    0.1579055    0.1193954  77.46 0.0005311507    1.696    0.410
        40 -10.2819    192.3257    165.6501   7.0987893349e+01   9.9533873582e+00    0.1442091    0.1175135 -81.20  0.000704877    1.756    0.430
        41 -10.4921    138.4843    164.5018   8.2995720432e+01   2.0458694421e+01    0.2812348    0.1494096 -61.80  0.001030914    2.405    0.584
        42 -11.4726     96.5313    164.3069   9.3925808539e+01   2.8064211437e+01    0.5471103    0.2542386  35.45  0.001388583    2.190    0.543
        43 -12.4207     20.4042    160.1240   1.1419776025e+02   3.8871393389e+01    0.4276136    0.3591662  55.32  0.001185116    1.243    0.195
        44 -11.3028     23.5576    154.5334   1.1273203789e+02   4.0001693073e+01    0.2479374     0.204609 -81.27 0.0009982855    1.024    0.024
        45 -12.4921    118.5681    157.9108   8.6750705157e+01   2.5771767057e+01    0.5115492    0.3288923  36.19  0.001665691    1.592    0.372
        46 -11.6488    167.3802    156.1573   7.4317311383e+01   1.6702002924e+01    0.4651649    0.3835895 -71.97  0.002298617    1.476    0.322
        47 -10.7228    218.7686    156.5477   6.3962824503e+01   6.9422808373e+00    0.2648359    0.1708387 -38.21 0.0006586292    1.377    0.274
        48 -10.7042    125.0000    153.0194   8.4022065719e+01   2.5747101071e+01    0.4294433   0.08776258 -51.25  0.001039192    4.825    0.793
        49 -11.0545    189.5992    149.3760   6.8016225595e+01   1.3753763752e+01    0.3799441    0.1754718 -55.36  0.001307686    2.951    0.661
        50 -11.6868    109.0498    147.0655   8.7053278472e+01   3.0182848764e+01    0.6508186    0.2872902  57.82  0.001768736    4.585    0.782
        51 -10.9137     89.2890    145.0116   9.2238502873e+01   3.4134181445e+01    0.2216827    0.1992383 -58.64  0.001161509    1.065    0.061
        52  -9.6613    250.5099    144.5387   5.6245583855e+01   3.7556575186e+00     0.131852     0.108342 -34.36 0.0008093094    1.010    0.010
        53 -10.8942    148.7795    144.9929   7.6182317862e+01   2.2923048885e+01    0.2597834    0.1865388 -78.27  0.001081095    2.002    0.500
        54 -10.6033    181.8703    141.7833   6.7906423499e+01   1.6854230782e+01    0.2918395    0.1970135 -67.24  0.001185391    2.065    0.516
        55 -11.2202     21.5089    139.6635   1.1151942866e+02   4.3953891941e+01    0.3439338    0.2137899  18.20  0.001504253    1.972    0.493
        56 -11.1580     68.8572    136.2872   9.6594800284e+01   3.9506552064e+01    0.3212954    0.2990838  38.85  0.001793116    1.153    0.132
        57 -11.0235    142.8781    130.1140   7.4115257818e+01   2.7534159916e+01    0.4252965    0.1738317 -52.91  0.001376805    2.739    0.635
        58 -11.6926     98.0029    126.8021   8.5670449065e+01   3.7200995503e+01    0.4716186    0.3230035 -83.15  0.001453147    2.116    0.527
        59 -10.7656    117.3195    125.6389   7.9798133248e+01   3.3824137993e+01    0.1646734    0.1259467  87.53 0.0005841856    1.769    0.435
        60 -10.9380     59.1639    124.4502   9.7283718750e+01   4.3857158547e+01    0.2823234    0.1825347  76.14  0.001197942    2.253    0.556
        61 -11.6389     43.7910    124.2071   1.0222109936e+02   4.5765659567e+01     0.342054    0.2154234  89.57  0.001548299    2.007    0.502
        62 -10.5736    189.2852    124.0446   6.2245710733e+01   1.8945767650e+01    0.2168418    0.1879747 -45.17  0.000856722    1.078    0.072
        63 -11.3121    224.5592    118.2859   5.4678938922e+01   1.2927056518e+01    0.2901538    0.1165846 -44.01  0.001151598    2.179    0.541
        64 -10.7944    108.9966    115.9775   7.9740646334e+01   3.7748640332e+01    0.3414041     0.234065 -57.10   0.00150576    1.518    0.341
        65 -12.0639    108.6942    109.9367   7.8245172393e+01   3.9215323837e+01    0.3764156    0.3130316 -39.70  0.000585013    1.183    0.155
        66 -12.9805    163.1175    112.5493   6.4886978400e+01   2.6965821803e+01    0.5752525    0.4254455  59.80 0.0006304819    1.482    0.325
        67 -11.4808    161.8669    107.8462   6.3952444342e+01   2.8214485650e+01    0.4134438    0.2337446  45.43  0.001065964    1.843    0.457
        68 -11.3493     78.7626    112.6718   8.8255932160e+01   4.3947074378e+01    0.4289658    0.2156531 -71.50  0.001368306    3.542    0.718
        69 -11.3632     91.9110    111.4912   8.3756778766e+01   4.2005828744e+01    0.6179901    0.2553309 -59.03  0.002006663    2.992    0.666
        70 -11.1506     24.5049    113.0519   1.0665339424e+02   5.0430348991e+01    0.2425504    0.1790256 -22.09  0.001019491    1.553    0.356
        71 -11.6113     13.6087    110.3862   1.0990961845e+02   5.1906687408e+01    0.3598387     0.197768  84.08  0.001642253    2.358    0.576
        72 -13.4844    144.8423    108.6026   6.8128104309e+01   3.1861599497e+01     1.179896      0.54307  59.74  0.003759915    3.239    0.691
        73 -12.9890    126.1737     99.8822   7.0548386329e+01   3.7825623773e+01    0.8185493     0.527826 -33.42  0.001745631    1.685    0.407
        74 -11.9279     45.1124    102.3399   9.7334597843e+01   5.1079226377e+01    0.3892499    0.2198664  70.42  0.001393755    3.756    0.734
        75 -10.9543     77.0035     97.0886   8.4798238245e+01   4.7931499998e+01    0.2182082    0.2003724 -27.95 0.0002825456    1.037    0.036
        76 -12.8532    111.0228     99.7481   7.4767481132e+01   4.1044892077e+01    0.8579674    0.6114349  84.00  0.003529822    2.266    0.559
        77 -12.0334     21.5472     96.0215   1.0459729658e+02   5.4839478772e+01    0.5676809    0.2982342 -40.50   0.00256257    1.792    0.442
        78 -10.7847    188.5273     93.4747   5.4914356907e+01   2.4992687430e+01    0.2771614    0.1211862 -49.14  0.001029574    2.331    0.571
        79 -10.5354    236.0781     91.2718   4.7081696448e+01   1.5377286972e+01    0.1769072    0.1582235 -67.08 0.0003430133    1.099    0.090
        80 -11.5122     87.2764     87.4979   7.8600368759e+01   4.8306006912e+01     0.388277    0.2423124  68.85  0.001421005    3.162    0.684
        81 -10.3283     79.5608     87.5318   8.1208738457e+01   4.9654080471e+01    0.1476329     0.135905 -22.24 7.448705e-05    1.025    0.025
        82 -11.6750     45.9745     82.7549   9.2164044949e+01   5.5577594436e+01    0.4821326    0.2925721  61.63  0.001205545    3.047    0.672
        83 -12.0986     63.7567    102.0787   9.0674676770e+01   4.8774267755e+01    0.4103256    0.2604417 -62.66  0.001892394    1.644    0.392
        84 -10.9515    104.9837     84.4935   7.2092450193e+01   4.5519718125e+01    0.2112719    0.1331845  67.21 0.0008101939    2.521    0.603
        85 -11.7796     24.7116     80.2172   9.9950929107e+01   5.8290615153e+01     0.486154    0.2834284 -76.34  0.002008692    2.194    0.544
        86 -11.4153     62.5029     74.0407   8.3247597163e+01   5.5263572202e+01    0.3279676    0.1363361 -54.45  0.001226232    2.734    0.634
        87 -11.7064     81.8667     72.5248   7.5760517084e+01   5.2379922517e+01    0.4208696    0.2939545 -76.67  0.001412299    2.601    0.615
        88 -10.5916    249.3399     73.6746   4.1775819226e+01   1.5635002935e+01    0.1357144    0.0810533 -64.40 0.0003766833    1.729    0.421
        89 -11.5496     51.1656     69.8811   8.6353710685e+01   5.7721526110e+01    0.3302106    0.1831495 -66.66  0.001326757    2.962    0.662
        90 -13.2322      9.7647     49.3097   9.8315028892e+01   6.6014473146e+01    0.3690951     0.258056 -13.85  0.001155685    1.357    0.263
        91 -11.5250     45.3339     60.8509   8.5833191237e+01   6.0304277977e+01    0.5225106    0.2396763 -32.20  0.002192088    2.434    0.589
        92 -12.1184     44.2959     66.0145   8.7936786097e+01   5.9390004056e+01    0.2935653    0.2489706  -3.28 0.0005476766    1.137    0.120
        93 -13.4710     37.3566     60.8599   8.9236945101e+01   6.1247510683e+01    0.9017246     0.618117 -65.25  0.004790579    1.893    0.472
        94 -10.6454    227.9230    249.6928   7.9579516153e+01  -9.6269177074e+00    0.2265094   0.08913249  26.29  0.001083853    2.453    0.592
        95 -11.8470      8.4224     66.1213   1.0342022216e+02   6.2585273147e+01     0.315677    0.1958532   8.46  0.001326076    1.804    0.446
        96 -11.8466      2.4709     64.2163   1.0558585073e+02   6.3321905256e+01      0.30534    0.2525027  -9.92  0.001497554    1.289    0.224
        97 -10.7494    130.1431     58.2047   5.7026671382e+01   4.4755697194e+01    0.2142323    0.1892916  34.97 0.0004138653    1.151    0.131
        98 -10.8312    232.3314     49.9964   3.8605263131e+01   2.2468263985e+01    0.1872627    0.1081045 -12.71 0.0007051468    4.347    0.770
        99 -10.5513    112.9559     50.0184   5.8629272642e+01   4.9954449785e+01    0.2187406    0.1734714 -78.34 0.0008570542    1.684    0.406
       100 -10.6430     95.9588     49.7533   6.3332074600e+01   5.3669402995e+01    0.1929957    0.1684736  36.51 0.0002078128    1.081    0.075
       101 -12.2392     62.0384    247.4566   1.1276942683e+02   1.4074203255e+01    0.3606881    0.2570997  56.26  0.001186821    1.159    0.137
       102 -12.0936     40.1034     39.6300   8.0418466684e+01   6.4863013064e+01    0.5702659    0.2893381 -38.90  0.002906358    1.822    0.451
       103 -11.0701    144.6860     36.9435   4.7352209827e+01   4.4337595407e+01    0.1849553    0.1760827 -64.13 0.0004465861    1.103    0.093
       104 -11.9533      2.0473     29.2977   9.5756601801e+01   7.0295556741e+01    0.4069164    0.1524612 -51.26  0.002029771    2.177    0.541
       105 -10.0232    196.0515     29.7718   3.7931630544e+01   3.3051566016e+01    0.1619039    0.0975524  74.32 0.0004485703    1.553    0.356
       106 -10.1342    178.2237     25.6733   3.9038086472e+01   3.7679943728e+01    0.1888978    0.1034714  61.85 0.0006989672    1.678    0.404
       107  -9.9840    113.4992     25.5297   5.0006715607e+01   5.3041034381e+01    0.1337071     0.118641  48.77 0.0001323946    1.004    0.004
       108 -10.3344     26.2972     22.0261   7.9620159914e+01   6.9339303875e+01    0.1644815    0.1262277 -16.62 0.0003839268    1.092    0.084
       109 -12.4529     90.6147     18.6397   5.3137756269e+01   5.8838057872e+01    0.2674536    0.2151568  53.22 0.0004734478    1.178    0.151
       110 -10.4208    196.6817     18.9614   3.5286598976e+01   3.4175392831e+01     0.168028    0.1428884 -67.23 0.0003807891    1.092    0.084
       111 -10.9062     37.7649     18.2731   7.2232025572e+01   6.8395628642e+01    0.2327968    0.1808441 -33.82  0.001162521    1.477    0.323
       112  -9.8585    236.9834     15.7255   3.1114030068e+01   2.5886378108e+01    0.1317502   0.08892936  85.10 0.0002564239    1.352    0.261
       113 -11.1795    130.5810     14.8277   4.2981163432e+01   5.0170567321e+01    0.3016079    0.1509945  54.91  0.001274265    1.706    0.414
       114 -11.1730     25.5221    246.9278   1.1987324574e+02   1.8503431963e+01     0.162351   0.09856543 -82.72 0.0005233487    1.548    0.354
       115 -12.4274     37.5336    244.3899   1.1740504847e+02   1.7669371073e+01    0.3628336    0.2677351 -52.48   0.00222737    1.804    0.446
       116 -12.0503    210.1093    237.8747   8.0965493856e+01  -5.6479547259e+00    0.3436553    0.2420464  56.10  0.001845382    2.563    0.610
       117 -13.4480     19.5030    236.9633   1.2043799154e+02   2.1158079519e+01     0.584176     0.205473  43.17 0.0009531854    2.226    0.551
       118  -9.5535     96.6742    236.6901   1.0444906153e+02   1.1474990510e+01    0.1225745    0.1008972  -7.63  0.000527966    1.657    0.396
       119 -10.5851      2.9060    235.9421   1.2352855505e+02   2.3006539576e+01    0.1938444   0.09236265  60.54 0.0009126631    1.688    0.408
       120 -10.4227     61.9602    233.5146   1.1156424520e+02   1.6921881159e+01    0.1996235     0.109619  38.05  0.001049085    1.642    0.391
       121 -11.2907     10.6484    232.0689   1.2186888946e+02   2.3064330619e+01    0.2494065    0.1897122  10.65  0.001638193    2.032    0.508
