#   1 NUMBER                 Running object number                                     
#   2 MAG_AUTO               Kron-like elliptical aperture magnitude                    [mag]
#   3 X_IMAGE                Object position along x                                    [pixel]
#   4 Y_IMAGE                Object position along y                                    [pixel]
#   5 X_WORLD                Barycenter position along world x axis                     [deg]
#   6 Y_WORLD                Barycenter position along world y axis                     [deg]
#   7 A_WORLD                Profile RMS along major axis (world units)                 [deg]
#   8 B_WORLD                Profile RMS along minor axis (world units)                 [deg]
#   9 THETA_WORLD            Position angle (CCW/world-x)                               [deg]
#  10 FWHM_WORLD             FWHM assuming a gaussian core                              [deg]
#  11 ELONGATION             A_IMAGE/B_IMAGE                                           
#  12 ELLIPTICITY            1 - B_IMAGE/A_IMAGE                                       
         1 -14.1690    216.3410      4.3763   4.3130448315e+01   2.9026696424e+01     1.712632    0.9344599  65.79  0.005463535    1.883    0.469
         2 -15.1169    191.9329     33.7504   5.4238269706e+01   3.2122425778e+01     3.126075     1.788644  18.17   0.01231967    2.618    0.618
         3 -11.2847     53.4645    231.4406   1.2260718058e+02   2.3306013430e+01    0.1866204    0.1399592  74.82  0.000928802    1.282    0.220
         4 -16.8141     67.7467    146.8694   1.1222528275e+02   3.7257749121e+01     7.422571      3.99035  60.04   0.03413408    1.986    0.496
         5 -11.7194     40.1154    212.4541   1.2404686207e+02   2.7826739557e+01    0.3180345    0.1547594  39.10   0.00157619    1.626    0.385
         6 -11.0969     44.2608    210.4281   1.2313341519e+02   2.7731193749e+01    0.2416326    0.1253171  51.92  0.001145902    1.454    0.312
         7 -10.2056     31.6852    211.1642   1.2559549959e+02   2.8913059105e+01    0.1254576   0.08372391  59.57 0.0003585799    1.115    0.103
         8 -11.5296     69.7411    209.0345   1.1803881856e+02   2.5039988344e+01    0.1987583    0.1388767  63.06 0.0003648922    1.247    0.198
         9 -10.7911     75.1143    207.0142   1.1680774827e+02   2.4716022555e+01     0.249806     0.224458 -27.36  0.001121654    1.626    0.385
        10  -9.8393     35.1306    205.8924   1.2466252522e+02   2.9476207585e+01    0.1186185   0.07911304  50.64 0.0004155365    1.140    0.123
        11 -11.7487    192.9141    194.5536   9.2486375518e+01   9.1995203855e+00    0.7880605    0.4477003 -59.77  0.003033943    6.018    0.834
        12  -9.6329     87.3187    202.8685   1.1398279778e+02   2.3840913002e+01     0.197637    0.1425442  11.22   0.00120359    2.071    0.517
        13 -19.1435     12.2256    103.3204   1.2313333306e+02   5.3047518836e+01     15.54592    0.7018391 -76.13   0.02680999   15.835    0.937
        14 -10.4594     52.1345    227.1329   1.2260688802e+02   2.4125418881e+01    0.1799815   0.08566098  54.05  0.001151217    1.614    0.380
        15 -10.7258     81.1378    194.9161   1.1449028711e+02   2.6031902221e+01    0.3355529    0.1871848  41.78  0.001402008    1.456    0.313
        16 -12.4551     35.0735    199.4716   1.2432576601e+02   3.0621083598e+01    0.2025959    0.1409264  48.12 0.0008654408    1.165    0.142
        17 -13.0949     68.8828    188.3713   1.1647048845e+02   2.8793857240e+01    0.6106158    0.5802189 -77.58  0.003111936    1.308    0.235
        18 -10.4573     72.0311    179.6464   1.1494604123e+02   3.0029147663e+01    0.2042346    0.1499016  51.09 0.0009219234    1.133    0.118
        19 -12.6813    149.3592    187.8548   9.9591064795e+01   1.7064925377e+01    0.3847317    0.3137643 -88.15  0.002262864    1.777    0.437
        20 -18.0666     33.0554    243.5529   1.2675035396e+02   2.3605021914e+01     7.971201     2.526503  30.95    0.0421553    3.083    0.676
        21 -10.8734     59.5750    228.9857   1.2135394984e+02   2.3004424475e+01    0.1626258    0.1007625  53.84 0.0004465652    1.211    0.174
        22 -10.2145     29.2234    171.4421   1.2389802446e+02   3.6541271640e+01    0.2599128    0.1736853 -58.12  0.001173076    1.809    0.447
        23 -10.3337    163.6259    169.4464   9.3793107252e+01   1.7503877820e+01    0.2245433    0.2029158  83.46 0.0005849991    1.467    0.319
        24  -9.6193    204.8698    167.3700   8.5709986134e+01   1.0700148757e+01    0.1906108   0.09694067  32.16  0.000948911    1.836    0.455
        25 -10.3975    192.5555    164.9585   8.7459687837e+01   1.3127315357e+01    0.2504435     0.211571 -10.66 0.0007326929    1.183    0.154
        26 -10.3678    158.3172    162.1040   9.3566738521e+01   1.9596446470e+01    0.1756145    0.1662227  10.49 0.0005596404    1.102    0.093
        27 -13.0446     96.1906    153.5271   1.0606167205e+02   3.1741955734e+01    0.6124843    0.5148981 -19.68   0.00363597    1.600    0.375
        28 -10.6017    188.5128    154.9883   8.6303366719e+01   1.5253134245e+01    0.4345911    0.2001317  40.61  0.001997858    1.977    0.494
        29 -11.7958    133.8859    145.5970   9.5798553229e+01   2.6886354098e+01     1.043964    0.2927788 -53.94  0.003009156    5.468    0.817
        30  -9.0753     43.6916    220.6607   1.2381117899e+02   2.6079982257e+01    0.1402526    0.1136332 -70.40 0.0008696284    1.574    0.365
        31 -10.1684    174.3909    148.7092   8.7775092399e+01   1.8800618970e+01    0.2614311     0.223449  84.56 0.0008301504    1.674    0.403
        32  -9.5993     48.6239    217.4607   1.2270558738e+02   2.6074224364e+01    0.2775291    0.1462154  26.86  0.001334396    2.174    0.540
        33 -12.3459    107.5484    139.4007   1.0093506312e+02   3.2769460747e+01    0.5094929    0.3437986 -33.24  0.002515709    1.962    0.490
        34 -11.4870     59.0755    215.6850   1.2060013085e+02   2.5194494970e+01    0.4980202    0.2282471  66.83  0.002771298    2.372    0.578
        35 -12.5150     95.7050    139.4143   1.0392608857e+02   3.4732570553e+01    0.3106127    0.2769018  36.01 0.0003362606    1.169    0.145
        36 -11.3871    106.0395    130.7695   9.9709418030e+01   3.4819548416e+01     0.405327    0.3246993  89.32  0.001283155    1.427    0.299
        37 -11.2186    102.4800    125.9001   9.9687057255e+01   3.6468912648e+01    0.2838665    0.2308615 -25.63 0.0008657984    1.546    0.353
        38 -11.5240    114.8223    129.9871   9.7320824683e+01   3.3421102435e+01    0.3330073     0.278726   1.31 0.0009012899    1.514    0.340
        39 -11.2590    135.6788    127.2589   9.1659024910e+01   3.0026281392e+01    0.5649084    0.1289723 -49.75  0.001483506    5.580    0.821
        40 -10.1424    160.4304    127.1242   8.6063683059e+01   2.5106966670e+01    0.3221863    0.2339519 -66.73  0.001543336    1.985    0.496
        41 -11.4449    120.6213    123.0119   9.4407154061e+01   3.3772083806e+01    0.5122516    0.3044651 -18.97  0.001819976    3.638    0.725
        42  -9.8560    135.0000    119.9065   9.0180409289e+01   3.1584090870e+01    0.2306366   0.08254831 -44.98 0.0007970764    2.905    0.656
        43 -10.1732    110.0904    119.0033   9.6251642629e+01   3.6573918424e+01    0.2047336      0.19719  70.01 0.0002794621    1.008    0.008
        44 -10.1148    168.3448    113.1355   8.1107753042e+01   2.5876455575e+01    0.3066033    0.2331234 -78.00  0.001263026    2.005    0.501
        45 -11.8720    119.0203    110.0761   9.1876323031e+01   3.6741461058e+01     0.564944    0.4132245  57.15  0.002791924    1.447    0.309
        46 -10.1444    205.6161    110.1177   7.3377056631e+01   1.8480934941e+01    0.2530997    0.1910816  36.52 0.0006129384    1.309    0.236
        47  -9.8491    134.6792    105.5513   8.6796480276e+01   3.4458095505e+01    0.2689897    0.1360856 -43.34  0.001087133    2.014    0.503
        48 -13.4146     59.2247    202.6440   1.1965597862e+02   2.7397918410e+01    0.5138184    0.3537086  70.90  0.001503646    1.326    0.246
        49 -11.3680     41.7418     91.6790   1.1157746199e+02   5.3205881305e+01     0.242862    0.1980263 -79.64 0.0006399024    1.103    0.093
        50 -12.9540     50.4706    208.2028   1.2178422510e+02   2.7432986986e+01    0.4022633    0.2143867  52.92  0.002587811    1.453    0.312
        51 -10.1026    189.1318     88.7911   7.0797889379e+01   2.5224005053e+01    0.3014882     0.215199  70.37  0.001433668    1.767    0.434
        52  -9.6240     69.2968     71.9951   9.7054038373e+01   5.4180503765e+01    0.1926494    0.1744856 -59.81 0.0005486932    1.036    0.034
        53 -12.1509    163.6033     64.3665   6.8443698112e+01   3.5130906910e+01    0.4846103    0.4424838  64.09 0.0006354239    1.144    0.126
        54 -12.0366    163.6843     55.8141   6.5697959874e+01   3.6423951966e+01    0.4754567    0.3782401 -69.51  0.001470468    1.483    0.326
        55  -9.6588    169.1602    236.7985   1.0242674250e+02   7.6838421063e+00    0.1500049    0.1131716  37.01 0.0004506354    1.151    0.131
        56 -13.5071    176.5085     48.6118   6.1141625512e+01   3.4183738630e+01    0.8405113    0.6682296  -6.25 0.0008255088    1.359    0.264
        57 -11.4047     62.4258    236.4624   1.2128947541e+02   2.1541301347e+01    0.1960927     0.139043  66.64  0.001457671    1.266    0.210
        58 -12.8017     48.8394    233.1025   1.2352759905e+02   2.3552883909e+01    0.2435119     0.147108  67.35 0.0007467776    1.453    0.312
