#   1 NUMBER                 Running object number                                     
#   2 MAG_AUTO               Kron-like elliptical aperture magnitude                    [mag]
#   3 X_IMAGE                Object position along x                                    [pixel]
#   4 Y_IMAGE                Object position along y                                    [pixel]
#   5 X_WORLD                Barycenter position along world x axis                     [deg]
#   6 Y_WORLD                Barycenter position along world y axis                     [deg]
#   7 A_WORLD                Profile RMS along major axis (world units)                 [deg]
#   8 B_WORLD                Profile RMS along minor axis (world units)                 [deg]
#   9 THETA_WORLD            Position angle (CCW/world-x)                               [deg]
#  10 FWHM_WORLD             FWHM assuming a gaussian core                              [deg]
#  11 ELONGATION             A_IMAGE/B_IMAGE                                           
#  12 ELLIPTICITY            1 - B_IMAGE/A_IMAGE                                       
         1 -14.3940     68.3389    144.5029   9.9028309697e+01   3.7496930819e+01     4.622303      2.38443  81.64  0.002812637    4.443    0.775
         2 -13.8297    232.0557     20.2498   3.4003562470e+01   2.6170506006e+01     1.348876     1.003426  41.50   0.00471579    2.084    0.520
         3 -13.7659    205.2197     42.6768   4.1599191226e+01   2.9145795387e+01     1.350377     1.205409 -26.26  0.005255193    1.397    0.284
         4 -13.3003    213.3099     37.4282   3.9469905696e+01   2.8040961449e+01    0.9575393    0.6300801 -67.84  0.003486866    1.418    0.295
         5 -11.1790    249.6777      2.7825   2.9365952699e+01   2.4612846180e+01    0.3081929    0.1925496 -56.59  0.001819238    1.249    0.199
         6 -10.3931      2.4205      3.2856   8.5730128654e+01   7.4249507009e+01    0.2076983   0.08077443 -38.84  0.001147874    2.179    0.541
         7  -9.9158     17.0087      2.2503   7.6563858654e+01   7.2941498971e+01    0.1387781   0.08069175  26.37 0.0007703265    1.573    0.364
         8 -16.1220     36.2573    190.5051   1.1367670283e+02   3.0107004335e+01     9.576222     3.772074  78.15   0.03119707    4.473    0.776
         9 -13.0149     60.2510    174.1830   1.0584913750e+02   3.1140468995e+01     1.421817    0.7146904 -29.93  0.004051982    5.706    0.825
        10 -15.2887    110.9694    229.9940   1.0109947804e+02   1.0958418489e+01     7.770319     1.237581  36.73    0.0214314    5.252    0.810
        11 -14.9032      6.7478    245.6122   1.2353932375e+02   2.1249658870e+01     1.942486     1.561433  34.31   0.01456552    1.559    0.359
        12 -15.1887      9.8519    207.7747   1.2090636917e+02   2.8854873592e+01      2.12252     1.289307  88.88  0.006076558    1.374    0.272
        13 -10.3129     56.5823    193.6020   1.0915393533e+02   2.6911158607e+01    0.2838713    0.1943046  71.55 0.0006128873    1.424    0.298
        14  -9.1781     99.3507    181.0102   9.6822332991e+01   2.3600261642e+01    0.2016612    0.1792108 -76.04 0.0004717447    1.115    0.103
        15 -10.1451    120.7900    173.5829   9.0146139935e+01   2.1640249210e+01    0.2203807    0.1339302  48.92 0.0006850846    1.664    0.399
        16 -11.9112     73.3645    162.2496   1.0060703418e+02   3.2285367923e+01    0.4038195    0.3293954 -63.74 0.0004490528    1.176    0.150
        17 -13.1586     80.1960    156.0137   9.7687783610e+01   3.2822886178e+01     1.279278    0.9728326  84.70  0.001494358    1.440    0.305
        18 -10.2013    171.9613    241.9289   8.9969659427e+01  -6.7734565903e-01    0.2510461    0.1755274 -67.97 0.0008270773    2.320    0.569
        19  -9.1143    174.6061    148.8124   7.2342776943e+01   1.6714990675e+01    0.2121726    0.1380205 -55.46 0.0005571116    1.664    0.399
        20 -10.2433    133.6045    144.5779   8.1024221121e+01   2.6003371389e+01    0.9612266    0.1615476 -53.20  0.001627675   10.381    0.904
        21 -10.4275     48.2277    169.6568   1.0839616451e+02   3.3791073151e+01    0.2869891    0.1969723  87.91 0.0007728933    1.434    0.303
        22 -10.8103     97.2410    140.8113   8.9986337095e+01   3.3810854902e+01    0.6410036    0.4027201 -19.76  0.002359201    2.907    0.656
        23 -13.3173     28.1341    203.4706   1.1667196315e+02   2.7978770904e+01    0.5065618    0.4771229 -64.98 0.0009532684    1.348    0.258
        24 -12.3621     83.9778    140.3644   9.3698080238e+01   3.6159824924e+01    0.3249725    0.2673036 -55.21 0.0004806509    1.173    0.147
        25  -8.9175    145.2762    141.6841   7.7473555536e+01   2.4293430525e+01    0.1538825    0.1224572 -88.00  0.000335771    1.567    0.362
        26 -12.4004     69.8034    131.0412   9.6061281713e+01   4.0686689375e+01    0.9220406    0.5464138 -89.01   0.00359053    2.601    0.616
        27 -10.8624    106.9710    130.8333   8.5050978024e+01   3.4482098998e+01    0.4464229    0.3778438  35.16  0.001445616    1.238    0.192
        28 -13.5046     60.2946    157.9773   1.0352732963e+02   3.5191707431e+01    0.5755616    0.3878587 -37.19  0.001631894    1.862    0.463
        29  -8.9598     82.4906    129.4534   9.1888231455e+01   3.9126200144e+01    0.1497629    0.1409692 -81.63 0.0001279042    1.043    0.041
        30 -10.5843     94.7531    127.0741   8.7713601157e+01   3.7630350360e+01    0.2995995    0.2672653 -30.07 0.0005157689    1.212    0.175
        31  -9.7635    105.6315    119.4064   8.2731760299e+01   3.7470477154e+01    0.2326741    0.2168309 -16.06 0.0003001598    1.167    0.143
        32 -11.8419     33.1463    157.1202   1.1086851293e+02   3.8615442296e+01    0.4935331    0.3546362  69.07   0.00274763    1.384    0.278
        33  -9.8355    234.0141    113.0000   5.3614995869e+01   1.1783051131e+01    0.2008111   0.07850293  53.39 0.0008020463    2.940    0.660
        34 -10.0011    205.2048    110.5744   5.7638949680e+01   1.7980836791e+01    0.3025297    0.2484104  36.60  0.001105261    1.426    0.298
        35 -10.8995     53.3003     91.5942   9.2709376662e+01   5.2525926920e+01    0.4644267    0.1820552 -57.42  0.001795313    2.435    0.589
        36 -10.0624     41.5427     92.1540   9.7128612165e+01   5.3802346910e+01    0.2154068    0.1897407  12.53 0.0004185868    1.241    0.194
        37  -9.2777    161.4232     82.7978   5.8919825720e+01   3.3015997219e+01    0.2029436    0.1452493 -29.03 0.0006352667    1.593    0.372
        38 -10.8409     13.4433     60.2020   1.0054222057e+02   6.3388417264e+01     0.219276    0.1871997 -37.91 0.0004410818    1.053    0.050
        39 -10.9653    192.7534    194.3933   7.7799759700e+01   4.2789462387e+00    0.6374189    0.3335421 -63.97  0.002030628    5.057    0.802
        40 -12.9199     57.4771    240.5857   1.1349468745e+02   1.6455815806e+01    0.5819731    0.3679796  54.99 0.0008119887    1.307    0.235
        41 -13.7905     11.3867    232.7003   1.2203819755e+02   2.3374530833e+01    0.9451279    0.4947904  88.42  0.003257433    1.668    0.400
        42 -12.5170    220.8391     30.3698   3.7134226607e+01   2.7307196792e+01    0.5230789    0.3870055  49.22  0.001205723    1.766    0.434
        43  -9.8776     32.3850     54.6807   9.0547535193e+01   6.2841251522e+01    0.1845114    0.1808125 -22.74  0.001088921    1.254    0.203
        44 -11.2094     12.7240     53.2489   9.8984312661e+01   6.4862661949e+01    0.3704717    0.1673944  28.45  0.001900774    2.448    0.591
        45  -9.5016     13.6724     43.6888   9.5669366645e+01   6.6662145980e+01    0.1279036    0.0721456 -27.53 0.0005115544    1.664    0.399
        46 -10.4081    130.9994     38.3452   5.2231200498e+01   4.7362446874e+01    0.2907519    0.2210808 -83.84  0.000413631    1.561    0.359
        47  -8.8820    131.4411     30.6134   4.9672495592e+01   4.8241521903e+01    0.1346973    0.1195884  65.04 7.919575e-05    1.022    0.022
        48  -9.7896    189.4965     15.0832   3.6771368400e+01   3.6179190255e+01    0.1986267    0.1517244  84.04   0.00086404    1.130    0.115
        49 -11.1857    178.0687    222.7046   8.5746310781e+01   1.6081358115e+00    0.3000542    0.1890063 -40.68 0.0005350712    1.686    0.407
        50 -14.9012     39.5195    249.1377   1.1765843231e+02   1.6978508506e+01     4.120781    0.9553913  29.69   0.01227111    7.030    0.858
