#   1 NUMBER                 Running object number                                     
#   2 MAG_AUTO               Kron-like elliptical aperture magnitude                    [mag]
#   3 X_IMAGE                Object position along x                                    [pixel]
#   4 Y_IMAGE                Object position along y                                    [pixel]
#   5 X_WORLD                Barycenter position along world x axis                     [deg]
#   6 Y_WORLD                Barycenter position along world y axis                     [deg]
#   7 A_WORLD                Profile RMS along major axis (world units)                 [deg]
#   8 B_WORLD                Profile RMS along minor axis (world units)                 [deg]
#   9 THETA_WORLD            Position angle (CCW/world-x)                               [deg]
#  10 FWHM_WORLD             FWHM assuming a gaussian core                              [deg]
#  11 ELONGATION             A_IMAGE/B_IMAGE                                           
#  12 ELLIPTICITY            1 - B_IMAGE/A_IMAGE                                       
         1 -12.7112      2.1094     82.7670   1.1094828223e+02   5.8639903168e+01     1.920414          nan -66.39  0.003963502   10.709    0.907
         2 -14.0389    221.4448     32.2530   3.7762227208e+01   2.6548306382e+01     1.580601     1.029328  35.62   0.00814449    2.457    0.593
         3 -13.4115    246.2335     10.3359   3.1127460476e+01   2.3935210467e+01    0.6929798    0.4463547 -58.53  0.002749116    1.258    0.205
         4 -12.0311      3.1274      5.6944   8.7147219880e+01   7.3440858734e+01    0.6276708    0.3081152 -34.00  0.003858246    1.646    0.392
         5 -14.0831     28.7258    199.8479   1.1741103524e+02   2.8745559301e+01     1.621628    0.7941936  57.94  0.006926403    1.957    0.489
         6 -14.4341     72.6758    247.3676   1.1238966852e+02   1.3535172321e+01      5.58628    0.9470835  32.67     0.013945    8.431    0.881
         7 -14.5053     97.7427    228.7329   1.0528849754e+02   1.3629384848e+01     5.616457    0.9926187  40.05   0.01771422    4.175    0.760
         8  -9.8904     60.0297    232.3580   1.1359142040e+02   1.8113449743e+01    0.2220249    0.1593605  83.40 0.0008184264    1.339    0.253
         9 -11.8536    167.2242    223.8637   8.9693417248e+01   3.5695622135e+00    0.4616665    0.3883934 -83.06  0.002688287    1.750    0.429
        10 -10.3808     32.8487    222.3346   1.1830325012e+02   2.3418675643e+01    0.1990938     0.118951  55.76   0.00118316    1.427    0.299
        11 -10.7408     43.5616    218.2898   1.1577888057e+02   2.3057591365e+01    0.2689106    0.2040424  78.73 0.0008450818    1.144    0.126
        12 -11.2039     23.0659    224.0329   1.2037078109e+02   2.4110442694e+01    0.3311472    0.1662684  67.86  0.001792387    1.838    0.456
        13 -12.8562     20.0253    207.8632   1.1988205972e+02   2.7855700399e+01    0.4013029    0.3412618 -45.49 0.0007929498    1.586    0.370
        14  -9.6168     49.1549    237.0661   1.1616935641e+02   1.8520785750e+01    0.2103904    0.1520362   1.88  0.001185724    2.502    0.600
        15  -8.6428    226.7276    206.3010   7.4825795118e+01  -2.8518650799e+00    0.1080378    0.1027677 -51.80 0.0002012116    1.532    0.347
        16  -9.2518    191.6744    192.3529   7.9007049929e+01   5.1201193709e+00    0.1327031    0.1139787  86.38 0.0007047382    1.763    0.433
        17  -8.7233     56.3120    192.7096   1.1042722694e+02   2.7211626282e+01    0.1377159   0.08824891  65.96 0.0003925177    1.586    0.370
        18 -11.7426     50.9984    180.4874   1.1029009865e+02   3.0743625931e+01    0.4608817     0.307185 -27.61  0.001546633    2.335    0.572
        19 -11.5553     57.8585    174.2415   1.0778938245e+02   3.1396855034e+01    0.2903388    0.2540781 -36.63 0.0005980897    1.365    0.268
        20 -10.3317     90.9529    167.5098   9.8168095447e+01   2.8303058732e+01    0.3421589    0.1233273  41.22  0.001214408    2.681    0.627
        21 -11.1068     69.2713    164.2087   1.0337751554e+02   3.2334724896e+01     0.277575    0.2498328 -49.05 0.0004159879    1.184    0.156
        22 -13.2095     55.2784    160.7421   1.0660838439e+02   3.5024602677e+01    0.5288011    0.3309765 -40.61  0.001574861    1.909    0.476
        23 -12.4430     76.7604    157.1583   1.0020622724e+02   3.3006000698e+01    0.8678144    0.5979456  63.09  0.001347716    1.658    0.397
        24 -13.0917     68.1937    144.3024   1.0036702206e+02   3.7425192805e+01    0.9718742    0.6665972  83.02  0.002854291    1.830    0.454
        25 -13.5746     57.2132    122.7012   9.9602072893e+01   4.4259485020e+01     1.578863    0.8543072 -69.51  0.002040063    1.984    0.496
        26  -8.6333    151.2749    150.6841   7.9354753234e+01   2.1175514066e+01    0.1495438    0.1233723 -88.04 0.0002375648    1.565    0.361
        27 -10.0073     92.9397    143.6666   9.3168241079e+01   3.3801296419e+01    0.2863923    0.2662482 -11.37 0.0007369965    1.185    0.156
        28  -9.3395     96.4617    140.3621   9.1485837860e+01   3.4014886283e+01    0.3469652    0.2111991 -24.73  0.001315367    2.590    0.614
        29 -11.9864     80.8593    141.9503   9.6274030238e+01   3.6159542221e+01    0.3147973    0.2642743 -56.57 0.0004311993    1.132    0.117
        30 -13.7080     10.3942    206.6284   1.2178124115e+02   2.9042360636e+01    0.8354657    0.6992337  33.96  0.003356612    1.452    0.311
        31 -10.4449    106.1736    131.3338   8.6732692256e+01   3.4471327086e+01    0.3627317    0.3261104 -25.06  0.001082877    1.173    0.147
        32  -9.8647     93.4480    127.8973   8.9623462106e+01   3.7561993295e+01    0.2920136     0.231136  -7.74  0.001153403    1.581    0.368
        33  -9.6213    114.4834    125.0143   8.2890793969e+01   3.4391166339e+01    0.3210737    0.1998299  -0.70  0.001043878    3.513    0.715
        34  -9.6150    104.4942    120.0050   8.4510215271e+01   3.7465586095e+01    0.2119107     0.204455  22.37  5.22614e-05    1.063    0.059
        35  -9.5844    204.8306    110.7412   5.8581505036e+01   1.7983701837e+01    0.3406021    0.1798537  37.81   0.00138003    2.391    0.582
        36 -11.9929     34.8395    158.7596   1.1179807638e+02   3.7819462369e+01    0.7057229    0.3271529  74.90  0.002638271    3.374    0.704
        37 -15.3270      7.2462    238.9677   1.2418792691e+02   2.2692413681e+01     13.61724    0.9477052 -77.00   0.03156047   13.064    0.923
        38  -9.4092    163.2310     83.0175   5.9453434575e+01   3.2449493435e+01    0.2040972    0.1238481 -37.87 0.0004580583    1.647    0.393
        39  -9.0127     24.9300     82.7085   1.0229067532e+02   5.7162628206e+01     0.168977    0.1519827 -32.94 0.0003799465    1.100    0.091
        40 -10.5696     13.2634     60.2225   1.0155675914e+02   6.2937531878e+01    0.2217532    0.1682506 -47.82 0.0005599337    1.103    0.094
        41 -11.9615    202.6291     47.5502   4.3492759343e+01   2.8763218699e+01    0.7810835    0.3809729 -49.22  0.003538333    2.001    0.500
        42  -9.6751     21.0546     48.9081   9.4778778665e+01   6.4629546952e+01    0.1870086    0.1515863 -27.65 0.0006240925    1.021    0.020
        43 -14.6969     36.0519    193.1111   1.1517782856e+02   2.9496468902e+01     5.532401     1.970179  68.47   0.01533158    6.628    0.849
        44  -8.3068     80.7174     86.7140   8.3001579804e+01   4.9248656609e+01    0.1446574    0.1089597 -13.64 0.0002033499    1.522    0.343
        45 -11.0543      1.8846     19.2871   9.3914984765e+01   7.1412986641e+01     0.273476    0.1456619 -55.81  0.001574585    2.134    0.531
        46 -10.6319     19.7014    238.2707   1.2188583094e+02   2.1586113458e+01    0.2612617    0.1717578  60.74 0.0009391396    1.196    0.164
        47 -10.0624    189.5009     15.0263   3.7036660809e+01   3.5776364107e+01      0.17878    0.1224197 -34.60 0.0008682481    1.560    0.359
