#   1 NUMBER                 Running object number                                     
#   2 MAG_AUTO               Kron-like elliptical aperture magnitude                    [mag]
#   3 X_IMAGE                Object position along x                                    [pixel]
#   4 Y_IMAGE                Object position along y                                    [pixel]
#   5 X_WORLD                Barycenter position along world x axis                     [deg]
#   6 Y_WORLD                Barycenter position along world y axis                     [deg]
#   7 A_WORLD                Profile RMS along major axis (world units)                 [deg]
#   8 B_WORLD                Profile RMS along minor axis (world units)                 [deg]
#   9 THETA_WORLD            Position angle (CCW/world-x)                               [deg]
#  10 FWHM_WORLD             FWHM assuming a gaussian core                              [deg]
#  11 ELONGATION             A_IMAGE/B_IMAGE                                           
#  12 ELLIPTICITY            1 - B_IMAGE/A_IMAGE                                       
         1 -11.1069     23.9692     31.7900   9.6669235635e+01   6.7391423248e+01     1.485952    0.4035839 -40.15  0.004098739    3.101    0.678
         2 -10.3805     10.3250     18.9191   9.8490085002e+01   7.0753286163e+01       1.2828    0.4452771 -22.12  0.004118055    6.477    0.846
         3 -10.7562     37.3344      9.2325   8.0253384158e+01   6.9574060383e+01    0.8896176    0.3362025 -42.19  0.002423094    2.984    0.665
         4 -10.4632     27.5757     11.4727   8.6158243684e+01   7.0414201889e+01    0.8080072    0.3835796  30.85  0.003144118    2.222    0.550
         5 -10.2268     18.2466      5.3720   8.8028104454e+01   7.2265391915e+01    0.5857479    0.3705778 -48.03  0.003003211    1.976    0.494
         6  -9.3321      2.3609     14.3190   1.0094754436e+02   7.2061963158e+01    0.3814515    0.1903783 -61.18  0.001649741    2.459    0.593
         7 -10.5144      5.0267      4.5959   9.5154713466e+01   7.3490407675e+01     0.476432    0.3422808  -3.01  0.001517857    1.282    0.220
         8 -10.1073      7.3750     28.2125   1.0345857298e+02   6.9270791424e+01    0.3198465    0.2649241  37.49   0.00103125    1.705    0.414
         9 -10.2031     69.5003     40.6620   8.0782849004e+01   6.0136729790e+01    0.9482254    0.3679014 -39.18  0.003141861    2.419    0.587
        10  -9.8420     79.1136     24.1538   7.0445208737e+01   6.0963438384e+01    0.6281111    0.3042046  26.68  0.001878397    2.644    0.622
        11  -9.7257    101.1074     32.8987   6.7120044565e+01   5.5374904156e+01    0.5024137    0.2410006 -27.32  0.001407169    2.174    0.540
        12 -10.2042     62.6286      3.5980   6.6702937561e+01   6.6388655959e+01    0.5022753    0.3831371   7.19  0.002625786    1.119    0.106
        13  -9.8902     60.8248     31.7202   8.0468122592e+01   6.2968314320e+01    0.9557241    0.3496391 -31.46  0.003014834    2.923    0.658
        14  -9.6021     63.2919     21.4327   7.4991899344e+01   6.4109158659e+01    0.4686181    0.2679574 -46.94  0.001612171    2.390    0.582
        15 -10.1386     64.3848     13.3014   7.0792904789e+01   6.4986842707e+01     0.414326    0.2690048 -17.45   0.00187193    1.455    0.313
        16  -9.8270     51.8097     13.9951   7.6142323289e+01   6.6918943671e+01    0.6790923    0.3709309  11.83  0.003297701    2.342    0.573
        17  -8.5922     46.5095     20.4734   8.1488306406e+01   6.6764501593e+01    0.4060695    0.1668872 -29.51  0.001827572    2.433    0.589
        18 -10.0821     46.2518     29.5521   8.5604072452e+01   6.5373575076e+01    0.4831091     0.258948 -47.62  0.001542717    2.043    0.511
        19  -8.8294     89.4425      2.9018   5.7797397691e+01   6.1275367439e+01    0.3592556    0.2871445 -65.11  0.001814538    1.853    0.460
        20  -9.7056     91.6319     25.1562   6.6814432308e+01   5.8387063904e+01    0.7949341    0.2733137 -32.04  0.002493822    2.872    0.652
        21  -9.2969     96.3270     14.8886   6.1106009956e+01   5.8630932307e+01    0.6758627    0.2870312 -13.37  0.002479941    3.237    0.691
        22  -8.6832    104.1877      2.3276   5.3803358200e+01   5.8115628934e+01    0.3793538    0.2025496  27.53  0.001793697    2.037    0.509
        23  -8.6174    101.8051      7.9603   5.6730625462e+01   5.8143462701e+01    0.3302134    0.1902087 -36.05  0.000721051    1.966    0.491
        24  -8.3737     97.8615      6.2000   5.6992712099e+01   5.9174603468e+01    0.3133779    0.1715595  27.19 0.0009705153    1.958    0.489
        25  -8.2125     95.7256      2.9654   5.6152411765e+01   5.9929666112e+01    0.2853733    0.2226522  33.97 0.0008129692    1.104    0.094
        26  -8.5406    112.4389     15.7589   5.7283251141e+01   5.4961489298e+01    0.2465839    0.2010872 -47.79 0.0006722231    1.469    0.319
        27  -8.2758    111.5116     21.1413   5.9633982739e+01   5.4578209427e+01    0.4294107    0.1333465 -26.69  0.001277347    3.366    0.703
        28  -9.5246    124.4243      4.5560   5.0362018042e+01   5.3210942811e+01    0.6201552     0.438089  18.68  0.002682611    1.550    0.355
        29  -9.7400    119.2044     20.0969   5.7366215740e+01   5.2916688033e+01    0.6971728    0.3701718  -6.18  0.001300905    2.594    0.614
        30  -8.8453    125.4752     13.0680   5.3330864352e+01   5.2167712332e+01    0.2876737    0.2354783   3.21  0.000813142    1.309    0.236
        31  -8.6718    126.5217      9.4885   5.1786421612e+01   5.2261703877e+01    0.2690223    0.1673233  35.53 0.0005183485    1.619    0.383
        32  -9.4039    102.9964     20.8700   6.1753002594e+01   5.6512263451e+01    0.4876249    0.1919585 -26.66  0.001392118    2.634    0.620
        33  -8.8937     72.2961      8.0553   6.5454107279e+01   6.4174450211e+01    0.2598135    0.1679394  -7.88 0.0005181234    1.539    0.350
        34  -9.3882     73.6054     19.5412   7.0318745779e+01   6.2581632085e+01    0.3559121    0.2113933 -34.11  0.001085629    1.724    0.420
        35  -9.3040     73.8583     13.0245   6.7252578522e+01   6.3331107213e+01    0.4739972    0.2263163  -8.22  0.001929417    3.062    0.673
        36  -8.0926    155.3784     18.1525   4.9551272072e+01   4.4212487070e+01    0.1898574    0.1238831 -39.72 0.0004838482    1.628    0.386
        37  -9.6431     85.3445     13.2722   6.3625481988e+01   6.1084056469e+01    0.4382089    0.2571713 -48.04  0.001590248    2.520    0.603
        38  -9.5948     78.0081      4.5815   6.1937488886e+01   6.3438876768e+01    0.5239282    0.3025976  -6.17  0.001882726    1.864    0.464
        39  -9.5064    133.4744     11.5008   5.1165848990e+01   5.0376489224e+01    0.3712101    0.1906617 -46.43  0.001615641    2.392    0.582
        40  -7.9539     80.3242     12.4111   6.4819027657e+01   6.2171994466e+01    0.2171055    0.1390012 -40.57  0.001146938    1.907    0.476
        41  -8.5121    141.3161     11.7110   4.9800191396e+01   4.8415249615e+01    0.3084847    0.2180963 -53.17  0.001310762    1.650    0.394
        42  -8.1466    137.4485      9.7252   4.9798898646e+01   4.9566315731e+01     0.229568    0.1837678 -12.02 0.0008144506    1.387    0.279
        43  -8.9946    114.0732     10.0642   5.4654611373e+01   5.5158327377e+01    0.3013871    0.2038527  29.81 0.0003347519    1.473    0.321
        44  -8.2982    110.2000      7.7983   5.4639137695e+01   5.6265896260e+01    0.2159922    0.1763263 -26.63 0.0005870168    1.347    0.257
        45  -8.7828    110.8584      4.3849   5.3119641482e+01   5.6420928596e+01    0.2809403    0.2268975 -46.74  0.001429389    1.501    0.334
        46  -8.1838     84.8112      6.4928   6.0740232092e+01   6.1896708192e+01    0.2590223    0.1356482  20.89  0.001181845    2.272    0.560
        47  -8.2785    143.1574      5.2147   4.7256191038e+01   4.8558227038e+01    0.2559228    0.1517999 -51.85 0.0008018013    2.035    0.509
        48  -9.1048    132.1859      5.3427   4.9191804221e+01   5.1259984418e+01    0.5402084    0.2619628  41.26  0.001727438    2.045    0.511
        49  -7.9392    136.4664      1.4850   4.7073301925e+01   5.0535491646e+01    0.2320586    0.1174089  64.51 8.717043e-05    1.724    0.420
        50  -8.0242    153.4430      4.7035   4.5487482803e+01   4.6021554502e+01    0.2028808    0.1216354 -35.42 0.0006865826    1.790    0.441
        51  -8.8490    115.1357      4.0495   5.2056317378e+01   5.5457080164e+01    0.2878968     0.178212 -23.73  0.001290777    1.745    0.427
        52  -7.8955    239.0537      1.3674   3.5716603767e+01   2.5428024230e+01    0.1729551    0.1052747  80.62            0    1.525    0.344
        53  -8.4712    126.6221    129.3114   8.9830268239e+01   3.0969407822e+01    0.3691527    0.1826197 -41.41  0.001386562    2.157    0.536
        54 -10.4761    200.2295    249.9443   9.5999877201e+01  -4.7406251224e+00    0.5752705    0.1508548  41.25  0.002312292    3.160    0.684
        55 -10.9577    161.0681    247.5986   1.0286910511e+02   1.6461597300e+00    0.4112689    0.3763737 -83.80  0.002984191    1.425    0.298
        56  -9.0832    126.4889     83.0760   7.7399928265e+01   4.1135550691e+01    0.4988601    0.3520605  20.64  0.001949885    1.817    0.450
        57  -9.8035    138.7505     92.1662   7.6872478152e+01   3.6523027399e+01    0.7723765    0.4080134 -41.15  0.001933918    1.870    0.465
        58 -10.1772    116.9291    124.8603   9.1349675785e+01   3.3913206655e+01    0.8915001    0.5507429 -72.36  0.002233513    2.326    0.570
        59 -10.5292    131.8333    119.7430   8.6150943237e+01   3.2069447296e+01    0.8999084     0.576591  81.22  0.002441466    3.010    0.668
        60 -11.3656    133.2698    109.1854   8.3044928975e+01   3.4111804211e+01     1.683739    0.5846285 -48.77  0.005242349    2.993    0.666
        61 -10.3702    139.4583    103.7537   7.9969557350e+01   3.3930684816e+01    0.8333172    0.4931496 -42.12  0.001932677    1.670    0.401
        62 -10.4665    109.0825    112.9423   9.0615959547e+01   3.8187962072e+01     1.240875     0.503451 -52.38  0.002094606    2.460    0.594
        63 -10.5631    108.8980     99.8504   8.7239673919e+01   4.1211492670e+01     1.064898    0.6386927  64.52  0.003248965    2.606    0.616
        64  -9.3893    140.6038     82.1624   7.3428920786e+01   3.8102065567e+01    0.6635969    0.3512924 -32.15  0.001382483    2.069    0.517
        65  -8.7602    140.0433     75.6476   7.1567631663e+01   3.9484359138e+01    0.4912918    0.2120808 -40.15  0.001679032    2.290    0.563
        66 -11.2031    121.1207    110.6047   8.6672386915e+01   3.6348697532e+01     1.281763    0.6730058 -51.52  0.003093124    1.926    0.481
        67  -9.6696    127.6803    102.3907   8.2687581288e+01   3.6802563633e+01    0.4511617    0.3325248 -44.20 0.0006891727    1.328    0.247
        68  -9.7978     41.7774    122.3745   1.1221203776e+02   4.5773698542e+01    0.7260273    0.3444385  88.25  0.002491994    3.576    0.720
        69  -9.9413     27.3557    122.9326   1.1639077963e+02   4.7000387508e+01    0.5425026    0.2759907  71.40  0.002199456    2.661    0.624
        70  -9.4060    148.3169    121.1344   8.2332021585e+01   2.8211631906e+01    0.2951288    0.2612861 -39.99 0.0003302264    1.126    0.112
        71  -8.0733    157.9619    121.7718   8.0169964231e+01   2.5931690859e+01     0.254036    0.1858892  80.04  0.001024111    1.947    0.486
        72  -7.5261     10.3148    121.3553   1.2090962357e+02   4.8680775880e+01    0.1278262   0.07203143 -50.19 0.0001471383    1.741    0.426
        73 -10.0088    140.6533    118.3346   8.3530192089e+01   3.0499323782e+01    0.4844326    0.3511478 -77.62  0.001177845    1.925    0.481
        74  -8.4299     99.6484    119.1818   9.4797220032e+01   3.8457486707e+01    0.3485139    0.2204265 -15.28  0.001270872    3.072    0.675
        75  -9.6845    204.6914    118.1872   6.9285592040e+01   1.6060019571e+01    0.2659827    0.2513493  47.74 0.0003301226    1.117    0.104
        76  -7.3799    249.3241    118.3194   6.1700313101e+01   6.6836391979e+00    0.1400607    0.1029888   2.69 0.0004709989    1.675    0.403
        77 -10.1878     91.7914    113.0100   9.5614897137e+01   4.1277637591e+01    0.6024111    0.4085423 -74.46  0.001530671    1.813    0.448
        78  -8.8964     92.8803    103.5853   9.2969379360e+01   4.3303251941e+01    0.6788695    0.4298581  12.12  0.002728014    2.564    0.610
        79  -8.3075      1.4277    116.5315   1.2281008884e+02   5.0358524333e+01    0.3189384   0.09762229 -78.83  0.001158237    2.863    0.651
        80  -9.0725     19.7120    116.0221   1.1762316888e+02   4.9263702072e+01    0.2624753    0.1608064  -1.73  0.001405959    2.490    0.598
        81  -7.7778    209.6630    114.9234   6.7544594213e+01   1.5551889954e+01    0.2103991    0.1843485 -28.97  0.000403258    1.088    0.081
        82 -10.2544     78.2953    113.0079   9.9619766758e+01   4.3434190828e+01    0.5624158    0.3537162 -83.42  0.001771639    2.290    0.563
        83  -7.7336     77.7413    105.8248   9.8137517535e+01   4.5230010990e+01    0.3383776     0.224419 -19.12  0.001484177    2.232    0.552
        84  -9.5710     81.5955    100.3549   9.5607579748e+01   4.5920891198e+01    0.7614648    0.2800076 -54.90  0.002463717    2.604    0.616
        85 -10.4650     65.5894    109.7103   1.0275356939e+02   4.6032200473e+01     1.012163    0.6215532 -69.50  0.003245648    1.682    0.406
        86  -9.6655     59.1861    109.2560   1.0462902127e+02   4.6968521680e+01    0.7433785    0.3069532 -48.52  0.002273253    2.237    0.553
        87 -10.5150     63.0144     95.7619   1.0041244472e+02   4.9684224551e+01    0.7557868    0.4658731  87.24  0.001531566    2.972    0.663
        88  -9.0952     64.1426     86.6019   9.7742650356e+01   5.1650136538e+01    0.8211175    0.4575777  -5.64  0.002833263    4.189    0.761
        89  -7.4126    167.4021    114.2181   7.6040569952e+01   2.5358891702e+01    0.2230409     0.145237 -52.01 0.0006348814    1.651    0.394
        90  -9.7558     14.1736    111.3807   1.1860670147e+02   5.0759518679e+01    0.4655333    0.2334675  85.56  0.001897397    2.345    0.574
        91  -8.1321     14.0282    105.2411   1.1781721572e+02   5.2210991300e+01    0.2168012    0.1328521 -60.23 0.0004569516    1.307    0.235
        92  -8.4476    158.9418    111.7836   7.7354327001e+01   2.7809422131e+01    0.2723174    0.2225719 -40.92 0.0004468072    1.211    0.174
        93  -9.0979    149.9698    110.6771   7.9212575584e+01   3.0089229735e+01    0.3756033    0.2107164 -58.36 0.0008605799    2.311    0.567
        94  -9.3982    140.8558    112.1227   8.1867343416e+01   3.1814640370e+01    0.4379486    0.2349235  36.93  0.001662512    2.086    0.521
        95  -9.3834     35.9823    111.1628   1.1209238972e+02   4.9043332709e+01    0.3111379    0.1840359  84.20  0.001493164    2.146    0.534
        96 -10.6474     25.5283     77.7895   1.0920107453e+02   5.7745442246e+01    0.9289924    0.4308783 -75.81  0.003994341    2.726    0.633
        97 -10.3155     32.0122     63.8496   1.0338613131e+02   6.0288437720e+01     1.050701    0.4129943 -38.90  0.003476645    2.505    0.601
        98 -10.0822     40.6361     55.5342   9.7521812041e+01   6.1198608702e+01    0.8807259    0.4811816 -32.12  0.002680697    1.817    0.450
        99 -10.9368     21.8783    102.5535   1.1501416690e+02   5.2285191105e+01      1.20954    0.5687921  81.50  0.003797711    3.784    0.736
       100 -10.1925     49.9824     53.8262   9.3216241455e+01   6.0481022654e+01    0.6954198    0.3369808 -56.02  0.002202589    2.275    0.561
       101  -9.4585     56.2100     43.5040   8.7034397494e+01   6.1633634229e+01    0.7163398    0.3815134  -4.68  0.002631891    3.903    0.744
       102  -8.7345     54.7786    109.1440   1.0596664696e+02   4.7531974663e+01    0.2679937    0.1574375 -46.88  0.001308443    1.612    0.380
       103 -10.0627     19.8026     86.1667   1.1288900605e+02   5.6256379088e+01    0.9757834    0.2401638 -56.74   0.00388701    2.678    0.627
       104 -10.8004     44.6824    102.3989   1.0779225845e+02   5.0275078853e+01     0.816587     0.444865  75.24  0.002848978    3.503    0.714
       105  -9.0607     40.0150    106.8318   1.1010073054e+02   4.9691650689e+01    0.2316241    0.1512322 -81.80 0.0003934008    1.599    0.375
       106  -9.4853      6.9415    104.2082   1.1980213865e+02   5.2897303167e+01    0.3912316    0.2076452  67.14  0.001472666    2.373    0.579
       107  -8.5007      1.6516    105.6893   1.2154321371e+02   5.2852344181e+01    0.2679822    0.1209725 -80.26  0.001361766    1.895    0.472
       108  -9.6237    149.4294    103.1838   7.7315391793e+01   3.1790842107e+01    0.4554093    0.2913829 -54.87 0.0009404686    1.751    0.429
       109  -8.4899    165.9700    103.4105   7.3484697740e+01   2.7885036452e+01    0.4170109    0.2085797 -42.11  0.001349718    1.966    0.491
       110  -8.1340     74.0412    102.6081   9.8522367894e+01   4.6541432324e+01    0.2890653    0.1833649 -51.59 0.0008666255    1.420    0.296
       111  -8.5459    159.0598    101.3587   7.4509234125e+01   2.9926676058e+01    0.2949085    0.2202378 -49.43 0.0005049909    1.368    0.269
       112  -9.4539     94.3965     97.2983   9.0858695465e+01   4.4483951630e+01     0.336514    0.2710857 -66.04 0.0006376489    1.339    0.253
       113  -8.8585     95.6826     91.4306   8.8845946932e+01   4.5575430046e+01     0.541439    0.3152083 -16.50  0.001820639    3.547    0.718
       114  -9.7029    241.1502     96.5188   5.7845999159e+01   1.1880073154e+01    0.3519665    0.2396218  32.26  0.001721187    1.865    0.464
       115  -9.1947    150.5287     94.5176   7.4615895873e+01   3.3316881137e+01    0.5364048    0.3562861 -48.42   0.00184728    1.545    0.353
       116  -8.8008    150.5306     89.1105   7.3054365556e+01   3.4397794697e+01     0.468925    0.2162167 -33.38  0.001567321    2.404    0.584
       117  -8.1685    171.3952     94.9474   6.9954157131e+01   2.8256559865e+01    0.3806413      0.15349 -29.25  0.001123942    3.431    0.709
       118  -8.4676    164.3940     94.0433   7.1246063661e+01   3.0116395491e+01    0.3928176    0.2449754 -39.55  0.001534595    1.581    0.368
       119  -8.5627    163.6642     87.4030   6.9517577638e+01   3.1574571714e+01    0.4363031    0.2576748 -56.82  0.000924739    2.128    0.530
       120  -9.9359     34.5481     90.6771   1.0876024190e+02   5.4027774951e+01    0.5876522    0.2698731 -78.07  0.001755427    3.067    0.674
       121  -9.7897     36.9474     80.9233   1.0580573969e+02   5.6054521745e+01    0.6642443    0.3270436 -24.20  0.002722817    3.221    0.689
       122 -10.4846      4.8957     85.8814   1.1786422738e+02   5.7230272639e+01     1.451036     0.337306 -65.30  0.004675186    2.807    0.644
       123 -10.4538     16.4358     66.2915   1.1005314854e+02   6.0952431001e+01     1.364653   0.07935257 -59.14  0.004152622    4.853    0.794
       124  -8.8501     40.9782     20.5792   8.4013575917e+01   6.7472358411e+01    0.2877684    0.1538748 -38.57  0.000114432    1.710    0.415
       125 -11.0907    190.5006    246.4525   9.7265217601e+01  -2.8054312487e+00    0.4983892    0.4516879  25.18  0.003665813    1.205    0.170
       126 -10.5456    174.2697    248.6367   1.0055665466e+02  -5.7447205357e-01    0.5365275    0.1889727  31.71  0.002155939    3.139    0.681
       127 -10.2890    112.9603    248.2024   1.1189807493e+02   9.0099638959e+00    0.2067445     0.187545  72.47 0.0002522566    1.202    0.168
       128  -7.8895    160.3706    128.1467   8.1193170857e+01   2.4045018677e+01    0.2340123    0.1439648 -53.31 0.0009530831    1.783    0.439
       129  -7.5027    230.3108    241.3257   8.9341101630e+01  -8.1290044612e+00    0.1216108    0.0740768   9.23 0.0003489398    1.659    0.397
       130 -10.7183    123.0480     92.3619   8.1111651670e+01   3.9956445557e+01    0.9465249    0.6543512 -40.68  0.002612653    1.419    0.295
       131  -7.1298    237.7156    236.7098   8.7309017480e+01  -8.6429965919e+00    0.1173595   0.07318515   8.81 0.0002699575    1.533    0.348
       132 -10.8453     21.8650     53.4957   1.0465332846e+02   6.3308795199e+01    0.7966599    0.4542734 -86.77   0.00291207    3.970    0.748
       133 -10.0853     13.2421     45.4931   1.0609886849e+02   6.5546677069e+01    0.6751793    0.3283755 -12.48  0.002712323    2.698    0.629
       134 -10.2547      4.9652     41.7149   1.0873809141e+02   6.6783029737e+01    0.7073606    0.2942739 -61.79  0.003001416    2.022    0.505
       135  -9.5873      6.8366     32.6666   1.0519217706e+02   6.8459853730e+01    0.2827043    0.1717165 -25.58  0.001013798    1.500    0.333
       136  -9.8432    187.7031    234.0031   9.5952735456e+01  -6.5422548155e-01    0.3573729    0.2069047 -31.56  0.001961161    2.080    0.519
       137  -9.5059    110.6454     90.0963   8.3972963904e+01   4.3014084055e+01    0.8078598    0.3670405  31.65  0.002718605    3.043    0.671
       138  -9.9594     81.8610     72.5803   8.7672335022e+01   5.2049623319e+01    0.4849296     0.340104 -76.63   0.00105457    2.341    0.573
       139 -10.1952     85.2810     86.4405   9.0703774474e+01   4.8492946053e+01    0.4439825    0.3388055 -74.31 0.0009255275    1.664    0.399
       140  -9.5436     87.3911     78.7008   8.7738580664e+01   4.9818489901e+01    0.5907084    0.3678818  14.05  0.001660644    2.394    0.582
       141  -6.9805     78.2859     89.6329   9.3857296708e+01   4.8906359626e+01    0.1439157    0.1124426 -87.20 0.0003680366    1.699    0.411
       142 -10.4846     48.1488     82.6420   1.0225292637e+02   5.4516113608e+01     1.012607    0.4184299 -53.70  0.002043099    1.995    0.499
       143  -9.2181     87.9045     56.2121   8.0132807376e+01   5.4212173682e+01    0.8532078    0.3729196 -33.61  0.003310947    2.417    0.586
       144  -9.9978     62.6036     60.8367   9.0697451123e+01   5.7422098865e+01    0.8177217    0.3145601  30.78  0.002796048    3.006    0.667
       145 -10.1580     73.6437     56.8003   8.5280631995e+01   5.6555623212e+01     1.262963    0.4853412 -33.83  0.002686583    3.082    0.676
       146 -10.3054     85.1334     47.9978   7.8052530441e+01   5.6184901437e+01    0.4733707    0.3883919  66.48  0.001029632    1.689    0.408
       147 -10.3304     89.9206     38.2957   7.2711282340e+01   5.6864393060e+01     1.065901    0.4071435  34.69  0.003726617    3.309    0.698
       148 -10.6013     55.2781     70.9069   9.6533914846e+01   5.6284795531e+01    0.6884642    0.4355242  59.80  0.001347883    2.629    0.620
       149  -9.0393     55.0992     63.1737   9.4265986418e+01   5.7945980404e+01       0.4818     0.311964  15.50  0.002502697    1.827    0.453
       150 -10.2685    103.9907     82.7870   8.3772818460e+01   4.5892029577e+01    0.5172212    0.3198118 -55.41 0.0007849921    1.806    0.446
       151  -9.7871    105.1445     71.4951   7.9868172046e+01   4.7974214130e+01    0.8434111    0.5246593 -26.55  0.003410405    1.836    0.455
       152  -8.2286    241.6795     84.6753   5.4948048518e+01   1.3669891541e+01    0.1382816    0.1084876   8.83 0.0007046405    1.679    0.404
       153  -8.7853    157.8302     83.2953   6.9636472351e+01   3.3771818448e+01    0.4590191    0.2217164 -37.44  0.001368564    2.065    0.516
       154  -8.8084    156.9972     75.8722   6.7611360136e+01   3.5354968984e+01    0.5380006     0.251361 -45.61  0.001164232    2.248    0.555
       155  -7.2203    170.5389     83.5516   6.6914642893e+01   3.0616619075e+01    0.1550899     0.150773 -68.89 8.091529e-05    1.038    0.036
       156  -7.4401     63.6844     82.2921   9.6748421388e+01   5.2685965422e+01    0.1317039     0.108214  82.17 0.0003662189    1.597    0.374
       157  -8.7066    149.9001     80.4035   7.0622409077e+01   3.6236023310e+01    0.3980998    0.2122192 -40.78  0.001318853    1.858    0.462
       158  -9.0423    118.9037     80.4692   7.8698270355e+01   4.3315628193e+01    0.3387095    0.2617428 -68.88 0.0007064765    1.650    0.394
       159  -7.9586    119.9624     76.0279   7.7007978725e+01   4.3974701935e+01    0.2960367    0.2001414 -12.27 0.0007439285    2.052    0.513
       160  -9.0496     74.1907     79.8353   9.2463935678e+01   5.1721267750e+01    0.5064533    0.2331563 -54.58  0.001187475    2.182    0.542
       161  -8.5208     68.6086     79.8062   9.4361193282e+01   5.2553324022e+01    0.2810797    0.1184103 -48.16  0.001132408    2.096    0.523
       162  -8.3332    166.2386     78.5756   6.6385033352e+01   3.2587101123e+01    0.2458867    0.1900179 -30.43   0.00078779    1.329    0.248
       163  -8.2567    184.4005     78.0621   6.2558130566e+01   2.8178226486e+01     0.249031    0.2146734  39.30 0.0006094281    1.230    0.187
       164  -7.6794    174.4656     78.4688   6.4634397591e+01   3.0569427852e+01    0.1540516    0.1499348 -67.00   7.9178e-05    1.025    0.024
       165  -9.0954    130.1695     57.4447   6.8154467144e+01   4.5067242769e+01    0.7030953    0.2400465 -36.20   0.00197167    2.915    0.657
       166  -9.5368    127.3967     75.2929   7.4734316771e+01   4.2472058958e+01    0.4140721    0.3111914 -61.18 0.0008188159    1.604    0.376
       167  -9.2575    129.6089     68.8007   7.2064413176e+01   4.3193469397e+01    0.5448509     0.292683  25.38  0.001805858    3.247    0.692
       168  -8.3036    130.4083     65.2208   7.0686121643e+01   4.3659237124e+01    0.3098672    0.2554171 -25.68 0.0008433339    1.237    0.192
       169  -9.3479    115.4725     72.1132   7.7025307643e+01   4.5708493062e+01    0.6125758    0.3002928 -34.07  0.001930447    2.163    0.538
       170  -7.5687    175.7241     73.1365   6.2837115676e+01   3.1193388005e+01    0.2657778    0.1606524 -71.37 0.0009457369    2.768    0.639
       171  -8.1976    162.7671     72.9474   6.5459205566e+01   3.4456491007e+01    0.2840388    0.2009738 -55.32 0.0007431454    1.578    0.366
       172  -8.9005    205.6672     70.4930   5.6735439672e+01   2.4220614742e+01    0.3639155    0.2687616 -23.85  0.001090511    1.469    0.319
       173  -7.9531    169.4194     71.2646   6.3558656626e+01   3.3093548974e+01    0.2174208    0.1405422 -46.49 0.0005979969    1.586    0.369
       174  -9.1789    147.0585     69.2980   6.7877432841e+01   3.8968837750e+01    0.3995176    0.2663058 -58.74 0.0008273119    1.868    0.465
       175  -7.9013    156.4931     70.0540   6.5953139924e+01   3.6521838034e+01     0.228884     0.151405 -37.39 0.0005262293    1.511    0.338
       176  -9.6841     94.8533     68.3844   8.2048147827e+01   5.0594456139e+01    0.4241664    0.2600095 -51.32 0.0007195423    1.769    0.435
       177  -9.4590     96.9789     57.7482   7.7730768703e+01   5.2209356154e+01    0.7856793     0.492533 -27.20  0.003615811    1.680    0.405
       178  -9.0665    121.1869     66.0168   7.3416386342e+01   4.5612909631e+01    0.4006376    0.2645116 -59.61 0.0005467702    2.025    0.506
       179  -8.2954    122.1897     61.0563   7.1477844376e+01   4.6281860065e+01    0.3223915    0.2431542   9.44  0.001070988    1.615    0.381
       180  -8.5156    170.5765     65.3772   6.1572085375e+01   3.3803398367e+01    0.3394928    0.1992719 -26.11  0.001276235    1.915    0.478
       181  -8.9746    138.0613     66.1871   6.9060154051e+01   4.1687311971e+01    0.3393762    0.2289708 -49.95  0.000560673    1.626    0.385
       182  -9.0698     82.9875     65.2444   8.4911219728e+01   5.3354202231e+01    0.6027756     0.342479 -13.75  0.002179764    3.286    0.696
       183  -9.4627    109.6956     63.8302   7.5955956001e+01   4.8506452024e+01    0.3963209    0.2841016 -52.83  0.000717755    1.592    0.372
       184  -9.1261    111.0490     58.1947   7.3620979225e+01   4.9239944801e+01    0.4154066    0.2860858  13.42  0.001264733    1.896    0.472
       185  -8.3823    157.6512     63.1790   6.3575083630e+01   3.7415884531e+01    0.2607386    0.2239971 -62.35 0.0007371093    1.261    0.207
       186  -7.7577    147.3370     63.6720   6.6031563427e+01   3.9884962536e+01    0.3209092    0.1665474  35.43  0.001163267    2.464    0.594
       187  -8.5250     10.5604     60.7920   1.1110823454e+02   6.2504923682e+01    0.3000245    0.2057871  80.64  0.001759959    2.059    0.514
       188  -7.6315    164.5547     60.4879   6.1301306434e+01   3.6126750488e+01    0.2322781    0.1795957 -72.57 0.0005557778    1.548    0.354
       189  -8.1313    165.5093     57.4834   6.0187705791e+01   3.6368210186e+01    0.2465777    0.1896856  24.57  0.001164426    1.555    0.357
       190  -7.9830    168.9713     55.9861   5.9052965494e+01   3.5726021550e+01    0.2113004    0.2084974 -64.11 0.0005779222    1.027    0.026
       191  -7.3835    152.5167     60.5115   6.3855890435e+01   3.9139690217e+01    0.1508716    0.1481279  86.18 5.972257e-05    1.039    0.038
       192  -8.1872    146.5184     59.0482   6.4734748069e+01   4.0864945345e+01    0.2747087    0.2013078 -49.01 0.0007625818    1.465    0.317
       193  -8.6965    147.6407     53.8170   6.2782142277e+01   4.1434968679e+01    0.5633749    0.2313052 -26.33  0.001888824    3.008    0.668
       194  -9.3541    149.7837     47.4448   6.0231938035e+01   4.1879841790e+01    0.5057819     0.206275 -32.26  0.001229129    2.503    0.601
       195  -9.2927    138.8849     56.7713   6.5775180119e+01   4.3102633654e+01    0.3437105    0.2066145 -39.69 0.0005023979    1.690    0.408
       196  -8.5546    141.9234     48.3924   6.2269474726e+01   4.3688677165e+01    0.3117428    0.2051933 -37.41 0.0005349239    1.554    0.357
       197  -8.2332    142.4853     44.5103   6.0837267443e+01   4.4129025117e+01     0.325742    0.1625348  44.60 0.0009610649    2.010    0.503
       198  -9.2348    117.9798     55.4206   7.0691505050e+01   4.8203511165e+01    0.4118195    0.2801517 -47.48 0.0007841251    1.619    0.382
       199  -9.3433    121.0364     47.3259   6.7006938319e+01   4.8831804371e+01    0.4617478     0.254691 -29.14 0.0007003973    1.894    0.472
       200  -8.7007    162.9582     52.8528   5.9261045356e+01   3.7738056168e+01     0.480303    0.2276492 -29.48  0.001838517    2.258    0.557
       201  -8.9292    105.6453     52.1973   7.3081447643e+01   5.1426101532e+01    0.5866329    0.2931761 -28.55  0.001781868    2.202    0.546
       202  -8.0770    172.1584     50.1337   5.6678412842e+01   3.5806595088e+01    0.2110121    0.1975985  30.04 0.0004023043    1.139    0.122
       203  -9.6902    130.5890     46.4765   6.4280744903e+01   4.6726913350e+01      1.01483    0.4255894 -21.64  0.001740103    3.521    0.716
       204  -8.4447    132.8436     35.8593   6.0013834348e+01   4.7708724136e+01    0.2190453    0.2119957 -20.24  0.000555084    1.087    0.080
       205 -10.8598    134.1037     30.9781   5.8001975639e+01   4.8041726231e+01    0.3807254    0.2769333   3.96            0    1.644    0.392
       206  -9.0189    155.9748     48.9771   5.9439710436e+01   4.0094042485e+01    0.3766958    0.2203163  68.79  0.001119012    1.925    0.480
       207  -7.5070    162.4715     46.4716   5.7358576594e+01   3.8816182536e+01    0.2605284    0.1253424 -43.03 0.0005010969    2.164    0.538
       208  -8.4062    111.9542     46.9462   6.9344532763e+01   5.0932793626e+01    0.2426783    0.2019814 -31.06 0.0004863233    1.211    0.174
       209  -8.7043    114.0610     41.7064   6.6833135357e+01   5.1273592657e+01    0.4841898     0.291657   1.65  0.001927995    2.604    0.616
       210  -8.0775    116.1169    233.8565   1.0974570223e+02   1.0945777698e+01    0.1825683    0.1387193  59.46 0.0003283159    1.170    0.146
       211  -9.0287     70.3047     26.9582   7.4794261227e+01   6.2151787681e+01     0.392241    0.2529151  19.14   0.00206901    1.641    0.391
       212  -9.9094     76.1323     32.1432   7.4891262869e+01   6.0370380095e+01    0.4557835    0.3577375  56.14  0.001051121    1.662    0.398
       213  -8.3536    225.1534    224.9861   8.7579729624e+01  -5.3365282785e+00    0.1811669     0.144089  13.86 0.0003733986    1.006    0.006
       214  -8.9229     84.6942     21.8789   6.7606552393e+01   6.0192592623e+01    0.2406631    0.2187865  -9.60 0.0006612478    1.150    0.130
       215  -8.9100     40.5202     34.9914   9.0332389909e+01   6.5141757373e+01     0.337169    0.2702519  21.04  0.001205419    1.355    0.262
       216  -9.9632     37.7979     42.1764   9.4221366496e+01   6.4126703934e+01    0.3588372    0.2893984 -87.90  0.001629405    2.124    0.529
       217 -10.2407     35.9096     37.9936   9.3518847100e+01   6.5106565142e+01    0.4529192    0.2204725 -37.55 0.0003564092    1.755    0.430
       218  -8.9868    110.3164     33.2148   6.4647968681e+01   5.3326269579e+01    0.3032391    0.2349816 -47.39 0.0007500043    1.513    0.339
       219  -9.0512    104.9457     41.0716   6.9165300587e+01   5.3365828194e+01    0.4008673     0.241676 -49.18 0.0008668937    2.077    0.519
       220  -8.5833    106.3504     36.1318   6.6871523823e+01   5.3791702171e+01    0.3837766    0.2057215  39.39  0.001341974    1.850    0.460
       221  -9.5404    153.6930     40.4608   5.7144812538e+01   4.1899528212e+01    0.5059074    0.2515827 -40.05  0.001371296    2.071    0.517
       222  -8.1403    123.1114     40.8320   6.4135781750e+01   4.9330905235e+01    0.3197086    0.1855578  22.26  0.001261761    2.477    0.596
       223  -8.7471    139.1909     39.9468   6.0012354772e+01   4.5594992450e+01    0.4062379     0.268577 -41.29  0.001431603    1.602    0.376
       224  -8.4623     53.7603     39.1003   8.6326517672e+01   6.2754060496e+01     0.187577    0.1597623 -37.16 0.0007502316    1.230    0.187
       225  -9.2176    144.1935     36.6433   5.7807263891e+01   4.4808336212e+01    0.2852181    0.2284717 -63.68 0.0006633358    1.458    0.314
       226  -8.7736    118.9848     34.6594   6.2917241557e+01   5.1159563395e+01    0.3353119    0.1961875 -32.69 0.0006932073    1.753    0.430
       227  -7.3348     55.8132    215.6808   1.1967517473e+02   2.2980295173e+01     0.174939   0.08045375 -83.12 0.0008604264    2.338    0.572
       228  -9.9414      9.7587    207.6700   1.2779732677e+02   2.9638610033e+01    0.4089738    0.2565465  25.49  0.002505049    2.239    0.553
       229  -9.1000    223.9584    207.3242   8.4706207915e+01  -2.7386206433e+00    0.2769381    0.2379413  73.04  0.001231363    1.961    0.490
       230  -9.7777    123.9974    205.9959   1.0459451767e+02   1.4800482254e+01    0.1886097    0.1655766  53.22            0    1.012    0.012
       231 -10.5225    243.4202    200.1325   7.9892181495e+01  -4.8303526116e+00    0.2483262    0.2329739  35.38 8.886888e-05    1.469    0.319
       232  -8.2932     45.5193     15.9366   7.9799088568e+01   6.7558020621e+01    0.2642066     0.131081 -31.56  0.001382199    1.818    0.450
       233  -8.7081    211.9905    201.9687   8.5962875302e+01   4.0834617815e-02    0.1927917    0.1662505  13.35 0.0003395493    1.026    0.026
       234  -8.1950    194.9940    199.2615   8.8762913441e+01   3.4295971291e+00    0.3034711    0.1878495 -57.96  0.001401975    2.532    0.605
       235  -8.2365    191.8391    193.9930   8.8424417240e+01   4.8706248635e+00    0.3151599    0.2184189 -64.00  0.001275516    2.302    0.566
       236  -8.2024     42.1793     27.9165   8.6703343958e+01   6.6155433925e+01    0.1917764    0.1474438 -15.72  0.000231434    1.088    0.081
       237  -7.7206    189.6762    190.3311   8.8176703760e+01   5.8901592660e+00    0.2072201    0.1746927 -59.12  0.001034026    1.510    0.338
       238  -7.0210    138.7197    198.7597   1.0036469566e+02   1.3660269854e+01    0.1245721     0.102679  14.15 0.0006796602    1.448    0.309
       239  -8.9366    213.0269    197.0779   8.4859795918e+01   6.1298450547e-01     0.195019    0.1681604  11.78 0.0003080755    1.011    0.011
       240  -8.5280    213.7032    192.4430   8.3854545512e+01   1.2177169509e+00    0.2122116    0.1909479   3.96 0.0004498858    1.080    0.074
       241 -10.1790    181.3208    188.2055   8.9488215306e+01   7.8138079576e+00    0.2442447    0.2375014   8.00 0.0003140774    1.109    0.099
       242  -8.5304    239.9616    187.9582   7.8167282834e+01  -2.5590554554e+00    0.2000544    0.1609451   2.67            0    1.071    0.066
       243  -8.4304    133.8744    188.0583   9.9695393866e+01   1.6651431080e+01    0.2031619    0.1844348  47.38 0.0004149049    1.031    0.030
       244  -9.7253    152.8651     28.3354   5.3325444987e+01   4.3686510283e+01    0.4244683    0.2174599 -15.11  0.001692284    2.576    0.612
       245  -8.6847      9.7114    188.5854   1.2669885400e+02   3.3566995179e+01    0.1788262    0.1084912  29.77  0.001130472    2.036    0.509
       246  -8.1637    110.6485     26.0577   6.1784098764e+01   5.4184996800e+01    0.3498358    0.1976722  26.93  0.001522436    2.130    0.530
       247  -7.1316    223.0102    187.7850   8.1203033707e+01   3.2333893032e-01    0.1616443    0.1003326  37.64 0.0008277981    1.541    0.351
       248  -8.9970    144.0350     25.5564   5.4060321221e+01   4.6245924041e+01     0.257132    0.1903225 -47.19 0.0006210756    1.493    0.330
       249  -8.4941    128.3147     25.7344   5.7395049414e+01   5.0094529093e+01    0.2763071    0.2131107 -67.16 0.0007405488    1.664    0.399
       250  -8.2485    149.6136     25.2193   5.2890520005e+01   4.4881768523e+01    0.1887881    0.1385559  -8.44 0.0005411566    1.597    0.374
       251  -9.2422    140.3445     22.5039   5.3726983748e+01   4.7520359854e+01     0.240812    0.1570402 -48.71 0.0006894231    1.774    0.436
       252  -7.8164     30.3144    187.6662   1.2247306261e+02   3.1777913780e+01    0.1290478    0.0702918  68.81 0.0007046248    1.686    0.407
       253  -9.3811     66.3922    183.3538   1.1425072155e+02   2.8439393713e+01    0.2196039    0.2003565  86.15 0.0008739587    1.144    0.126
       254  -8.5684    202.1158    172.2715   8.2110488484e+01   6.6937244735e+00    0.2262094    0.1961737 -37.99 0.0002686866    1.232    0.188
       255  -7.7163    188.1457    170.1359   8.4513303846e+01   9.7908657399e+00    0.1877369    0.1750091  74.39 0.0004995932    1.291    0.225
       256  -8.1047    230.2709    168.2436   7.5915735179e+01   2.1241861419e+00    0.2737137    0.1525851 -51.77  0.001166842    2.612    0.617
       257  -7.7448    105.4606     14.4957   5.8504393804e+01   5.6676676304e+01    0.2019891    0.1086702  44.84 9.630609e-05    1.654    0.395
       258  -8.6208    130.0234     21.4983   5.5478111751e+01   5.0173117777e+01    0.3470319    0.1799623  37.92  0.001484934    2.056    0.514
       259  -9.6645    132.7318     17.2883   5.3392470861e+01   4.9972229756e+01    0.5471641    0.2676218  66.59  0.002326531    2.073    0.518
       260  -7.6830    248.9861    168.4926   7.2694206080e+01  -1.1736000711e+00    0.1875938    0.1009115  19.66 0.0008098013    2.513    0.602
       261  -8.7257     66.9777    167.8861   1.1219547315e+02   3.1877793126e+01    0.1905878    0.1663628  85.57 0.0002801821    1.020    0.019
       262  -7.0591    111.7218    167.6505   1.0136766928e+02   2.4982239892e+01    0.1393493    0.1129834 -23.28 0.0003758924    1.641    0.391
       263  -7.3820    151.2675     20.6120   5.1059389588e+01   4.4987808659e+01    0.1458126     0.101124 -59.67 0.0006985773    1.706    0.414
       264  -7.5889    166.5072     18.4912   4.7898884194e+01   4.1336613172e+01    0.1400824     0.128035  68.90 -0.0001485689    1.019    0.019
       265  -7.3557    130.0257    164.9798   9.6500554427e+01   2.2251209602e+01     0.167786    0.1564791 -66.77 -0.002661949    1.098    0.089
       266  -7.4434     23.2987    157.3888   1.2136725422e+02   3.9243819530e+01    0.1245324    0.0779379 -51.63 0.0007013871    1.788    0.441
       267  -7.2740    189.4728     15.4873   4.3902091318e+01   3.5812703293e+01    0.1365225     0.123777  83.16 0.0001225547    1.033    0.032
       268  -8.1852    134.0000    147.9643   9.2125856991e+01   2.5261416108e+01    0.3836302    0.1766991 -57.76  0.001012517    2.580    0.612
       269  -8.0602    133.3145    144.3193   9.1512809645e+01   2.6216189773e+01    0.2912498    0.1464063 -46.14  0.001136479    2.019    0.505
       270  -7.0262    221.3147    148.3023   7.3246922552e+01   7.1430427300e+00    0.1464329    0.1064816   4.64 0.0002753786    1.616    0.381
       271  -9.1373    234.4752    146.5465   7.0495103029e+01   4.8954681453e+00    0.2477536     0.166411  20.71  0.001208883    1.743    0.426
       272  -8.9377     68.4996    145.5020   1.0855731980e+02   3.6971950848e+01    0.3021714    0.2295372 -83.98 0.0009486919    1.268    0.211
       273  -8.9424    157.5661     91.1205   7.1974133130e+01   3.2325949075e+01    0.4397035    0.1571061 -36.08  0.001359657    2.970    0.663
       274  -8.9089     65.5048    143.4844   1.0902593905e+02   3.7860659416e+01    0.2514321     0.215698 -87.31 0.0009522692    1.061    0.058
       275  -7.7502     96.8142     33.1904   6.8514688970e+01   5.6233609914e+01    0.1924314    0.1487956   8.28 0.0004708759    1.325    0.245
       276  -8.7534    112.3745    133.9388   9.4632610566e+01   3.2659395798e+01     0.394086    0.2667926  77.48  0.001049332    2.136    0.532
       277  -8.6364    136.0000    131.9984   8.8056664139e+01   2.8443681334e+01    0.5474498     0.190568 -48.89  0.001750298    2.899    0.655
       278  -9.4009    132.4927    131.9848   8.8943357724e+01   2.9169099368e+01    0.4048987    0.2997213  86.98  0.001403207    1.868    0.465
       279  -8.6788     83.4122    131.7476   1.0206848378e+02   3.8133448730e+01    0.6678768    0.3766658  76.14  0.002377532    3.353    0.702
       280 -10.2968     58.2148    124.4472   1.0783180152e+02   4.3412568862e+01    0.9132494    0.4723422  77.90   0.00313988    3.929    0.745
       281 -10.0950     71.1840    125.8129   1.0436194549e+02   4.1373032293e+01     0.561678    0.3734494 -88.59  0.001321004    1.846    0.458
       282  -9.5117     66.9959    128.4983   1.0605764596e+02   4.1295130983e+01    0.3210117    0.3119125  49.20  0.001442457    1.162    0.139
       283  -9.8870     98.4364    128.5095   9.7230737174e+01   3.6451363970e+01    0.6258848    0.3889289  76.93  0.002248735    2.686    0.628
