#   1 NUMBER                 Running object number                                     
#   2 MAG_AUTO               Kron-like elliptical aperture magnitude                    [mag]
#   3 X_IMAGE                Object position along x                                    [pixel]
#   4 Y_IMAGE                Object position along y                                    [pixel]
#   5 X_WORLD                Barycenter position along world x axis                     [deg]
#   6 Y_WORLD                Barycenter position along world y axis                     [deg]
#   7 A_WORLD                Profile RMS along major axis (world units)                 [deg]
#   8 B_WORLD                Profile RMS along minor axis (world units)                 [deg]
#   9 THETA_WORLD            Position angle (CCW/world-x)                               [deg]
#  10 FWHM_WORLD             FWHM assuming a gaussian core                              [deg]
#  11 ELONGATION             A_IMAGE/B_IMAGE                                           
#  12 ELLIPTICITY            1 - B_IMAGE/A_IMAGE                                       
         1 -13.3355    228.1026    100.6858   5.2468535466e+01   1.4935602750e+01     4.952108    0.8482962 -40.41   0.01376662    4.687    0.787
         2 -13.8648    179.7301     77.0733   5.4623575173e+01   2.9597342691e+01     7.744795    0.7155637 -40.93   0.01626763    7.594    0.868
         3 -13.3928    220.6498     67.9372   4.5999104108e+01   2.1775108252e+01     1.308533     1.165453   2.23  0.006360449    1.456    0.313
         4 -12.0406    249.5849     22.9681   3.3362420135e+01   2.1824169209e+01    0.9455591    0.2926295 -31.90  0.003755369    3.434    0.709
         5 -14.9113    236.8976     44.2843   3.8852503789e+01   2.1708344109e+01     8.712805     1.265625  61.42   0.02739689    5.531    0.819
         6 -14.6383    240.6318     85.9331   4.7461014901e+01   1.4852661816e+01     8.277937      1.50927 -40.13   0.02542114    4.185    0.761
         7 -10.7017    125.1533     31.6993   5.1961623996e+01   4.9330186286e+01    0.3156751    0.2269413 -21.60  0.000895364    1.550    0.355
         8 -10.4131    227.8120     15.6039   3.3567289385e+01   2.7143129502e+01    0.4578851    0.1731466 -30.49  0.001761989    2.847    0.649
         9  -9.5761    231.5647     17.3398   3.3627383079e+01   2.6154655501e+01    0.3231811    0.1665257 -26.32 0.0009922615    2.392    0.582
        10 -11.3284    233.2810      6.7315   3.1312477964e+01   2.6960364151e+01    0.4215184    0.2302698 -29.63  0.001514403    2.065    0.516
        11  -9.0182    214.7830     13.6182   3.4239802548e+01   3.0181999206e+01    0.3166484    0.2112356  26.40  0.001654083    2.688    0.628
        12  -9.9551    189.2541     14.2263   3.6865221084e+01   3.5917878693e+01    0.2458983    0.1885568 -55.45 0.0003975313    1.262    0.208
        13 -10.4373    135.3567     12.7683   4.3764089651e+01   4.8931373243e+01    0.2666307    0.2040437  58.93  0.001572067    1.135    0.119
        14  -8.3633    183.9580     10.7550   3.6570513304e+01   3.7512116255e+01    0.1725693    0.1384428  78.79 0.0003210746    1.095    0.086
        15  -9.7599    224.0287      7.6859   3.2195726540e+01   2.8808862867e+01     0.244198    0.1520909 -38.96  0.001044687    1.575    0.365
        16  -8.9921    192.8888      9.9178   3.5434216354e+01   3.5516886284e+01    0.2703795    0.1608499 -67.07 0.0009053164    1.697    0.411
        17 -10.0674    119.8207      4.8700   4.3897965762e+01   5.3282357385e+01    0.3377284    0.2226468 -31.39  0.001051087    1.723    0.420
        18 -10.3881    249.4554      3.5796   2.9621901766e+01   2.4027887761e+01    0.2041486    0.1774658  56.07  0.000874542    1.587    0.370
        19  -8.8141    183.4905      3.7455   3.4864541788e+01   3.8297769266e+01    0.6710787    0.1949321  81.74  0.002049488    5.087    0.803
        20  -8.0313    105.6854      1.6845   4.5515145107e+01   5.6767868612e+01    0.1347398   0.07877501  36.81 0.0007035703    1.644    0.392
        21 -10.7155      1.7579    177.4461   1.2167578165e+02   3.6295485749e+01    0.5972037    0.1767609 -75.85  0.002541887    2.730    0.634
        22  -9.5995      5.4941    173.5169   1.2053342135e+02   3.6912959853e+01    0.2187052    0.1316556 -79.40 0.0006466536    1.362    0.266
        23  -9.6212    235.9060    179.7700   6.8102188307e+01  -1.4219943159e-02    0.2284964    0.2166008  26.12 0.0005387106    1.316    0.240
        24  -7.9005    209.6552    180.3420   7.3049977593e+01   4.1891423163e+00    0.1314417    0.1130284 -83.19 0.0007046892    1.787    0.440
        25  -8.5358     45.1932    177.1217   1.1132965620e+02   3.2232824959e+01    0.1809096    0.1600708 -74.58 0.0003265418    1.113    0.102
        26 -10.9193     68.0475    144.2319   1.0039654110e+02   3.7463043621e+01     1.572286    0.9138388  22.05  0.005659212    2.130    0.530
        27 -13.3180     32.1437    159.9845   1.1265345518e+02   3.7790763098e+01     1.405887    0.9432605 -21.47  0.002056006    2.230    0.552
        28 -12.8979     43.5880    154.6309   1.0891558168e+02   3.7908390856e+01     1.022595    0.8847777 -44.38  0.002563283    1.271    0.213
        29 -10.6681    230.4656    167.6620   6.6623519875e+01   2.8817824699e+00    0.4956309    0.2161102 -45.62  0.001895758    2.400    0.583
        30  -8.4768    203.0157    244.3053   8.5814578079e+01  -5.0895138037e+00    0.1670094    0.1300495  18.83 0.0002902347    1.070    0.065
        31  -8.9580    202.1755    227.4953   8.3234559137e+01  -2.4770332379e+00    0.2118848    0.2021168 -86.41  0.001058315    1.608    0.378
        32  -8.7007    222.8117    145.0980   6.3219139034e+01   8.1665792526e+00    0.1990823    0.1757191 -48.01 0.0003505157    1.199    0.166
        33 -11.8086    187.1423     83.8927   5.5071609971e+01   2.6706472444e+01    0.8935587    0.5152322 -53.98 0.0004168884    1.906    0.475
        34  -8.8761    158.1944    143.0928   7.5986533046e+01   2.1417643698e+01    0.3408876    0.2210091  47.12  0.001339627    1.594    0.373
        35 -10.0303    155.3286    136.6450   7.5152700031e+01   2.3408737143e+01    0.3199876    0.2796591 -73.93  0.001603963    1.318    0.241
        36 -10.3589    221.9415    220.8013   7.8320897518e+01  -4.3601230096e+00     0.222478    0.1909954  -9.65 0.0003752587    1.152    0.132
        37 -12.1628    246.4380     54.6005   4.0082403829e+01   1.8365859714e+01     1.161044    0.3140667 -47.06  0.004266676    3.161    0.684
        38 -10.5687    225.5126    129.8629   5.9418301769e+01   1.0377657262e+01    0.4487802    0.2747464 -66.23  0.001434847    2.769    0.639
        39  -8.1779     93.1255    129.7743   9.0142533533e+01   3.7162452933e+01    0.2064847    0.1719381 -26.79 0.0006225016    1.318    0.241
        40 -10.3278    161.0186    128.0890   7.1755547360e+01   2.4031034194e+01    0.4287281    0.2921508 -53.39  0.001901374    1.564    0.361
        41 -10.1120    209.1991    126.6682   6.1528657703e+01   1.4148291633e+01    0.3053978    0.2309786 -11.85  0.001522455    1.571    0.363
        42  -9.8504    216.3110    124.9835   5.9887164151e+01   1.3035314997e+01    0.2695974    0.1925985 -58.27 0.0004713929    1.596    0.373
        43  -9.8014    214.2266    121.0129   5.9340673842e+01   1.4171278964e+01    0.2439261    0.2182562 -30.55 0.0005802477    1.052    0.049
        44 -12.1968    201.2685     76.8294   5.0917413600e+01   2.4662915975e+01     1.194381    0.4958285  41.78  0.004128935    3.551    0.718
        45 -10.0668    162.3232    120.3079   6.9526047119e+01   2.5378132260e+01    0.3925921    0.2371353 -61.69  0.001514228    2.262    0.558
        46  -8.1887    209.4486    118.5348   5.9601773614e+01   1.5594913448e+01    0.1443797    0.1323384 -31.19 0.0002250463    1.039    0.038
        47 -12.1196    204.1218    111.8883   5.8980378015e+01   1.7924085971e+01    0.8722439    0.6159677   2.18  0.003317223    2.172    0.540
        48  -9.8493    211.6932    110.5979   5.7359097318e+01   1.6568993404e+01    0.2610943    0.1705277 -46.91 0.0006539832    1.446    0.308
        49 -10.0079    134.7276    109.3636   7.3396879535e+01   3.3736645318e+01    0.9999467    0.1882618 -46.17  0.002297476    5.511    0.819
        50 -10.3021      6.2686    107.3715   1.1339414354e+02   5.2682101790e+01    0.2214187     0.200169  62.36  0.001031803    1.288    0.223
        51  -8.0387     78.0156    107.9735   8.9638335568e+01   4.4879512441e+01    0.1698274    0.1545248 -44.51            0    1.032    0.031
        52  -8.6386    127.3926    105.1531   7.4194730829e+01   3.6216536491e+01    0.2283236    0.1449411 -54.56 0.0009502466    1.735    0.423
        53  -9.4788    150.5065    102.0166   6.7502959650e+01   3.1768712779e+01    0.2937457    0.2628104  27.05 0.0006376167    1.181    0.153
        54 -10.0221    167.7749    113.8608   6.6675422560e+01   2.5492886679e+01    0.5053647    0.2878105 -49.65  0.002066272    1.826    0.452
        55 -10.4657    161.9637     96.3800   6.3371195296e+01   3.0260055443e+01    0.5966423     0.343041  36.80  0.002403019    2.055    0.513
        56  -9.0940    136.0692     98.0438   6.9959087646e+01   3.5816416492e+01    0.2572642    0.2236694  75.53 0.0005932221    1.317    0.240
        57  -9.4385    196.9408     97.1260   5.6672382054e+01   2.2158728816e+01    0.2310483    0.1912834 -70.12 0.0006906709    1.311    0.237
        58 -10.2514    169.2668     91.2604   6.0444566874e+01   2.9535080055e+01    0.8478572    0.2612462 -40.06  0.002672779    3.129    0.680
        59 -10.0664    144.4457     92.1728   6.6233862176e+01   3.5102746062e+01    0.3201496    0.2928474 -54.61 0.0008532766    1.121    0.108
        60 -11.4673    160.5376     87.0470   6.1136090373e+01   3.2348765917e+01    0.3536892    0.2888901 -26.28  0.001003896    1.311    0.237
        61 -10.2662     95.6254     88.9397   7.8815403545e+01   4.6108836727e+01    0.2520353    0.2191485  30.40 0.0002301937    1.164    0.141
        62 -13.1948    234.3545     62.2490   4.3028735651e+01   1.9725256841e+01     1.098929    0.7990932 -66.30  0.001560792    1.321    0.243
        63  -9.0686    189.9931    221.1147   8.4561483723e+01   4.0583561855e-01    0.1912007    0.1648986  11.58  0.000324925    1.024    0.023
        64  -8.9878     19.6382     85.7758   1.0496392697e+02   5.6875952196e+01    0.2310936    0.1756985 -72.25 0.0009052207    1.331    0.249
        65 -10.1752     18.0626     78.8780   1.0408157580e+02   5.8555643871e+01    0.5042856    0.2313986 -73.84   0.00162777    2.777    0.640
        66 -10.6956    127.3692     74.6088   6.5331173648e+01   4.2307759786e+01    0.5627932    0.2332587 -32.58  0.001946962    2.808    0.644
        67  -9.8293      8.3968     77.2802   1.0751101836e+02   5.9540765479e+01    0.2110884    0.1377241 -70.44 0.0005943069    1.464    0.317
        68 -11.5182     16.4912    156.6534   1.1635316424e+02   4.0027779780e+01    0.6869232    0.3870043 -44.11  0.003551288    2.067    0.516
        69 -10.9284    137.6526     71.6194   6.1864810117e+01   4.0481091233e+01    0.3925222    0.2642831  30.13   0.00175256    1.772    0.436
        70 -10.5893      7.0241     71.6832   1.0688898120e+02   6.0860373930e+01    0.3431384    0.1906644 -64.23 0.0005416457    1.562    0.360
        71 -11.9025      4.7241     59.0861   1.0498572753e+02   6.3694838294e+01    0.9489329    0.3100145 -63.48  0.004084388    2.733    0.634
        72  -9.1575    191.2130    216.9064   8.3591563350e+01   9.1052090119e-01    0.2141739    0.1698506  26.72 0.0003336878    1.150    0.131
        73 -11.2092    133.7815     63.0694   6.0164607408e+01   4.2831089105e+01    0.6263744    0.4176629 -86.51  0.002545952    2.558    0.609
        74 -10.1941     37.5645    213.3030   1.1662401248e+02   2.4818127990e+01    0.2904231    0.2629117  76.12   0.00204201    1.163    0.141
        75  -9.6872    124.0773     53.5604   5.9483686263e+01   4.6588772357e+01    0.2502599    0.2213668 -37.24 0.0002558178    1.191    0.161
        76 -10.0985    192.6044     43.6855   4.3859268588e+01   3.1616541004e+01    0.3207571    0.2232048 -42.93 0.0009074578    1.403    0.287
        77  -8.7836    194.9933     39.0782   4.2382236228e+01   3.1664921088e+01     0.242928    0.1796421  76.47  0.001222126    1.286    0.222
        78  -8.6068    131.4789    138.1964   8.1452793590e+01   2.7974890016e+01     0.626223    0.3476621 -68.72   0.00175129    3.173    0.685
        79  -9.5402    156.8856     37.0661   4.7506691627e+01   4.1057597958e+01    0.2363684     0.185835  66.23 0.0004519594    1.179    0.152
        80  -8.5004    190.3337     35.5966   4.2105848459e+01   3.3202892820e+01     0.228617    0.1574013 -31.81 0.0007157439    1.563    0.360
        81  -8.6878    192.0020    211.9997   8.2570359508e+01   1.6098591899e+00    0.1973236    0.1716796  10.80  0.001210189    1.025    0.024
        82 -10.9959    144.7935     28.8033   4.7144010736e+01   4.4987871545e+01    0.5651699    0.1981502 -34.19  0.002209183    2.885    0.653
        83 -10.2315    137.9535     33.1085   4.9774688830e+01   4.6123376850e+01    0.2632203    0.1770697  55.00  0.001139713    1.343    0.255
        84  -9.8903    179.2430     24.0349   4.0547750050e+01   3.7215818914e+01    0.4563963    0.3362901 -83.53  0.002103947    1.337    0.252
        85  -8.5434    154.7999     26.3688   4.4712100315e+01   4.2844550801e+01    0.1990295    0.1076928  55.45 0.0005979721    1.665    0.399
        86  -8.8504    134.3274    148.6523   8.3091719033e+01   2.5011716532e+01    0.4090068    0.2715974 -75.57  0.001623328    2.296    0.565
        87  -8.7506    250.2735    210.9827   7.1524734856e+01  -6.8469428262e+00     0.171394     0.148413 -21.03 0.0007426831    1.314    0.239
        88 -10.1584    158.9628    206.3683   8.8543546109e+01   8.1392675259e+00    0.2267906    0.2098942 -34.19 0.0002562992    1.161    0.139
        89  -8.0333    221.9009    205.8570   7.5636156262e+01  -2.0612003480e+00      0.15729    0.1490966  11.28 0.0004384917    1.318    0.241
        90  -8.3324    134.0000    145.0153   8.2363701909e+01   2.5908834959e+01    0.3454149    0.1871456 -54.26  0.001281886    1.967    0.492
        91  -8.2902    196.2524     18.9327   3.7267579144e+01   3.3787058449e+01    0.1505007    0.1031055 -39.56 0.0002657651    1.480    0.324
        92  -8.6861    147.2529     18.7763   4.3661567744e+01   4.5488174489e+01    0.2246265   0.07709909  55.56  0.000884743    2.420    0.587
        93  -9.3773    118.9985     16.9499   4.8230475583e+01   5.2383833001e+01    0.1963212    0.1529162 -74.66 0.0005043285    1.608    0.378
        94  -8.4228    167.0502     16.5116   4.0114463510e+01   4.0947650644e+01    0.1867691    0.1154658  69.68 0.0009793432    1.435    0.303
        95  -8.7798    247.0157    202.9874   7.0618551388e+01  -5.2521753153e+00    0.1628405    0.1564239 -57.84 0.0006730336    1.651    0.394
        96  -7.9996    111.1591    203.1887   9.8872697133e+01   1.6847752718e+01    0.1752204    0.1460593  64.58 0.0002284637    1.225    0.183
        97  -8.3013    198.3385     13.1736   3.5671734638e+01   3.3927316669e+01    0.1735006    0.1639138  25.52 0.0007671261    1.381    0.276
        98  -9.3030    194.4168    198.1844   7.9555017556e+01   3.6082721219e+00    0.3794503    0.2076264 -57.95  0.001518191    3.132    0.681
        99  -8.6921    192.5150    194.0175   7.9153376467e+01   4.6746016907e+00    0.2840906    0.2180494 -80.16  0.001372468    2.358    0.576
       100  -9.2248    189.1607    189.1693   7.8911187155e+01   6.1396977649e+00    0.4920281    0.3406758  83.79  0.001886577    3.756    0.734
       101  -8.9618    236.9766    197.7202   7.1379193730e+01  -3.0313127399e+00    0.1830628    0.1513703   5.40  0.001171586    1.102    0.092
       102  -8.9911     43.4977    192.9477   1.1344991796e+02   2.8700249247e+01    0.1852533    0.1787672   4.30 0.0004723457    1.339    0.253
       103  -8.8677    181.1620    191.9728   8.1128268530e+01   7.0183830212e+00    0.2092162    0.1847368  -4.42 0.0003748398    1.072    0.068
       104  -9.1565    181.9646    183.2441   7.9260995636e+01   8.5349789351e+00    0.3821579    0.2607564  72.23  0.001575984    2.864    0.651
