#   1 NUMBER                 Running object number                                     
#   2 MAG_AUTO               Kron-like elliptical aperture magnitude                    [mag]
#   3 X_IMAGE                Object position along x                                    [pixel]
#   4 Y_IMAGE                Object position along y                                    [pixel]
#   5 X_WORLD                Barycenter position along world x axis                     [deg]
#   6 Y_WORLD                Barycenter position along world y axis                     [deg]
#   7 A_WORLD                Profile RMS along major axis (world units)                 [deg]
#   8 B_WORLD                Profile RMS along minor axis (world units)                 [deg]
#   9 THETA_WORLD            Position angle (CCW/world-x)                               [deg]
#  10 FWHM_WORLD             FWHM assuming a gaussian core                              [deg]
#  11 ELONGATION             A_IMAGE/B_IMAGE                                           
#  12 ELLIPTICITY            1 - B_IMAGE/A_IMAGE                                       
         1 -12.2843    163.8780     53.5126   7.3525110650e+01   3.7410944860e+01     1.423279    0.2652879 -30.52  0.003353848    5.530    0.819
         2 -12.9949    175.0764     42.7105   6.7840796632e+01   3.6127773682e+01    0.9809693    0.7280489 -33.63  0.001046213    1.334    0.250
         3 -13.2995    186.0831     33.2823   6.2899041334e+01   3.4485224851e+01     1.097421      1.06016  17.00  0.003226711    1.027    0.027
         4 -13.8552    193.0222     23.1592   5.8602317607e+01   3.3852710157e+01     1.390979    0.9612425   2.05  0.001349341    1.695    0.410
         5 -12.0224    208.9920     18.1084   5.4969617056e+01   3.0186693789e+01     1.275352    0.2172841 -25.81  0.003480772    4.574    0.781
         6  -9.8779     49.4857      2.4821   8.5669783110e+01   6.8876426198e+01    0.1242819    0.1010319 -16.93 0.0001116066    1.016    0.016
         7  -9.1774     85.6220    233.1679   1.2328697887e+02   1.9937896753e+01     0.115407   0.08916746 -64.70 0.0009356049    1.695    0.410
         8  -9.7424    216.8862    249.4029   1.0439363240e+02  -7.5170168463e-01    0.1983689    0.1227122  21.17  0.001136903    1.539    0.350
         9 -19.5525     20.3920    142.7002   1.2831239902e+02   4.3166159844e+01     16.07974     3.269753 -77.04   0.05941241    4.666    0.786
        10 -11.8319    194.4935    193.9052   1.0023962160e+02   8.6591083676e+00    0.6578539    0.5404516  76.79  0.004266679    1.755    0.430
        11  -9.3323     78.4566    232.2798   1.2436016999e+02   2.0971713736e+01    0.1628046    0.1011781  40.37 0.0004420399    1.568    0.362
        12 -10.9097    209.3043    182.1550   9.5760852050e+01   7.5372303364e+00    0.5316423    0.3224706  14.69  0.002772898    2.099    0.524
        13  -9.6924     99.5187    180.5390   1.1589931836e+02   2.6455452700e+01     0.199885    0.1678934  67.35 0.0006074848    1.031    0.030
        14 -11.4491     81.5766    179.2682   1.1923369407e+02   2.9215530617e+01     0.328302    0.2408353 -42.31  0.002100909    2.053    0.513
        15 -11.7326     85.0240    173.6401   1.1794398350e+02   2.9771286590e+01    0.2891099    0.2688696  82.95 0.0009383584    1.237    0.192
        16 -10.9864    197.5814    174.6023   9.6484318953e+01   1.0631204884e+01     0.438071    0.2954268 -44.40  0.002514701    1.823    0.451
        17 -11.4516    106.0448    171.9362   1.1354794658e+02   2.7010413638e+01    0.5587777    0.2095469  44.54  0.002568163    2.320    0.569
        18 -10.5010    120.1884    173.2465   1.1091197699e+02   2.4543579106e+01    0.2266284    0.1401863  43.16  0.001284029    1.463    0.317
        19  -9.5129    137.4825    170.5069   1.0709507850e+02   2.2120221455e+01    0.1265247    0.1092301  55.67 0.0001488114    1.012    0.012
        20  -9.9181    157.5877    218.7822   1.1001256142e+02   1.1572174940e+01    0.1330129    0.1064484 -75.40 0.0009513285    1.690    0.408
        21 -10.0766    128.1034    173.4273   1.0937615099e+02   2.3211662241e+01    0.2380653    0.1592935 -79.08  0.001318388    1.940    0.485
        22  -9.9499    140.1410    217.5541   1.1281827382e+02   1.4451846320e+01    0.3026465    0.1565611 -78.49  0.001221151    5.629    0.822
        23 -11.4962     97.2990    157.1881   1.1335953214e+02   3.1092926617e+01    0.5139679      0.39044 -25.46  0.002933869    2.187    0.543
        24  -9.0995    141.6423    158.1114   1.0426312949e+02   2.3524005177e+01    0.1669014    0.1588718 -77.11 0.0004745484    1.139    0.122
        25  -9.3283    164.3253    153.6569   9.8912832379e+01   2.0050456501e+01    0.1339115    0.1033055  81.93 0.0004428348    1.736    0.424
        26 -10.6357    133.7879    144.7460   1.0355756378e+02   2.7363255056e+01    0.8932834    0.2166668 -54.22  0.002506823    5.907    0.831
        27  -9.5155    174.8158    148.8310   9.5927211221e+01   1.8794933978e+01    0.1852558    0.1569287  69.54 0.0004467095    1.356    0.263
        28 -10.2628    143.8203    144.8087   1.0144104510e+02   2.5492124680e+01    0.1893333    0.1562464  79.54  0.001079635    1.359    0.264
        29 -10.5539    107.4906    142.5062   1.0891453886e+02   3.2352593412e+01    0.2710967    0.2368721  61.67 0.0009928565    1.062    0.059
        30 -10.5306    109.5058    139.4760   1.0795452041e+02   3.2619763878e+01    0.2604779    0.2133938 -46.29  0.000642354    1.383    0.277
        31 -11.6166     96.5436    141.8178   1.1125360114e+02   3.4229563427e+01    0.2406954    0.2254332  51.49 0.0004741422    1.194    0.163
        32  -9.1860    128.5307    140.4840   1.0391610922e+02   2.9119471520e+01    0.1321387    0.1230315  62.12 0.0008095127    1.028    0.027
        33 -10.9016    184.4553    215.9799   1.0516222609e+02   7.6288648082e+00    0.2265511    0.1325586  52.27 0.0007850157    1.628    0.386
        34 -10.6225     78.7385    133.8275   1.1411151688e+02   3.8479260439e+01    0.2467795    0.1915842 -77.46  0.001205532    1.188    0.158
        35 -11.0908    115.2681    131.5583   1.0523062371e+02   3.3215217493e+01    0.3617052    0.3019382  -8.90   0.00180343    1.696    0.410
        36 -11.0814    119.2912    125.9929   1.0323144712e+02   3.3615925577e+01     0.417081    0.2683551 -33.79  0.001996515    2.061    0.515
        37 -10.9925    104.3963    129.0563   1.0729137508e+02   3.5563862864e+01    0.5474579    0.3519464  85.47  0.001040726    2.161    0.537
        38 -10.3637    161.6994    128.0880   9.4288816135e+01   2.4964020295e+01    0.4108244    0.2800886  86.96  0.001765082    2.541    0.606
        39  -9.3683    125.6437    127.3169   1.0203320973e+02   3.2196802221e+01    0.1435975     0.103636  79.68 0.0007045202    1.749    0.428
        40  -9.9949    136.6781    124.1056   9.8866352978e+01   3.0731353113e+01    0.3453363    0.2260266  40.67  0.001208183    1.534    0.348
        41  -9.7476    110.6249    119.9003   1.0406017314e+02   3.6383293497e+01    0.2077224    0.1829552  37.02 0.0003782914    1.239    0.193
        42 -10.2887    116.0564    211.9347   1.1634333154e+02   1.8887796375e+01    0.2792538    0.1760205  74.25  0.000931315    1.826    0.452
        43  -9.6752    167.9050    112.7249   8.9462605187e+01   2.6365839476e+01    0.3713389    0.2553608 -75.60  0.001583409    2.382    0.580
        44  -9.2530    205.5487    110.0817   8.1474888215e+01   1.8434635179e+01    0.2256649    0.1848602  43.79  0.000655674    1.189    0.159
        45  -8.9247    134.4009    102.7952   9.4516209486e+01   3.5336250040e+01    0.2023633    0.1358361 -34.25 0.0008584232    1.649    0.393
        46  -9.4775    164.3820    204.2246   1.0697890609e+02   1.2407564059e+01    0.1432682    0.1115547 -65.13 0.0009547769    1.721    0.419
        47  -9.8232    105.9109    201.8727   1.1708046853e+02   2.1930572260e+01    0.3341547    0.1363468  42.44  0.001747128    2.062    0.515
        48 -11.5162    171.2212     70.5711   7.7359320209e+01   3.2863607787e+01    0.5115784    0.3565517 -81.63   0.00212826    2.219    0.549
        49 -10.7020    173.7311    247.0427   1.1066636036e+02   5.7848723518e+00    0.1680146    0.1347227  12.26  0.001352359    1.530    0.346
        50 -10.8407    168.1986    247.9776   1.1162073125e+02   6.4965170331e+00    0.1841514    0.1122055  43.78 0.0003318093    1.169    0.145
        51 -11.4825     94.7699    238.1554   1.2221615868e+02   1.8050691030e+01    0.4108689    0.1599508  52.05  0.001460104    1.936    0.484
        52 -10.2349    177.8056    237.8405   1.0899005850e+02   6.1707748914e+00    0.1418852    0.1057445  54.54 0.0006802799    1.343    0.255
        53 -10.9271    182.9925    233.6092   1.0766380525e+02   5.8452761883e+00    0.2852187    0.1499673  57.30  0.001611787    2.324    0.570
        54 -10.2143    162.6532     30.7714   6.6063430492e+01   4.0971835380e+01    0.3028683    0.2133062  77.30 0.0007551024    1.650    0.394
        55  -9.6053    216.5128     18.4809   5.4210208049e+01   2.8190608215e+01    0.1410121    0.1373607 -49.75 3.087269e-05    1.001    0.001
