#   1 NUMBER                 Running object number                                     
#   2 MAG_AUTO               Kron-like elliptical aperture magnitude                    [mag]
#   3 X_IMAGE                Object position along x                                    [pixel]
#   4 Y_IMAGE                Object position along y                                    [pixel]
#   5 X_WORLD                Barycenter position along world x axis                     [deg]
#   6 Y_WORLD                Barycenter position along world y axis                     [deg]
#   7 A_WORLD                Profile RMS along major axis (world units)                 [deg]
#   8 B_WORLD                Profile RMS along minor axis (world units)                 [deg]
#   9 THETA_WORLD            Position angle (CCW/world-x)                               [deg]
#  10 FWHM_WORLD             FWHM assuming a gaussian core                              [deg]
#  11 ELONGATION             A_IMAGE/B_IMAGE                                           
#  12 ELLIPTICITY            1 - B_IMAGE/A_IMAGE                                       
         1 -14.1779    169.8091     65.8045   8.3114310235e+01   3.4105471042e+01     6.346223     1.896863 -48.24  0.007356852    4.665    0.786
         2 -15.9899    206.6613     61.6808   7.5492561875e+01   2.5611991194e+01     11.50145     6.645475 -66.79    0.0476723    2.242    0.554
         3 -14.8675    248.6152     24.8011   6.1821296279e+01   2.0959620855e+01     1.915607    0.6208899 -30.30  0.007013581    3.924    0.745
         4 -16.5373    238.7947     18.1281   6.1337874780e+01   2.3988467567e+01     7.970168    0.8251525  61.51   0.02333717    5.699    0.825
         5 -15.6256    233.9449      5.9685   5.9207460581e+01   2.6498429220e+01     2.372684     1.764751 -41.97   0.01500833    1.429    0.300
         6 -14.4223    248.1508      2.8979   5.7417054498e+01   2.3675975747e+01    0.7200226    0.5275447  70.92  0.002725909    1.367    0.268
         7  -8.8103     52.6294     11.2370   9.5849306303e+01   6.5468500979e+01    0.2069956   0.09633559 -32.18   0.00112255    2.100    0.524
         8  -9.4124     92.7703     10.3807   8.2740938342e+01   5.8753345781e+01    0.2134304    0.1435908 -31.18 0.0008246439    1.670    0.401
         9  -9.7028    204.6006      6.7318   6.2212336733e+01   3.3285230526e+01    0.4169034    0.2175957  52.43  0.002059455    1.994    0.499
        10  -9.0525      8.6804      8.6732   1.1333170317e+02   7.0618163942e+01    0.1117218   0.05912419 -18.00 0.0004805528    1.682    0.405
        11  -8.0998    194.2187      4.3958   6.2792125640e+01   3.6022219073e+01    0.1182953   0.09316072  32.90 0.0004042651    1.632    0.387
        12  -8.7022    183.5764      4.0162   6.3946173646e+01   3.8637999241e+01    0.2769849    0.1621097 -87.56  0.001144094    1.818    0.450
        13  -8.8197    171.7869      2.4353   6.5023621616e+01   4.1644782789e+01    0.2410277    0.1406354 -47.58 0.0008314478    1.901    0.474
        14  -8.9361    138.2737      1.8291   6.9888028842e+01   4.9680503394e+01    0.3546609    0.2104219  75.92  0.001830204    1.753    0.429
        15  -9.0984    219.7913    170.1362   9.8924620971e+01   2.8541604615e+00    0.3174812    0.1881603  63.00  0.001287882    2.594    0.614
        16  -8.6564    214.9651    168.2029   9.9447735120e+01   4.1727601869e+00    0.2762483    0.1923769  67.23 0.0007675959    2.028    0.507
        17  -9.3617    230.1231    166.8554   9.6277360295e+01   1.4155221648e+00    0.2129398    0.1984957 -59.90 0.0009421096    1.246    0.198
        18  -8.6790    203.2432    160.6754   1.0014811724e+02   8.0167076416e+00    0.2235936    0.1870513  65.24 0.0007712576    1.369    0.269
        19  -8.1521    155.6157    159.8394   1.1027430550e+02   1.8383960447e+01    0.2143727    0.1435427 -61.08 0.0005382202    1.689    0.408
        20  -8.9888    237.4905    249.5082   1.1051797886e+02  -1.2393955252e+01    0.1195804   0.09437788  17.43 -1.615105e-05    1.008    0.008
        21 -10.8832    210.1712    136.0128   9.3191464743e+01   1.1316182579e+01    0.4421724    0.3440337 -69.61   0.00212052    1.570    0.363
        22  -9.9399    213.5629    131.1508   9.1406029267e+01   1.1503475738e+01    0.3125969    0.2079763  69.40  0.001346215    1.977    0.494
        23 -11.6173    203.8749    129.4058   9.2864632088e+01   1.4016125706e+01     0.536811     0.406498 -27.18  0.002554302    1.432    0.302
        24 -11.7628    204.5613    122.9986   9.1194975483e+01   1.5114196467e+01    0.6059287    0.3826926  62.99   0.00258338    1.849    0.459
        25 -10.3713    160.5795    128.5697   1.0195855414e+02   2.4122373579e+01    0.4982953    0.3839727 -42.23   0.00234074    1.309    0.236
        26 -10.1202    135.1610    127.9682   1.0795760002e+02   2.9845890605e+01    0.5979115    0.2586267 -46.96  0.002141618    2.285    0.562
        27 -13.9853     15.9180    191.4605   1.4621573269e+02   3.3012850228e+01     2.350719     1.501991 -44.87   0.01095188    2.352    0.575
        28  -8.1780    142.9828    125.4900   1.0541057316e+02   2.8717976654e+01    0.2139295    0.1365208  71.11 0.0007170545    2.302    0.566
        29 -11.0909    228.3968    120.7531   8.6284946080e+01   1.0191743754e+01    0.4589058    0.3545488 -51.03  0.002344932    1.268    0.212
        30  -8.7702     74.6700    249.7053   1.4047362412e+02   1.4053220523e+01   0.09712192   0.09324353  31.71 0.0002178276    1.633    0.388
        31  -9.5451    121.8797    120.7411   1.0960109996e+02   3.4214901630e+01     0.298238    0.2030616 -76.75  0.001236504    2.067    0.516
        32 -10.9177    205.6799    102.2023   8.5880583969e+01   1.8834313682e+01    0.4623569    0.3774832 -35.84  0.002328698    1.239    0.193
        33 -11.1065    221.1879    119.8476   8.7341526516e+01   1.1950238565e+01    0.5875533    0.3315873 -23.15  0.002198793    2.462    0.594
        34 -12.4610    213.6967    115.0112   8.7544239065e+01   1.4553266985e+01    0.8902223    0.6432576 -73.11  0.002596355    1.773    0.436
        35 -12.2290    205.4307    110.1664   8.7899481743e+01   1.7389432858e+01    0.6844424    0.5686144 -48.84  0.002541888    1.170    0.145
        36  -7.9934    177.6907    118.7156   9.5659746666e+01   2.2239143177e+01      0.15475    0.1258543  11.10  0.000285605    1.569    0.363
        37  -8.4646    159.4254    117.2355   9.9393504512e+01   2.6809507745e+01    0.2291894    0.1470019 -55.31 0.0009447413    1.701    0.412
        38 -10.5998    168.4086    113.9634   9.6500272627e+01   2.5400833130e+01    0.4400205    0.3458736 -89.42   0.00112875    1.584    0.369
        39 -11.4485    133.7053     97.0287   1.0030732272e+02   3.6852649793e+01    0.6933846    0.3511539 -57.04  0.002466555    2.641    0.621
        40 -10.9364    134.6521    107.9445   1.0302110017e+02   3.4357499137e+01    0.6134912     0.249702 -42.71  0.002128598    2.462    0.594
        41 -12.2566    123.6631    102.8444   1.0452085381e+02   3.7780283812e+01     0.798845    0.6422352  75.28  0.003379179    1.522    0.343
        42  -9.2453    140.5394    104.1737   1.0052775046e+02   3.3860033724e+01    0.2792975    0.2529416  14.76 0.0007043193    1.220    0.180
        43 -10.6850     72.1811    240.6495   1.4009458356e+02   1.6092693244e+01    0.2841712    0.1413002 -88.31  0.001428526    2.373    0.579
        44  -9.6151    135.0137    119.7624   1.0597550522e+02   3.1706723951e+01     0.282918    0.1963736 -33.39 0.0009161021    1.612    0.380
        45  -9.4358    146.9417     99.5924   9.7707922407e+01   3.3358063021e+01    0.2921774    0.2545356 -35.61  0.000653167    1.172    0.147
        46  -9.4789     85.0087    238.7666   1.3758958509e+02   1.4568910034e+01    0.2286181    0.1043965  75.54 0.0008935251    3.627    0.724
        47 -10.5332    206.1132     93.2085   8.3553002128e+01   2.0388366557e+01    0.6315792    0.3840173  82.25   0.00244129    2.486    0.598
        48  -9.8018    156.7198     92.9619   9.3569098567e+01   3.2399050120e+01    0.5078791    0.3689886  20.85  0.002214024    1.843    0.457
        49  -9.0948    192.1648    143.9538   9.8662857265e+01   1.3742371181e+01    0.2358672     0.206632 -74.27 0.0004932363    1.282    0.220
        50  -9.2420    184.6271    141.2113   9.9619195196e+01   1.5991660227e+01    0.3075792    0.2334049 -37.86 0.0003640398    1.341    0.254
        51  -9.0426    168.8419     90.7660   9.0257161719e+01   2.9911529834e+01    0.3474082     0.217288 -70.23  0.001302873    2.473    0.596
        52 -10.7242    140.2598     89.4016   9.6512023567e+01   3.6920481449e+01    0.3821204    0.3572954 -67.65 0.0006517909    1.124    0.110
        53 -11.0070    126.5219     90.5131   1.0034559497e+02   3.9730034339e+01    0.3062497    0.2582519 -16.64 0.0009118663    1.310    0.236
        54 -10.9200    187.5565    137.5068   9.8124888334e+01   1.6092981410e+01    0.3997107    0.2985148  45.14  0.001878441    1.350    0.259
        55 -10.8113      5.0926     88.2015   1.3664680524e+02   5.6536320945e+01    0.2981274    0.1508529 -60.42  0.001755635    1.455    0.313
        56 -10.5141      4.1556     82.5051   1.3593094889e+02   5.7778537496e+01    0.2599007    0.1637717 -82.63  0.001595071    1.777    0.437
        57  -7.9231    111.2527     86.6462   1.0338848152e+02   4.3646635329e+01    0.1441749    0.1152731 -73.22 0.0006348036    1.601    0.375
        58  -8.1306     78.3911     86.4834   1.1306694373e+02   4.9443733061e+01    0.1368631    0.1231349 -41.22 0.0001403851    1.050    0.048
        59 -11.6404    154.5772     82.8478   9.1228847713e+01   3.4835083036e+01    0.6153359    0.4107127  53.69  0.001023154    1.480    0.325
        60 -10.0625    181.7188    135.1543   9.8814341669e+01   1.7905601776e+01    0.3060976    0.2062581  22.20  0.001235004    2.103    0.525
        61 -10.5125    148.2276     76.0785   9.0747955175e+01   3.7577634281e+01    0.4232545    0.2750118 -30.90  0.001307284    1.670    0.401
        62 -12.8583    149.6394     68.8159   8.8288847863e+01   3.8513942987e+01     1.419468    0.7882913  70.12   0.00533595    2.571    0.611
        63  -8.5389     97.2560    134.9521   1.1936395352e+02   3.5519296962e+01    0.2071454    0.1815993 -57.85 0.0004256692    1.080    0.074
        64  -9.4516    124.5842     75.2968   9.6390882475e+01   4.3073472192e+01    0.2829542    0.1391839 -43.65  0.001128226    2.075    0.518
        65 -10.8761    186.9398     71.7538   8.1467064575e+01   2.8858408000e+01    0.3522503    0.2651576  42.76  0.001110627    1.435    0.303
        66 -10.9255    192.1308     68.3661   7.9630215111e+01   2.8131565492e+01    0.3966115    0.3385594  44.41   0.00196136    1.260    0.206
        67 -10.3386    130.7734     72.1206   9.3825633113e+01   4.2292955448e+01     0.289625    0.1880404  24.18 0.0009807014    2.025    0.506
        68 -11.1526    131.0005     65.5810   9.1766750429e+01   4.3380368246e+01    0.3991373    0.2853479   3.00  0.001825186    1.904    0.475
        69  -8.1457     77.2859     66.6889   1.0760655845e+02   5.3506774500e+01    0.1228182    0.1075436 -78.95 0.0003035121    1.576    0.365
        70 -12.6743     46.0752    171.3467   1.3798164415e+02   3.4255159966e+01    0.7598668    0.6406286  43.26  0.001668041    1.388    0.280
        71  -8.2416     27.6355    230.2130   1.4700754605e+02   2.3833178754e+01    0.1395415   0.08452402 -73.51 0.0003675318    1.528    0.346
        72  -9.9235    148.1393     59.3254   8.5793154088e+01   4.0434535251e+01    0.2714725    0.2111282 -43.94 0.0005797766    1.355    0.262
        73 -11.2450    127.5339     58.0442   9.0280340673e+01   4.5397136114e+01    0.4259523    0.3018943 -68.15  0.001217799    2.083    0.520
        74 -10.6022    135.2815     57.7705   8.8289937123e+01   4.3691679342e+01    0.2857528    0.2259486 -64.58  0.001447383    1.564    0.361
        75 -10.7087    115.7679     53.2528   9.1784407907e+01   4.8701750732e+01     0.341213    0.1863719  51.19 0.0008720219    1.826    0.452
        76  -8.6570     83.1033     52.7479   1.0118417337e+02   5.5002448517e+01    0.2155273    0.1668385 -41.02 0.0005387482    1.352    0.260
        77 -10.0154    172.9979    204.3702   1.1515685885e+02   5.7548998776e+00    0.2229518    0.2029207 -47.05 0.0002012659    1.208    0.172
        78  -9.6893    106.9603     37.0320   8.8658913582e+01   5.2875969516e+01    0.2192363    0.1487703  19.21 0.0006432437    1.644    0.392
        79  -9.4046    243.9927    156.5127   9.1570447710e+01   5.6374248113e-01    0.2018362    0.1377647  45.90 0.0004838526    1.575    0.365
        80  -9.4069    117.0154    134.0290   1.1399976980e+02   3.2135253996e+01    0.2201745    0.2122599 -58.03 0.0003035836    1.050    0.048
        81  -9.0143    119.1728    149.2115   1.1674512986e+02   2.8195406003e+01    0.2101265    0.2031889  15.69 0.0004672635    1.175    0.149
        82  -9.5425    132.6173    140.5704   1.1153248817e+02   2.7519161430e+01    0.5631359    0.1760113 -54.03  0.001609013    3.728    0.732
        83 -12.6283     69.7073    149.9924   1.2932732343e+02   3.6221274395e+01      2.10806     1.130697 -56.70  0.008518964    1.680    0.405
        84 -12.6973     52.3178    166.5446   1.3596546260e+02   3.4610678447e+01    0.9915575    0.6530019  56.05  0.003585857    1.537    0.349
        85 -11.9936     57.7711    161.6781   1.3403209048e+02   3.5060195576e+01    0.6343068    0.4276809  86.02  0.001423692    1.516    0.340
        86  -9.6575    192.5188    194.0526   1.0922037887e+02   3.8697107974e+00    0.9233594    0.4496358 -64.49  0.002186411    8.422    0.881
        87  -9.4564    221.2469    191.1992   1.0297064875e+02  -1.1272463397e+00    0.3272434     0.198228  52.53  0.001307818    1.927    0.481
        88 -10.7442    215.3264    188.6380   1.0360280497e+02   4.2729452338e-01    0.4585526    0.2640114  51.31  0.001159461    1.935    0.483
        89  -9.8241    222.0152    177.7502   1.0009390058e+02   1.0570324987e+00    0.2527913    0.2025697 -64.32  0.001144996    1.649    0.394
