#   1 NUMBER                 Running object number                                     
#   2 MAG_AUTO               Kron-like elliptical aperture magnitude                    [mag]
#   3 X_IMAGE                Object position along x                                    [pixel]
#   4 Y_IMAGE                Object position along y                                    [pixel]
#   5 X_WORLD                Barycenter position along world x axis                     [deg]
#   6 Y_WORLD                Barycenter position along world y axis                     [deg]
#   7 A_WORLD                Profile RMS along major axis (world units)                 [deg]
#   8 B_WORLD                Profile RMS along minor axis (world units)                 [deg]
#   9 THETA_WORLD            Position angle (CCW/world-x)                               [deg]
#  10 FWHM_WORLD             FWHM assuming a gaussian core                              [deg]
#  11 ELONGATION             A_IMAGE/B_IMAGE                                           
#  12 ELLIPTICITY            1 - B_IMAGE/A_IMAGE                                       
         1 -10.6180      3.1584     20.6687   1.2129205804e+02   7.0908408146e+01     0.394059    0.1568176 -36.02   0.00211548    2.059    0.514
         2 -10.8068     35.2294     21.9014   1.0612736889e+02   6.7796672402e+01    0.4033475    0.1667438 -39.51  0.001871308    2.098    0.523
         3 -11.7732     25.6217     20.3220   1.0990117851e+02   6.9110651644e+01     0.469411    0.2726561  -6.16  0.002427325    2.004    0.501
         4 -12.0649    130.9915     14.2706   7.2843477338e+01   5.0477049194e+01    0.5613281    0.3385895  15.76  0.002587644    2.145    0.534
         5 -10.8657    217.5956     16.2837   6.1601577973e+01   2.8722211943e+01    0.5189719    0.1550092  55.88  0.001913996    3.323    0.699
         6 -10.0333    107.9920     17.5907   7.9096982279e+01   5.5511729264e+01    0.2222972    0.1771534   8.82 0.0005335463    1.270    0.212
         7 -12.2030     26.1296     13.5980   1.0656328086e+02   7.0099035360e+01    0.2444537    0.1894441 -11.79 0.0003523334    1.045    0.043
         8 -10.0524     99.6503     13.8726   7.9669001591e+01   5.7744932524e+01    0.2189929    0.1624951 -27.28 0.0008257782    1.415    0.293
         9  -9.4433     51.3136     11.3233   9.4200724869e+01   6.7090912980e+01    0.2305045     0.116301  -0.01 0.0009329972    3.427    0.708
        10 -10.7678    119.9167     11.8639   7.4165608226e+01   5.3356720209e+01    0.1980964    0.1769344  39.44 0.0003484308    1.010    0.010
        11 -10.9900     75.0088      5.0500   8.2715496116e+01   6.3672211613e+01    0.4921683    0.2088304 -15.88  0.002176252    2.648    0.622
        12 -10.3543     61.2242     10.9238   9.0196766494e+01   6.5536934707e+01    0.3300715    0.2549843  80.20  0.001244667    2.581    0.613
        13 -11.2526     75.5851     17.2097   8.8143790629e+01   6.2237900059e+01    0.3218622    0.2187614   8.51 0.0007853555    1.532    0.347
        14 -10.1009     23.2872      9.2926   1.0586775274e+02   7.1037616459e+01    0.1925332    0.1330626 -13.73  0.000531516    1.204    0.169
        15 -12.1682     80.4798      7.3781   8.2135366945e+01   6.2378351453e+01    0.6194691    0.3354721  18.79 0.0007809102    2.194    0.544
        16  -9.5518     37.1065      8.4960   9.8851918561e+01   6.9487125672e+01    0.1551294    0.1031945  25.08 0.0003496223    1.451    0.311
        17 -10.6337     11.2994      6.7232   1.1087215910e+02   7.2585218983e+01    0.4588306    0.1983338   9.59  0.002188211    3.388    0.705
        18  -9.9140    115.5262      4.3715   7.2180986300e+01   5.5063400030e+01    0.2573191    0.1304198 -17.20  0.001204624    2.160    0.537
        19  -9.5511     59.0576      5.3356   8.8241752567e+01   6.6531494061e+01    0.2442241   0.09000365  41.20  0.001101551    2.497    0.600
        20  -9.2928    120.5026      4.5113   7.1245974591e+01   5.3885464501e+01    0.1315323     0.119383  49.07 -0.0001547173    1.039    0.038
        21 -10.0581     98.9354      3.7762   7.5603508347e+01   5.8862591362e+01    0.3604543    0.1204703  53.15  0.001346126    2.435    0.589
        22 -10.6919     91.9536      4.0062   7.7438279870e+01   6.0345320129e+01    0.1922616    0.1608561  28.19 0.0003445578    1.031    0.030
        23 -11.7413     26.8243      3.4397   1.0107512135e+02   7.1439392470e+01    0.2922931    0.1975198  26.93  0.001330788    1.507    0.337
        24 -10.4448     31.2171      2.4271   9.8399494469e+01   7.1025718949e+01    0.3656096    0.2027974  44.25  0.002094983    2.362    0.577
        25 -10.0201     18.7297      3.9276   1.0546290413e+02   7.2277070800e+01    0.1536529    0.1116971 -20.43 0.0003149989    1.078    0.073
        26  -9.4343    124.4583      1.4446   6.9349870414e+01   5.3199449065e+01    0.1306058    0.1177314  54.05 -1.223856e-05    1.039    0.038
        27  -9.9405     88.6342    241.2132   1.3533951097e+02   1.4621130890e+01    0.1413143    0.1021094 -58.67 0.0007715772    1.702    0.412
        28 -11.0740    246.9984    250.0153   1.0831103507e+02  -1.0383462206e+01    0.3835031    0.1748189  26.67  0.001975282    1.912    0.477
        29 -11.2523    250.5214    244.6396   1.0689916593e+02  -1.0295270088e+01    0.4552375    0.1855391 -34.78   0.00159713    2.741    0.635
        30 -11.7289    224.7572    247.1161   1.1156159444e+02  -6.9876983363e+00     0.448396    0.1823432 -28.27  0.002264618    2.959    0.662
        31 -12.4445    232.9766    246.3111   1.1005362793e+02  -8.0664482529e+00    0.5397305     0.227024  37.73  0.002923607    1.983    0.496
        32 -10.0089    127.9127    249.6554   1.2909409566e+02   7.4634772565e+00    0.1686569    0.1588592 -45.10  0.001029503    1.382    0.277
        33  -9.8165     72.6927    250.2377   1.3891803422e+02   1.5263643155e+01     0.129818    0.1229714  75.49  0.001042858    1.413    0.292
        34  -9.1924     46.3072    250.3468   1.4337771097e+02   1.8551738073e+01   0.08724518    0.0822162 -58.46 0.0004815346    1.700    0.412
        35 -11.6575     27.8704    246.0835   1.4614854185e+02   2.1383418071e+01    0.3974622    0.1635956 -79.16  0.002383438    2.304    0.566
        36 -12.3515     21.0014    248.9814   1.4739485717e+02   2.1621321794e+01    0.5154522    0.1667342  48.78  0.002987112    2.163    0.538
        37 -11.5873     14.3677    245.3659   1.4827268038e+02   2.2930121400e+01    0.3072259    0.1099161 -85.53  0.001722322    2.630    0.620
        38 -10.7577     11.0008    250.3726   1.4901851469e+02   2.2413573461e+01    0.2500875    0.1153421  40.26  0.001663851    1.996    0.499
        39 -10.9120    181.4071    248.1597   1.1927322144e+02  -6.0989889900e-01    0.3721026    0.1909059 -25.24  0.001838749    3.145    0.682
        40  -9.6530    169.6155    229.2113   1.1875936968e+02   3.9515781806e+00    0.1531376    0.1155961 -26.40 0.0009381722    1.610    0.379
        41 -10.4508    190.3563    226.7687   1.1452185377e+02   9.0123121956e-01    0.2559742    0.1642119 -39.13  0.001005813    1.808    0.447
        42  -9.2765      5.3512    235.2825   1.4925653214e+02   2.5592782649e+01   0.08350886   0.07422736 -72.03 0.0007016388    1.654    0.395
        43  -9.2379    249.3450    227.2637   1.0425410012e+02  -8.2274244009e+00    0.1195047   0.07165618  12.39 0.0003418403    1.603    0.376
        44 -10.3580    129.7098    226.7306   1.2604603829e+02   1.0893234516e+01     0.377732    0.1534033  51.48  0.001654392    2.443    0.591
        45 -10.2640     88.1087    227.1301   1.3407930711e+02   1.7189398966e+01    0.1710596    0.1554584  49.65  0.001224599    1.267    0.211
        46  -9.4119      6.6529    227.2881   1.4868355101e+02   2.6915474345e+01    0.1126103   0.05228103  63.65 0.0005756646    1.657    0.396
        47 -10.3979    144.0530    226.5226   1.2325141410e+02   8.5936980786e+00     0.192148    0.1053442  42.30 0.0004990102    1.529    0.346
        48 -10.2963    115.8458    225.8044   1.2861235465e+02   1.3256848336e+01     0.178161    0.1274942  66.00 0.0006950571    1.388    0.280
        49 -10.4400     66.4759    226.3233   1.3806739376e+02   2.0315496040e+01    0.2590038    0.1302535  44.62  0.001127629    1.682    0.405
        50 -10.5646    180.8674    224.1532   1.1588392138e+02   2.8468889727e+00    0.2048995    0.1646826 -24.47 0.0007328108    1.415    0.294
        51 -10.3090     81.3499    224.6177   1.3511353988e+02   1.8611669102e+01    0.2279968    0.1589983  81.87  0.001050796    1.399    0.285
        52 -11.5650     74.1081    238.3483   1.3770363887e+02   1.7118711980e+01    0.5218087    0.2941695  55.45  0.003222869    1.433    0.302
        53 -10.8257     13.1588    222.1840   1.4733422529e+02   2.7232736352e+01    0.1910027    0.1412812  65.77 0.0004169365    1.121    0.108
        54 -11.4026    141.4221    221.3718   1.2305789959e+02   9.8899720309e+00    0.3262991    0.2249311  19.48  0.001406603    1.880    0.468
        55  -9.4253     51.4947    222.5465   1.4052882064e+02   2.2930614504e+01    0.1146366   0.08929866  69.91 0.0001060983    1.029    0.028
        56 -10.3141    174.0573    220.0073   1.1653349906e+02   4.6196224805e+00    0.1979076    0.1672339  34.10   0.00060121    1.011    0.011
        57  -9.7166    250.3087    219.0607   1.0269091003e+02  -7.4060988583e+00    0.1645171    0.1256882  -5.03 0.0006781317    1.129    0.115
        58  -9.5712     50.3471    218.2946   1.4040542687e+02   2.3885894181e+01   0.09758517    0.0904979 -38.37 0.0007031783    1.671    0.402
        59 -10.8248     10.0605    217.0355   1.4759805558e+02   2.8507972718e+01    0.2677881    0.1441871  62.17 0.0009549145    1.444    0.308
        60 -10.5620    191.5287    216.9687   1.1273760389e+02   2.1322711404e+00    0.2475494    0.1748257   6.62   0.00105268    1.652    0.395
        61  -9.3327     37.5632    217.4655   1.4271133891e+02   2.5549948302e+01    0.1128229   0.08623926  73.96 0.0001174007    1.026    0.026
        62 -10.0197     24.5819    216.9220   1.4502982319e+02   2.7072323594e+01    0.2351684   0.09716886  54.48  0.001323948    1.965    0.491
        63 -10.3277    234.8055    216.6165   1.0488000130e+02  -4.8047920156e+00    0.1664293    0.1032272  44.36 0.0009480423    1.758    0.431
        64 -10.4703    201.5273    216.0439   1.1072272159e+02   5.9592803436e-01    0.2262589    0.1616329  31.74  0.001354729    1.204    0.170
        65 -10.0992     31.1041    215.8510   1.4378102392e+02   2.6581498752e+01    0.1867762    0.1170858  69.07  0.000980933    1.271    0.213
        66  -9.5577    137.1787    215.6349   1.2309647021e+02   1.1590172524e+01    0.1873486    0.1085092  33.31 0.0009421884    1.742    0.426
        67 -10.4373    208.9673    212.1480   1.0869209446e+02  -8.0572703206e-02    0.1990198    0.1714357  -4.55 0.0004742153    1.139    0.122
        68 -10.1948    170.1958    213.1662   1.1620490668e+02   6.3656684619e+00    0.1730603    0.1466142  59.08 0.0009356813    1.308    0.236
        69 -10.9618    123.3672    221.5144   1.2661663685e+02   1.2820531163e+01    0.2536301    0.2079939  51.99 0.0009556022    1.028    0.027
        70 -10.8776     20.6558    211.6544   1.4541044010e+02   2.8501086181e+01     0.289488    0.1420571  71.19 0.0009055635    1.774    0.436
        71  -9.5569    212.8827    211.8994   1.0793540442e+02  -6.9187909263e-01    0.1563517    0.1454719  38.77 0.0005208719    1.316    0.240
        72 -12.0447      4.2872    207.2958   1.4810290501e+02   3.0926003356e+01    0.4222856    0.2351866  81.90  0.002837886    1.397    0.284
        73 -10.5234    206.0026    201.2633   1.0732006936e+02   2.0190047035e+00    0.2316071     0.157246 -16.40 0.0008167045    1.655    0.396
        74  -9.3301    238.5228    201.4466   1.0152406771e+02  -3.3998078802e+00    0.1269229    0.1014732   7.33 8.583196e-05    1.049    0.047
        75  -9.9238    223.1909    201.0911   1.0414670395e+02  -8.6625802893e-01    0.2874137    0.2089699  78.59  0.001319043    3.439    0.709
        76 -10.0056    218.4299    201.4879   1.0507624605e+02  -1.2912677852e-01    0.1286537    0.1086812  11.01 0.0001182758    1.015    0.015
        77 -10.3793    210.6417    201.3160   1.0646878824e+02   1.2145633966e+00     0.185663    0.1627093  82.06  0.001115739    1.759    0.431
        78  -9.2143     34.6571    200.7469   1.4201482366e+02   2.9202853151e+01   0.09645087   0.08819994 -49.85 0.0002714092    1.580    0.367
        79 -10.0935    227.0264    197.0079   1.0270781247e+02  -9.2221651275e-01    0.1979473    0.1644587   8.96 0.0006021712    1.027    0.027
        80 -11.7846    192.3548    194.9372   1.0876772449e+02   5.4167772410e+00    0.3713726    0.2917688 -65.32  0.002049099    1.828    0.453
        81  -9.7137    203.0162    195.7586   1.0687758151e+02   3.3853310809e+00    0.1858902    0.1577915  23.98 0.0005552677    1.048    0.045
        82 -11.0773    215.3653    194.1953   1.0428655495e+02   1.4662644286e+00    0.3515376    0.1516285 -36.00  0.001560414    2.402    0.584
        83 -11.1319    232.5264    191.3131   1.0066274533e+02  -1.0248346412e+00    0.3032219    0.1827107  21.90  0.001577115    1.739    0.425
        84  -9.9739    163.0000    191.4645   1.1402026377e+02   1.1375878367e+01    0.2855701   0.07884622 -46.37 0.0009388656    3.968    0.748
        85  -9.3579     56.6546    197.6983   1.3734897168e+02   2.7236341718e+01    0.1084431   0.09439495 -37.29 0.0006874233    1.684    0.406
        86  -9.3689    205.6034    190.2264   1.0535607649e+02   3.7941928914e+00    0.1762311    0.1206291 -22.25 0.0005315999    1.565    0.361
        87 -10.6446    225.8822    188.9467   1.0138442667e+02   4.3886116480e-01    0.2967341     0.154806  17.57  0.001218494    2.877    0.652
        88 -11.8053     16.2935    183.3519   1.4434690157e+02   3.4699772360e+01    0.4070891    0.1927423  87.39  0.002015648    1.916    0.478
        89  -9.5652     61.6226    184.7959   1.3495084498e+02   2.9337764337e+01    0.1809864    0.1058853 -83.32  0.000951704    1.705    0.413
        90 -11.2535    248.4108    182.8538   9.6311584317e+01  -2.4398196130e+00    0.4192715    0.2018622  18.01  0.001628551    3.512    0.715
        91  -9.9918    236.2407    182.4000   9.8287110506e+01  -3.6350559637e-01    0.1689345    0.1197219  46.58 0.0009441886    1.608    0.378
        92 -10.2936      2.1285    180.1309   1.4696324322e+02   3.6620926231e+01    0.1855658    0.1301995  67.81 0.0005380191    1.193    0.162
        93 -11.7415    244.3665    178.0172   9.6032001140e+01  -1.0938847874e+00     0.332496    0.1777242 -18.16  0.001567418    2.122    0.529
        94 -11.4587    224.2520    178.3332   9.9595388339e+01   2.3220533016e+00    0.2761723    0.2377287  12.04  0.000516077    1.045    0.043
        95  -9.5434     36.0877    178.5031   1.3981820520e+02   3.3750996997e+01    0.1569509    0.1103288  44.22 0.0005311944    1.464    0.317
        96 -10.5531    200.1721    176.7919   1.0378409333e+02   6.9834234777e+00    0.1942797    0.1532199   8.69 0.0006271428    1.330    0.248
        97  -9.8237    250.4559    190.0264   9.7362056778e+01  -3.7461247563e+00    0.1840341    0.1098435 -29.11 0.0004989216    1.568    0.362
        98 -10.3574    167.8723    184.1196   1.1168934245e+02   1.1806347376e+01    0.4255297    0.2273075  62.46  0.001568406    3.276    0.695
        99  -9.4709     70.2120    177.5932   1.3219472414e+02   2.9763216585e+01    0.1547035    0.1237709  30.57 0.0004664388    1.507    0.336
       100  -9.7206     59.6202    171.7615   1.3387221640e+02   3.2467229073e+01    0.1827788    0.1085231 -81.74 0.0009459487    1.654    0.396
       101  -9.7482     74.6619    171.4280   1.3036910855e+02   3.0511915377e+01     0.157663    0.1273847  32.73 0.0008778503    1.442    0.306
       102  -9.7640      4.5096    167.9834   1.4567175819e+02   3.9013249964e+01    0.1806369   0.08848891 -79.45   0.00104022    1.612    0.380
       103  -9.7495    209.8646    166.2219   9.9769687188e+01   6.9215311148e+00    0.1953516    0.1540162   6.43 0.0005896748    1.329    0.247
       104  -9.2571     21.6495    166.6834   1.4187824440e+02   3.7808543872e+01    0.1138611   0.08127156 -49.42 3.074528e-05    1.733    0.423
       105 -10.6886     52.8753    163.3460   1.3440160116e+02   3.5210592623e+01    0.5191696    0.2934036 -30.90  0.002106999    3.926    0.745
       106 -10.7073     40.9108    165.1491   1.3739241581e+02   3.6188184172e+01     0.197477     0.138447  74.62 0.0005931332    1.309    0.236
       107 -10.2138      9.9833    165.2727   1.4430429829e+02   3.9153601753e+01    0.1562781    0.1223049  82.37 0.0003088941    1.056    0.053
       108  -9.0236    229.4922    164.5356   9.5837995844e+01   3.5256082919e+00    0.1372052    0.1189848  -0.80 0.0001031778    1.036    0.035
       109 -11.4338    247.6817    158.9444   9.1578686741e+01   1.1367147859e+00    0.3218628    0.2551543 -15.62  0.001682546    1.118    0.106
       110 -10.6738     36.5660    161.3114   1.3797669300e+02   3.7525861589e+01    0.4264698    0.1518419 -65.36  0.001919938    2.336    0.572
       111  -9.3189    200.3187    162.7195   1.0086263405e+02   9.3720036766e+00    0.1326723    0.1147633  87.74 0.0003040865    1.581    0.367
       112  -9.8862    238.5908    158.2083   9.2934275924e+01   2.8604850681e+00    0.1965182    0.1169168 -21.72 0.0009479951    1.723    0.420
       113 -10.0051     48.7105    158.7581   1.3482055163e+02   3.6755979514e+01    0.1970209   0.08235463  45.78 0.0008915446    2.359    0.576
       114  -9.7492      8.0616    158.2468   1.4416842011e+02   4.0855882770e+01    0.1236464   0.09675425  37.84 0.0005899813    1.531    0.347
       115 -10.9828     22.4574    155.8690   1.4068811274e+02   4.0151572428e+01    0.3461534    0.2315265  52.44  0.002179827    1.493    0.330
       116  -9.0886    235.6779    154.6904   9.2678558544e+01   3.9398842889e+00    0.1405411   0.09846499   5.11 0.0005289435    1.648    0.393
       117  -9.6771    216.7847    154.7904   9.6043030467e+01   7.5059975750e+00    0.2179492    0.1116307  55.10 0.0008843193    2.495    0.599
       118 -10.0018    197.2137    153.6150   9.9509412113e+01   1.1607905087e+01    0.2080721    0.1302422  34.94 0.0009496791    1.654    0.395
       119  -9.4546    151.4447    153.2221   1.0914003180e+02   2.1070240594e+01    0.2052292    0.1416308 -60.43 0.0008658241    1.672    0.402
       120 -10.2496     12.1120    153.0087   1.4280994316e+02   4.1693342062e+01     0.284505    0.1392249  32.38  0.001592453    2.306    0.566
       121 -10.4314    178.1927    151.4452   1.0290555671e+02   1.5922587789e+01     0.316783    0.2616225  72.95  0.001612237    1.496    0.331
       122  -9.4748     46.1433    151.1532   1.3448094841e+02   3.8806477865e+01    0.1761196    0.1291251  71.93 0.0004101838    1.322    0.244
       123  -9.5613     92.8210    148.1591   1.2227920463e+02   3.3068357318e+01    0.1884108    0.1710006 -27.23  0.001071236    1.328    0.247
       124  -9.4336    233.5251    146.9466   9.1364105034e+01   5.5738744870e+00    0.2122991    0.1260429 -32.51  0.001022735    1.566    0.361
       125 -10.2977    207.0097    145.9604   9.5912896712e+01   1.0975576015e+01    0.2200083    0.2061347   7.75 0.0007105345    1.030    0.030
       126 -11.0884      7.8435    144.9348   1.4308205931e+02   4.3843905480e+01    0.2284757    0.1565939  41.61 0.0009900025    1.626    0.385
       127 -10.4450      3.1559    143.3751   1.4405208998e+02   4.4538831853e+01    0.2056872    0.1239204 -70.29 0.0007511711    1.340    0.254
       128 -10.4559    212.3722    141.8724   9.3983971567e+01   1.0595571497e+01    0.3813614    0.2595692  15.19  0.001755676    1.893    0.472
       129  -9.3643     37.9911    142.2282   1.3536572915e+02   4.1770680052e+01    0.1511143    0.1043887  35.19 0.0008776144    1.650    0.394
       130 -10.6023    236.3455    138.8383   8.9093253670e+01   6.3395577378e+00    0.2331922    0.2238031 -48.19 0.0005744362    1.212    0.175
       131 -10.9342     57.6997    138.6951   1.2974926090e+02   4.0348278270e+01    0.2822492    0.2028692  73.90 0.0005382565    1.482    0.325
       132 -11.6843      3.5760    136.3841   1.4332765764e+02   4.6082143613e+01    0.5280802    0.1941485 -53.39  0.001880088    2.664    0.625
       133 -11.8922      9.0771    136.7902   1.4201272765e+02   4.5595280892e+01    0.2198046    0.1736177 -73.95  0.000248817    1.112    0.101
       134  -9.8727     40.8341    135.7356   1.3375106077e+02   4.2993104762e+01    0.1781686    0.1614449 -61.49  0.001108743    1.189    0.159
       135 -10.6774     21.8718    135.0426   1.3859709975e+02   4.4972262439e+01    0.3941793    0.1249588 -63.32  0.001729658    2.397    0.583
       136  -9.8636    138.0144    135.4693   1.0837257052e+02   2.7579523595e+01    0.2336673    0.1481414  41.60  0.001025849    1.596    0.374
       137 -12.1994     36.6496    130.7819   1.3416176192e+02   4.4590070844e+01    0.3734381    0.2944413 -77.97  0.001792074    1.067    0.063
       138  -9.9268     73.9139    129.4745   1.2378051422e+02   4.0351334095e+01    0.2163503    0.1738571 -63.53 0.0006238968    1.132    0.117
       139 -10.3795    249.6122    130.0668   8.5016192466e+01   5.2060297853e+00    0.2133993    0.1985948  72.29  0.001216873    1.347    0.258
       140  -9.4800    243.0249    128.4653   8.5680118042e+01   6.7115681191e+00    0.1844514    0.1369726  47.91 0.0004347904    1.493    0.330
       141  -9.3820     60.1953    128.4608   1.2736935455e+02   4.2455974323e+01    0.1698285    0.1227757  52.98 0.0003599853    1.484    0.326
       142 -10.2951    219.6394    124.5741   8.8657618748e+01   1.2078424981e+01    0.2515622    0.2107756 -25.59 0.0005584636    1.127    0.113
       143 -10.5426     10.0060    102.2679   1.3766276898e+02   5.3442878635e+01    0.3367766    0.1806405  62.80  0.001745506    2.413    0.586
       144 -11.9224     10.4168    122.8176   1.4017481550e+02   4.8694933521e+01    0.4562962    0.2796058 -28.70  0.002581676    2.343    0.573
       145 -10.7238     17.4122    116.2202   1.3743500672e+02   4.9700691482e+01    0.3086081    0.1716041 -63.50  0.001740798    1.429    0.300
       146 -10.2066     20.1511    112.8083   1.3618292195e+02   5.0279205111e+01    0.1899854    0.1456049 -55.04 0.0006001446    1.222    0.181
       147 -12.2640     16.7332    108.4066   1.3654442148e+02   5.1560989738e+01    0.3713567    0.3096492 -84.42            0    1.118    0.105
       148  -9.4451     20.5448    121.5387   1.3727061534e+02   4.8218123956e+01    0.1242556   0.09932063 -73.71 0.0001169485    1.020    0.020
       149  -9.5546    221.5498    119.9910   8.7238482162e+01   1.2458142329e+01    0.2256661    0.1341803 -34.13  0.000713628    1.576    0.365
       150  -9.9688    179.3212    116.2430   9.4303046969e+01   2.2500867128e+01    0.2517087    0.2021157  37.94 0.0005999028    1.292    0.226
       151  -9.1070     96.2805    115.6830   1.1462175475e+02   4.0028895277e+01    0.1455882    0.1131232  88.87            0    1.577    0.366
       152  -9.1670     25.3867    115.2169   1.3502909224e+02   4.9288262625e+01    0.1161079    0.0849155 -35.51 0.0006850149    1.612    0.380
       153 -11.4136     35.9331    110.9971   1.3127979596e+02   4.9315362275e+01    0.5004512    0.2458805 -61.44   0.00179677    1.657    0.396
       154  -9.5702     54.6909    117.6722   1.2697122941e+02   4.5697089952e+01    0.1369703   0.09439164 -37.60  0.000703954    1.660    0.397
       155 -10.3264     66.7789    113.0289   1.2251739951e+02   4.5236894363e+01    0.2016582    0.1910697  75.23  0.000250492    1.124    0.110
       156  -9.4965    167.4704    109.0131   9.4956445727e+01   2.6628466850e+01    0.2361235     0.150888 -39.32 0.0005751929    1.543    0.352
       157  -9.7426    117.2642    108.9438   1.0718398083e+02   3.7626235421e+01    0.2111532    0.1889794 -43.75  0.001106719    1.089    0.082
       158 -10.3985    242.0062    108.1790   8.1167842329e+01   1.0147148192e+01    0.2174571    0.1602442 -79.05 0.0007661912    1.953    0.488
       159 -12.2989     61.9698    107.2596   1.2272529399e+02   4.7233317190e+01    0.2796409     0.225616 -57.62 0.0003854483    1.096    0.087
       160 -11.2805     23.7911    107.1767   1.3426860397e+02   5.1294709705e+01    0.2989684     0.218507  80.48   0.00101072    1.464    0.317
       161  -9.5314    133.4680    107.5097   1.0257733856e+02   3.4573227975e+01    0.1536244    0.1484683 -17.72 6.148297e-05    1.060    0.057
       162 -10.3169     76.4355    107.0267   1.1832392522e+02   4.5252959198e+01    0.2220939    0.1279104 -54.80 0.0004364264    1.579    0.367
       163 -10.3077      6.3741    106.1962   1.3926942250e+02   5.2777318136e+01    0.2508295    0.1555685 -66.92 0.0007411992    1.241    0.194
       164 -10.8007      2.8332    105.1684   1.4016743843e+02   5.3226327386e+01    0.2397969    0.1498257 -81.45  0.001031351    1.345    0.256
       165  -9.8105    223.3174    103.9870   8.3070329902e+01   1.4779859216e+01    0.2087002    0.1727901 -35.63  0.000503278    1.118    0.105
       166 -11.4084     70.3208    102.4826   1.1910647471e+02   4.7200997099e+01    0.3627371    0.2683323  20.09 0.0005565219    1.649    0.393
       167 -10.7368    247.9557    102.3044   7.8935403658e+01   9.8659196793e+00    0.1863772    0.1809758 -26.38 0.0008809079    1.099    0.090
       168 -10.0682     36.3578    101.4795   1.2944145616e+02   5.1497638469e+01    0.2754532    0.1622668  45.42  0.001452648    1.993    0.498
       169  -9.7784    120.2454    101.1850   1.0431337833e+02   3.8709869932e+01    0.2476325    0.1660079  -2.78 0.0009190062    2.675    0.626
       170  -9.9266     91.6299    101.1975   1.1238044119e+02   4.4135192994e+01    0.2082489    0.1263492 -41.99 0.0003247929    1.621    0.383
       171 -10.3620     27.8060    100.9430   1.3200765090e+02   5.2403849846e+01    0.1785224    0.1641075 -58.03 0.0002576975    1.138    0.121
       172 -10.9059      3.6612    100.6045   1.3933453906e+02   5.4214699696e+01    0.2452321    0.2198428  80.97  0.000962109    1.231    0.188
       173 -12.0348     50.5091     99.3399   1.2456245703e+02   5.0491302103e+01    0.2354064    0.2077832 -62.93 0.0002865588    1.037    0.035
       174 -11.7591     20.7567     95.7711   1.3332262326e+02   5.4169335777e+01    0.6727749    0.1531928 -65.92  0.002399795    3.454    0.710
       175 -10.9573     63.5760     98.4671   1.2025051224e+02   4.9060568600e+01    0.4698387     0.220397  27.29  0.001969141    2.682    0.627
       176  -9.8649      3.4387     86.0031   1.3729639097e+02   5.7519689673e+01    0.2553137    0.1795139  22.36  0.001696063    1.806    0.446
       177 -10.7302      8.2107     94.9647   1.3714602585e+02   5.5221846101e+01    0.2741242    0.1802513 -45.18  0.001046538    1.469    0.319
       178 -11.2135     11.0469     91.0449   1.3563373787e+02   5.5931546096e+01    0.2862995    0.1904671  14.74  0.001207475    1.937    0.484
       179 -10.3087      7.0266     88.7541   1.3656282716e+02   5.6697654948e+01    0.1790995    0.1375507 -70.53 0.0002817074    1.069    0.064
       180 -10.3145      1.4906     94.0774   1.3910735294e+02   5.5813228735e+01    0.2574768    0.0761819 -64.97  0.001162982    2.303    0.566
       181 -10.0138    227.1526     93.1943   7.9810485325e+01   1.5713721285e+01     0.203734    0.1897045  -9.32 0.0003860514    1.126    0.112
       182 -10.7624     38.6973     96.1626   1.2765927212e+02   5.2499036063e+01    0.2145044    0.2053443  89.33 0.0003316008    1.166    0.142
       183  -9.5194    171.2615     91.0150   8.9249803939e+01   2.9173241157e+01    0.2070797    0.1324071 -36.88 0.0008885617    1.541    0.351
       184 -10.6803     96.0016     90.4959   1.0818536893e+02   4.5725536646e+01    0.3106938    0.1799293 -17.62  0.001050638    3.537    0.717
       185  -9.4110     70.2045     91.5719   1.1645037516e+02   4.9704112160e+01    0.1696117    0.1365592  14.12 0.0003894817    1.464    0.317
       186  -9.2836     73.0136     88.7087   1.1479895963e+02   4.9929460268e+01     0.176668    0.1736552  -5.35 0.0002511702    1.104    0.094
       187 -10.0219     49.3023     88.0132   1.2238522550e+02   5.3224364369e+01    0.2380271    0.1600842 -65.33 0.0004030094    1.433    0.302
       188 -11.0449     46.4351     82.6134   1.2204161128e+02   5.4761379665e+01    0.5447621    0.2519135 -59.82  0.002467566    1.972    0.493
       189 -10.2447    112.7274     86.4425   1.0216847829e+02   4.3356625285e+01    0.2904458    0.1467739  50.65  0.001135789    2.181    0.541
       190 -10.9479     67.3183     84.8298   1.1559811245e+02   5.1618645753e+01    0.2419004    0.1997155 -35.14 0.0005326296    1.158    0.137
       191 -10.9321    118.1325     83.1377   9.9679866201e+01   4.2907367362e+01    0.3413377    0.2765836  -9.43  0.001096647    1.439    0.305
       192 -12.0799     18.9201     81.4686   1.3128466784e+02   5.7548806625e+01    0.5337093    0.3138731  19.06  0.001911759    2.113    0.527
       193 -11.0224     85.1886     80.9069   1.0871648640e+02   4.9675874672e+01    0.3294774      0.20936 -44.09 0.0008795573    1.458    0.314
       194  -9.9827     29.8881     81.7873   1.2755831783e+02   5.6595083274e+01    0.1834105    0.1420968 -47.06 0.0004501271    1.124    0.110
       195 -12.0878     72.4192     78.8421   1.1223231090e+02   5.2168625574e+01    0.4826837    0.4030729 -19.58  0.001029894    1.250    0.200
       196 -11.2888     77.5649     71.9927   1.0846004301e+02   5.2795518338e+01    0.4573511    0.2853167  40.94 0.0006928613    1.746    0.427
       197 -10.1113      2.4150     71.7674   1.3523315310e+02   6.0719092915e+01    0.2717909    0.1193382 -55.44  0.001136227    1.654    0.395
       198 -10.9031      8.1817     73.6022   1.3351433673e+02   5.9999558949e+01    0.3097007    0.2058626  -2.64  0.001946509    1.917    0.478
       199 -12.2256      3.2716     77.6433   1.3597802927e+02   5.9385816353e+01    0.3692342    0.2545012 -70.52  0.002423794    1.195    0.163
       200 -10.5995      7.3461     76.7201   1.3439743777e+02   5.9362653017e+01    0.1760824    0.1596806 -82.44  0.000887777    1.220    0.180
       201  -9.6554     92.5983     79.2083   1.0589697671e+02   4.8730994762e+01    0.2125991    0.1290742 -36.29 0.0009530134    1.645    0.392
       202  -9.9347    101.3278     78.3256   1.0298871708e+02   4.7278578343e+01    0.1519158    0.1142535  -4.54 0.0007050004    1.699    0.411
       203 -12.2902     61.8523     72.9578   1.1408404343e+02   5.4946386550e+01     0.650066    0.4033974 -30.46  0.002152236    1.746    0.427
       204 -10.3170     54.6776     72.2868   1.1640352045e+02   5.6034690996e+01    0.2567235    0.2029594  62.43 0.0004642323    1.704    0.413
       205 -11.5481    151.0043     78.5074   9.0033735752e+01   3.6341382885e+01    0.3030338    0.2706568 -57.96 0.0004544964    1.173    0.147
       206 -10.0523    121.5202     76.0537   9.6572754308e+01   4.3571081747e+01    0.2305657    0.1457966 -38.39 0.0007617971    1.552    0.356
       207 -11.0920    108.4483     75.3800   9.9987373034e+01   4.6454688505e+01    0.4196652    0.2726381 -13.39  0.001321256    2.257    0.557
       208 -11.7057     50.6885     68.2814   1.1666962683e+02   5.7375369150e+01    0.3819355    0.2147344 -34.94  0.001796725    1.793    0.442
       209 -10.9955     46.6933     70.3307   1.1870844119e+02   5.7412552012e+01    0.1917881    0.1818727 -60.33 0.0006331063    1.177    0.150
       210 -10.9104     40.5406     72.8102   1.2161326683e+02   5.7552851966e+01      0.31331    0.2402451 -60.64 0.0008799793    1.232    0.188
       211 -10.7066     36.7804     68.1066   1.2173661677e+02   5.8947916394e+01    0.3539357    0.2067493 -40.53  0.001206432    1.526    0.345
       212 -10.0473    102.6676     73.0333   1.0092277895e+02   4.8071540897e+01    0.2060489    0.1853684 -24.95 0.0005464116    1.068    0.064
       213 -10.5834    152.1458     72.1662   8.7852205485e+01   3.7202024680e+01    0.2364361     0.210628  21.07  0.000848236    1.207    0.171
       214 -10.1380    115.9250     71.3054   9.6579174341e+01   4.5679749886e+01    0.2582397    0.2011366 -47.28 0.0009366911    1.314    0.239
       215  -9.6414     16.6820     72.3520   1.3019084416e+02   5.9726171019e+01    0.1689983    0.1276739  82.33 0.0009303004    1.653    0.395
       216  -9.6980    175.1696     70.8531   8.2704408170e+01   3.1767167015e+01    0.2058057    0.1793236   4.89 0.0004465073    1.315    0.239
       217  -9.9444    145.2576     71.6329   8.9251570960e+01   3.8951771195e+01     0.155911    0.1165439 -64.26  0.000697183    1.638    0.389
       218 -11.4549     95.5272     68.2902   1.0153115339e+02   5.0373667894e+01    0.5492612    0.3187392 -20.26  0.002190197    2.489    0.598
       219 -10.8837    160.0788     69.5979   8.5355518074e+01   3.5709543762e+01    0.3878671     0.244169  82.94  0.001493392    2.474    0.596
       220 -10.9267     68.7672     67.2617   1.0994020073e+02   5.5132323314e+01    0.3616581    0.2188211 -39.47  0.001049267    1.515    0.340
       221 -10.6889     26.2090     69.4141   1.2600715232e+02   5.9634700540e+01    0.2914218     0.188636  59.11  0.001569646    2.321    0.569
       222 -10.6373    130.1549     69.2867   9.2167448358e+01   4.2902937566e+01    0.4040482    0.2831589  23.37  0.001806636    1.777    0.437
       223 -10.6070    130.0539     64.1552   9.0526284260e+01   4.3834688261e+01    0.2675275    0.2089264 -40.80 0.0002475426    1.287    0.223
       224 -11.7244     42.8999     66.2250   1.1893522753e+02   5.8706614373e+01     0.405788    0.2284244 -68.70  0.001885992    2.352    0.575
       225 -11.3649     31.2241     66.2631   1.2332503538e+02   5.9872133794e+01    0.2779825    0.2037683 -61.11 0.0004369252    1.274    0.215
       226 -10.0351      6.6728     67.8520   1.3292351931e+02   6.1338685561e+01    0.1783314    0.1563553 -24.09  0.000721544    1.279    0.218
       227 -11.5179      3.5875     63.7985   1.3324915995e+02   6.2378803373e+01    0.3340029    0.2533631  79.14 0.0006074561    1.656    0.396
       228  -9.1563    150.6991     66.7454   8.6497332460e+01   3.8489323822e+01    0.1488696    0.1156861  23.68            0    1.503    0.335
       229  -9.2912    146.6912     66.2799   8.7247295599e+01   3.9539462268e+01    0.1496948     0.119222 -76.16 0.0002495033    1.560    0.359
       230 -11.4005     21.1270     65.9603   1.2707132949e+02   6.0785354031e+01    0.2704738     0.181964  20.20   0.00137471    1.782    0.439
       231 -11.2043    140.9140     63.9085   8.7819954437e+01   4.1329398666e+01    0.4377003    0.2765529  37.22  0.001113617    1.741    0.426
       232  -9.6934    119.4675     65.5336   9.3726160785e+01   4.5974422809e+01    0.2850148    0.1398958  44.71 0.0007511984    2.058    0.514
       233 -10.2914    121.5209     61.9916   9.1999351335e+01   4.6146296680e+01    0.2918057    0.2201728 -12.23  0.001408269    1.522    0.343
       234 -10.6155    105.9568     64.1282   9.7025932219e+01   4.9099855953e+01    0.3794104    0.1920826 -48.01  0.001530351    2.156    0.536
       235 -11.0506     83.8896     62.9352   1.0342565681e+02   5.3524430149e+01     0.475733    0.3348193 -64.95  0.002059279    1.996    0.499
       236 -10.4262     86.3663     58.7517   1.0118108852e+02   5.3869521263e+01    0.3292603    0.2328699 -40.63 0.0007366402    1.351    0.260
       237 -10.3540     77.1484     65.3984   1.0648128839e+02   5.4188816527e+01    0.2613535    0.1748457  53.05  0.001279236    1.902    0.474
       238 -10.3650    173.7791     63.5460   8.0823101640e+01   3.3305325656e+01    0.3166111    0.2374224 -47.17  0.001417715    1.348    0.258
       239 -10.5557     51.6884     62.5250   1.1455978835e+02   5.8443770337e+01    0.2581704    0.1900805 -25.57  0.001008303    1.343    0.255
       240 -11.3937     10.9418     62.6757   1.3019175621e+02   6.2195358554e+01    0.2291127    0.1758875 -43.82 0.0004094656    1.116    0.104
       241  -9.7533     56.3923     62.2667   1.1274662757e+02   5.7891375965e+01    0.1787749    0.1168963 -54.90 0.0003573901    1.542    0.351
       242  -9.9962     38.4917     58.4974   1.1832943846e+02   6.0780021596e+01    0.2410386    0.1418412 -10.11  0.001171524    2.395    0.582
       243 -11.6022     38.1743     52.0286   1.1641893413e+02   6.2110686197e+01    0.6494121      0.37519 -31.11  0.003358596    1.696    0.411
       244 -10.2983     44.6842     51.8685   1.1377759795e+02   6.1412387263e+01      0.24529     0.178241 -29.42 0.0002454581    1.236    0.191
       245 -11.2526     46.0949     47.1045   1.1156653105e+02   6.2152401659e+01    0.2565876    0.1768502 -40.51 0.0002841137    1.249    0.199
       246 -11.1218     27.3486     61.2322   1.2345954502e+02   6.1280389247e+01    0.3322247    0.2000867  15.31  0.001879487    2.006    0.501
       247  -9.9432    183.9303     61.3232   7.8347451305e+01   3.1116160860e+01    0.2087814    0.1868147  59.29 0.0004769578    1.122    0.109
       248  -9.8961     93.0217     61.2232   9.9925456396e+01   5.2183338160e+01     0.193372    0.1791002   0.37  0.000379271    1.045    0.043
       249 -10.5410     70.1117     58.4831   1.0656821625e+02   5.6657425875e+01    0.4175611    0.1882661 -38.26  0.001775853    2.109    0.526
       250 -10.9835     64.5072     59.9836   1.0906242647e+02   5.7214129790e+01    0.3173768    0.1906257  36.43  0.001093721    1.817    0.450
       251 -10.6413     33.3033     60.1106   1.2082648299e+02   6.0969896891e+01    0.3008054    0.1890357 -22.47  0.001117439    1.788    0.441
       252 -10.8919    114.2360     57.5762   9.2449792104e+01   4.8512109139e+01    0.4092024    0.2678952  54.61  0.001442331    1.636    0.389
       253 -10.8907     58.2482     58.2475   1.1075312240e+02   5.8441189384e+01    0.3448291    0.1934142 -50.94  0.001694253    1.723    0.420
       254  -9.6135    136.9977     57.7581   8.6732405969e+01   4.3285992356e+01    0.2044766    0.1722552  25.01            0    1.260    0.206
       255  -9.7481    137.5235     54.5255   8.5537244255e+01   4.3680198215e+01    0.2481915    0.1465738 -31.61 0.0008976347    1.726    0.421
       256 -10.4031    123.6350     57.1996   8.9828708845e+01   4.6487253851e+01    0.3439953    0.2436998 -82.18  0.001472828    2.305    0.566
       257 -12.1503    127.7968     52.1652   8.7058928230e+01   4.6348924968e+01    0.4299215     0.321811 -26.87 0.0005898637    1.364    0.267
       258 -11.2496     99.2068     55.8795   9.6163001619e+01   5.1941371407e+01    0.5664918    0.2687258  48.15  0.001557059    2.204    0.546
       259  -9.7284     81.0665     56.9238   1.0227857429e+02   5.5144853091e+01    0.1876391    0.1517327 -10.18 0.0004486867    1.264    0.209
       260  -9.5353    194.1053     56.1548   7.5203091787e+01   2.9360501430e+01    0.1947224    0.1619689 -71.04 0.0002536836    1.250    0.200
       261 -11.4595      4.4203     52.3492   1.3035563151e+02   6.4740821780e+01    0.4489843    0.2248389 -30.12  0.002512326    2.059    0.514
       262  -9.9375      7.1126     40.8288   1.2612019450e+02   6.6906802887e+01    0.2404074    0.1210631 -50.31 0.0007944906    1.472    0.321
       263 -11.0335     12.5946     50.2306   1.2641290488e+02   6.4680997698e+01    0.3619111    0.1693812 -51.86  0.001682146    1.597    0.374
       264 -12.4273      9.8129     45.3611   1.2624109800e+02   6.5842582527e+01    0.4780905    0.3260111 -25.73  0.001321076    1.409    0.290
       265 -10.5901     73.2835     52.0146   1.0317243285e+02   5.7354442189e+01    0.3276371    0.2831449 -75.34  0.001544084    1.614    0.380
       266 -11.1789     51.4733     50.5171   1.1066174664e+02   6.0833695762e+01    0.4963995     0.268674 -16.08  0.002073602    2.986    0.665
       267 -10.8920    134.9549     49.6247   8.4482868580e+01   4.5055989335e+01    0.3678425    0.2608098 -73.61  0.001643268    2.040    0.510
       268 -10.8431    114.9449     48.9286   8.9214609324e+01   4.9777639963e+01    0.3557711    0.2554621  -9.34  0.001724181    1.617    0.382
       269 -11.2137    100.8530     48.0597   9.2844577831e+01   5.2924059111e+01    0.5562372    0.3373363  24.67  0.002454226    2.075    0.518
       270 -10.0569     98.6578     44.6690   9.2229644332e+01   5.3914498865e+01    0.2862562    0.2104885  13.14  0.001137021    1.535    0.348
       271  -9.6524    157.8399     52.1402   8.0405745762e+01   3.9065595264e+01    0.2033606    0.1707646  25.50            0    1.313    0.238
       272 -11.4121    143.0181     46.6486   8.1680795750e+01   4.3549694488e+01    0.3809259    0.2815946  42.79  0.001244809    1.344    0.256
       273 -10.0622     22.8576     46.2174   1.2088835616e+02   6.4712598468e+01    0.1657555    0.1384577 -45.94 0.0004942553    1.131    0.116
       274  -9.4685    233.3629     45.2257   6.7116923345e+01   2.1469639206e+01    0.1854776    0.1111516 -42.24 0.0004483755    1.492    0.330
       275 -10.2428    151.4806     45.4961   7.9542695089e+01   4.1626305127e+01    0.1451703     0.141155  84.62 -8.51197e-05    1.048    0.046
       276 -10.5300    122.9047     43.9789   8.5398647991e+01   4.8733239506e+01    0.3640591     0.303182  23.69  0.001478739    1.228    0.185
       277  -9.3694     86.0112     45.2162   9.6353418511e+01   5.6296342201e+01    0.1730633    0.1091479  42.27 0.0003690484    1.618    0.382
       278 -10.3886     87.1238     52.6284   9.8753188584e+01   5.4832145508e+01    0.2046752    0.1706382  49.95  0.001019582    1.364    0.267
       279 -10.5021     63.9696     41.4325   1.0253296393e+02   6.0692782316e+01    0.2584804    0.1896069 -40.06  0.001027748    1.328    0.247
       280 -10.1312    163.0335     42.4684   7.6373610033e+01   3.9149196997e+01    0.2164522    0.1396461  61.72 0.0003462607    1.502    0.334
       281 -10.2987     81.4894     42.5091   9.6794281889e+01   5.7569002897e+01    0.1369805    0.1216703  -5.20 7.955632e-05    1.008    0.008
       282  -9.9635     56.4231     41.6886   1.0548974316e+02   6.1768619183e+01    0.2448321    0.1111937 -54.19 0.0009481221    3.315    0.698
       283  -9.9452     52.4783     42.0495   1.0716717445e+02   6.2252555859e+01    0.1885532    0.1115266 -39.60 0.0003766718    1.494    0.331
       284 -10.1868     23.9609     41.5264   1.1888218635e+02   6.5525999302e+01    0.2176836    0.1641354 -35.99  0.001407602    1.053    0.050
       285 -10.4266    226.3777     40.3228   6.6690617543e+01   2.3735194147e+01    0.2489602    0.2050298 -62.80 0.0004217247    1.120    0.107
       286 -10.5812     95.5820     40.2525   9.1463728329e+01   5.5220866342e+01    0.3704201    0.2483307  64.46  0.001203209    2.030    0.507
       287  -9.3279    235.5877     40.5256   6.5734179958e+01   2.1583223539e+01    0.1309356    0.1199662 -55.79 0.0005658647    1.071    0.067
       288 -10.4502     88.7412     38.7673   9.2984892504e+01   5.6798357963e+01    0.3483407    0.2651111 -82.29  0.001046218    2.341    0.573
       289 -10.0894     44.2077     39.3882   1.0948194393e+02   6.3792279238e+01    0.2592116    0.1485316 -49.96  0.001073679    1.786    0.440
       290  -9.8346    159.3854     39.2050   7.6002262690e+01   4.0512035927e+01    0.2006824    0.1289287 -41.87  0.000283816    1.603    0.376
       291  -9.6811    119.5481     39.0321   8.4444728276e+01   5.0217713299e+01    0.2089868    0.1387708 -27.12 0.0004370029    1.539    0.350
       292 -11.0497     69.6316     36.8310   9.8633482066e+01   6.0540562869e+01    0.4335122    0.3013422  -8.23   0.00234378    1.550    0.355
       293 -11.7370     82.3367     36.4679   9.4126118684e+01   5.8360877967e+01    0.3651904    0.2931219  -7.59  0.000823222    1.193    0.162
       294 -10.2055     19.2854     37.9820   1.1975095433e+02   6.6592847818e+01    0.2021106    0.1383652 -17.87 0.0003642588    1.437    0.304
       295 -11.3458     24.5062     35.5019   1.1652695978e+02   6.6603453048e+01    0.2468535     0.241751  19.41  0.000944645    1.394    0.283
       296 -10.5206      1.8245     37.7666   1.2761537210e+02   6.7806690428e+01    0.2636778    0.1174288 -33.52 0.0006935942    2.060    0.515
       297 -10.8697     13.2709     33.2830   1.2089291139e+02   6.7937934404e+01    0.2666079    0.1583452  45.51  0.001496852    2.713    0.631
       298 -10.4894      1.4467     31.8103   1.2599475263e+02   6.8970869734e+01    0.1712075    0.1190488 -37.83  0.001124352    1.112    0.101
       299 -10.6367      9.3697     33.2151   1.2269785672e+02   6.8224410354e+01    0.2179335    0.1748126 -69.08  0.001067917    1.550    0.355
       300 -11.0550      5.3401     32.2699   1.2428905719e+02   6.8659361319e+01    0.4331923    0.1565282 -38.18  0.001572478    2.309    0.567
       301 -11.0016      9.4705     25.3986   1.1988386462e+02   6.9648311339e+01    0.3811806    0.1832925 -29.85  0.002129025    1.923    0.480
       302 -10.3789      8.4315     21.5016   1.1891190337e+02   7.0409023191e+01    0.2673698    0.2090097 -76.56  0.001539706    2.070    0.517
       303  -9.8526    110.9792     34.9583   8.5112114424e+01   5.2715723223e+01    0.2368224    0.1839948 -49.09 0.0003504783    1.505    0.335
       304 -10.4170    103.5868     36.8406   8.7829606953e+01   5.4061235467e+01    0.3512719    0.1884788  51.55  0.001588076    1.860    0.462
       305 -10.7852    106.1263     33.6803   8.5913044305e+01   5.3955610033e+01    0.3292189     0.262589 -26.89 0.0009333392    1.262    0.207
       306  -9.7911     56.6205     36.2499   1.0326205161e+02   6.2664578619e+01    0.1821287    0.1058243 -30.11 0.0009400686    1.597    0.374
       307 -10.3445     77.0430     33.6709   9.4754204096e+01   5.9747249421e+01    0.2499494    0.1774537  17.38  0.000694238    1.477    0.323
       308 -10.6284     78.8047     29.8483   9.2573678130e+01   5.9984104566e+01    0.4437406    0.2484942 -11.88  0.001989898    2.305    0.566
       309 -10.1037     82.3201     29.6778   9.1349801526e+01   5.9352748166e+01    0.2643467     0.174564 -54.30  0.001282628    2.256    0.557
       310 -10.0484     32.0613     33.8990   1.1255194513e+02   6.6149908565e+01    0.2450783    0.1534726  18.46  0.001043339    1.747    0.427
       311  -9.8439    145.0752     31.6765   7.6217429424e+01   4.5068367935e+01    0.1996888    0.1684013  57.74 0.0003348781    1.125    0.111
       312 -10.2378     55.7220     31.9672   1.0184839253e+02   6.3491282555e+01    0.1875232    0.1457634 -23.92  0.000626266    1.123    0.110
       313 -10.2820    137.0452    247.5378   1.2720241271e+02   6.3872544776e+00    0.1622193    0.1496965  58.60 0.0005612999    1.174    0.148
       314  -9.6502    178.4110     31.2325   7.0412172351e+01   3.6703043745e+01    0.1992338    0.1235873 -42.59 0.0009374278    1.622    0.384
       315  -9.8080     97.7007     31.6686   8.7472073609e+01   5.6021583378e+01    0.1433231   0.09870944  14.90 0.0003354733    1.646    0.392
       316 -10.4945     50.4936     27.4928   1.0203245775e+02   6.4945718679e+01    0.4751511    0.1632741 -31.20   0.00182667    3.239    0.691
       317 -10.0830     49.3240     23.6574   1.0082072774e+02   6.5693905948e+01    0.2099287    0.1759427  87.22  0.001221149    2.372    0.578
       318 -10.4650    124.9154     27.9448   7.9106882844e+01   5.0422029447e+01    0.2066978    0.1846182  30.99  0.001191522    1.063    0.059
       319  -9.1716    101.2719     28.6998   8.5284084038e+01   5.5663004652e+01    0.1262131    0.1071125 -61.63  0.000239922    1.530    0.346
       320  -9.4308    179.8246     25.8244   6.8608836766e+01   3.6990517532e+01    0.1923733     0.152499 -66.36 0.0002764108    1.302    0.232
       321  -9.4154     90.5244     26.5494   8.7495012933e+01   5.8172632071e+01    0.1337512    0.1201212  11.98 5.927875e-05    1.023    0.023
       322 -11.5201     60.8358     23.8367   9.6349148266e+01   6.3929635625e+01    0.4521134    0.2073271 -46.77  0.001926705    3.034    0.670
       323 -10.1914    113.0714     25.0916   8.0803425487e+01   5.3511461475e+01    0.2045779    0.1910926  42.01 0.0006327982    1.078    0.073
       324 -10.9016      6.1442    245.2172   1.4955285367e+02   2.3774365713e+01    0.2947064     0.136566  73.97  0.001373909    1.696    0.410
       325  -9.6969    119.6506     23.3715   7.8594023095e+01   5.2199974298e+01    0.2852219    0.1636171   7.25  0.001188047    2.535    0.606
       326 -10.8217     54.3412     23.3760   9.8663298305e+01   6.5003555722e+01    0.2443873    0.1917715   2.67 0.0006349717    1.146    0.127
       327  -9.6590     17.2336     23.8627   1.1546614625e+02   6.9310671983e+01    0.1627093    0.1050815 -26.55 0.0007099091    1.299    0.230
       328 -10.4112    100.1951     22.1104   8.2921136804e+01   5.6710768885e+01    0.2245401    0.2179722  18.76 0.0005619964    1.141    0.124
       329 -10.8751     84.7605     21.9293   8.7296772175e+01   5.9906361463e+01    0.3788838    0.2244588  10.61  0.001762452    2.189    0.543
       330 -11.8235      8.6516    241.9092   1.4902037598e+02   2.4102618050e+01     0.396823    0.1651884  69.78  0.002447727    1.953    0.488
       331 -10.3295    124.0445     21.9283   7.7075910268e+01   5.1331804174e+01    0.2014825      0.18728  40.28   0.00030768    1.021    0.021
       332 -11.0077     65.8208     21.6159   9.3505830310e+01   6.3414251613e+01    0.3191853    0.1983497  38.02  0.001274046    1.579    0.367
       333  -9.1856    166.7051     20.7037   6.8958373401e+01   4.0898509618e+01    0.1407149    0.1001713  36.37 0.0002228406    1.564    0.361
       334  -9.8816    137.0535     20.0490   7.3746655863e+01   4.8400217878e+01    0.2055926    0.1932033  62.75  0.001229897    1.055    0.053
       335 -10.9850    135.4947     16.5354   7.2799853893e+01   4.9152111677e+01    0.3318234    0.1321455  51.46  0.001176825    2.193    0.544
       336  -9.4128    168.6278    250.6948   1.2189299289e+02   1.0301787931e+00    0.1197218    0.0799747  17.49 0.0007032157    1.760    0.432
       337  -9.7873    115.3893    244.5071   1.3080671604e+02   1.0167790891e+01    0.1642572    0.1124984 -63.98  0.001055035    1.742    0.426
       338 -10.0345    104.2128     18.6965   8.0482559008e+01   5.6229435657e+01    0.2475822    0.1534248  12.80 0.0007393981    1.962    0.490
       339  -8.8636    151.6685     18.6864   7.0678548347e+01   4.4914754563e+01     0.148194    0.0967698  35.66 0.0005945267    1.679    0.404
       340 -11.3762    178.6765    243.7092   1.1915045178e+02   4.1260856101e-01    0.3519778    0.1166743  42.45  0.001555008    2.471    0.595
       341  -9.1277     50.4757     18.5916   9.8029461272e+01   6.6257757668e+01    0.1237032    0.1005134  -3.02 8.767324e-05    1.022    0.022
       342  -9.4452     18.4190     19.0000   1.1284229131e+02   7.0022470529e+01    0.2162875    0.1363606  16.52  0.001389813    1.682    0.405
       343 -10.0638     20.0405     15.4612   1.1045264806e+02   7.0438821472e+01    0.1964027    0.1541528 -22.18  0.000581168    1.061    0.058
       344  -9.7203     82.0304     16.4736   8.5762005352e+01   6.1095654676e+01    0.1919696    0.1569152  -6.69 1.993366e-05    1.148    0.129
       345  -9.9172      9.8202     15.9899   1.1593305291e+02   7.1242193391e+01    0.1775117    0.1121992 -27.43 0.0007243655    1.268    0.211
       346 -10.2152    109.8908    243.2287   1.3167497508e+02   1.1198850999e+01    0.2524949    0.1530628  73.23  0.001419923    2.016    0.504
       347  -9.3881    124.0043     14.7697   7.4415881425e+01   5.2103764698e+01    0.1785783    0.1053772  60.15 0.0003457482    1.574    0.365
       348 -10.2973     72.0050    243.9210   1.3853775335e+02   1.6427555501e+01    0.1749559    0.1359835  62.04  0.000774349    1.045    0.043
       349 -11.9709     35.0305    241.4391   1.4471035421e+02   2.1401542977e+01    0.5223873    0.2279924  45.35  0.003194496    1.825    0.452
       350  -9.2721     90.0646     12.9816   8.1864759632e+01   5.9867653410e+01    0.1543274    0.1326321  27.35 0.0004851167    1.034    0.033
       351  -9.6044     24.4665    232.4855   1.4596975344e+02   2.4166526150e+01    0.1841204    0.1062982  53.89   0.00111445    1.362    0.266
       352 -10.5175     31.7943    237.1471   1.4500051016e+02   2.2527365994e+01    0.2578705    0.1400523  67.22 0.0009808551    1.468    0.319
       353 -10.1859     29.0554    233.0155   1.4522190438e+02   2.3575623941e+01    0.2552695    0.1114945  49.18   0.00118061    1.782    0.439
       354  -8.9310    180.6823     10.7467   6.4095674869e+01   3.8397843983e+01    0.1347544   0.09362212  45.71 0.0002258455    1.532    0.347
       355 -11.9187    156.1670    241.4362   1.2295082269e+02   4.3014065733e+00    0.3032432    0.2004164  31.31  0.001282761    1.401    0.286
       356 -11.8070     19.1742    238.3271   1.4716105545e+02   2.3670701718e+01    0.4386859    0.2335697  38.62  0.002938273    1.897    0.473
       357  -9.3386     50.2799    240.3474   1.4205291891e+02   1.9810274998e+01    0.0913467   0.08300831 -59.42 0.0006712755    1.640    0.390
       358 -10.5599    174.2140    238.5757   1.1924551488e+02   1.8341645255e+00    0.2470839    0.1763535  28.48 0.0009076772    1.254    0.203
       359 -10.9032    177.5416    234.9598   1.1811818671e+02   1.8144806357e+00    0.2582657    0.1933119   7.45   0.00123458    1.542    0.352
       360  -9.7863    195.7178    238.5714   1.1534337982e+02  -1.5740737224e+00    0.2339357   0.09564362  36.17  0.001123329    2.066    0.516
       361 -10.7243    160.0425    235.8016   1.2148196058e+02   4.5211791455e+00    0.2264596    0.1484663  27.86 0.0008392641    1.523    0.343
       362 -11.1967     70.9509     26.3898   9.3782737300e+01   6.1877920480e+01    0.3830459    0.2760911   8.27  0.001882431    1.413    0.292
       363 -11.0255     73.5381    233.0048   1.3734689747e+02   1.8148839734e+01    0.2614644    0.1657184  52.12  0.001451815    1.271    0.213
       364 -11.3784    153.3710    233.7795   1.2245741515e+02   5.9110552432e+00    0.2371807    0.1859859 -22.78 0.0009016766    1.667    0.400
       365 -10.3931    166.9988    233.8332   1.1991193160e+02   3.6874668942e+00     0.188226    0.1787332   1.29 0.0008288994    1.202    0.168
       366  -9.9566     86.2640    233.4007   1.3503990554e+02   1.6320997189e+01    0.2049991    0.1245124  80.80   0.00118783    1.839    0.456
       367  -9.6016    127.6494    233.6646   1.2729938893e+02   1.0055400667e+01    0.1174049   0.09243631  10.02 0.0007046442    1.784    0.440
       368  -9.9017     79.5878    231.3660   1.3608568672e+02   1.7619473640e+01    0.2104341    0.1222423  42.20 0.0006069865    1.529    0.346
