#   1 NUMBER                 Running object number                                     
#   2 MAG_AUTO               Kron-like elliptical aperture magnitude                    [mag]
#   3 X_IMAGE                Object position along x                                    [pixel]
#   4 Y_IMAGE                Object position along y                                    [pixel]
#   5 X_WORLD                Barycenter position along world x axis                     [deg]
#   6 Y_WORLD                Barycenter position along world y axis                     [deg]
#   7 A_WORLD                Profile RMS along major axis (world units)                 [deg]
#   8 B_WORLD                Profile RMS along minor axis (world units)                 [deg]
#   9 THETA_WORLD            Position angle (CCW/world-x)                               [deg]
#  10 FWHM_WORLD             FWHM assuming a gaussian core                              [deg]
#  11 ELONGATION             A_IMAGE/B_IMAGE                                           
#  12 ELLIPTICITY            1 - B_IMAGE/A_IMAGE                                       
         1 -13.9759    218.7246      2.4009   4.3606400726e+01   2.8987407677e+01     2.289777    0.9434631  57.98  0.006755462    2.374    0.579
         2 -13.7278    178.7091     45.3795   6.1414288181e+01   3.4425125424e+01     1.102585    0.7815422 -20.27 0.0008735282    1.506    0.336
         3 -14.0055    189.8452     35.9400   5.6699614598e+01   3.2760938015e+01     1.131287     1.033244 -37.81  0.003091892    1.092    0.084
         4 -14.9037    197.1687     26.5222   5.2819547907e+01   3.1990100495e+01     2.176502     1.404713  33.18  0.001286121    1.892    0.472
         5 -10.9180    190.1142     15.0676   5.0221268697e+01   3.5131190582e+01    0.2640477    0.2107773 -82.81 0.0007840554    1.278    0.217
         6  -9.3066    159.2773    250.3385   1.0821132298e+02   5.4743162076e+00    0.1020384   0.07299167  20.67 0.0004603161    1.615    0.381
         7 -16.4263     70.2962    147.2045   1.1317782281e+02   3.6758367855e+01     7.515939     3.635607  79.92   0.02804409    3.761    0.734
         8 -12.9386     51.2766    208.5010   1.2332383831e+02   2.6996321439e+01    0.4584936    0.1802864  55.94  0.001217655    2.113    0.527
         9 -13.7979     58.2688    204.8438   1.2175726376e+02   2.6808927226e+01    0.7433708    0.4389206  55.41  0.001866033    1.339    0.253
        10 -10.2537     48.8664    217.7605   1.2438595378e+02   2.5658398423e+01    0.2817037    0.1329506  43.11   0.00162321    1.746    0.427
        11 -12.4864    121.8789    212.8790   1.1056570733e+02   1.6452724978e+01    0.3413041    0.2590936  75.76   0.00145812    1.413    0.292
        12 -13.8085    128.5865    210.2405   1.0899225523e+02   1.5816632044e+01    0.8111839    0.4737275  76.00  0.003983701    2.794    0.642
        13 -12.5008    106.9324    210.3277   1.1308967674e+02   1.9162087394e+01     0.494856    0.3025087  55.47   0.00204471    1.385    0.278
        14 -13.0252    113.4851    208.5753   1.1165342300e+02   1.8457471758e+01    0.5621102    0.2540739  46.93  0.002925463    1.786    0.440
        15 -12.6768    106.8511    203.3136   1.1232582304e+02   2.0366151454e+01    0.6741208    0.2823757  51.74  0.001874796    2.124    0.529
        16 -14.4186    113.5495    197.3650   1.1031213788e+02   2.0359590328e+01     1.134151    0.6894603 -89.32   0.00590828    2.356    0.576
        17 -10.4826     30.5794    210.7483   1.2718155804e+02   2.8910538194e+01    0.1619988    0.0791951  50.38 0.0002931883    1.564    0.361
        18 -19.3897     10.4471    133.9554   1.2619089133e+02   4.6018799334e+01     16.82649     1.925658 -77.04   0.04134358    9.300    0.892
        19 -12.0455     99.2618    196.5093   1.1303638034e+02   2.2713874601e+01    0.5104639    0.2699848  30.61  0.002532699    2.389    0.581
        20  -9.7766     33.9474    205.7561   1.2629279638e+02   2.9442571100e+01    0.1392515    0.1222192  68.03 0.0009024409    1.327    0.246
        21  -9.4168    163.3787    203.7453   1.0157671280e+02   1.1048661071e+01    0.1411441    0.1175368 -24.11 0.0002749815    1.482    0.325
        22 -10.8886    155.9173    200.1394   1.0245613495e+02   1.2871170784e+01    0.3267924    0.2436812  87.56  0.001547361    1.956    0.489
        23 -10.2814    198.7922    222.7881   9.8030308821e+01   2.6442212405e+00     0.172531    0.1269557  28.46 0.0005794075    1.103    0.093
        24 -10.6285    209.9694    199.5566   9.2489657326e+01   3.6381723235e+00    0.1900014    0.1705856 -47.34 0.0006048195    1.535    0.348
        25 -12.0358    193.2852    193.2222   9.4399374693e+01   7.3536444481e+00    0.7373253     0.417713 -52.76  0.003658819    2.683    0.627
        26 -11.6525    136.0309    199.2000   1.0614626264e+02   1.6391271175e+01    0.2004594     0.187228 -79.12  0.001400381    1.239    0.193
        27 -11.6051    141.2230    198.0167   1.0497562885e+02   1.5712897533e+01     0.259141    0.2105105  85.34  0.001008107    1.465    0.317
        28 -10.8718     95.2164    200.3317   1.1425633313e+02   2.2631154563e+01    0.2901141    0.1851303  71.23 0.0007869747    1.607    0.378
        29 -13.1997     67.2831    191.4111   1.1886580831e+02   2.8152567684e+01    0.6071368    0.5392773  89.17  0.004217924    1.240    0.193
        30 -10.3505    152.2773    193.9872   1.0224748316e+02   1.4467373039e+01    0.2283104    0.1558715  59.87 0.0006238288    1.559    0.359
        31  -9.9190     64.3073    223.7368   1.2208333271e+02   2.2782150943e+01    0.1111344   0.05974677  61.62 0.0006931791    1.528    0.346
        32 -11.6153     71.3219    210.1978   1.1975961184e+02   2.4200004636e+01     0.325834    0.1906909  33.34 0.0004205447    1.942    0.485
        33 -16.5649     77.9611    246.3820   1.2137532945e+02   1.7484514965e+01     7.503369     2.301904  33.53   0.02796092    5.602    0.822
        34 -10.1317     81.9560    195.4093   1.1634515404e+02   2.5424675469e+01    0.2207841    0.2126865 -24.08  0.001622572    1.520    0.342
        35 -10.5871    151.0700    182.8637   1.0076743613e+02   1.6507619907e+01    0.1979291    0.1608843  64.79 0.0005370176    1.299    0.230
        36  -9.8773     44.4978    195.4504   1.2364922827e+02   3.0169586152e+01    0.1822286    0.1219894  78.95 5.156267e-05    1.244    0.196
        37 -11.7195     99.4894    180.8413   1.1109725113e+02   2.5583289974e+01    0.2342155    0.2082743  69.62 0.0006103024    1.078    0.073
        38 -11.2891    144.2827    179.3634   1.0157968220e+02   1.8323743862e+01    0.2167488    0.1634322 -34.85 0.0007903666    1.642    0.391
        39 -10.4148    165.7962    172.7195   9.6110860918e+01   1.5497537534e+01    0.3008945    0.2051131 -82.35  0.001062294    2.723    0.633
        40 -10.4903     40.5394    193.9308   1.2429599527e+02   3.0900154429e+01    0.2935278    0.1256992  43.86  0.001263149    1.942    0.485
        41 -11.4157     43.9368    171.7596   1.2186364187e+02   3.4855339909e+01    0.5104117    0.1774902  38.89  0.002486047    2.581    0.613
        42 -11.4104    194.8399    168.0044   8.9598309457e+01   1.0723526259e+01    0.3068385    0.2644586  28.12 0.0008738938    1.019    0.019
        43 -10.8082    146.1441    169.1316   9.9502381061e+01   1.9793468077e+01    0.1856667    0.1536989  71.90 0.0005270908    1.320    0.243
        44 -11.6682     59.5693    163.2442   1.1763444256e+02   3.4748537446e+01     0.273789     0.204927  84.72  0.001184726    1.172    0.147
        45 -10.4450    190.0383    160.8351   8.9118696619e+01   1.2759393768e+01    0.2528911    0.1912831 -34.70 0.0007155801    1.430    0.301
        46 -11.1753    189.1728    154.9445   8.8106390694e+01   1.3869560493e+01    0.4035265    0.3735422 -72.90  0.002412208    1.341    0.254
        47 -13.1063     95.6252    154.8023   1.0830739729e+02   3.1396198423e+01    0.6555423    0.5377805 -41.24  0.002318125    1.523    0.344
        48 -11.6995    133.8325    144.9588   9.7774408865e+01   2.6692880072e+01     1.030475    0.2885543 -55.19  0.002877362    5.256    0.810
        49 -10.1331    113.0476    151.0068   1.0365723609e+02   2.9279509832e+01    0.2215239    0.1562936  78.23  0.001091577    1.693    0.409
        50 -10.9720    140.1999    156.9559   9.8615887454e+01   2.3152369387e+01    0.2719634    0.2166359  85.34 0.0005026018    1.504    0.335
        51 -11.2903     44.4697    211.3409   1.2474978314e+02   2.7283047247e+01    0.2557587    0.2023754 -70.77  0.001410916    1.534    0.348
        52 -10.3231    174.9040    149.1446   8.9752642711e+01   1.7717718446e+01    0.2131875    0.1901977  70.23 0.0005891199    1.274    0.215
        53 -11.3567    144.0774    146.9994   9.5874422480e+01   2.4305991574e+01    0.3350957    0.2423935 -75.22  0.001642484    1.829    0.453
        54 -11.8957    107.3413    140.1354   1.0308032113e+02   3.2538874663e+01    0.4817629    0.3270726 -32.31  0.002317989    2.089    0.521
        55 -12.6040     95.0704    140.4804   1.0612381801e+02   3.4523416641e+01    0.2763552    0.2717955  36.64 0.0004116681    1.209    0.173
        56  -9.7493    128.2427    139.3938   9.7969800091e+01   2.8880239693e+01    0.2038323    0.1256163  53.21 0.0009457494    1.617    0.382
        57 -10.9831    106.0952    130.8306   1.0163158944e+02   3.4745689737e+01     0.340305    0.2857564 -85.24  0.001309203    1.216    0.178
        58 -11.1201    102.2380    126.6823   1.0178813735e+02   3.6317505158e+01    0.2570606    0.2330566  -8.32 0.0004947509    1.394    0.282
        59 -10.9415    120.5083    129.4749   9.7799233748e+01   3.2402501964e+01     0.285616    0.2045081  66.53 0.0007764302    1.580    0.367
        60 -11.4215    114.4727    130.5945   9.9507812644e+01   3.3291461995e+01    0.4592567     0.330495  -6.28 0.0006011122    2.482    0.597
        61 -10.9731    119.5940    124.2394   9.6914430881e+01   3.3680038409e+01    0.3933727    0.2611822 -12.44     0.001533    3.075    0.675
        62  -9.5919    145.0456    129.4567   9.1986771229e+01   2.7532250941e+01    0.2151205    0.1381167  48.95 0.0004492864    1.504    0.335
        63 -11.2177    135.6537    123.7793   9.2909047116e+01   3.0600387496e+01    0.6155061    0.1735477 -51.71  0.001751352    4.374    0.771
        64 -10.0520    160.8327    128.0003   8.8126263040e+01   2.4484522985e+01     0.244208    0.1737298 -72.34  0.001090763    2.014    0.504
        65 -10.2552    110.0286    119.2621   9.8251559993e+01   3.6538715285e+01     0.227094    0.1974647 -54.66 0.0005446869    1.153    0.132
        66 -12.0599    183.8787    215.4750   9.9559968460e+01   5.9715403271e+00    0.4130975    0.3526512  87.27  0.002803736    1.739    0.425
        67 -10.0313    167.9201    112.7888   8.2947237894e+01   2.5762556792e+01    0.3400497    0.2366221  88.88  0.001393378    2.380    0.580
        68 -11.3160    120.5029    111.0015   9.3679140788e+01   3.6308675582e+01    0.3601746    0.2904593  87.44  0.001828206    1.459    0.315
        69 -10.1603    103.3698    110.8240   9.8125534584e+01   3.9588811915e+01    0.2255479    0.1836072  60.95 0.0006388332    1.267    0.211
        70 -10.1732    205.6887    110.1123   7.4817418758e+01   1.7639419076e+01    0.2747218    0.2059978  39.67 0.0006502249    1.327    0.247
        71  -5.0701     60.3226    218.0297   1.2237485622e+02   2.4239324474e+01    0.3020222    0.1195372 -78.65  0.001581795    2.891    0.654
        72 -11.6629     55.8855    211.3555   1.2268871134e+02   2.5939145664e+01    0.1886412    0.1436611  77.82 0.0005210332    1.130    0.115
        73 -11.3187     41.7973     91.8662   1.1216730932e+02   5.2708342757e+01    0.2112189    0.1790837 -63.72 0.0004584621    1.061    0.058
        74 -11.6527    164.0178     64.7815   7.0290248935e+01   3.5256450709e+01    0.3450582    0.2836177 -72.78 0.0005278301    1.429    0.300
        75 -10.9880    163.5034     56.0114   6.7624326869e+01   3.6799347477e+01    0.2364111     0.151596 -30.61 0.0006367949    1.574    0.365
        76 -10.2917    172.3561    238.4302   1.0463253390e+02   4.9269622892e+00     0.174194    0.1430892 -52.56  0.001303406    1.681    0.405
        77 -11.8636     39.6714    212.2940   1.2566560235e+02   2.7654843717e+01    0.2112516    0.1784668  78.46   0.00135925    1.263    0.208
        78 -10.3181     53.7103    230.4532   1.2435931178e+02   2.2965161135e+01    0.2768999     0.131963 -81.69  0.001741098    2.208    0.547
        79  -9.7332     71.9870    230.0210   1.2120631712e+02   2.0781374347e+01    0.1576044   0.09017105  61.32 0.0004161421    1.413    0.292
        80  -9.3902    154.5259     25.5366   5.9042541269e+01   4.3425200339e+01    0.1469542    0.1420022 -86.47 2.151888e-05    1.067    0.063
