#   1 NUMBER                 Running object number                                     
#   2 MAG_AUTO               Kron-like elliptical aperture magnitude                    [mag]
#   3 X_IMAGE                Object position along x                                    [pixel]
#   4 Y_IMAGE                Object position along y                                    [pixel]
#   5 X_WORLD                Barycenter position along world x axis                     [deg]
#   6 Y_WORLD                Barycenter position along world y axis                     [deg]
#   7 A_WORLD                Profile RMS along major axis (world units)                 [deg]
#   8 B_WORLD                Profile RMS along minor axis (world units)                 [deg]
#   9 THETA_WORLD            Position angle (CCW/world-x)                               [deg]
#  10 FWHM_WORLD             FWHM assuming a gaussian core                              [deg]
#  11 ELONGATION             A_IMAGE/B_IMAGE                                           
#  12 ELLIPTICITY            1 - B_IMAGE/A_IMAGE                                       
         1 -12.7292    224.8024     58.7796   5.3912994453e+01   2.1068714226e+01     1.728631     1.102944   3.84  0.006971673    2.761    0.638
         2 -11.9708    240.1234     54.8531   5.0959684722e+01   1.8030190402e+01      1.24842    0.6407475  69.20  0.005535059    2.159    0.537
         3 -10.0596    245.4618     11.7973   4.0055463014e+01   2.2356940670e+01    0.5580897    0.2065651 -54.11  0.002287567    2.643    0.622
         4  -9.7852    249.8913      9.1090   3.9099484491e+01   2.1658532149e+01    0.6321794    0.1259812 -35.98  0.002300739    3.420    0.708
         5  -8.2430    136.2241      9.0991   5.2559195477e+01   5.0060759870e+01     0.219709    0.1914548  81.32 0.0002986237    1.206    0.171
         6  -7.6519     11.3158      2.6523   9.2915551281e+01   7.3268672783e+01   0.09369343   0.08514027 -51.09 0.0004452533    1.724    0.420
         7  -7.5517    114.0610    248.4738   1.1414299703e+02   9.4075626788e+00    0.1786081   0.09180751  42.56 0.0006660199    1.571    0.363
         8  -8.4305    202.8698    249.6728   9.8601479366e+01  -4.6546737929e+00    0.2643266    0.1779066 -13.63  0.001354495    1.834    0.455
         9  -8.7432    206.2317    245.9567   9.7487058901e+01  -4.7297421451e+00    0.2814127    0.1776661  12.81  0.001685958    1.784    0.440
        10  -7.5444    197.7688    250.5816   9.9612589582e+01  -3.9788568822e+00    0.1623821   0.08925413  44.61 0.0009166044    1.579    0.367
        11  -9.5110    186.4689    249.4755   1.0143341314e+02  -2.0851087388e+00     0.449606    0.2149988  36.96  0.002471328    1.664    0.399
        12  -8.8094    192.7576    249.1049   1.0028131757e+02  -3.0222546620e+00    0.2967723    0.1747107  20.84  0.001695626    1.889    0.471
        13  -8.4912    197.6220    245.2961   9.8895794818e+01  -3.3117652897e+00      0.36691    0.1966524  18.39  0.001820485    2.540    0.606
        14  -7.8235    184.3949    235.1518   9.9802484822e+01   1.3082775496e-01    0.2322623    0.1545941  23.88  0.000979227    1.501    0.334
        15  -7.5034    181.7453    238.4174   1.0074885584e+02   1.1771108027e-01    0.1959321    0.1345367  28.30 0.0007468992    1.318    0.242
        16  -8.2582    178.1340    241.1534   1.0178107705e+02   3.3184309307e-01    0.2393628    0.1812042  25.70  0.001501286    1.233    0.189
        17  -9.0733    175.6476    238.3690   1.0184644849e+02   1.1184919362e+00    0.4114505    0.2842821  -0.42  0.002369083    2.110    0.526
        18  -9.6142    170.5120    248.3961   1.0410790816e+02   5.7706828395e-01     0.361877    0.3194436  76.56  0.002645466    1.455    0.313
        19  -8.2555    174.8392    245.4105   1.0294705668e+02   2.8735157180e-01    0.2244799      0.16291  18.84  0.001262359    1.495    0.331
        20  -9.4765    168.6717    242.4172   1.0365668908e+02   1.6893962344e+00    0.4169759    0.2669941  -1.66  0.002110424    2.957    0.662
        21  -8.6685    178.0784    247.4493   1.0264189251e+02  -4.9985175310e-01    0.2382933    0.1173337  32.45  0.001004191    1.868    0.465
        22  -8.8160    183.1140    244.7948   1.0138969496e+02  -9.5347289346e-01    0.4404904    0.2443687   8.16  0.001785224    4.389    0.772
        23  -8.5319    164.5553    247.2108   1.0501622223e+02   1.6872455971e+00    0.2063267    0.1745906  24.72 0.0009564479    1.214    0.177
        24  -8.5285    141.2358    243.4600   1.0874653582e+02   5.9562911102e+00    0.2230836    0.1705692 -12.26 0.0009357579    2.123    0.529
        25  -8.4903    146.1287    242.8212   1.0778528190e+02   5.2696045716e+00    0.2133678    0.2040538  71.03  0.001163949    1.236    0.191
        26  -8.2837    153.4249    240.7684   1.0620720121e+02   4.3972766212e+00    0.1935372    0.1528726  20.51 0.0007205823    1.446    0.308
        27  -8.8153    145.2791    247.2511   1.0846526381e+02   4.7514899291e+00    0.2473329    0.1739551  30.82  0.001108363    1.437    0.304
        28  -9.2535    150.4274    245.5465   1.0733954059e+02   4.1805992179e+00       0.2932    0.2261465   5.33  0.001308608    1.845    0.458
        29  -8.2085    140.9372    250.1746   1.0957442082e+02   5.0092370181e+00    0.2147214     0.138601  31.25  0.001314609    1.595    0.373
        30  -9.3483    129.9519    248.7142   1.1136002511e+02   6.9385454526e+00    0.3491229     0.227846 -17.89   0.00167147    4.049    0.753
        31  -8.4634    193.3503    243.4854   9.9391135417e+01  -2.4121403797e+00    0.3098272     0.155909  20.07   0.00139579    3.031    0.670
        32  -8.5996    163.3104    242.2877   1.0460794573e+02   2.5753875813e+00    0.3653921    0.2258219 -13.64  0.001768641    3.376    0.704
        33  -9.0832    122.1293    241.5025   1.1198016243e+02   9.2735322353e+00    0.2011635    0.1548912 -34.27  0.001300994    1.976    0.494
        34  -9.1110    161.1934    249.6201   1.0591606133e+02   1.8908742892e+00    0.4470387    0.1527296  35.14  0.001867511    2.995    0.666
        35  -8.0270    202.2013    240.2979   9.7365400956e+01  -3.4104218589e+00     0.299811    0.1105217  32.81  0.001311112    2.646    0.622
        36  -9.2016    130.8494    239.8465   1.1021225914e+02   8.1655685310e+00    0.1653937    0.1209238  64.14 0.0005483566    1.330    0.248
        37  -6.7500    219.6844    239.3135   9.4161997539e+01  -6.0086588860e+00     0.104142   0.08771005  53.85  0.000703476    1.642    0.391
        38  -7.5093    209.8340    237.1833   9.5553390389e+01  -4.2257885911e+00    0.1681825    0.1139736  20.14 0.0006380826    1.355    0.262
        39  -7.8286    195.4437    236.9390   9.8070877570e+01  -1.9042241995e+00    0.1515306    0.1164993 -27.69 0.0006280197    1.532    0.347
        40  -8.2399    157.3864    236.8250   1.0497590021e+02   4.3349435754e+00    0.2162092    0.1189812  39.02   0.00119057    1.502    0.334
        41  -8.2309    145.1745    237.0669   1.0725434397e+02   6.2954788249e+00    0.1839748    0.1486088  29.87 0.0009227204    1.288    0.224
        42  -7.9327    190.1327    236.1399   9.8907683441e+01  -9.3946638729e-01    0.2190978      0.13828  -5.96   0.00114312    2.435    0.589
        43  -9.0434    171.6413    232.5886   1.0177228288e+02   2.6000209418e+00    0.3225935    0.1772129  18.65  0.001413276    3.112    0.679
        44  -7.9640    153.1956    233.2068   1.0527603723e+02   5.5723203978e+00    0.1969553    0.1277582   9.34 0.0009528851    2.834    0.647
        45  -7.8560    188.6860    230.6461   9.8357541339e+01   4.4007939188e-02    0.2350049    0.1221833  32.23  0.001214033    1.758    0.431
        46  -7.8109    196.1383    229.0530   9.6757449003e+01  -9.6881977303e-01    0.2520227    0.1557539  10.72  0.001311858    2.180    0.541
        47  -6.9712      5.3172    229.6767   1.3123607960e+02   2.6409956590e+01     0.111743   0.04971679  65.98  0.000704351    1.668    0.400
        48  -7.1815    125.4857    227.5663   1.0976825956e+02   1.1033092741e+01     0.123074    0.1016401  48.57 7.901543e-05    1.082    0.076
        49  -7.5568    211.7705    225.6356   9.3398035679e+01  -3.0716926099e+00    0.2510821    0.1312692  -4.63 0.0009560254    4.339    0.770
        50  -8.3521    165.1174    232.6231   1.0298384332e+02   3.6807259986e+00    0.3914129    0.1595536  29.17  0.001439652    3.852    0.740
        51  -7.1937    162.3683    225.2762   1.0246919811e+02   5.2579388034e+00    0.1260024   0.08895842  19.89 0.0007007114    1.679    0.404
        52  -7.1272    195.4407    218.5404   9.5226847930e+01   6.1339931342e-01    0.1284295     0.103908  23.36 0.0001812022    1.091    0.083
        53  -7.6784    211.0918    216.6355   9.2036839171e+01  -1.7611189426e+00     0.287841    0.1635545   3.95  0.001280796    2.905    0.656
        54  -7.3499    234.2875    215.3380   8.7691342418e+01  -5.3623627075e+00    0.1260612   0.08066873   7.83 0.0003330013    1.635    0.388
        55 -11.8179    237.0945    157.5814   7.5935559256e+01   2.3396466854e+00     2.007973    0.9625213 -18.86  0.007652515    2.955    0.662
        56  -9.3090    243.1926    188.6900   8.1240125803e+01  -3.3015300433e+00    0.7393014    0.2660882 -23.88  0.002592743    4.076    0.755
        57 -11.5701    241.9360    178.7123   7.9489140626e+01  -1.6910749756e+00     1.560782    0.5456517 -27.85  0.005809473    3.328    0.700
        58  -9.5593    248.6867    166.6810   7.5880957368e+01  -1.1243030713e+00    0.6179073    0.3267792 -31.28  0.003033489    1.763    0.433
        59 -11.5174    248.6807    155.8412   7.3593454232e+01   4.7933824361e-01     2.083344    0.5879765 -33.86  0.007298499    3.310    0.698
        60  -9.5651    249.3381    176.3330   7.7748339669e+01  -2.6163150072e+00    0.6870328    0.2718667 -39.78  0.002929746    2.670    0.625
        61  -7.6091    226.0000    209.0463   8.8041965370e+01  -3.2100693317e+00     0.185101   0.06859852 -35.39 0.0007946294    2.889    0.654
        62  -7.4308    218.3711    209.8190   8.9546532794e+01  -2.0464553180e+00    0.1715953    0.1109303 -19.57 0.0009512645    1.696    0.410
        63  -9.6801    230.1761    198.0435   8.5297879626e+01  -2.4093553197e+00    0.4578248    0.2598432 -28.87  0.002418587    1.804    0.446
        64  -7.9176    210.0000    199.9838   8.9328695176e+01   7.9433160038e-01    0.1997541   0.07319956 -38.08 0.0008048936    2.959    0.662
        65  -8.3577    224.1133    197.5542   8.6293296745e+01  -1.3096043963e+00    0.2072935    0.1469473 -19.46  0.001019695    1.431    0.301
        66  -8.9730    232.6156    190.5661   8.3450216991e+01  -1.7774506188e+00    0.2330951    0.1904477 -19.24  0.001346976    1.203    0.169
        67 -10.5661    237.4492    198.9505   8.4186208206e+01  -3.7431061491e+00     1.233827    0.2659851 -37.27  0.004135741    4.769    0.790
        68  -9.2519    222.1743    190.1713   8.5253162827e+01   9.5802866408e-02    0.3205242    0.2556209  64.30  0.001807885    1.833    0.454
        69  -7.4296    226.2864    188.3395   8.4154279512e+01  -3.5952200152e-01    0.1854136    0.1182589  25.24 0.0005601179    1.537    0.349
        70  -9.6557    221.4308    184.3793   8.4268129806e+01   1.0934093514e+00    0.2875363    0.2233355  -2.13 0.0009285139    1.276    0.216
        71  -6.9917    214.6053    191.7151   8.6940769751e+01   1.2117539067e+00     0.141848   0.09220719  14.42 0.0006648753    1.766    0.434
        72  -7.3950    210.5349    188.5009   8.7091488215e+01   2.4387658652e+00    0.1349007     0.117866  16.27 0.0002212442    1.004    0.003
        73  -9.4159    229.4298    185.9743   8.3129221955e+01  -5.6574194270e-01    0.2610611    0.1605239 -31.30  0.001377948    1.630    0.386
        74  -9.8967    235.8455    180.6617   8.0940906513e+01  -9.1541735555e-01    0.4488744    0.2652642  -5.77  0.001861165    2.206    0.547
        75  -7.2513    210.3083    183.2890   8.6127723649e+01   3.2970951495e+00    0.1376768   0.09763496  10.56 0.0006992312    1.576    0.366
        76  -9.9345    233.3569    174.0018   8.0037271581e+01   5.1007698445e-01    0.3982314    0.2107294 -20.91   0.00179088    2.181    0.542
        77  -6.7700    142.2968    181.7040   9.9707587033e+01   1.6563431441e+01    0.1391192    0.1046638  74.21 0.0003387951    1.567    0.362
        78 -10.6183    244.4094    199.7539   8.3133785504e+01  -4.9780411717e+00     1.389993    0.4376487 -44.24  0.004524684    5.758    0.826
        79  -9.6696    101.0011    175.9929   1.0791139290e+02   2.5078193434e+01    0.1937165      0.17021  74.08            0    1.004    0.004
        80  -8.3132    190.0403    180.4982   8.9524741029e+01   7.6011600270e+00    0.2256324    0.2024664  17.98 0.0003757762    1.051    0.049
        81  -9.4113    248.2089    206.6561   8.3758388163e+01  -6.4537962656e+00    0.5237191    0.2358551 -33.34  0.002652285    2.257    0.557
        82  -7.8362    210.1279    164.1939   8.2278246558e+01   6.4584672633e+00    0.2073896    0.1721997  16.73 0.0002700834    1.176    0.149
        83  -7.3415     75.2954    163.2943   1.1196968248e+02   3.1884372243e+01     0.122051    0.1028114 -38.42 0.0002148267    1.561    0.359
        84  -6.8187    120.2678    161.7074   1.0112539522e+02   2.4850396218e+01     0.141458    0.1066492  79.83 0.0002912865    1.509    0.337
        85  -9.3193    249.6268    198.1560   8.1948792997e+01  -5.6008380155e+00    0.7462072      0.22024 -37.81  0.002945245    3.591    0.722
        86  -9.2687    227.2022    156.2244   7.7392758604e+01   4.4373228427e+00    0.4029947    0.2000046 -18.79  0.001505823    2.940    0.660
        87  -8.7782    235.3245    145.9416   7.3691886837e+01   4.5221163247e+00    0.2081287    0.1654272 -24.44  0.001145893    1.163    0.140
        88  -9.8183    248.5264    189.1148   8.0411997244e+01  -4.2370723456e+00    0.7628483      0.37116 -26.06  0.003708491    2.051    0.512
        89  -8.2359    242.6487    211.7442   8.5618268048e+01  -6.2232842905e+00    0.1543311    0.1057882 -33.30 0.0009401141    1.626    0.385
        90  -8.7283    158.1259    121.3186   8.3335937203e+01   2.5876185850e+01    0.3418477     0.204069  72.83  0.001165081    2.995    0.666
        91  -7.2062    123.6690    120.6750   9.1657524167e+01   3.3445189401e+01    0.1550352    0.1235578  -7.90 0.0007050617    1.705    0.413
        92  -9.3154    139.5473    118.1555   8.7001166867e+01   3.0676118760e+01    0.4275672    0.1784041  34.31   0.00128467    3.534    0.717
        93  -7.6871    129.6673    118.3152   8.9533374131e+01   3.2744050736e+01     0.159523    0.1221417  87.82 0.0007046451    1.685    0.407
        94  -7.5795    139.2844    113.3479   8.5836940051e+01   3.1784166990e+01    0.1577494    0.1252306  -7.67 0.0007018485    1.651    0.394
        95  -8.8055    211.4815    109.7566   6.9316555385e+01   1.5773996014e+01    0.2563897    0.2518321  -9.53 0.0002873903    1.040    0.039
        96  -8.7748    133.7483    108.3533   8.5927644748e+01   3.4081189676e+01    0.2996909    0.1861156 -54.84  0.001000833    1.711    0.415
        97  -9.0497    120.0965    109.1479   8.9714385770e+01   3.6774767889e+01    0.3148491    0.2110634  75.27  0.001265339    2.253    0.556
        98  -7.9279    191.6484    105.9800   7.2103302959e+01   2.1104426046e+01    0.2720346    0.1082605 -53.95 0.0007047102    4.517    0.779
        99  -8.9496    146.6270    105.2272   8.1862268566e+01   3.1886116627e+01    0.3337133    0.1940134  78.16 0.0009621459    4.231    0.764
       100  -8.4502    157.3369    103.6705   7.8879974173e+01   2.9729873864e+01    0.1651689    0.1263429 -81.02 0.0007052007    1.731    0.422
       101  -8.3570    148.6568    101.6927   8.0398224752e+01   3.2161653662e+01    0.1623102    0.1265855   8.39 0.0007043193    1.692    0.409
       102  -7.7994    118.3260    101.3321   8.8119959488e+01   3.8881812291e+01    0.1572865    0.1227782  -7.49 0.0007051157    1.710    0.415
       103 -10.8653    176.0727     92.7153   7.1675180161e+01   2.7384358872e+01     0.679567     0.326003 -54.56  0.002241194    2.862    0.651
       104 -10.3716    172.6372     85.9690   7.0478778872e+01   2.9502388692e+01    0.4870175    0.2106439 -37.02   0.00171073    2.275    0.560
       105  -9.3715    190.6730     89.7727   6.7919681453e+01   2.4337883982e+01     0.378079    0.2216628  15.04  0.001149604    3.961    0.748
       106  -8.5156    145.0000     89.9894   7.7955458681e+01   3.5418411744e+01    0.2658703   0.08887155 -40.39 0.0008027372    2.945    0.660
       107  -8.2347    136.4976     90.4646   8.0224675418e+01   3.7283625449e+01    0.1553126     0.152423 -45.96 0.0001610462    1.008    0.008
       108 -10.3457    158.4482     87.6831   7.4092760056e+01   3.2663699969e+01    0.4783594    0.2519997  57.16  0.001808935    2.061    0.515
       109 -10.4358    182.9982     84.2458   6.7869226304e+01   2.7241057887e+01    0.3849545    0.3090155   4.32  0.001795783    1.548    0.354
       110  -9.3395    192.2989     83.8754   6.5974995826e+01   2.4992123732e+01    0.3411159    0.2064988  -5.79   0.00117542    3.016    0.668
       111  -7.5926     99.9109     90.8747   9.0455185560e+01   4.4798427770e+01    0.1920217    0.1725166 -83.87 0.0002648681    1.240    0.194
       112  -8.7391    132.3516     73.8825   7.6221784554e+01   4.1545318805e+01     0.274928    0.2180081  63.26  0.001315116    1.400    0.286
       113  -8.0497    217.9081    249.3708   9.5975686578e+01  -6.8940038178e+00    0.2852973    0.1162794  29.25  0.001381397    2.402    0.584
       114  -9.0504    124.6719    248.9018   1.1231493477e+02   7.7253321222e+00    0.2019463    0.1335043  39.58  0.000858761    1.335    0.251
       115  -8.4829    114.7252     69.9598   7.9727887486e+01   4.6218705480e+01    0.2444495     0.216617  41.54  0.000407265    1.161    0.139
       116 -11.1934    211.6250     61.0487   5.6396326319e+01   2.3951180565e+01    0.6896655    0.4510602  10.29  0.002781236    2.580    0.612
       117  -9.2824    204.1855     63.3028   5.8165385624e+01   2.5459604267e+01    0.2421658    0.1902741  43.33   0.00119732    1.392    0.282
       118  -8.2253    193.1984     68.5931   6.1494744356e+01   2.7382460997e+01    0.2198464    0.1390324  48.20 0.0009486944    1.646    0.392
       119  -9.3195    250.2703     22.2803   4.2083039647e+01   2.0035017369e+01    0.3179808    0.1443376 -31.78  0.001462903    2.061    0.515
       120  -6.8558    139.2730     21.3498   5.6431946992e+01   4.8013510150e+01    0.1483446    0.1023563  26.25 0.0003653439    1.631    0.387
       121  -8.5181    211.7758    247.7229   9.6784941957e+01  -5.7847831202e+00     0.289875    0.1290086  25.30   0.00137307    2.608    0.617
       122  -9.3587    157.3102    245.9068   1.0614832348e+02   3.0280523962e+00    0.3416125    0.2448644  18.35  0.002134218    1.717    0.418
       123  -8.8592    136.6450    246.0569   1.0987265567e+02   6.2928190059e+00     0.207387    0.1482209  27.18  0.001198648    1.604    0.376
