#   1 NUMBER                 Running object number                                     
#   2 MAG_AUTO               Kron-like elliptical aperture magnitude                    [mag]
#   3 X_IMAGE                Object position along x                                    [pixel]
#   4 Y_IMAGE                Object position along y                                    [pixel]
#   5 X_WORLD                Barycenter position along world x axis                     [deg]
#   6 Y_WORLD                Barycenter position along world y axis                     [deg]
#   7 A_WORLD                Profile RMS along major axis (world units)                 [deg]
#   8 B_WORLD                Profile RMS along minor axis (world units)                 [deg]
#   9 THETA_WORLD            Position angle (CCW/world-x)                               [deg]
#  10 FWHM_WORLD             FWHM assuming a gaussian core                              [deg]
#  11 ELONGATION             A_IMAGE/B_IMAGE                                           
#  12 ELLIPTICITY            1 - B_IMAGE/A_IMAGE                                       
         1 -11.2945    189.5490     44.3728   3.7573373799e+01   3.2648029649e+01     2.456037    0.4936232 -46.66  0.007752166    4.736    0.789
         2 -11.2639    206.8254     17.4854   2.9892149685e+01   3.2193903567e+01    0.7106944    0.3513856 -38.98  0.002599986    1.974    0.493
         3 -11.3928    229.3981     31.6282   3.0810351757e+01   2.5989538325e+01     1.066803     0.711183 -54.41  0.002875436    1.251    0.201
         4 -14.1619    222.6740     74.1372   4.0035176984e+01   2.1428388938e+01     3.861188     1.989027 -80.45   0.01571541    3.373    0.704
         5 -11.3904    212.7701     25.6756   3.1054369369e+01   3.0032588306e+01    0.8164967    0.5338697 -11.24  0.004319423    2.997    0.666
         6 -14.3127    181.0755     77.6140   4.6684214174e+01   2.9580890302e+01     8.334485     3.185603 -54.30  0.001532012    3.453    0.710
         7 -14.2885    242.3092     57.8144   3.4689624505e+01   2.0091688684e+01     2.739275     1.226237  63.81  0.005662411    2.402    0.584
         8 -12.2319    220.5871     36.2473   3.2489992605e+01   2.7156456899e+01     1.749763    0.4756855 -48.96  0.007210935    3.132    0.681
         9 -10.8495    134.2721     47.7703   4.7294077652e+01   4.4864095424e+01    0.5769674    0.2252003 -37.49  0.002320573    2.677    0.626
        10 -10.4196    199.7107     35.7859   3.4466937024e+01   3.1547033270e+01      0.54339    0.2684453 -23.87  0.002301775    3.193    0.687
        11 -12.7238    249.8153     30.0692   2.8954757717e+01   2.2352855409e+01     1.214395     0.366656 -35.73   0.00399113    3.424    0.708
        12 -10.4671    236.6026     18.4559   2.7786799650e+01   2.6166379447e+01    0.2532551    0.1973768 -31.21 0.0007749106    1.703    0.413
        13  -8.6202    237.9965     13.4964   2.6791854899e+01   2.6461219930e+01    0.2231933    0.1410789  67.12  0.001509547    1.716    0.417
        14  -9.1179    224.8549     18.9576   2.8733312440e+01   2.8377023888e+01    0.2953402    0.2229735  20.14  0.001261718    2.756    0.637
        15 -14.1584    227.1196     89.2107   4.2603005086e+01   1.8192793122e+01     7.905735     1.717138 -49.65   0.02246544    5.404    0.815
        16 -10.4721    134.5756     17.5429   3.8388647814e+01   4.8330694849e+01     0.361684    0.2581869  -1.60  0.001883661    1.976    0.494
        17  -9.9744     92.4857     13.0271   4.5170895793e+01   5.8252928319e+01    0.3550124    0.2187166 -22.76  0.001989658    1.903    0.475
        18 -10.0060    245.9957     13.2289   2.6236941839e+01   2.5010206378e+01    0.2164453     0.134261 -42.27 0.0006503044    1.559    0.358
        19  -8.4909    233.1468     11.9176   2.6824359183e+01   2.7553079971e+01    0.1772188    0.1564174 -18.61  0.001337629    1.777    0.437
        20  -8.7267    128.7531     10.4185   3.7226982765e+01   5.0335447554e+01    0.1894778    0.1689523 -34.54 0.0005045434    1.329    0.248
        21 -10.1004    120.1843      9.2572   3.8283491588e+01   5.2397620548e+01    0.3161756    0.2767561 -53.31  0.001028485    1.308    0.236
        22  -7.5250     79.7006      7.3379   4.6240239413e+01   6.1460128255e+01    0.1125615   0.09248672 -76.93 0.0007034545    1.661    0.398
        23 -10.9657    250.1234      2.3099   2.4127864086e+01   2.5443859534e+01    0.1982632    0.1510849 -38.04  0.001531583    1.627    0.385
        24  -8.1558    209.6383      4.3359   2.7011436382e+01   3.2997153734e+01    0.2359096   0.09385984 -49.96  0.001255552    2.155    0.536
        25  -8.7380    236.0190      3.1496   2.5062349375e+01   2.7942810204e+01     0.213602    0.1412665 -54.97  0.001086909    1.257    0.204
        26  -8.1808    217.6675      2.5068   2.6096487958e+01   3.1561539118e+01     0.172346    0.1043571 -15.03 0.0009489867    3.116    0.679
        27  -8.3628    181.9590      3.0510   2.8967200351e+01   3.8970816665e+01    0.1791542    0.1241247  51.22  0.001130475    1.718    0.418
        28  -8.6795    147.9820      2.7258   3.2411466435e+01   4.6592731326e+01    0.1705613     0.128022  77.16 0.0001776346    1.087    0.080
        29  -8.6342    108.2319      8.9821   4.0368987553e+01   5.5127130432e+01    0.1436678    0.1052494 -22.67 0.0008783856    1.635    0.388
        30  -8.2405    171.4813      2.3064   2.9769854495e+01   4.1341738050e+01    0.2038587    0.1144915 -80.69 0.0006603796    1.727    0.421
        31  -8.1835    137.2003      1.5864   3.3462094639e+01   4.9143440773e+01    0.1734013   0.09008271  61.33  0.000498244    1.572    0.364
        32 -10.4535    243.2865    165.2729   5.5420654975e+01   2.4495009138e+00    0.3028227     0.266915  53.60  0.002015905    1.500    0.333
        33  -9.3252    136.3439    249.7298   9.1491083682e+01   2.8789762024e+00    0.3553852    0.1821665  46.98  0.001244042    2.143    0.533
        34 -10.4473     68.0232    144.0505   9.2234520832e+01   3.7906631427e+01      1.83114     0.622763  35.68  0.005931252    2.871    0.652
        35 -13.0125     29.4684    153.4260   1.0572087703e+02   4.0070451315e+01     1.933188      1.06621  11.45  0.001624126    2.342    0.573
        36 -12.5648     40.8512    148.7017   1.0155908433e+02   4.0133100727e+01     1.145575    0.9906116 -13.42  0.002677218    1.324    0.245
        37  -9.4586    176.4108    248.0658   8.2698153065e+01  -2.4561645651e+00    0.3098436    0.2598071  70.80  0.001398336    1.989    0.497
        38 -10.2604    197.8587    242.4510   7.7479126479e+01  -4.3926259497e+00    0.2243635    0.1974572 -12.48 0.0003426008    1.196    0.164
        39  -9.2753    113.2955    242.8503   9.5708239762e+01   7.5224971908e+00    0.4236969    0.2056523  63.32  0.001325564    5.228    0.809
        40  -8.5609    166.9021    232.8372   8.2315335516e+01   1.5323909363e+00    0.2132008    0.1771585 -27.35   0.00060023    1.208    0.172
        41  -8.5726    171.7389    156.6057   6.6912360085e+01   1.6143213250e+01    0.1976382    0.1420612  51.32 0.0003151538    1.567    0.362
        42  -8.3802    109.7411    153.9912   8.1842247129e+01   2.8525584028e+01    0.2043235    0.1956681 -48.83 0.0002781524    1.032    0.031
        43  -8.5542    204.2191    152.4525   5.9489242070e+01   1.1031960011e+01    0.2431576    0.1383004  38.69 0.0007501791    1.981    0.495
        44  -7.7631    209.4720    163.9108   6.0869263259e+01   7.9363730622e+00    0.1805786    0.1141964 -62.61  0.000801341    2.284    0.562
        45 -10.0114    173.0571    149.7410   6.5135777726e+01   1.7347130529e+01    0.3370418    0.2359401  14.07  0.001501411    1.954    0.488
        46 -10.4258    162.4289    146.1211   6.6683344469e+01   2.0196551506e+01    0.6673286    0.3943754 -72.04  0.001526193    3.385    0.705
        47  -9.0252    133.5105    144.7335   7.3388401423e+01   2.6244622417e+01    0.6396428     0.158364 -52.29  0.001589327    4.727    0.788
        48  -9.0539    223.6770    145.6812   5.4713612967e+01   8.9610681079e+00    0.3062067    0.2198174  77.85 0.0009584976    2.244    0.554
        49 -10.3325    217.4366    144.2161   5.5451200087e+01   1.0289133555e+01    0.3967357    0.2676056 -38.59  0.002009972    1.303    0.232
        50  -9.2951    214.5569    140.4712   5.5164554475e+01   1.1487290371e+01    0.2340998    0.2254634 -42.79 0.0005563041    1.106    0.096
        51  -9.8339    211.4131    139.1833   5.5432658097e+01   1.2286460692e+01    0.2821484    0.2379465 -54.02 0.0004530333    1.165    0.142
        52  -9.8249    249.6205    143.0702   5.0263051423e+01   5.3060299391e+00    0.3699138    0.1715143 -39.26  0.001649745    1.768    0.434
        53 -10.0164    145.7168    141.3790   6.9544799918e+01   2.4581957695e+01    0.5467576     0.345993 -39.53  0.001889653    1.599    0.374
        54 -10.1532    143.8811    138.1693   6.9253198563e+01   2.5675466229e+01    0.5100088    0.3279777 -69.85  0.001466158    2.258    0.557
        55  -9.6691    190.9910    132.1433   5.7603822086e+01   1.7463334360e+01    0.4411823     0.273886 -66.25  0.001863514    2.287    0.563
        56  -8.9788    192.3259    144.2755   6.0003059735e+01   1.4800837246e+01    0.2365914    0.2131278 -54.29  0.000461386    1.120    0.107
        57 -10.4069    193.1867    140.2442   5.8964122962e+01   1.5439876416e+01    0.6200415     0.344034 -62.49  0.002061394    2.708    0.631
        58  -9.7671    175.1956    140.4859   6.2628238531e+01   1.8872827994e+01    0.3198181    0.2491949 -50.92 0.0009893228    1.254    0.202
        59  -9.7925    159.7698    130.5677   6.3714151524e+01   2.4085029889e+01     0.669926    0.3156087 -34.71   0.00239614    2.533    0.605
        60  -8.8273    136.3384    129.0215   6.8973917686e+01   2.9277267971e+01    0.3624083    0.1432775 -46.72  0.001228123    2.484    0.597
        61  -9.1809    223.2679    128.9449   5.1362293838e+01   1.2066619520e+01    0.2176419    0.1947922  27.37 0.0004410959    1.334    0.251
        62  -8.9016    202.0758    126.0535   5.4244622180e+01   1.6497495693e+01    0.2626099    0.2056868 -68.63 0.0008590665    1.439    0.305
        63  -9.1023    170.3812    124.7789   6.0040382992e+01   2.3097248052e+01    0.2317006    0.1423386 -45.14 0.0002802809    1.548    0.354
        64  -8.7321    173.5046    124.4954   5.9323650015e+01   2.2508803186e+01    0.2324564    0.1833899 -78.09  0.001131664    1.551    0.355
        65  -9.3857    164.5054    241.9458   8.4258588952e+01   2.4594340134e-01    0.2885802    0.2027669  34.57  0.001110806    1.350    0.259
        66 -13.2325    238.5568     68.2411   3.7072625487e+01   1.9289542280e+01     1.044729    0.7549703  80.94  0.003002676    1.445    0.308
        67  -9.0211    222.2422    117.7689   4.9204913754e+01   1.4246048356e+01    0.2809798      0.17814 -57.99 0.0007869515    1.630    0.386
        68  -8.2421    164.5651    118.9959   5.9903471062e+01   2.5499942064e+01     0.229478    0.1419783 -44.39 0.0003628425    1.552    0.356
        69  -8.1361     59.9343    119.5113   8.9815956557e+01   4.5295558069e+01    0.1981756    0.1463395  28.48 0.0001181025    1.421    0.296
        70 -12.2334    202.2511     80.8466   4.4173360908e+01   2.4497792095e+01     1.192687    0.9185197 -57.53  0.003157859    1.174    0.148
        71  -9.1952    174.5368    113.5790   5.6542995365e+01   2.4474695560e+01    0.4128952    0.2591973 -29.84  0.001421952    1.865    0.464
        72  -9.5978    134.7013    111.2680   6.4948890579e+01   3.3513437451e+01    0.6108974    0.1358217 -46.50  0.001563358    4.571    0.781
        73 -10.3760    205.5051    109.9744   5.0146310816e+01   1.8810898546e+01    0.3710616    0.3472862  15.33  0.001645307    1.290    0.225
        74 -11.1658    122.8480    103.2553   6.5929295481e+01   3.7741875796e+01    0.7219924    0.5676394 -71.35  0.003444635    1.544    0.352
        75  -9.0912    165.9864    237.2014   8.3205032285e+01   8.7712254414e-01    0.2530769    0.1757856 -33.03 0.0003283313    1.477    0.323
        76  -8.2871     84.1729    107.7103   7.8733178215e+01   4.4341534247e+01    0.2578131      0.20257 -62.94 0.0007101605    1.407    0.289
        77  -7.9794    144.3656    105.8502   6.1180836774e+01   3.2547569892e+01    0.2143282    0.1411746 -33.87 0.0009382651    1.656    0.396
        78  -9.4035    151.1025    102.9047   5.8867974403e+01   3.1659604969e+01    0.3506441    0.3015043 -36.33  0.001293934    1.194    0.162
        79 -10.1089     79.2346    102.5079   7.9000784711e+01   4.6389073652e+01    0.2575281    0.2375111 -33.79 0.0003257549    1.050    0.048
        80  -9.9679    205.7008    100.7182   4.8077703234e+01   2.0422148329e+01    0.4223612    0.2198071 -55.68  0.001668522    2.040    0.510
        81  -9.0311    210.0567     98.3483   4.6894974206e+01   1.9967266941e+01     0.510848    0.2076405 -56.76  0.001802189    3.380    0.704
        82 -10.9557    165.9080     98.5796   5.4621320478e+01   2.9229618287e+01    0.8650079    0.3892102  47.53  0.002310984    2.310    0.567
        83  -9.9244    137.2929     99.2459   6.1146476036e+01   3.5433720480e+01    0.4576787     0.288993  59.13  0.001987052    1.758    0.431
        84  -9.6740    145.3206     93.8771   5.7822252041e+01   3.4703056501e+01    0.3243051    0.2791497 -67.57  0.001186238    1.225    0.183
        85 -10.6362    120.0471     96.0904   6.4725996990e+01   3.9822404824e+01    0.7957554    0.2818671 -49.40  0.001955663    3.170    0.685
        86  -9.0195    171.1569     91.8152   5.1917233692e+01   2.9320340560e+01    0.2249113    0.1879975 -79.04 0.0007622455    1.256    0.204
        87  -8.9157     56.5806    237.1858   1.0795057585e+02   1.6477335591e+01    0.1716194    0.1142877 -58.87 0.0007488041    1.647    0.393
        88 -10.9565    161.7345     89.7682   5.3237438372e+01   3.1789204447e+01    0.3262824    0.2658189 -32.49  0.000784358    1.324    0.245
        89  -7.9442    102.5563    230.7767   9.6613207584e+01   1.1572921355e+01    0.1794123    0.1326558 -82.54 0.0009429452    1.663    0.398
        90  -9.5840    129.4110     84.0647   5.8918313621e+01   4.0114743799e+01    0.2345163    0.1915557  51.35 0.0005380485    1.194    0.162
        91 -10.3934    150.1409     82.0053   5.3596504011e+01   3.5803021525e+01    0.4563291    0.2711808  30.64  0.001617326    2.534    0.605
        92 -10.4492    140.2832     79.5909   5.5093018098e+01   3.8474148975e+01    0.4175907    0.2650577  52.72   0.00171594    1.530    0.346
        93 -10.7321    153.5303     63.0237   4.7815291196e+01   3.8169556120e+01    0.5499579    0.2763597 -36.34  0.001472689    2.104    0.525
        94  -9.8267    151.0714     71.4408   5.0564244080e+01   3.7395017375e+01    0.2729681    0.2311168 -69.81 0.0003714605    1.220    0.181
        95 -10.3696    154.4074     68.6063   4.9146371095e+01   3.7088121168e+01    0.4737124     0.263721 -42.98  0.001332068    1.812    0.448
        96  -7.8665     83.6133     68.7914   6.7478122009e+01   5.2537867653e+01    0.2004898    0.1333865 -51.03 0.0009569773    1.742    0.426
        97  -7.4173    100.6871     68.7073   6.2086159907e+01   4.9129326549e+01    0.1446227    0.1092777  13.70 0.0003257922    1.593    0.372
        98  -9.8356    130.2703     64.2221   5.2991961753e+01   4.3349673801e+01     0.287028    0.2396088 -34.11 0.0006208805    1.290    0.225
        99 -10.4918    144.3855     58.6274   4.8375817902e+01   4.0957767821e+01    0.4497827    0.2927528 -38.19  0.001371652    1.622    0.384
       100  -7.7827    114.2164     60.1093   5.5644403642e+01   4.7628188012e+01    0.1753436    0.1166126 -33.19 0.0005643661    1.636    0.389
       101  -8.8005    125.2986     58.8445   5.2543346752e+01   4.5326554257e+01    0.2777247    0.1153556 -43.32  0.001080672    2.587    0.613
       102  -8.1048     72.8090     58.7438   6.7839902537e+01   5.6313840159e+01    0.1706434    0.1638822  81.85  0.000539296    1.323    0.244
       103 -11.8439    234.8457     51.5889   3.4194198661e+01   2.2347962974e+01    0.4470254    0.3109388 -66.30  0.000274038    1.213    0.176
       104  -7.6833     86.7113    231.6450   1.0043771987e+02   1.3669169894e+01    0.1320992    0.1028932 -23.35 0.0004870503    1.676    0.403
       105  -9.0418    114.9482     47.9696   5.1635836319e+01   4.9266139686e+01    0.1989371    0.1835275  57.41            0    1.034    0.033
       106  -8.3036    103.7127     42.3646   5.2621306306e+01   5.2530153626e+01    0.1326658    0.1042477 -74.65 0.0005022923    1.696    0.410
       107  -7.6919    195.2880    230.7105   7.6062775519e+01  -2.1176964181e+00    0.1100411    0.1031322  53.80  0.000194981    1.538    0.350
       108 -10.2597    203.9606     34.9807   3.3845725690e+01   3.0743442651e+01    0.2943314    0.2292382 -40.17  0.000714775    1.400    0.286
       109 -10.0990    134.0334    225.3683   8.8483443162e+01   7.9392300243e+00    0.2344028    0.2242972  -2.35 0.0004103109    1.077    0.071
       110 -10.7335    194.4076    157.5280   6.2414625409e+01   1.1777411709e+01    0.7284028    0.4699754 -66.71  0.003085152    2.354    0.575
       111 -10.1568    110.7796     35.0048   4.8437310061e+01   5.1892427318e+01    0.4172074     0.223733 -38.39  0.002028331    2.067    0.516
       112  -9.4637    163.0018     35.0749   3.8859918966e+01   3.9822529458e+01    0.2488413    0.1865518 -35.29 0.0005274338    1.488    0.328
       113 -10.9227    132.4087     28.4382   4.1949369192e+01   4.7694022415e+01    0.5290805    0.1767895 -32.18  0.002125732    3.223    0.690
       114  -8.5156     86.7084     30.9964   5.3290687387e+01   5.7606325484e+01    0.1737643    0.1586633  12.54 0.0004649162    1.122    0.109
       115  -9.5504    179.4079     23.6669   3.3954414068e+01   3.7427742636e+01    0.3928621    0.2761377  85.77  0.002094865    1.251    0.201
       116  -9.8442    171.2909     23.4361   3.4848496018e+01   3.9276945801e+01    0.3163213    0.2058571 -36.67  0.001838638    1.669    0.401
       117  -8.3342    159.0672     23.7401   3.6486399520e+01   4.2032274584e+01     0.178719    0.1434144  80.28  0.001120913    1.069    0.064
       118  -8.9463    224.5680    218.6161   6.8380761992e+01  -3.9931108158e+00    0.2512253    0.1966811  56.87  0.001464114    2.227    0.551
       119  -8.6608     85.9355    218.1317   9.8946956404e+01   1.6785773818e+01    0.2020894    0.1906934  39.14  0.000424734    1.065    0.061
       120 -12.0049    184.1195     90.6845   4.9305131164e+01   2.6686915839e+01     1.259555     1.021462  32.23  0.006818292    1.555    0.357
       121  -7.5942     78.2891    218.6841   1.0088065948e+02   1.7744091923e+01    0.1426491    0.0971951  64.22 0.0003278913    1.591    0.372
       122  -7.6305    188.7183     20.6771   3.2268451452e+01   3.5704197078e+01    0.1098201   0.08968273  45.75  0.000339897    1.591    0.372
       123  -8.9048    164.9283     18.4064   3.4380244661e+01   4.1258678941e+01    0.1890067    0.1716956 -47.51 0.0008338377    1.269    0.212
       124  -7.8202    160.6761     18.9828   3.5054652911e+01   4.2168492952e+01    0.1585168       0.1426  88.60 0.0003527422    1.097    0.089
       125  -8.6418    157.0914    212.0258   8.1012628445e+01   7.0276174058e+00    0.2013379    0.1847423   3.08  0.001178938    1.015    0.014
       126  -7.4549    247.3223    211.3064   6.3152342275e+01  -5.6350476283e+00    0.1244607    0.0768225 -12.03 0.0002367102    1.641    0.391
       127  -9.3988     92.3199     18.0626   4.7041861060e+01   5.7815822666e+01    0.2317017    0.2184912  20.13 0.0007088429    1.153    0.132
       128  -9.6196    188.0465    209.4463   7.3845361082e+01   2.7030961574e+00    0.3684017    0.2857427  70.87  0.001400981    2.260    0.558
       129  -8.1994    210.5516    208.5083   6.9199881772e+01  -4.1401630767e-01    0.1309214    0.1109635 -14.47 0.0001765861    1.029    0.029
       130  -8.1441    223.4200     13.7995   2.7852186230e+01   2.9234915271e+01    0.1251405    0.1035783 -38.13 0.0002605577    1.501    0.334
       131  -7.5290    228.6496    207.2659   6.5640832619e+01  -2.6615836427e+00    0.1060578    0.1020626  85.58 0.0006477235    1.618    0.382
       132  -8.3877    238.6278    204.2469   6.3365808962e+01  -3.4525337153e+00     0.216487    0.1494501  67.23 0.0009546519    4.246    0.765
       133  -9.0814     17.9209    201.4889   1.1382978766e+02   2.9024241994e+01    0.2135192    0.1604412 -71.95 0.0003959926    1.256    0.204
       134  -9.5425    192.7203    194.4746   7.0122101002e+01   4.8079381390e+00    0.7995588     0.381451 -61.73  0.002212092    6.412    0.844
       135  -9.6910    166.2055    159.4100   6.8739615030e+01   1.6587354273e+01    0.2637311    0.2329563 -43.83 0.0002786944    1.100    0.091
       136  -8.8170     20.9785    186.0511   1.1173513858e+02   3.2522579916e+01    0.1897508    0.1692588  89.51  0.001188148    1.045    0.043
       137  -8.4341    242.0345    183.3481   5.9000770674e+01  -4.4486851139e-01    0.1601327    0.1421403   1.13 0.0003624016    1.201    0.168
       138  -9.6398    238.4656    175.8789   5.8188783924e+01   1.3160217089e+00    0.2860931    0.2285909  84.04 0.0008703124    2.238    0.553
       139  -9.4781    212.9319    176.5192   6.2735686835e+01   5.0097857925e+00     0.388445    0.2236418  20.86  0.001604886    2.330    0.571
       140  -9.4791    228.3099    171.3462   5.9012619371e+01   3.5872655337e+00    0.2825015    0.2309247 -67.06  0.001662906    1.656    0.396
       141 -10.2365    230.9196    168.1281   5.7953675777e+01   3.7670771998e+00    0.4042069    0.2020817 -49.31  0.001888553    2.026    0.507
       142  -7.9327    218.2535    171.9888   6.0885780074e+01   5.0120314660e+00    0.1853539    0.1515784 -33.49 0.0003705581    1.063    0.059
       143  -8.5994    185.0578    166.6682   6.6199457651e+01   1.1602476233e+01    0.1931616    0.1781246  -6.45 0.0005536667    1.068    0.063
