#   1 NUMBER                 Running object number                                     
#   2 MAG_AUTO               Kron-like elliptical aperture magnitude                    [mag]
#   3 X_IMAGE                Object position along x                                    [pixel]
#   4 Y_IMAGE                Object position along y                                    [pixel]
#   5 X_WORLD                Barycenter position along world x axis                     [deg]
#   6 Y_WORLD                Barycenter position along world y axis                     [deg]
#   7 A_WORLD                Profile RMS along major axis (world units)                 [deg]
#   8 B_WORLD                Profile RMS along minor axis (world units)                 [deg]
#   9 THETA_WORLD            Position angle (CCW/world-x)                               [deg]
#  10 FWHM_WORLD             FWHM assuming a gaussian core                              [deg]
#  11 ELONGATION             A_IMAGE/B_IMAGE                                           
#  12 ELLIPTICITY            1 - B_IMAGE/A_IMAGE                                       
         1 -11.7751    213.8125     24.2440   3.8600141317e+01   2.8909980419e+01    0.9372854     0.764416  25.56  0.005550581    1.699    0.412
         2 -12.0542    201.0353     37.4293   4.3343958443e+01   3.0324249260e+01     1.107315    0.8913728  39.40  0.006242761    1.485    0.327
         3  -7.5508    246.0164     11.0307   3.2872887453e+01   2.3280691522e+01    0.1416781    0.1126863 -65.10            0    1.038    0.037
         4  -7.7145     27.2009      6.6012   7.9147130885e+01   7.1277283001e+01     0.155663   0.09216076  16.03 0.0003904938    1.546    0.353
         5  -9.7091    238.0996      2.1478   3.1611704569e+01   2.5902279296e+01    0.6024991    0.1971138  77.07  0.002635682    2.907    0.656
         6  -8.0234    100.6320    237.3120   1.0872104336e+02   1.2142854905e+01    0.1359097   0.08005802  60.38 0.0007037048    1.767    0.434
         7 -14.5210      2.8614    203.8361   1.2584476487e+02   3.0636574994e+01     1.300581    0.3933912 -70.97  0.006245397    2.747    0.636
         8 -15.4727     37.2965    237.0194   1.2121365487e+02   2.0524129480e+01      1.30464    0.6314698  43.18  0.007330282    1.700    0.412
         9 -14.6994     40.9809    247.5716   1.2120403805e+02   1.8122550885e+01    0.8949431     0.305475  42.99   0.00464404    2.187    0.543
        10 -17.9171     11.0752    238.6174   1.2604785186e+02   2.2976364957e+01     2.596826     1.870494  85.18   0.01977785    1.193    0.162
        11  -8.0383    142.2957    231.6714   9.9318364302e+01   6.6639009178e+00    0.1284366   0.09418661  62.59 0.0003631837    1.632    0.387
        12  -8.9907    157.1929    230.0715   9.5961237377e+01   4.5124914603e+00    0.1925096    0.1349845  15.51  0.001044519    1.561    0.359
        13  -8.5310     68.0596    230.5644   1.1471214357e+02   1.8010738352e+01    0.1853668    0.1001476  41.63  0.001013115    1.575    0.365
        14  -8.9104    130.0198    229.4931   1.0161701324e+02   9.0324671095e+00    0.3091083     0.117582  32.04  0.001202442    2.707    0.631
        15  -7.9849     73.7808    227.0739   1.1321497262e+02   1.7933335359e+01    0.1859578    0.1356048  65.09  0.000452902    1.219    0.180
        16  -8.0729     66.3315    226.0200   1.1465394173e+02   1.9139016847e+01    0.1639255    0.1354955  79.04 0.0003422809    1.118    0.106
        17  -9.5604    112.2365    224.2005   1.0473729112e+02   1.2848449506e+01    0.3753264    0.2200239  34.07 0.0007061729    1.581    0.368
        18  -9.8598    116.6800    236.8181   1.0534846299e+02   9.8072078631e+00     0.259953    0.1994359 -40.28  0.001579858    1.662    0.398
        19  -9.1852     76.2219    235.8100   1.1354076285e+02   1.5899722106e+01    0.3108866    0.2379163 -17.69  0.001808226    2.293    0.564
        20  -8.1371    210.1589    220.7996   8.3677832153e+01  -2.5660808730e+00    0.1869676    0.1650167  25.27  0.000675338    1.257    0.205
        21 -15.0879     14.0089    214.5073   1.2426843376e+02   2.7427917591e+01     0.904321    0.4705953  77.91  0.005351242    1.681    0.405
        22  -9.9260    229.8042    213.9396   7.8716884709e+01  -4.5637802281e+00    0.2387955    0.1987377   2.71 0.0004539886    1.082    0.076
        23  -7.9986    198.4754    214.4725   8.4885803293e+01   2.7506298792e-01    0.1334154    0.1133757  15.65 -1.061882e-06    1.041    0.039
        24  -8.0884     98.8691    214.1438   1.0639964183e+02   1.6919696607e+01    0.1927813    0.1749082  51.03 0.0002534893    1.075    0.070
        25  -8.1311    101.4010    210.7928   1.0540857147e+02   1.7218426284e+01    0.1942544     0.180479 -20.35 0.0006412631    1.337    0.252
        26  -8.6445     75.6062    212.7077   1.1136525318e+02   2.0618055202e+01    0.2663398    0.2376411 -22.85  0.001689736    1.543    0.352
        27  -7.8565     74.4619    209.5310   1.1127324249e+02   2.1447885083e+01    0.1681325    0.1484061 -45.87 0.0006851516    1.422    0.297
        28  -7.6358     95.3539    212.2255   1.0694338712e+02   1.7850149327e+01    0.1221796   0.09994368  12.68 0.0001124895    1.560    0.359
        29  -9.3571    133.2666    234.1115   1.0154572746e+02   7.6871065517e+00    0.2899001    0.2056606  -9.24  0.001521502    2.165    0.538
        30  -8.4022    189.1582    209.9793   8.5994617020e+01   2.5595097195e+00    0.1891351    0.1777923  33.64  0.000431336    1.248    0.199
        31  -8.3410    100.6331    234.3135   1.0839178065e+02   1.2700228435e+01    0.1369904   0.08131304  60.74 4.868267e-06    1.768    0.435
        32  -8.1416     69.6018    209.0407   1.1229338408e+02   2.2215722616e+01      0.18911    0.1543511  51.87 0.0004798797    1.111    0.100
        33  -7.7342    128.4932    206.9372   9.8735966114e+01   1.3592929364e+01    0.1940443    0.1385393 -53.35 0.0006317066    1.562    0.360
        34  -7.8865     80.8241    205.9477   1.0944730895e+02   2.1318678894e+01    0.1771712    0.1733912 -33.59 0.0005003107    1.275    0.216
        35  -7.6410    121.8563    204.1111   9.9822864967e+01   1.5286055184e+01    0.1768513    0.1587168   3.18  0.001027429    1.288    0.223
        36  -9.0314     63.0372    203.0806   1.1312573407e+02   2.4371801533e+01    0.2802247    0.1524044  46.13 0.0008693617    1.638    0.390
        37  -7.4072    226.7915    201.6640   7.7013689522e+01  -2.2854049367e+00    0.1718032    0.1122326  40.72 0.0003795938    1.653    0.395
        38  -7.9108    167.1364    200.8055   8.9058818921e+01   8.0133576781e+00    0.2030951    0.1759835  46.37 0.0004024315    1.213    0.176
        39  -8.7977    193.7420    198.4497   8.2943149961e+01   3.7307140859e+00    0.3477188    0.3217867  78.89  0.002062734    1.519    0.342
        40  -7.1712    119.4348    198.4626   9.9524699999e+01   1.6868422972e+01    0.1389675    0.1277175  45.07 0.0002505615    1.024    0.023
        41 -10.0731    152.0754    194.9988   9.1397042063e+01   1.1836291401e+01    0.2465312    0.2260441  11.87  0.001420494    1.085    0.078
        42  -7.4985     90.0227    196.4747   1.0614518304e+02   2.2026534034e+01    0.1982453       0.1259  37.20 0.0005545508    1.501    0.334
        43  -7.7624    115.2356    192.0870   9.9524332653e+01   1.8940274139e+01    0.1895123    0.1781448  64.16            0    1.046    0.044
        44  -9.3782     74.8963    190.2728   1.0892344869e+02   2.5622204286e+01    0.2771876    0.1958784 -72.67 0.0006054082    1.407    0.289
        45  -9.2468     63.9598    190.5314   1.1154237249e+02   2.7046184368e+01     0.376936     0.212189  40.47  0.001163381    1.670    0.401
        46  -9.2152     89.6958    233.8000   1.1059863344e+02   1.4397013215e+01    0.1704776    0.1576267 -44.56 0.0005784935    1.400    0.285
        47  -8.1923    188.8036    186.3660   8.1661573755e+01   6.7546521486e+00    0.3102663     0.168891 -56.25  0.001229547    2.829    0.647
        48  -7.5407     82.4468    186.1857   1.0657254047e+02   2.5469061169e+01     0.182983    0.1263348 -84.22 0.0007305203    1.573    0.364
        49  -9.8239     49.9511    181.2572   1.1382669427e+02   3.0921675277e+01    0.3798515    0.3204529  79.13  0.002339876    1.033    0.032
        50  -9.8038    120.3977    231.7872   1.0395263294e+02   1.0142805965e+01    0.2706136    0.1694831 -60.41  0.001472611    1.901    0.474
        51  -7.9850    118.4420    183.7144   9.7388597014e+01   2.0222680970e+01    0.3010322    0.1729557  24.97  0.001255653    2.131    0.531
        52  -9.6908     71.4068    173.6891   1.0759958506e+02   2.9957535635e+01    0.2968244    0.2607822 -55.19 0.0007772508    1.225    0.184
        53  -7.7737     75.4415    170.4528   1.0611027357e+02   3.0161759884e+01    0.2170165    0.1368474  31.97  0.000470921    1.675    0.403
        54  -9.4091     61.8222    181.3922   1.1097682271e+02   2.9425695890e+01    0.2080595    0.1890758 -80.19 0.0005733452    1.113    0.102
        55 -10.0977     66.5727    179.3834   1.0956387317e+02   2.9271919952e+01    0.3768552    0.2727556 -34.02  0.001723943    1.879    0.468
        56  -8.4188     40.0530    181.1898   1.1616848922e+02   3.2058964978e+01    0.1784795    0.1655211 -72.18  0.000819502    1.219    0.180
        57  -7.4127    147.2771    180.3528   8.9835683956e+01   1.5707769458e+01    0.1488373    0.1140432  -9.10 0.0005860295    1.646    0.392
        58  -7.4972     84.6165    180.7006   1.0527264217e+02   2.6410613597e+01    0.1380774     0.109268 -17.44 0.0007019875    1.775    0.437
        59  -7.7223    109.5552    178.8405   9.8763996791e+01   2.2844723801e+01    0.1883925    0.1391117 -76.69 0.0009237007    1.556    0.357
        60  -8.3082     60.8657    176.0854   1.1056001484e+02   3.0791863872e+01    0.2258685    0.1722732 -75.08 0.0004169336    1.230    0.187
        61  -8.1525    249.7698    232.1635   7.8326387024e+01  -9.7921297441e+00     0.166281    0.1084239   2.34 0.0005382025    1.314    0.239
        62  -7.6721    116.8195    174.7002   9.6234574040e+01   2.2525817663e+01    0.1965659    0.1813353 -40.91 0.0001961277    1.165    0.142
        63  -8.4502     52.9877    174.6687   1.1234059833e+02   3.2102767848e+01    0.2403801    0.1739129 -85.86 0.0006544822    1.298    0.230
        64  -9.6978    175.5625    172.5212   8.1759720480e+01   1.1879569307e+01    0.3856514    0.3002956  47.30 0.0007086691    1.342    0.255
        65  -7.3567    100.8410    174.1736   1.0018274537e+02   2.5376248695e+01    0.1806342    0.1679029 -15.49  0.001013086    1.251    0.201
        66  -8.4019     37.2063    171.1623   1.1583295771e+02   3.4701135274e+01    0.1887963    0.1551327 -70.15 0.0007739533    1.174    0.148
        67  -9.6588     24.0294    169.2046   1.1883145892e+02   3.6450092751e+01    0.3355411    0.2128995   7.23   0.00180724    2.402    0.584
        68  -9.4528     24.6285    165.8244   1.1837284288e+02   3.7186738267e+01    0.3795477    0.1662261  55.95  0.001749245    2.432    0.589
        69  -7.4693    111.5118    168.4570   9.6466370983e+01   2.4890440375e+01    0.1474262    0.1393428  61.48 0.0002826355    1.023    0.022
        70  -7.0950    102.2513    168.6586   9.8889655831e+01   2.6429372796e+01    0.1459975    0.1098715  79.70 0.0001969647    1.574    0.365
        71  -7.5084     62.6913    167.2899   1.0895243561e+02   3.2651084596e+01    0.1406142   0.09496754  67.87 0.0002634073    1.579    0.367
        72  -7.3046     99.6502    166.7128   9.9228847202e+01   2.7320597871e+01    0.1445468    0.1157039 -12.39 0.0004422255    1.661    0.398
        73  -8.7855     89.2177    165.4392   1.0174547280e+02   2.9303732358e+01    0.3452223    0.1963065  58.12  0.001253579    2.086    0.521
        74  -8.5448     85.3504    165.2716   1.0273518785e+02   2.9941090438e+01    0.2369883    0.1801043 -79.24 0.0006768949    1.368    0.269
        75  -8.9482     80.5396    164.1264   1.0382055729e+02   3.0938973625e+01    0.2573959    0.2323071 -37.24 0.0006051518    1.260    0.206
        76  -7.5682     79.1343    160.1718   1.0356295390e+02   3.2101761864e+01    0.1966138    0.1566264  77.46 0.0004359544    1.318    0.241
        77  -8.4505     42.5981    164.7057   1.1377934030e+02   3.5661020776e+01    0.3101645    0.1802926 -39.28  0.001480404    2.332    0.571
        78  -8.3606     57.4188    163.3112   1.0978438250e+02   3.4277163829e+01    0.4705464    0.2930637 -14.21   0.00198313    3.111    0.679
        79  -7.8501     96.3288    163.6631   9.9571532861e+01   2.8590649412e+01    0.1552871     0.109048  71.69 0.0007051945    1.730    0.422
        80  -7.6388     28.1160    162.2658   1.1716411687e+02   3.7704964178e+01    0.2142415    0.1139256  58.66  0.001069965    1.963    0.491
        81  -9.4872     68.3642    159.2759   1.0631153520e+02   3.3839482881e+01    0.3826775    0.2452858 -55.55 0.0009176917    1.516    0.340
        82  -8.2204     69.2618    152.6772   1.0504139226e+02   3.5331085348e+01     0.344617    0.1921186 -75.81  0.001496223    2.006    0.502
        83  -7.6783    172.3465    159.7068   7.9772049863e+01   1.5088587535e+01    0.2092916     0.138141 -33.20 0.0006649284    1.595    0.373
        84  -7.5256    108.1846    160.1136   9.5796369702e+01   2.7425453167e+01    0.1964644    0.1683426  77.16 0.0003566204    1.261    0.207
        85  -7.8833     35.3017    160.0975   1.1511579326e+02   3.7526589855e+01    0.3172253    0.1479534  27.48  0.001488312    2.417    0.586
        86 -10.0207     87.4699    157.1936   1.0081670256e+02   3.1561690962e+01    0.5912656    0.3851533 -35.47   0.00175712    1.939    0.484
        87  -9.0084     23.1353    157.6737   1.1795288518e+02   3.9246170620e+01    0.2769761    0.1803566  44.01  0.001441437    1.584    0.369
        88  -8.4622     51.6250    157.4502   1.1052581061e+02   3.6396392778e+01    0.2413716    0.1657767  26.93 0.0008422428    1.661    0.398
        89  -9.5311     54.1403    153.2691   1.0927330022e+02   3.7120120566e+01    0.3709797    0.3066438   7.69  0.001323495    1.529    0.346
        90  -7.2580     76.6860    155.2421   1.0342109725e+02   3.3658748306e+01    0.1412338    0.1022018  64.46 0.0001846504    1.509    0.337
        91  -7.2637     24.5526    154.5224   1.1727171848e+02   3.9872878403e+01    0.1270273    0.1058728 -82.49 0.0001603681    1.023    0.022
        92  -7.6520     34.2329    154.3911   1.1474303955e+02   3.9005776986e+01    0.1705278    0.1103592  45.68 0.0007769508    1.587    0.370
        93  -7.5917     98.5540    153.4695   9.7128389676e+01   3.0665101908e+01     0.145428     0.142714 -73.51 9.118957e-05    1.039    0.037
        94  -8.3709    126.6658    147.2757   8.8293408653e+01   2.7013738901e+01    0.2368255    0.2324658  39.65 0.0002213707    1.005    0.005
        95 -10.1968     70.5015    145.9943   1.0359083102e+02   3.6806163060e+01    0.3935392    0.2999519 -74.75 0.0007783236    1.291    0.225
        96 -10.9056     67.0011    142.8391   1.0405047394e+02   3.8062688128e+01    0.5917418     0.457799 -89.75  0.002158046    1.372    0.271
        97  -8.2629     85.4709    145.9634   9.9347772648e+01   3.4612221714e+01    0.2318459    0.1790389 -85.21 9.420365e-06    1.440    0.305
        98  -8.7073     88.8656    142.4353   9.7710627636e+01   3.4940039149e+01    0.4084267    0.3439888  32.97  0.001843541    1.243    0.196
        99  -7.8631     31.0183    146.0268   1.1461196931e+02   4.1338163772e+01    0.2010953    0.1326983  68.53 0.0005261545    1.601    0.375
       100  -8.3025    133.7506    145.0071   8.5934378409e+01   2.6134809314e+01    0.2236564    0.2007064 -47.65 0.0008125704    1.132    0.116
       101  -9.2365    242.2638    142.7897   6.2227194239e+01   4.6137933961e+00     0.453485    0.1441746 -37.98  0.001659071    2.780    0.640
       102  -9.3784     99.9176    142.9153   9.4675888885e+01   3.2982976247e+01    0.4951463    0.3723772  10.69  0.002319115    1.704    0.413
       103 -10.1459     13.6052    136.7656   1.1830507581e+02   4.5000828424e+01    0.6432958    0.3796548 -13.38  0.003316026    2.621    0.618
       104  -8.2517     82.7731    137.5759   9.8516187116e+01   3.7090870184e+01    0.2782416    0.2010614  65.39  0.001042641    1.644    0.392
       105  -7.5508    109.8226    137.6144   9.0766473075e+01   3.2489662728e+01    0.2063398     0.141131  48.76 0.0003743625    1.522    0.343
       106  -7.7076     52.7274    137.3793   1.0727643716e+02   4.1204179524e+01    0.1658115      0.13428   7.63 0.0002649735    1.522    0.343
       107  -9.2061    105.3637    134.0113   9.1231676188e+01   3.4167173979e+01    0.2635054    0.2341895  49.94 0.0003105675    1.150    0.130
       108  -8.0092     29.0526    134.0190   1.1364915411e+02   4.4441282709e+01    0.1918065    0.1678969 -78.92 0.0004466447    1.035    0.033
       109  -8.0083    193.2835    131.9391   6.8829382130e+01   1.6259379625e+01    0.2108446    0.1842757 -29.94  0.000363218    1.104    0.094
       110  -8.3308    110.9652    131.9953   8.9182567960e+01   3.3615343673e+01    0.2479283    0.1914001 -10.71 0.0007134979    1.677    0.404
       111  -8.1427     82.0863    142.2570   9.9615315996e+01   3.6044186851e+01    0.3582215    0.2492717  77.73 0.0005996795    1.855    0.461
       112  -8.3616     10.1146    132.2603   1.1878783398e+02   4.6319223622e+01    0.2158347    0.1633922 -13.81 0.0009454947    1.743    0.426
       113  -8.3687     66.2058    130.1888   1.0201459981e+02   4.1302290362e+01    0.2008905    0.1648027  80.40  0.001072554    1.341    0.254
       114  -9.1111    120.0770    128.0329   8.5689301506e+01   3.2789227806e+01    0.2331772    0.2283715  74.08 0.0005224437    1.056    0.053
       115  -8.8163    125.3716    127.1088   8.4000547602e+01   3.1940788165e+01    0.3091512    0.2306288  49.84 0.0009847741    1.392    0.282
       116  -8.4497      5.1427    138.1051   1.2071542649e+02   4.5253045623e+01    0.3329301    0.1563793 -42.48  0.001631971    2.526    0.604
       117  -7.1407    163.6825    124.2871   7.3490277266e+01   2.4312396466e+01     0.154955    0.1272583  89.91 0.0002216363    1.591    0.371
       118  -7.7193     89.2145    124.0384   9.3753863176e+01   3.9376634865e+01    0.2004334     0.191415 -73.54 0.0004239738    1.058    0.055
       119  -8.1700     70.6767    122.1038   9.9040232730e+01   4.2684146146e+01    0.2042904     0.174669 -53.69 0.0003350106    1.089    0.082
       120  -9.5541    124.9757    231.5629   1.0295751028e+02   9.4614410035e+00    0.2718334    0.1882159 -63.69 0.0005111117    1.755    0.430
       121  -7.8595    198.3029    120.9453   6.5161161506e+01   1.7277335758e+01    0.2019047    0.1834257 -31.37 0.0002814809    1.054    0.051
       122  -7.7451    104.6895    120.7365   8.8345429699e+01   3.7457128043e+01    0.2072021    0.1781619  81.03  0.001024285    1.370    0.270
       123  -7.5108     64.4093    121.1462   1.0080637225e+02   4.3773252410e+01    0.1859216    0.1310624 -71.17 0.0005318547    1.455    0.313
       124  -9.2429    248.6958    115.7198   5.5309925468e+01   7.9028874531e+00    0.3125831    0.1941404 -65.45  0.001399221    2.529    0.605
       125  -7.1865    122.2734    115.6584   8.1985741474e+01   3.5193566119e+01    0.1563602    0.1262334 -86.21 0.0006996211    1.614    0.380
       126  -9.7117    110.1766    111.9954   8.4526422334e+01   3.8455404612e+01    0.3510578    0.2845434  68.28  0.001097787    1.500    0.333
       127  -8.0988    126.8375    112.1293   7.9784307279e+01   3.5035066957e+01    0.2182037    0.1865763  -9.71 0.0007523939    1.307    0.235
       128  -7.4969     42.9544    110.9743   1.0572258020e+02   4.8776017896e+01    0.1578788    0.1452987 -54.10 0.0003021133    1.054    0.052
       129  -7.1641    196.5246    107.5178   6.2181579307e+01   2.0188219521e+01    0.1506028    0.1437372 -50.02 0.0006552992    1.051    0.049
       130  -9.0130    249.0450    105.5513   5.3020120428e+01   9.4833428721e+00    0.3220544    0.1374144 -49.06  0.001294517    2.506    0.601
       131  -7.3700     83.7832    104.0260   9.0663477516e+01   4.5050935545e+01    0.1905523    0.1163976 -51.95  0.000221388    1.567    0.362
       132  -8.3464     69.5031    103.8623   9.5340940708e+01   4.7267738293e+01    0.2216294    0.1325697 -52.81  0.001012218    1.536    0.349
       133  -9.4414    112.5162    231.5087   1.0558063206e+02   1.1421965135e+01    0.2401754    0.1288327 -59.95  0.001215218    2.183    0.542
       134  -8.2251     35.4094     97.5488   1.0567772732e+02   5.2734985612e+01    0.3228617    0.1504268  54.06   0.00106937    3.644    0.726
       135  -9.8403     43.2666     92.9934   1.0192048616e+02   5.3052308866e+01    0.2235234    0.2172105 -32.29 0.0003270156    1.123    0.110
       136  -7.5269     93.4564     89.4506   8.3510245042e+01   4.6684475238e+01    0.1511019    0.1398553 -14.21 0.0001500057    1.040    0.038
       137  -7.2267     75.5424     88.4174   8.9254241626e+01   4.9943214087e+01    0.1432287    0.1341782 -26.68 3.646939e-05    1.027    0.026
       138  -7.6811    196.8452     84.9988   5.6354741557e+01   2.4144635368e+01    0.2366585    0.1702811  -5.31 0.0005853537    1.950    0.487
       139  -9.1621    100.9569     84.5617   7.9639082624e+01   4.6315665127e+01    0.2639268    0.2219525 -30.40 0.0003727659    1.167    0.143
       140  -7.4719     62.0441     82.0165   9.2285756333e+01   5.3336255522e+01    0.1688133    0.1469585 -35.87 0.0003695883    1.034    0.033
       141  -7.1625     79.7036     79.2756   8.5123607343e+01   5.1271058403e+01    0.1336644    0.1169081  79.69 0.0002027693    1.529    0.346
       142  -8.1738     85.8864     70.4020   8.0158258895e+01   5.2030002949e+01    0.2198447    0.1904801 -44.54 0.0001571731    1.219    0.179
       143  -7.6142     74.7007     71.5764   8.4506113495e+01   5.3695758761e+01     0.177075    0.1352678  41.25 0.0003721192    1.438    0.304
       144  -7.2454     52.6903     69.2934   9.2149000309e+01   5.7309953882e+01    0.1235927    0.1085438  76.12 0.0001668705    1.587    0.370
       145  -7.6415     49.0699     61.0000   9.1027328525e+01   5.9473744954e+01     0.198261   0.07428958  28.98 0.0007875312    2.840    0.648
       146  -7.5418     82.9769     58.9400   7.7275457319e+01   5.4743733011e+01    0.1690815    0.1516311  -0.85 0.0009604231    1.006    0.006
       147  -7.2935     58.0641     55.8140   8.5620239452e+01   5.9326653660e+01    0.1635469   0.09996146  30.77            0    1.683    0.406
       148  -7.7073     26.1810     53.1452   9.8408257989e+01   6.3407159666e+01    0.1509443    0.1379273 -52.80            0    1.280    0.219
       149  -9.1987    240.4122    248.5481   8.2698198686e+01  -1.0562521030e+01    0.2050269    0.1477241   9.50 0.0005494247    1.027    0.026
       150  -7.5741    224.3181    249.7295   8.5789169760e+01  -8.5684455669e+00    0.1034099   0.08499184  36.68 0.0002901033    1.561    0.359
       151  -7.2841     28.7029     46.7096   9.5223754083e+01   6.4470156443e+01    0.1296547   0.07803044 -25.45 0.0002600224    1.557    0.358
       152  -7.2594    160.9829     31.0000   4.7484499637e+01   4.1078941176e+01    0.2274503   0.07429777  63.35 0.0003896132    2.791    0.642
       153  -7.5524    234.2008     16.6032   3.4961020901e+01   2.5183400221e+01    0.1616514    0.1027097  64.78 0.0003301841    1.600    0.375
       154  -8.7541    108.8212    243.6174   1.0774022430e+02   9.7851201568e+00    0.1833879   0.09203646  45.79 0.0003369256    1.640    0.390
       155 -10.9317    192.2599     43.8560   4.6223141610e+01   3.1613699772e+01    0.4216053    0.3826749 -36.55  0.001238278    1.181    0.153
       156 -11.1873     83.8906    232.7727   1.1168842455e+02   1.5419517124e+01    0.6752908    0.4102251 -74.42  0.003210049    1.846    0.458
