#   1 NUMBER                 Running object number                                     
#   2 MAG_AUTO               Kron-like elliptical aperture magnitude                    [mag]
#   3 X_IMAGE                Object position along x                                    [pixel]
#   4 Y_IMAGE                Object position along y                                    [pixel]
#   5 X_WORLD                Barycenter position along world x axis                     [deg]
#   6 Y_WORLD                Barycenter position along world y axis                     [deg]
#   7 A_WORLD                Profile RMS along major axis (world units)                 [deg]
#   8 B_WORLD                Profile RMS along minor axis (world units)                 [deg]
#   9 THETA_WORLD            Position angle (CCW/world-x)                               [deg]
#  10 FWHM_WORLD             FWHM assuming a gaussian core                              [deg]
#  11 ELONGATION             A_IMAGE/B_IMAGE                                           
#  12 ELLIPTICITY            1 - B_IMAGE/A_IMAGE                                       
         1 -12.6718    204.2301     22.1310   5.9136907076e+01   3.2251653413e+01    0.6805596    0.3223503 -81.51  0.002943421    2.739    0.635
         2 -12.6413     43.2048     19.8624   9.4033266786e+01   6.5930528938e+01    0.6778778    0.3624809  26.92  0.002284094    1.703    0.413
         3 -12.5742    216.3380     14.3836   5.6288650348e+01   3.0457626713e+01    0.5683454    0.4654264  72.47  0.001633984    1.276    0.216
         4 -10.6245    133.9623     17.9752   6.7999469354e+01   4.8899881069e+01    0.2243412    0.1599695  62.79 0.0005961789    1.198    0.165
         5 -13.8024    187.1476      7.4266   5.7730448108e+01   3.7713918210e+01      1.04885    0.5880123 -82.86  0.005597303    1.829    0.453
         6 -11.4827     54.4602      8.4925   8.5067874481e+01   6.5490486558e+01     0.454797    0.2901811  63.59  0.002440843    2.967    0.663
         7 -12.2236     59.0053      7.4848   8.3079871741e+01   6.4852573954e+01    0.3882413    0.2473533  49.40  0.001746004    1.625    0.384
         8  -9.5410    149.2879      8.3207   6.2754404482e+01   4.6308894790e+01    0.1235192   0.08242821  42.21 0.0003066864    1.599    0.375
         9 -10.0301    109.4940      8.5232   6.9868611276e+01   5.5136388793e+01    0.1222406    0.1021893  52.18 0.0008099326    1.037    0.035
        10 -11.4019     53.5432      2.0097   8.2657544208e+01   6.6221355485e+01    0.3830965    0.2900469  82.26  0.002216447    3.110    0.678
        11 -11.8234     43.9440      8.5112   8.8972610728e+01   6.7074907469e+01    0.2788689    0.2044962  27.33 0.0009471323    1.186    0.157
        12 -12.1612    166.3444      2.1352   5.8871731692e+01   4.2952999261e+01    0.6536404    0.1590552  66.57  0.002526036    3.073    0.675
        13 -10.3370    115.8635    209.5196   1.1995924720e+02   1.4446141849e+01    0.2949132    0.1902421 -79.51  0.001326633    1.958    0.489
        14 -11.1910      4.8432    199.3453   1.4355735708e+02   3.1791176103e+01     0.367259    0.1910605  55.20  0.001331497    1.814    0.449
        15  -9.8680     41.4975    202.0200   1.3599402596e+02   2.7338758269e+01    0.1949602     0.112528 -73.10 0.0004741835    1.530    0.346
        16 -12.3252    160.0607    191.8985   1.0662488372e+02   1.0224742170e+01    0.7820266    0.5640679  80.30  0.002853932    2.050    0.512
        17 -10.6592    223.8467    183.8392   9.1648086548e+01   4.3906616483e-03    0.1839253    0.1674451 -64.58 0.0006268932    1.317    0.241
        18 -10.6732    184.7687    182.7373   9.9316322752e+01   7.4141640297e+00    0.3780267    0.3426311   5.87  0.002060682    1.143    0.125
        19  -9.8282     66.3124    194.6758   1.2943706680e+02   2.5859236835e+01    0.1474803    0.0953064  72.15 0.0004790134    1.659    0.397
        20  -9.6870    137.5000    178.4988   1.0931808466e+02   1.7647917079e+01    0.1537509    0.1473769  78.01 0.0008105276    1.029    0.028
        21  -9.2462    128.6618    177.6965   1.1132408572e+02   1.9541968708e+01    0.1537823    0.1236557  -9.38 0.0007038924    1.671    0.402
        22 -11.7931     36.4162    173.9684   1.3399063613e+02   3.4684431815e+01    0.4734362    0.2466116  59.21  0.002201529    2.173    0.540
        23 -11.7295     55.6999    167.6596   1.2827377449e+02   3.3957894964e+01    0.6178781    0.3258764 -84.77  0.002539613    2.374    0.579
        24 -10.2209     98.5909    165.7905   1.1670455313e+02   2.7955293380e+01    0.2186382    0.1414939 -70.37 0.0009503782    1.669    0.401
        25  -9.2999      6.9722    165.2309   1.4012703888e+02   3.9566020589e+01    0.1306622    0.1028348  35.44  0.000200668    1.532    0.347
        26  -9.5276    138.3329    164.6563   1.0629444228e+02   2.0754690291e+01     0.165213     0.123126  82.59 0.0007050467    1.759    0.431
        27 -11.1420     23.5381    159.6621   1.3544535269e+02   3.9487096889e+01    0.3334647    0.1994175  41.46  0.001812446    1.828    0.453
        28 -10.6309    167.6158    157.4620   9.7750450769e+01   1.6382350628e+01     0.350628    0.2535363  81.16  0.001482163    1.989    0.497
        29 -11.1999    118.9723    156.9768   1.0959572704e+02   2.6414965493e+01    0.4490767    0.3157372  47.56  0.001495255    1.446    0.309
        30 -10.5374    218.2078    156.0991   8.6967195918e+01   6.3972207456e+00    0.3534095    0.1768808 -48.38   0.00147074    1.934    0.483
        31 -11.4112    106.0837    157.6359   1.1312823218e+02   2.8657179679e+01    0.6451525    0.4302189  88.74  0.002631755    2.158    0.537
        32 -10.4617     23.4616    153.5438   1.3469897117e+02   4.0984720416e+01    0.2043915    0.1661048 -81.09 0.0005958755    1.058    0.055
        33  -9.7205     22.5697    150.5066   1.3454016932e+02   4.1804330934e+01    0.2140014     0.160871 -67.94 0.0005074137    1.101    0.092
        34 -11.9690    242.6695    151.4575   8.1709211458e+01   2.7816006204e+00    0.4013447    0.2446721  34.71  0.001959169    2.043    0.511
        35  -9.7146    191.5909    165.8022   9.4320284057e+01   9.6389993741e+00    0.2231871    0.1387499 -54.14 0.0009609157    1.721    0.419
        36 -10.2001    189.5852    150.0357   9.1288350316e+01   1.3394494358e+01    0.3269821    0.1924419 -60.16   0.00129872    2.098    0.523
        37 -10.5696    106.6114    144.9368   1.1031380501e+02   3.1693186739e+01    0.5353305    0.3081089  86.51  0.001502108    4.775    0.791
        38  -9.9448    148.4794    144.9854   9.9447445120e+01   2.3280197426e+01    0.2292002    0.1387717 -71.22 0.0006433559    2.543    0.607
        39 -11.3005     51.2980    159.3601   1.2817678019e+02   3.6583286903e+01    0.5252024    0.2892348  76.81  0.002131555    2.664    0.625
        40  -9.8683    124.4803    142.9765   1.0507803073e+02   2.8726733749e+01    0.2309219     0.139081 -74.67 0.0008103493    2.627    0.619
        41  -9.6710    181.5090    141.5047   9.1062108565e+01   1.6938811462e+01    0.1558925    0.1465191 -70.51 0.0005445108    1.067    0.063
        42 -10.4221     82.7592    131.5423   1.1412786211e+02   3.9091162220e+01    0.3209431    0.1802205 -68.75  0.001279701    2.168    0.539
        43 -10.8379     43.7428    123.8289   1.2425984378e+02   4.6210620285e+01    0.4431224    0.2632591  86.32  0.001888759    2.659    0.624
        44 -11.0105     27.2134    120.8542   1.2876259294e+02   4.8540620941e+01    0.6147848    0.2945431  84.85     0.001887    5.651    0.823
        45 -11.8497     99.1527    129.0676   1.0881378562e+02   3.6903363867e+01    0.5085396    0.3433579 -88.95  0.002054325    2.325    0.570
        46 -11.6682    193.1762    118.2497   8.3243417341e+01   1.9241281955e+01    0.6496775    0.4721345 -72.08  0.002429141    1.633    0.388
        47 -10.5836     59.1865    124.8404   1.1974588540e+02   4.4128853787e+01    0.2944053    0.1658737 -81.35  0.001142299    2.781    0.640
        48 -10.2145     16.0613    121.0579   1.3215911536e+02   4.9394013203e+01    0.2914448     0.147968  41.00  0.001473141    2.357    0.576
        49 -10.9495     70.7214    119.3073   1.1500621917e+02   4.3869274433e+01    0.3939738    0.1887975 -72.89  0.001221872    4.100    0.756
        50 -10.7362    140.6864    117.5512   9.4721954600e+01   3.1184972317e+01     0.292529    0.1421389 -46.23  0.001086725    2.039    0.510
        51 -10.4596      2.2296    115.6133   1.3546226472e+02   5.1568978902e+01    0.2870885    0.1419487 -83.72  0.001063083    2.230    0.551
        52 -10.5129    108.1601    112.7240   1.0220285249e+02   3.9021076133e+01    0.5288347    0.2332227 -56.57  0.001815812    2.728    0.633
        53 -12.1597    159.9732    110.2500   8.8249680272e+01   2.8415239074e+01    0.8616678    0.4915728 -63.19  0.003203455    2.424    0.588
        54 -10.6169     78.3395    112.1342   1.1095647281e+02   4.4396801693e+01    0.3835945    0.2505988 -83.30  0.001571667    2.552    0.608
        55 -11.0350     13.9602    109.1368   1.3085344638e+02   5.2305896216e+01    0.5219814    0.2003965 -66.81  0.002328214    2.234    0.552
        56 -10.8046     91.8223    111.4857   1.0667475183e+02   4.2312297121e+01    0.4961611     0.198493 -58.62  0.001603513    3.245    0.692
        57 -12.1332    140.5941    104.9494   9.1471042384e+01   3.3903843368e+01    0.3956798    0.3321235  60.09  0.001978729    1.223    0.182
        58 -11.7271    141.4051    100.2075   9.0007673172e+01   3.4698225219e+01    0.4921098     0.320277  52.28  0.002185366    1.546    0.353
        59 -11.7518     44.5737    101.1167   1.1923577148e+02   5.1407184925e+01    0.6174234    0.3883431 -87.60  0.002728204    2.742    0.635
        60 -10.8950    174.6210    110.6491   8.5151862045e+01   2.4976643400e+01    0.4566162     0.290229 -40.21  0.001472948    1.587    0.370
        61 -12.0364    127.5792    100.5688   9.3622004793e+01   3.7668953822e+01    0.6067496      0.29941 -51.85  0.002295693    2.235    0.553
        62 -11.4545    107.3974     97.9943   9.8480678221e+01   4.2371052322e+01    0.5444294     0.334653 -59.20  0.002232582    1.983    0.496
        63 -10.6647     81.9915    100.4937   1.0684237257e+02   4.6425323408e+01    0.2606186    0.2053434 -66.15 0.0007668119    1.462    0.316
        64 -10.4018     89.9817     97.6810   1.0359292753e+02   4.5678426133e+01    0.2399504    0.1966107 -41.54  0.001269674    1.174    0.148
        65 -11.1245     62.8822     95.9835   1.1185079779e+02   5.0284519453e+01    0.3301837    0.1905105 -74.74  0.001251532    3.303    0.697
        66 -12.1335    113.8490    101.3563   9.7569613830e+01   4.0375760502e+01    0.6947441    0.3217175  47.87   0.00263128    2.255    0.556
        67 -12.9709    170.4768     90.8690   8.1018932065e+01   2.9804087450e+01    0.4514475    0.3892223  87.33  0.001509921    1.189    0.159
        68 -11.4587     42.4995     87.7429   1.1672475850e+02   5.4552547047e+01    0.4140702    0.2433335 -13.24  0.001434072    2.287    0.563
        69 -11.0949     34.5948     88.5677   1.1971699961e+02   5.5184670355e+01    0.2829407    0.2288774 -73.96  0.001721982    1.461    0.315
        70 -11.1560     86.5428     86.7429   1.0159168139e+02   4.8544789470e+01    0.5474058    0.3429596 -69.57  0.002217799    2.794    0.642
        71  -9.7705    118.7023     87.6701   9.2400444585e+01   4.2151721664e+01    0.1501294    0.1168658   1.97 0.0003694925    1.639    0.390
        72 -10.8778      6.8046     85.2655   1.2882858406e+02   5.8029013279e+01    0.2504729    0.1304494 -31.88  0.000581956    1.889    0.471
        73 -10.7599     45.9895     82.5450   1.1413296727e+02   5.5250665534e+01    0.4262546    0.2858922  76.30  0.001676685    3.292    0.696
        74 -10.8690    104.6461     83.0025   9.5000003223e+01   4.5920785286e+01    0.3504568    0.2748995 -71.44  0.001743378    1.698    0.411
        75  -9.6973    140.6942     83.3326   8.5562397372e+01   3.8131176639e+01     0.152191    0.1168612 -80.73 0.0005492086    1.663    0.399
        76 -10.0428     23.5064     80.0186   1.2165053948e+02   5.7967384577e+01    0.1935195     0.105657 -56.42 0.0007320838    1.601    0.375
        77 -10.4493      2.5266     77.7602   1.2883579031e+02   5.9837753272e+01    0.2707084    0.1292363 -18.27   0.00139227    2.519    0.603
        78 -10.8129     82.3204     73.2569   9.8916653764e+01   5.1869885250e+01     0.335328    0.2386511 -80.74  0.001475454    2.794    0.642
        79 -11.4813    223.3525     71.2008   6.7512081334e+01   2.1094450012e+01     0.314606    0.2455025 -68.84 0.0007925196    1.147    0.128
        80  -9.5164    115.3412     72.6647   8.8911092758e+01   4.5630393632e+01    0.1455034     0.115141 -86.14 0.0004929069    1.758    0.431
        81 -10.4710     62.4127     70.2701   1.0473237256e+02   5.5551881098e+01    0.2563358    0.1149049 -41.41  0.001131893    2.093    0.522
        82 -10.5278     51.8259     70.4636   1.0859285592e+02   5.6940933064e+01    0.2790786     0.182229 -52.39  0.001019484    1.619    0.383
        83 -10.2907    196.1403     67.6491   7.0632535454e+01   2.7808770782e+01    0.3220364    0.2081661  56.57  0.001606813    1.542    0.352
        84 -11.1431     10.1136     58.9425   1.2146908261e+02   6.3111856868e+01    0.5102097    0.2815031  35.85  0.002938924    2.387    0.581
        85 -10.1538      5.8497     52.4728   1.2146947854e+02   6.4580441746e+01    0.2529389     0.185784   0.93 0.0009427132    1.392    0.282
        86 -11.4941     20.6689     52.1480   1.1517747427e+02   6.3567176897e+01    0.5302874    0.3172271 -55.53  0.003113111    1.811    0.448
        87 -11.2604     28.1136     53.1408   1.1242016861e+02   6.2726455998e+01    0.3688515    0.2122813  -5.63  0.001487876    1.996    0.499
        88 -11.3227     19.3840     59.3859   1.1783823797e+02   6.2356863267e+01    0.2918424    0.2046227 -22.37 0.0008839893    1.255    0.203
        89 -13.6001     30.6051     59.6557   1.1342377389e+02   6.1319882474e+01     1.278795    0.6351441  25.85  0.003728109    2.125    0.529
        90 -12.0365    232.6593     60.2536   6.4017573002e+01   2.0806297717e+01    0.3487086    0.2304909 -68.58  0.001927041    1.419    0.295
        91  -9.8620    101.3396     61.6622   8.9423147643e+01   5.0351069068e+01    0.1361908    0.1115846 -86.47 0.0007050726    1.761    0.432
        92  -9.8685     72.6195     58.8589   9.7536514487e+01   5.6008150694e+01    0.1834189    0.1197789 -48.54 0.0009488104    1.776    0.437
        93  -9.6224    119.3452     56.6713   8.2982675749e+01   4.7380064672e+01    0.1401278    0.1097787 -83.73 0.0007050421    1.751    0.429
        94 -11.5242     39.7704     51.6006   1.0722682220e+02   6.1771498648e+01    0.5446376    0.1654646 -40.45  0.002219906    2.965    0.663
        95 -10.3158    162.1375     53.0429   7.2686029149e+01   3.8077301971e+01    0.3233805    0.1780842  72.48  0.001403297    2.037    0.509
        96 -12.0339    149.2965     52.0694   7.4872339676e+01   4.1249213224e+01    0.3361855    0.2491526  59.46  0.000415268    1.235    0.190
        97 -10.1329     82.1663     46.9829   9.0367232386e+01   5.6226095021e+01    0.1812714    0.1797227 -56.58 0.0005649753    1.295    0.228
        98 -10.7309    156.9480     44.9673   7.1450582240e+01   4.0431947857e+01    0.2720169    0.1789997  65.02  0.000502166    1.395    0.283
        99 -11.1572     74.8338     43.3983   9.1494438713e+01   5.8022433514e+01    0.2816088    0.2104155  34.68  0.001266947    1.247    0.198
       100 -10.8657     70.2364     42.3500   9.2667230280e+01   5.8942016784e+01     0.381047     0.282242  68.01   0.00203061    2.380    0.580
       101 -11.3498      7.3588     43.2730   1.1813846541e+02   6.6113429276e+01    0.4494841    0.2402434  35.00  0.002635073    2.510    0.602
       102  -9.4110    149.4485     43.4420   7.2422650690e+01   4.2399501144e+01    0.1361158    0.1217521  69.47 0.0001009423    1.019    0.018
       103 -12.3313     42.3086     37.1640   1.0114069468e+02   6.3746435999e+01    0.6320771    0.3639425   9.36  0.002625266    1.955    0.489
       104 -11.8837     46.7239     35.8292   9.8891628938e+01   6.3369671173e+01    0.4149283    0.2513452  12.17  0.001427772    1.729    0.422
       105 -10.8586     82.7629     37.9244   8.7012440030e+01   5.7365513205e+01    0.3963565      0.19725  51.16  0.001853891    2.107    0.525
       106 -11.2599    120.0786     34.1448   7.5771982699e+01   5.0258184097e+01    0.2994468     0.255036  67.08 0.0007953315    1.194    0.162
       107 -10.1275     73.8450     32.9239   8.8043248466e+01   5.9593106191e+01    0.2799755    0.1552978  53.19  0.001408691    2.146    0.534
       108 -11.2865    104.4447     30.6791   7.8403522150e+01   5.4005420447e+01    0.4853748    0.2006696  54.84  0.001502708    2.217    0.549
       109 -10.7784    220.9815    250.0000   1.0437427872e+02  -1.0761329689e+01     0.467106    0.2434021   5.16  0.001938267    3.341    0.701
       110 -12.5671     20.6150    238.6271   1.4333843627e+02   2.1587951441e+01    0.8102664    0.2673965  59.21  0.003538364    2.973    0.664
       111 -10.9631      8.3455    240.4515   1.4566187385e+02   2.2523704318e+01    0.2058706    0.1695293 -48.37  0.001199882    1.875    0.467
       112 -11.1549    239.8250     20.5884   5.5425424712e+01   2.4735245129e+01    0.2597406    0.1767921  83.81 0.0005552897    1.267    0.211
       113 -10.8661     12.7687    227.4358   1.4402624442e+02   2.4803255089e+01    0.2231349     0.161519  86.94 0.0005780659    1.081    0.075
       114  -9.7110    112.6931     16.6738   7.1836713126e+01   5.3725994180e+01    0.1307975   0.08189053  32.96 0.0002977413    1.651    0.394
       115  -9.5089     89.2767     18.2574   7.8071477464e+01   5.8384995391e+01    0.1891985   0.09902325  63.59 0.0008951426    2.396    0.583
       116 -10.5354    222.5713     16.4652   5.6133834749e+01   2.8867519088e+01    0.3023329    0.1587134  54.62  0.001605317    2.226    0.551
       117 -10.1192    104.4786    225.4168   1.2485328417e+02   1.2843165691e+01    0.2744609    0.1347725 -61.47     0.001208    2.163    0.538
       118 -10.6955     95.7419    224.8775   1.2670264654e+02   1.4377475036e+01    0.2850429    0.1496604  59.62  0.001240675    2.114    0.527
       119 -12.0684    227.8910    222.2310   9.8227682785e+01  -7.4319194697e+00    0.5914207    0.2795446  52.96  0.002181508    4.300    0.767
       120  -9.2863    185.5328    223.4497   1.0688255706e+02  -7.9942737307e-01     0.136477    0.1242616  16.24 0.0003714585    1.005    0.005
       121 -10.5086    149.7393    223.2765   1.1452984383e+02   5.4972143622e+00    0.3234624     0.198891 -70.18   0.00141882    2.353    0.575
       122 -11.2679    238.5377    213.1304   9.4576583768e+01  -7.5242478252e+00     0.574889    0.2847073 -55.62  0.002215976    3.849    0.740
       123 -11.8204    223.1498    213.2764   9.7480836093e+01  -5.1940368540e+00    0.4320636    0.2446591  27.11  0.002114855    1.881    0.468
