#   1 NUMBER                 Running object number                                     
#   2 MAG_AUTO               Kron-like elliptical aperture magnitude                    [mag]
#   3 X_IMAGE                Object position along x                                    [pixel]
#   4 Y_IMAGE                Object position along y                                    [pixel]
#   5 X_WORLD                Barycenter position along world x axis                     [deg]
#   6 Y_WORLD                Barycenter position along world y axis                     [deg]
#   7 A_WORLD                Profile RMS along major axis (world units)                 [deg]
#   8 B_WORLD                Profile RMS along minor axis (world units)                 [deg]
#   9 THETA_WORLD            Position angle (CCW/world-x)                               [deg]
#  10 FWHM_WORLD             FWHM assuming a gaussian core                              [deg]
#  11 ELONGATION             A_IMAGE/B_IMAGE                                           
#  12 ELLIPTICITY            1 - B_IMAGE/A_IMAGE                                       
         1 -14.4655    152.5060     58.6478   8.3559141857e+01   3.9381520736e+01     1.347513     1.166626  23.81 0.0009527017    1.248    0.199
         2 -14.8944    163.8542     44.0789   7.6729693370e+01   3.8719325873e+01     1.367188     1.107231 -13.11  0.003974328    1.383    0.277
         3 -14.9536    180.4282     10.9182   6.4175979349e+01   3.8444766488e+01     2.000793      1.14787  69.27  0.007020892    1.588    0.370
         4 -11.8323    125.1725    241.1268   1.2863867781e+02   9.2227131392e+00    0.4915209    0.1473629 -54.35   0.00208639    3.983    0.749
         5 -19.9657     74.6300    169.2595   1.3007796733e+02   3.1002935234e+01     17.50462     7.551653 -66.35   0.07605452    2.283    0.562
         6 -10.9792     28.4980    238.7012   1.4564208532e+02   2.2611869485e+01    0.1295609   0.08340408  87.12 0.0009337835    1.312    0.238
         7 -12.0166    153.2746    186.0657   1.1510127035e+02   1.4173858330e+01    0.2663607    0.2343179  71.27 0.0006671402    1.243    0.195
         8 -11.7839     21.5809    237.1095   1.4670264460e+02   2.3636615257e+01    0.1403845   0.09294198  89.46  0.001044353    1.289    0.224
         9 -11.7286    131.0685    234.7983   1.2679142642e+02   9.3286026182e+00    0.1716609    0.1562584  89.78 0.0007231458    1.241    0.194
        10 -10.6658    141.5597    230.1431   1.2421194293e+02   8.4075784107e+00    0.2199432    0.1439284  54.47 0.0007092326    1.456    0.313
        11 -10.1931     30.4303    182.9101   1.4141009118e+02   3.3397871556e+01    0.1638906    0.1394129 -71.25 0.0005828688    1.311    0.237
        12 -10.7619    150.5882    180.3549   1.1465328450e+02   1.5772500660e+01    0.2408558    0.1375801 -53.83 0.0005404683    1.960    0.490
        13 -12.4838    178.1873    179.4955   1.0869279154e+02   1.0689211103e+01    0.2672929    0.2148971 -49.07 0.0009567426    1.381    0.276
        14 -12.7338    142.0500    165.6503   1.1378467598e+02   2.0350031522e+01    0.4812138    0.3265058 -64.37 0.0005994921    1.746    0.427
        15 -13.5865    143.9764    173.4953   1.1483873582e+02   1.8378923643e+01    0.8018836    0.7155439  -4.32  0.003579241    1.310    0.236
        16 -11.8902    187.9369    175.2524   1.0588792422e+02   9.5775016657e+00    0.3128342    0.2036133 -56.13   0.00147206    2.003    0.501
        17 -12.4234    176.9339    169.7946   1.0703897313e+02   1.2705556270e+01    0.3784133    0.2113664 -51.10  0.001652364    2.070    0.517
        18 -12.6770     22.7154    220.3407   1.4557006257e+02   2.6612932541e+01    0.2755052    0.1570133 -68.98  0.001815501    1.772    0.436
        19 -10.9104     34.2471    169.7163   1.3937411767e+02   3.5883100910e+01    0.2076731    0.1785741 -75.63 0.0005538688    1.209    0.173
        20 -11.6796    230.2319    167.0146   9.6224511202e+01   3.0036322108e+00    0.4197803    0.1638765 -47.94  0.001452348    3.865    0.741
        21 -12.4189    126.4956    172.1870   1.1852099965e+02   2.1893427526e+01    0.5030071    0.3798166  77.53  0.002487956    1.565    0.361
        22  99.0000     23.5881    215.4496   1.4511647314e+02   2.7460619774e+01     0.167472   0.08699634 -74.47 0.0001856777    1.747    0.428
        23 -10.8501     25.4292    165.0889   1.4089472241e+02   3.7802956464e+01    0.1712935    0.1645639 -40.97 0.0005938691    1.434    0.302
        24 -13.5386    136.5057    170.2574   1.1590647632e+02   2.0448842500e+01    0.7164951    0.4575801  46.87  0.001989458    1.495    0.331
        25 -11.2795    218.1287    219.7079   1.0832907887e+02  -2.6089572859e+00    0.1937881    0.1630096 -33.11 0.0007669906    1.420    0.296
        26 -10.7065    237.2806    158.6388   9.3247707492e+01   3.0306347657e+00    0.1287724    0.1041838 -57.88 0.0007014446    1.673    0.402
        27 -11.2337     23.0631    156.0996   1.4057031388e+02   4.0043720288e+01     0.202724     0.179693  23.13 0.0005438081    1.512    0.339
        28 -11.2630    110.7595    211.6799   1.2787553094e+02   1.6639864425e+01    0.2126903    0.1683529  69.62 0.0003733741    1.209    0.173
        29  -9.9160      6.4705    155.6212   1.4431135588e+02   4.1562414571e+01    0.1133058   0.08931664 -86.71 8.931847e-05    1.063    0.059
        30 -11.9311    161.1343    152.8567   1.0689320509e+02   1.9169833759e+01    0.2298858    0.2074659  79.36 0.0006997109    1.242    0.195
        31 -11.5070    152.9492    151.1654   1.0836061312e+02   2.1189983261e+01    0.2251176    0.1989969  80.91 0.0003354976    1.270    0.213
        32 -10.3914    160.5311    241.6789   1.2218033375e+02   3.5715730427e+00    0.1913528      0.11759 -39.61  0.000877351    2.042    0.510
        33 -11.5049    174.2991    148.5386   1.0308643699e+02   1.7296585878e+01    0.3728534    0.2740456 -62.80  0.001270547    1.695    0.410
        34 -12.9504    106.6914    205.7290   1.2794178935e+02   1.8428389817e+01    0.3666852    0.2943849 -89.50   0.00131287    1.282    0.220
        35 -11.6343     12.6814    241.5762   1.4836641136e+02   2.3760186322e+01    0.1751673    0.1343341 -78.81  0.001435098    1.485    0.326
        36 -11.6541     27.4737    136.2580   1.3730258180e+02   4.4191954410e+01    0.3649529    0.2338124  -1.90  0.001432865    2.670    0.625
        37 -11.2761      8.2910    138.0471   1.4232957440e+02   4.5367900664e+01     0.269109    0.2099492 -22.83  0.001238573    1.841    0.457
        38  -9.8467    170.3230    136.6914   1.0123440367e+02   2.0481160292e+01     0.151627    0.1218147 -87.12 0.0004986307    1.648    0.393
        39 -12.4462    160.5949    127.9896   1.0131030123e+02   2.4358304624e+01    0.4189336     0.344217 -58.60  0.001603447    1.309    0.236
        40 -13.1758     11.4512    206.0978   1.4674948244e+02   3.0498392650e+01     0.359527    0.2390715  34.92   0.00211535    1.782    0.439
        41  -9.2230     22.4522    205.4661   1.4468382593e+02   2.9541800405e+01    0.1074807   0.08831271  89.41 0.0008001199    1.209    0.173
        42 -10.9619    167.5420    112.5422   9.5865772904e+01   2.5916250276e+01    0.3452034    0.2375964 -80.80  0.001319057    2.373    0.579
        43 -10.5863    153.1950    200.4927   1.1756307686e+02   1.1520625579e+01     0.222829     0.188139 -50.74 0.0006404183    1.327    0.247
        44 -10.6379    138.7390    200.3621   1.2052477976e+02   1.4096281990e+01    0.2069923    0.1808658  77.98 0.0006810176    1.226    0.184
        45 -10.8097    205.3589    110.2570   8.7712935806e+01   1.7689510756e+01    0.3067444     0.207993  45.94 0.0009571572    1.539    0.350
        46 -10.8818    141.5491    198.7209   1.1968356848e+02   1.3909952197e+01    0.2539528    0.2046673  76.68 0.0006794106    1.432    0.301
        47 -10.5655    121.8814    198.6816   1.2379993244e+02   1.7315732800e+01    0.1720584    0.1476942  57.85 0.0003673263    1.043    0.041
        48 -10.2689    111.7984    196.9944   1.2569086656e+02   1.9328008908e+01     0.454823    0.2647187  19.23  0.001854231    3.255    0.693
        49 -11.7187    153.0616    193.0058   1.1634730934e+02   1.2911820415e+01    0.3225481    0.2566525  65.65  0.001008497    1.407    0.289
        50 -10.9323    109.2232    239.6200   1.3141910297e+02   1.1897085293e+01    0.1624686    0.1473072  86.70 0.0006560561    1.226    0.184
        51  99.0000    135.9254    243.0360   1.2687813806e+02   7.2516873061e+00     0.416266    0.2772433  26.71  0.001423136    1.691    0.409
        52 -13.0432    168.1847     36.0133   7.3468325822e+01   3.8701192216e+01    0.4438739    0.3914323 -31.69 0.0008893821    1.181    0.153
        53 -11.2044     13.4941     59.9675   1.2855938732e+02   6.2604801515e+01    0.1752001     0.163443  59.51 0.0004269387    1.382    0.276
        54 -10.2805    141.2368     32.8079   7.7362605475e+01   4.5875353056e+01    0.2030431    0.1889535 -81.66 0.0005191948    1.162    0.139
