#   1 NUMBER                 Running object number                                     
#   2 MAG_AUTO               Kron-like elliptical aperture magnitude                    [mag]
#   3 X_IMAGE                Object position along x                                    [pixel]
#   4 Y_IMAGE                Object position along y                                    [pixel]
#   5 X_WORLD                Barycenter position along world x axis                     [deg]
#   6 Y_WORLD                Barycenter position along world y axis                     [deg]
#   7 A_WORLD                Profile RMS along major axis (world units)                 [deg]
#   8 B_WORLD                Profile RMS along minor axis (world units)                 [deg]
#   9 THETA_WORLD            Position angle (CCW/world-x)                               [deg]
#  10 FWHM_WORLD             FWHM assuming a gaussian core                              [deg]
#  11 ELONGATION             A_IMAGE/B_IMAGE                                           
#  12 ELLIPTICITY            1 - B_IMAGE/A_IMAGE                                       
         1 -14.9958    245.0040     12.8299   1.0491449119e+01   2.2324325753e+01     2.148736     0.867789 -38.75   0.01006477    2.164    0.538
         2 -11.9280      1.7374     25.3032   7.6941013572e+01   6.9039374738e+01    0.4468678    0.1171571 -56.31  0.001994601    3.005    0.667
         3 -13.5850     12.1362     23.4403   7.1383622359e+01   6.8734995579e+01     0.657517    0.2388347 -35.68  0.003280062    2.316    0.568
         4 -13.0780     25.1713      3.9413   5.6697362816e+01   7.0628226702e+01    0.5686744    0.2915689   9.43  0.003120647    2.264    0.558
         5 -12.5150     13.4282     12.4408   6.6436740932e+01   7.0462172609e+01    0.4200459    0.1574424 -38.41  0.002073304    2.056    0.514
         6 -12.6252     15.9529      6.7515   6.2648288542e+01   7.1122172087e+01    0.4140016    0.2176276 -27.21  0.002193735    1.556    0.357
         7 -13.4588      6.4952     11.0251   6.9371745870e+01   7.1194643068e+01    0.8325694    0.3709658 -33.45  0.004884259    1.760    0.432
         8 -12.5636     10.2970      2.1130   6.3430831803e+01   7.2276549236e+01    0.8159177    0.1997762  24.11  0.003470029    4.586    0.782
         9 -12.4340     19.8728     13.8672   6.3858962110e+01   6.9698705348e+01    0.3598418    0.1443775 -33.96  0.001869487    2.089    0.521
        10 -11.8158     26.3687     15.9016   6.1625962131e+01   6.8774303843e+01    0.2432216    0.1114582 -30.68  0.001297936    1.905    0.475
        11 -11.9911     57.4752    242.2160   9.3732465359e+01   1.8379340746e+01    0.4156403    0.1878332  60.77  0.002335387    1.936    0.484
        12 -11.1632    233.7425    250.4476   6.2994036699e+01  -9.5800480972e+00    0.2609765    0.1297301  34.84  0.001174399    1.591    0.371
        13 -12.8006    234.4072    244.2430   6.1907842078e+01  -8.9890300231e+00    0.4893133    0.2739699   6.33  0.002674117    2.138    0.532
        14 -12.0233    240.1333    239.3047   6.0121357445e+01  -9.2717172178e+00     0.286197    0.1858837  -7.68  0.001466973    1.545    0.353
        15 -12.6979    243.9470    235.0554   5.8762789700e+01  -9.3468997209e+00    0.6127954    0.2065563 -25.21  0.002521855    3.967    0.748
        16 -12.4817    243.1520    245.4473   6.0593495323e+01  -1.0388518712e+01    0.5853741    0.2959115  -9.92  0.003049017    2.602    0.616
        17 -12.1548    247.5056    239.1101   5.8822952930e+01  -1.0316818400e+01    0.3991083     0.241086  -2.41  0.001778209    1.698    0.411
        18 -12.0678    249.9841    232.7260   5.7336300340e+01  -9.9592969019e+00    0.3614315    0.2599419 -18.19  0.002461151    1.385    0.278
        19 -11.5046    248.8455    249.9563   6.0344339764e+01  -1.1666062638e+01     0.486643    0.1826285  32.68   0.00250271    2.174    0.540
        20 -11.2356    248.8763    244.9080   5.9533653909e+01  -1.1139642310e+01    0.2877379    0.1916362  10.71  0.001939922    1.249    0.199
        21 -12.7077    212.7694    248.0144   6.6295587874e+01  -6.1687223271e+00    0.4262135    0.2484439  15.25  0.002396198    1.905    0.475
        22 -11.4250     74.4992    250.2336   9.1435457009e+01   1.4797202591e+01    0.3391124    0.1006056  46.45  0.001630566    2.476    0.596
        23 -11.8557     65.2226    249.0498   9.2919847774e+01   1.6218364438e+01    0.3802433    0.1747346  52.97  0.002247496    1.679    0.405
        24 -11.5236     50.2473    250.0821   9.5481907196e+01   1.7922317554e+01    0.3901633    0.1225048  40.49  0.001986874    2.665    0.625
        25 -11.3584     44.8053    245.0440   9.6050626987e+01   1.9435569374e+01    0.3721987    0.1722218  67.06  0.001793022    1.945    0.486
        26 -11.8438     36.8428    248.6740   9.7565181350e+01   1.9739469665e+01    0.4046877    0.1732621  58.95   0.00246948    1.826    0.452
        27 -10.9180     27.2599    248.8583   9.9092643488e+01   2.0776378432e+01    0.2690213    0.1151247  64.43  0.001356377    1.901    0.474
        28 -11.8719     20.2968    249.1398   1.0018822818e+02   2.1473590592e+01    0.3308454    0.1519759  55.36  0.001979731    1.588    0.370
        29 -12.0123     12.2001    248.9512   1.0141456835e+02   2.2338750450e+01    0.3933353    0.1496982  52.11  0.001802101    1.879    0.468
        30 -11.3625      3.5655    250.3121   1.0276003470e+02   2.2961659671e+01    0.2526143    0.1258634  39.05  0.001778369    2.048    0.512
        31 -12.5404      3.3309    243.1949   1.0250589575e+02   2.4185665845e+01    0.4197973    0.1964957  75.33  0.002373091    1.663    0.399
        32 -10.3427     49.3439    243.4283   9.5191022604e+01   1.9171708652e+01    0.1838991   0.09974705  75.40 0.0009324739    1.687    0.407
        33 -11.4123    168.8473    250.2631   7.4548434029e+01   4.9174441282e-01     0.294664   0.08402776  39.63  0.001193381    2.808    0.644
        34 -10.8892    178.7539    243.2433   7.1774161760e+01  -1.4548124016e-01    0.2055843   0.08124737  33.34 0.0008571392    2.446    0.591
        35 -11.8423     29.5744    240.7251   9.8279448632e+01   2.1925230345e+01    0.3931329     0.186436  69.33  0.001968028    1.791    0.442
        36 -12.4856     16.1444    240.4556   1.0040880944e+02   2.3394046292e+01    0.5211657    0.2020946  55.37   0.00252536    1.919    0.479
        37 -11.7915      6.7125    236.3008   1.0168904440e+02   2.5056043941e+01    0.3652336    0.1725436  78.46  0.001626268    1.710    0.415
        38 -12.0013      4.8304    228.2572   1.0161728960e+02   2.6665589030e+01    0.4013453    0.1864701  73.62   0.00186335    1.728    0.421
        39 -11.8071      2.2649    220.9117   1.0168683575e+02   2.8240122857e+01    0.3225892    0.1467135 -89.55  0.001696868    1.796    0.443
        40 -12.6305    226.2066    240.8805   6.2810065161e+01  -7.3756927947e+00    0.3044843     0.193763   6.12  0.001829247    1.653    0.395
        41 -11.7662     72.8527    240.3550   9.0919864166e+01   1.6703404081e+01    0.3831018    0.1872564  60.96  0.002158127    1.857    0.462
        42 -11.9238    107.5675    240.2055   8.4639507660e+01   1.1750736093e+01      0.39169    0.1467252  52.96  0.001765383    2.524    0.604
        43 -10.8533     64.6266    240.1333   9.2342992570e+01   1.7829513340e+01     0.234234    0.1306665  62.62  0.001377104    1.510    0.338
        44 -10.8652     38.3773    240.5011   9.6825463955e+01   2.0976572490e+01    0.2389938    0.1265306  68.36  0.001107083    1.562    0.360
        45 -12.6357     83.4383    244.3267   8.9391112115e+01   1.4569103545e+01    0.5672657    0.1548031  49.75  0.002440456    2.964    0.663
        46 -11.4844    128.6919    239.8574   8.0678154882e+01   8.5186629584e+00    0.2552443    0.1132955  48.64  0.001264911    1.883    0.469
        47 -11.2363     45.3285    237.3541   9.5457882458e+01   2.0721480183e+01    0.3036899    0.1517305  60.81  0.001510037    1.629    0.386
        48  -9.9636    220.3174    238.3441   6.3453652317e+01  -6.1665495756e+00    0.1261764    0.0781159  11.62  0.000403258    1.719    0.418
        49 -11.2541     88.0785    250.3939   8.9107314909e+01   1.2904874272e+01    0.3077383    0.1184732  38.34  0.001522733    2.401    0.583
        50 -11.5984     82.0331    236.4943   8.8943103141e+01   1.6120444686e+01    0.3143218    0.1469272  59.56  0.001648124    2.040    0.510
        51 -10.4953     32.8717    236.0888   9.7467227412e+01   2.2380373696e+01    0.2430216   0.09802397  65.16  0.001324997    2.271    0.560
        52 -12.1138    231.5148    234.7836   6.0887664508e+01  -7.4585974452e+00    0.2787515    0.1927406  -7.54  0.001778965    1.452    0.311
        53 -11.4175     95.3260    235.4703   8.6412560132e+01   1.4391246473e+01     0.311749    0.1461304  53.40  0.001637603    1.839    0.456
        54 -10.1016      1.4177    235.0048   1.0245359794e+02   2.5784894960e+01    0.1440252   0.07415572 -87.85  0.001011093    1.571    0.363
        55 -11.6040     14.2165    231.8544   1.0028573919e+02   2.5109190080e+01    0.3589465    0.1725716  69.19  0.001939571    1.665    0.400
        56 -11.3937     11.1210    225.7788   1.0047939552e+02   2.6514049750e+01    0.3330258    0.1467107  59.90  0.001513591    1.780    0.438
        57 -11.4198     59.6255    232.3049   9.2607224990e+01   1.9869665160e+01    0.3585757    0.1355584  54.98  0.001806663    2.288    0.563
        58 -11.1885     40.0178    231.1083   9.5944153364e+01   2.2468411679e+01     0.325849    0.1644011  71.84  0.001961103    1.800    0.444
        59 -12.0813     25.6157    228.7973   9.8242828038e+01   2.4487202037e+01    0.4901074    0.2222038  76.51  0.002851492    2.061    0.515
        60 -10.7895    104.1566    230.1630   8.4202703132e+01   1.3999251952e+01    0.1786962    0.1222454  64.47  0.001088407    1.359    0.264
        61 -10.4886     32.3939    229.2379   9.7125113478e+01   2.3671422839e+01    0.2226895    0.1134457  69.17  0.001161271    1.673    0.402
        62 -12.0569    237.1229    227.8254   5.8736343647e+01  -7.4756736919e+00    0.3003449    0.1765789 -11.36  0.001680862    1.897    0.473
        63 -11.9851    248.8680    225.3295   5.6263134734e+01  -8.9423699778e+00    0.3262697    0.1944014 -23.33  0.001962344    1.672    0.402
        64 -10.9431     48.7367    230.7533   9.4408535108e+01   2.1503667638e+01    0.2904252     0.152495  78.97  0.001718959    1.862    0.463
        65 -11.3995     18.8173    221.9913   9.8993312787e+01   2.6448717657e+01    0.3270949    0.1509083  69.47   0.00181502    1.866    0.464
        66 -11.9717     12.1757    217.0152   9.9840176047e+01   2.8036616542e+01    0.4256966    0.2024126  66.96  0.002154696    1.732    0.423
        67 -10.5863     55.1170    222.4289   9.2628602378e+01   2.2266032684e+01    0.2384505    0.1262905  82.98  0.001337935    1.966    0.491
        68 -10.9287     43.7037    221.3039   9.4607583735e+01   2.3859966040e+01    0.2622412    0.1347279  66.38  0.001541222    1.738    0.425
        69 -12.2455    248.2709    215.5299   5.4639487811e+01  -7.6690843872e+00     0.563534    0.2365385 -20.31  0.002433108    3.114    0.679
        70 -10.9101     73.8428    228.2884   8.9694577790e+01   1.8727898655e+01    0.2227853    0.1212535 -89.63  0.001219571    2.111    0.526
        71 -11.4059     34.6061    216.6709   9.5905269386e+01   2.5779943778e+01    0.2903501    0.1386689  65.40  0.001663718    1.880    0.468
        72 -10.6159     24.3398    217.4808   9.7774229668e+01   2.6729170533e+01     0.231551    0.1163692  72.70  0.001279985    1.734    0.423
        73 -11.7005      2.4083    212.5585   1.0125675260e+02   2.9783946074e+01    0.3358796    0.1657016  84.72  0.001533143    1.625    0.385
        74 -11.1371      1.4067    206.2535   1.0110641469e+02   3.1073061184e+01     0.292343    0.0781215 -76.81   0.00132812    3.015    0.668
        75 -10.8225     21.6348    211.2482   9.7857418034e+01   2.8201181217e+01    0.2762236     0.152482  89.37  0.001780056    1.523    0.343
        76 -10.0128     44.6622    212.3447   9.3746546781e+01   2.5469701729e+01    0.1267398   0.06611946  67.56 0.0005280039    1.775    0.437
        77 -10.8168     28.8496    211.4300   9.6577650621e+01   2.7416351320e+01    0.2513768     0.126558  74.70  0.001469168    1.819    0.450
        78 -10.3843     36.1420    207.8618   9.4984651972e+01   2.7323096562e+01    0.1907113    0.1182292  70.12  0.001165367    1.350    0.259
        79 -10.5341     25.5202    203.0155   9.6603280627e+01   2.9419034862e+01    0.1674602   0.07057375  78.39 0.0008102857    2.583    0.613
        80 -12.3366     12.7014    205.4393   9.9086520046e+01   3.0204543778e+01    0.4958659    0.2363401  62.63  0.003025574    1.769    0.435
        81  -9.8860     31.3207    201.6618   9.5420658416e+01   2.9082305000e+01    0.1235929   0.06526486  68.62 0.0007050153    1.712    0.416
        82  -9.9594    247.0000    205.9350   5.3112438743e+01  -6.2558849327e+00    0.1925174   0.06562326 -33.48 0.0008044872    2.957    0.662
        83  -9.9613    250.5744    200.2464   5.1427815666e+01  -6.0758886435e+00    0.1752059    0.1054749 -16.92 0.0009529073    1.645    0.392
        84 -12.2327      3.5769    197.1032   1.0023009146e+02   3.2666952774e+01    0.4063489    0.1837069  73.32  0.002220183    1.946    0.486
        85 -10.0392    243.6526    199.6788   5.2529484587e+01  -4.8934793670e+00    0.1364284   0.08486755   8.53 0.0007049294    1.737    0.424
        86 -11.2113      9.2238    198.0451   9.9266637770e+01   3.1981063793e+01    0.2469494     0.111904  78.14    0.0011877    2.001    0.500
        87 -12.0932      4.2206    188.7442   9.9621872212e+01   3.4281930310e+01    0.5477744    0.1987604  71.19  0.002607358    2.966    0.663
        88  -9.8487     24.3287    197.6811   9.6446984834e+01   3.0609574669e+01    0.1214108   0.06402809  67.89 0.0007047243    1.685    0.406
        89  -9.8928     39.6869    193.3768   9.3130923676e+01   2.9858169675e+01    0.1295664   0.06979642  70.56 0.0007028992    1.795    0.443
        90 -11.1146     11.3858    190.8877   9.8417706440e+01   3.3221803830e+01    0.2431426    0.1058085  89.01  0.001211768    2.074    0.518
        91 -11.2338     17.1022    189.7043   9.7252765529e+01   3.2936732640e+01    0.2657304    0.1230916  84.37   0.00144489    2.034    0.508
        92 -10.9258     24.4341    186.7166   9.5604433064e+01   3.2847159930e+01     0.219476   0.09333999 -82.19  0.001125732    2.134    0.531
        93 -11.6388     11.5574    184.0458   9.7925823717e+01   3.4606359048e+01     0.319511    0.1436358 -88.34  0.001764662    1.948    0.487
        94 -11.3130      5.3428    182.9264   9.9046325234e+01   3.5372025315e+01    0.2102652    0.1255068  75.02  0.001034707    1.373    0.272
        95 -11.6669      1.9078    178.0923   9.9396368546e+01   3.6648107202e+01    0.3920069    0.1416184 -82.25  0.001830516    2.297    0.565
        96 -10.5290     16.9941    181.2469   9.6658916349e+01   3.4697762196e+01    0.2166238     0.114601  86.46  0.001269082    1.656    0.396
        97 -10.5731     23.2120    179.7906   9.5297158985e+01   3.4419376658e+01    0.2061712   0.08446214  67.05 0.0009496243    2.774    0.639
        98 -11.5161      9.1033    178.0411   9.7987895285e+01   3.6065368295e+01    0.2104481    0.1226057 -88.01  0.001351882    1.366    0.268
        99 -10.7851     18.5265    174.4978   9.5825263214e+01   3.5981719396e+01    0.2003627   0.07741609  45.56  0.001038018    2.396    0.583
       100 -10.5115     11.3486    172.6501   9.7147417573e+01   3.7007154166e+01    0.1833605    0.1000641  69.96  0.001096757    1.675    0.403
       101 -12.1781      6.5610    171.5203   9.8033451745e+01   3.7644131841e+01    0.3263551    0.1476228 -87.21  0.001679374    1.884    0.469
       102 -11.2445      2.3423    165.5586   9.8465494923e+01   3.9236030883e+01    0.2983946    0.1315491  66.40  0.001604792    2.264    0.558
       103 -10.5548      1.4917    170.4641   9.8976964634e+01   3.8267633681e+01    0.2314862   0.08480743 -77.21  0.001202829    2.139    0.532
       104 -11.7027     10.9160    166.7990   9.6787923996e+01   3.8289162293e+01    0.2147597    0.1240379  60.41  0.001340168    1.621    0.383
       105  -9.9297     19.6699    164.3270   9.4727373389e+01   3.8067787371e+01    0.1245396   0.07032588  70.16 0.0006332736    1.708    0.414
       106 -11.9141      5.6509    161.3547   9.7468722003e+01   3.9878249001e+01     0.236294    0.1411079  86.22  0.001297555    1.381    0.276
       107 -10.8644     16.5219    159.0116   9.4939706893e+01   3.9502612360e+01    0.1731406   0.07721729  80.51 0.0008099109    2.534    0.605
       108 -12.3519     10.1033    155.5657   9.6045439917e+01   4.0782302351e+01    0.2820303    0.1358772 -80.38  0.001578039    1.691    0.409
       109 -12.2288      3.8634    153.4143   9.7229179607e+01   4.1724656316e+01    0.3038792    0.1190643 -68.90   0.00161708    1.967    0.491
       110 -11.5125      2.3169    143.4243   9.6746536961e+01   4.4009852787e+01    0.2324629    0.1126565 -79.83 0.0009961344    1.628    0.386
       111 -10.0260     13.3292    145.6519   9.4422802010e+01   4.2709552569e+01    0.1248343   0.07156994  71.66 0.0007049323    1.760    0.432
       112 -12.1027      4.1203    136.9150   9.5749580876e+01   4.5318156085e+01    0.2954858    0.1310571 -85.94  0.001526034    2.039    0.509
       113 -11.7283      3.1884    128.1899   9.5137240124e+01   4.7311454377e+01    0.3909577     0.147791  87.48  0.001616006    3.396    0.706
       114 -11.4031    248.4979    118.5475   3.4550454590e+01   6.4898399000e+00    0.2998167    0.1254757 -34.86  0.001208966    2.159    0.537
       115 -11.1341    248.3925    107.1775   3.1947237970e+01   8.3230529805e+00    0.2081039    0.1149787 -43.35 0.0007431606    1.725    0.420
       116 -11.5533    249.2462     98.1211   2.9716339230e+01   9.5788032455e+00    0.2729866     0.171516 -48.22 0.0009916761    1.598    0.374
       117 -10.4844      2.0000     94.0260   9.1466579149e+01   5.4962394536e+01    0.1988965   0.05152808 -70.21 0.0008029567    2.946    0.661
       118 -11.2978    242.5128     93.0229   2.9503033170e+01   1.1805438837e+01    0.2243486    0.1282052 -35.70    0.0010325    1.594    0.373
       119 -10.1458    248.2878     92.6437   2.8575417439e+01   1.0637159017e+01    0.1449006   0.09927174 -58.79 0.0004953509    1.677    0.404
       120 -11.1142    249.4641     87.9762   2.7317959402e+01   1.1114129683e+01    0.2175554    0.1243489 -35.36 0.0007076567    1.576    0.365
       121 -11.0070    246.4908     84.5177   2.6918885801e+01   1.2281014215e+01     0.138873    0.1264257 -41.50 0.0002448453    1.000    0.000
       122 -10.4580    243.2987     82.6533   2.6922691079e+01   1.3259380023e+01    0.1469961   0.09994583 -60.69  0.000665602    1.680    0.405
       123 -11.8386    248.7308     74.5962   2.4283900723e+01   1.3307360779e+01      0.34367    0.1347796 -40.30  0.001381934    2.232    0.552
       124 -10.3313    239.3319     72.6596   2.5077457675e+01   1.5665984547e+01    0.1502249   0.09982459 -63.56 0.0007051516    1.747    0.428
       125 -12.3849      3.0137     49.6831   8.3113062360e+01   6.4323616781e+01    0.4622588    0.1697295 -57.81  0.002407372    1.939    0.484
       126 -10.5105     16.0000     48.9910   7.7729824715e+01   6.3715977911e+01    0.1991968   0.05418295 -58.09  0.000806971    2.974    0.664
       127 -11.2056      8.4393     43.7281   7.9404524890e+01   6.5217325146e+01    0.2181111   0.09565157 -61.78  0.001136198    2.055    0.513
       128 -12.1270      2.7154     40.1219   8.0844671577e+01   6.6221556841e+01    0.4173635    0.1293661 -54.63  0.002072544    2.176    0.540
       129 -11.7057      3.0258     33.3132   7.8810951179e+01   6.7501668404e+01    0.3311432   0.08892775 -49.17  0.001589793    2.347    0.574
       130 -12.0203     12.1785     37.2417   7.5955148724e+01   6.6235534853e+01    0.3147569    0.1214701 -49.74  0.001646497    1.887    0.470
       131 -11.9148    225.7310    248.3186   6.4056356497e+01  -8.1661009124e+00    0.3033911     0.177675  24.17  0.001844202    1.440    0.305
       132 -10.7258    202.9890    249.4827   6.8258337096e+01  -4.8321671751e+00    0.1890615   0.09300155  37.13  0.000742511    1.593    0.372
       133 -12.8967    142.4440    247.9265   7.9088541355e+01   5.0660310053e+00    0.4811013    0.2334871  33.09  0.002425012    2.081    0.520
       134 -12.2346    127.0465    247.6332   8.1872053921e+01   7.5439257357e+00     0.304704    0.1610352  53.49  0.001687424    1.682    0.405
       135 -12.6095     97.5697    245.1344   8.6950107516e+01   1.2414835382e+01    0.4209723    0.1853661  54.88  0.002180247    2.028    0.507
       136 -11.2557     77.1872    246.7217   9.0689016084e+01   1.5023968450e+01    0.1924773    0.1060795  57.74  0.001185502    1.472    0.321
       137 -12.0178    195.1100    244.9984   6.9025661720e+01  -3.0233927174e+00     0.281512    0.1597443  14.21  0.001403248    2.453    0.592
       138 -11.1756    110.1101    248.8328   8.5064482714e+01   9.9511121128e+00    0.1908318    0.1287938  59.62  0.001236155    1.281    0.219
       139 -12.4285    116.3838    244.3783   8.3463966999e+01   9.7153351494e+00    0.3016887    0.1619986  54.42  0.001690371    1.636    0.389
       140 -11.6697     18.8719     30.4854   7.0785921569e+01   6.7002172973e+01    0.2617516    0.1053798 -38.57  0.001340612    1.990    0.497
