#   1 NUMBER                 Running object number                                     
#   2 MAG_AUTO               Kron-like elliptical aperture magnitude                    [mag]
#   3 X_IMAGE                Object position along x                                    [pixel]
#   4 Y_IMAGE                Object position along y                                    [pixel]
#   5 X_WORLD                Barycenter position along world x axis                     [deg]
#   6 Y_WORLD                Barycenter position along world y axis                     [deg]
#   7 A_WORLD                Profile RMS along major axis (world units)                 [deg]
#   8 B_WORLD                Profile RMS along minor axis (world units)                 [deg]
#   9 THETA_WORLD            Position angle (CCW/world-x)                               [deg]
#  10 FWHM_WORLD             FWHM assuming a gaussian core                              [deg]
#  11 ELONGATION             A_IMAGE/B_IMAGE                                           
#  12 ELLIPTICITY            1 - B_IMAGE/A_IMAGE                                       
         1 -14.6036    204.0939     28.7918   2.6718130541e+01   3.1661781896e+01    0.7946848    0.6198269 -66.54  0.004244717    1.043    0.041
         2 -11.5274     69.1912      6.8364   4.1307634110e+01   6.4183755909e+01    0.2792098   0.08920421  64.57  0.001001524    3.562    0.719
         3 -13.1562    109.2647    243.4366   8.9364509764e+01   8.1762224948e+00    0.5177066    0.3890381 -44.73  0.002547482    1.482    0.325
         4 -12.2160    146.5438    250.0503   8.1803417983e+01   2.1428828271e+00    0.2382289    0.1567404  36.71  0.001348752    1.512    0.338
         5 -17.5505     81.3274    164.1396   8.5100139455e+01   3.0520528811e+01     6.000308     4.618319  23.94    0.0291198    1.331    0.249
         6 -10.9543    210.8900    198.7757   6.0442438194e+01   2.7847630750e+00    0.1885729    0.1448086 -13.08 0.0005000582    1.143    0.125
         7 -11.2541    193.4177    194.6061   6.2979624992e+01   5.8682377353e+00    0.3199675    0.1549302 -49.80  0.001430899    2.267    0.559
         8 -12.9247    173.6895    177.5820   6.3804735802e+01   1.2079123296e+01    0.6963452    0.3678704 -47.42  0.003128158    1.850    0.459
         9 -12.2922    148.5343    241.1550   8.0116915120e+01   3.4564027454e+00    0.2157188    0.1558455   3.02 0.0003161103    1.320    0.242
        10 -12.1594    180.5329    170.5214   6.1001795388e+01   1.2382967022e+01     0.401127    0.2882529 -18.42  0.001760832    1.495    0.331
        11 -12.0834    178.7760    167.3534   6.0733492362e+01   1.3295973544e+01     0.401637    0.3081815  19.90  0.001656611    1.404    0.288
        12 -13.0401    233.9767    168.7186   5.1147443508e+01   4.8373814717e+00    0.3651891    0.1493993 -46.17  0.001576796    2.236    0.553
        13 -12.0460    150.0435    234.1522   7.8756103584e+01   4.5291464985e+00    0.2122899    0.1789033 -23.04 0.0003795426    1.175    0.149
        14 -12.5626    138.5000    147.8566   6.5775834882e+01   2.4583938571e+01    0.3299173    0.2580494  60.80  0.000617183    1.535    0.349
        15 -15.2806    133.6761    145.7311   6.6527563642e+01   2.5973374937e+01     1.760019    0.5817321 -55.89  0.004851133    4.227    0.763
        16 -11.2424    179.0690    226.4434   7.1334498534e+01   2.1092391114e+00    0.1915466    0.1504775 -26.17 0.0003220123    1.184    0.156
        17 -10.5454    167.4668    156.4757   6.0894228093e+01   1.7428455354e+01    0.1451037    0.1329051 -25.10 0.0001007037    1.012    0.012
        18 -12.9558    129.5099    140.9927   6.6545953460e+01   2.7850406807e+01    0.3548402    0.2942257 -34.35 0.0009273738    1.217    0.178
        19 -10.7116    156.7857    150.4555   6.1982434041e+01   2.0615740822e+01      0.28631    0.1749789 -66.11  0.001134863    2.451    0.592
        20 -12.0679    150.3372    148.7597   6.3105081399e+01   2.2172545024e+01    0.3696128    0.2224961 -65.01  0.001349439    2.383    0.580
        21 -11.6018      7.0343    143.7588   1.0618963592e+02   4.4295126667e+01    0.3058189    0.1693927  -6.31  0.001371457    2.332    0.571
        22 -14.1544    118.9395    139.0535   6.8947743523e+01   3.0315183045e+01     0.794736    0.3819652 -57.04  0.001966589    2.367    0.578
        23 -13.5183    136.0178    127.8356   6.1819392924e+01   2.9541997582e+01    0.6547424    0.2163627 -48.37  0.002073048    3.019    0.669
        24 -13.3804    116.6991    126.0443   6.6516372583e+01   3.3791506209e+01    0.5220211    0.2761783 -52.55  0.001900457    1.948    0.487
        25 -16.9286     69.6108    143.2339   8.4929291100e+01   3.7739713803e+01     3.683397     2.629883  82.28   0.01618014    1.846    0.458
        26 -13.5944     77.5855    121.1712   7.7509566494e+01   4.2167785445e+01    0.6221412    0.4099853  56.25  0.002388314    1.878    0.468
        27 -13.4142    121.8934    122.7839   6.4285703007e+01   3.3505587064e+01    0.4236028     0.342082 -77.23  0.002019639    1.509    0.337
        28 -12.4506    104.7464    120.0395   6.8506454299e+01   3.7524113973e+01       0.3329    0.2583339 -29.29 0.0007331675    1.417    0.294
        29  99.0000     56.1996    207.2114   9.8376711604e+01   2.3015239050e+01     8.220024     4.855474  36.82   0.03978119    1.540    0.351
        30 -11.0625    111.5033    115.4760   6.5365352106e+01   3.7246833987e+01     0.152952    0.1514342  -2.68 0.0002483975    1.002    0.002
        31 -13.4433     85.4463    110.6077   7.2232639938e+01   4.3379118514e+01    0.6582731    0.4348013  67.29  0.002624208    2.310    0.567
        32 -13.9580    118.8937    110.3294   6.1955069192e+01   3.6887901935e+01    0.6386487    0.5022143 -81.86  0.001846206    1.637    0.389
        33 -13.0864    119.4470    104.9521   6.0388699857e+01   3.7932906358e+01    0.4816844    0.3315372  83.68  0.001932605    2.379    0.580
        34 -12.5267    115.3358    101.6827   6.0642746733e+01   3.9492007424e+01    0.3356712    0.2563986  81.73  0.001038196    1.758    0.431
        35 -11.7400    109.0396     97.0473   6.1157089935e+01   4.1792403763e+01    0.4129858    0.2516052  73.02  0.001443889    3.120    0.679
        36 -11.6004    134.5113    106.4944   5.6896327052e+01   3.4419034352e+01    0.2805964    0.1385195 -54.50  0.001038996    2.353    0.575
        37 -13.1715    151.3863    221.8496   7.6561069612e+01   6.6573165894e+00    0.3078422    0.2550986  51.19   0.00103944    1.544    0.352
        38 -10.6275      4.2971    112.3342   1.0350363014e+02   5.2756165763e+01    0.1650331    0.1247801  21.50 0.0009104895    1.464    0.317
        39 -12.3413     78.1257    103.0426   7.2754554568e+01   4.6472685241e+01    0.4025342    0.2145845  44.72   0.00138798    1.973    0.493
        40 -11.1339    190.0335    207.7499   6.5978224693e+01   3.9641333518e+00    0.2206386    0.1624015 -34.50 0.0005168202    1.254    0.203
        41 -10.5459    123.6618     96.3037   5.6934230810e+01   3.8830279421e+01    0.1537914     0.119365  89.02 0.0004495239    1.671    0.402
        42 -10.7979    163.5630    200.7096   7.0289671814e+01   9.0303610245e+00    0.1773733    0.1321649 -53.27 0.0005684647    1.540    0.351
        43 -11.8255     90.5695     87.6390   6.4138766828e+01   4.7551143035e+01    0.4885483    0.2611832  56.83  0.001833115    2.499    0.600
        44 -11.2649     95.6942     86.9253   6.2278311854e+01   4.6664178929e+01    0.2947093    0.2166609  48.60 0.0006365357    1.359    0.264
        45 -11.1556      3.0313     88.8228   1.0045699559e+02   5.8790414066e+01    0.2941504    0.1671357  -2.68 0.0009945758    1.930    0.482
        46 -10.6150    152.4941     86.5128   4.7680310984e+01   3.4357799992e+01    0.1403344    0.1366178 -77.74 0.0008099407    1.054    0.051
        47 -10.9678    115.0020     85.5147   5.6204074851e+01   4.2849886896e+01    0.2609628    0.1997762  86.79  0.001174209    1.727    0.421
        48 -11.3179     72.5965     78.9040   6.7746844154e+01   5.2807266234e+01    0.3069517    0.1857464  52.85    0.0013156    1.992    0.498
        49 -12.4942      6.2578     75.2318   9.6310705830e+01   6.1888636334e+01    0.3763675    0.1977725  32.78   0.00139383    2.140    0.533
        50 -12.2344     66.5808     75.3094   6.8894722068e+01   5.4625095021e+01    0.3678877    0.1911024  46.26  0.001521867    2.080    0.519
        51 -11.7185     10.9572     73.4872   9.3590849105e+01   6.1991798170e+01    0.1950829    0.1261997  10.10  0.001031514    1.587    0.370
        52 -13.9028    166.9538     68.3834   4.0416711280e+01   3.4196757409e+01    0.4493866    0.4030287 -75.09  0.001181572    1.014    0.014
        53 -11.6425    154.8184     71.0606   4.3202567682e+01   3.6475302719e+01    0.2169316    0.1745407 -74.06 0.0005763707    1.278    0.218
        54 -12.1675     17.0218     71.0207   8.9952420191e+01   6.2094363205e+01    0.2120858    0.1852338 -33.56  0.001068273    1.040    0.038
        55 -11.2647    135.9262     66.2195   4.5594319816e+01   4.1560001694e+01    0.2222107    0.1984706 -59.18 0.0004978555    1.130    0.115
        56 -14.5004    181.9258     54.8096   3.4915852896e+01   3.2944645426e+01    0.9450052    0.8013924  37.39  0.003794314    1.564    0.361
        57 -13.0039    187.9579     48.5145   3.2698832891e+01   3.2523051827e+01    0.3477046    0.3080407  72.09  0.000917647    1.231    0.188
        58 -10.2031    178.2302    237.6383   7.3274179000e+01   3.0788476807e-01    0.1041681    0.1007964 -69.24 0.0006198653    1.581    0.368
        59 -11.9870     13.6331     60.2069   8.8748782697e+01   6.4771575221e+01    0.2029193    0.1987188 -42.20 0.0006334268    1.244    0.196
        60 -11.5371     58.8505     53.1853   6.4337306262e+01   6.0204290055e+01     0.239342    0.2323438 -25.76  0.000777176    1.193    0.162
        61 -10.5499    124.8620     52.8675   4.4038998493e+01   4.6177415431e+01    0.1876927    0.1549291 -87.58 0.0003672961    1.289    0.224
        62 -12.4270     77.5651     51.8387   5.6736651605e+01   5.6849165356e+01    0.4038783    0.2392017  54.20  0.001881134    1.771    0.435
        63 -10.1187    131.2860     51.7021   4.2346464282e+01   4.4851009052e+01    0.1370318    0.1014489 -76.43 0.0002241173    1.550    0.355
        64 -11.9333     83.1943    242.8417   9.5441380729e+01   1.1652576050e+01    0.3359978     0.249089 -30.63   0.00119949    1.640    0.390
        65 -10.6196      8.6874     37.0783   8.4024258362e+01   6.9865264291e+01    0.1679768    0.1323202 -24.73 0.0002992725    1.078    0.072
        66 -18.7559     32.9737     79.9949   8.4691484199e+01   5.8477364024e+01     14.78596    0.7821292 -58.58   0.02129697   18.287    0.945
        67 -10.2316     60.6788     21.3183   5.0512639320e+01   6.4501319307e+01    0.1188924    0.1009813  89.42 0.0007043026    1.666    0.400
