#   1 NUMBER                 Running object number                                     
#   2 MAG_AUTO               Kron-like elliptical aperture magnitude                    [mag]
#   3 X_IMAGE                Object position along x                                    [pixel]
#   4 Y_IMAGE                Object position along y                                    [pixel]
#   5 X_WORLD                Barycenter position along world x axis                     [deg]
#   6 Y_WORLD                Barycenter position along world y axis                     [deg]
#   7 A_WORLD                Profile RMS along major axis (world units)                 [deg]
#   8 B_WORLD                Profile RMS along minor axis (world units)                 [deg]
#   9 THETA_WORLD            Position angle (CCW/world-x)                               [deg]
#  10 FWHM_WORLD             FWHM assuming a gaussian core                              [deg]
#  11 ELONGATION             A_IMAGE/B_IMAGE                                           
#  12 ELLIPTICITY            1 - B_IMAGE/A_IMAGE                                       
         1 -13.6388    242.3358    116.2984   7.2182088279e+01   1.1316607187e+01     4.283812    0.9470916 -35.15   0.01122517    3.673    0.728
         2 -14.8539    212.5491     72.5962   6.6308780293e+01   2.2906013746e+01     7.256789     3.978773 -85.81    0.0305758    3.139    0.681
         3 -13.7436    247.6174      8.3398   4.9294545779e+01   2.3662334124e+01     1.115564    0.6902158 -12.95  0.004757043    2.313    0.568
         4 -12.2773    139.4579     64.7798   7.5981370915e+01   4.1021760555e+01     1.952188    0.5884293  48.57  0.005993251    3.400    0.706
         5 -14.1672    229.0788     28.9718   5.4707338698e+01   2.5064793766e+01     2.478138     1.544168 -13.36   0.01357649    2.231    0.552
         6 -15.3943    244.4601     36.5869   5.5295971620e+01   2.1245900110e+01     2.578404     2.124869 -30.39  0.008852179    1.290    0.225
         7 -11.7760    127.9274     22.6462   6.3927923810e+01   4.9945233025e+01    0.7311394    0.4742262  21.93  0.003317708    2.224    0.550
         8 -10.7224    134.7761     17.3784   6.0959622297e+01   4.8703519025e+01    0.5357856    0.2771194 -12.20  0.002099993    2.709    0.631
         9  99.0000    205.0000      8.0690   5.1456804802e+01   3.2346430285e+01    0.5810919     0.172769 -21.86  0.002082755    4.423    0.774
        10 -10.4898    207.2269     18.0543   5.3719041728e+01   3.0840319587e+01    0.5302862    0.2896866  70.59 0.0007968281    1.841    0.457
        11 -10.0651    207.2800     14.6591   5.2897170660e+01   3.1182626128e+01    0.3419078    0.1917077 -65.54  0.001378283    1.623    0.384
        12 -11.2950    143.3329      8.1965   5.6705476075e+01   4.7349163959e+01     1.000278    0.4640936 -23.98  0.004429825    2.382    0.580
        13 -10.3077    125.8582     14.3375   6.1220839428e+01   5.1368295440e+01    0.3466984    0.2872846  76.05  0.001585256    1.067    0.063
        14 -11.8897    118.9901     10.2557   6.0770021841e+01   5.3578564734e+01    0.8343446    0.6265219  81.47   0.00401104    1.208    0.172
        15  -8.4846    216.1165      9.5905   5.1151842406e+01   2.9788653202e+01    0.3805667    0.1522235 -66.28    0.0017407    2.529    0.605
        16 -10.1183    180.4495      3.5052   5.1920694963e+01   3.8443462301e+01    0.4531754    0.2975791 -43.18  0.001018039    1.401    0.286
        17  -8.2005    166.0430      1.6008   5.2471702512e+01   4.2134431809e+01    0.1839884    0.1406317 -88.17  0.000453449    1.128    0.113
        18 -11.5825     50.7693    156.1769   1.2494139943e+02   3.7346089411e+01    0.8590704    0.6751118  75.49  0.002701899    1.276    0.216
        19 -12.3318    186.8493     79.2688   7.1461642340e+01   2.7387051800e+01     1.839978    0.7532968  45.95  0.007033891    2.912    0.657
        20  -9.6043    242.2846    247.2239   9.4960464385e+01  -5.1992006689e+00    0.1747395    0.1270467   3.03            0    1.155    0.134
        21  -9.3376    182.2294    244.3970   1.0486120349e+02   1.7192774375e+00    0.1597711   0.08661944  33.70 0.0008015796    1.625    0.385
        22  -8.7489     86.0594    156.5480   1.1416788127e+02   3.2243042775e+01    0.2392417    0.2099697 -48.67 0.0003616104    1.237    0.191
        23  -8.7356    220.1428    152.0744   8.2530220327e+01   9.6415489751e+00    0.1810175    0.1504007 -15.26 0.0003297589    1.019    0.019
        24  -8.0786    206.2933    150.6854   8.4550285145e+01   1.2063965068e+01    0.1726966     0.107713  38.07 0.0009183812    1.678    0.404
        25 -11.2787     68.7337    144.5110   1.1753511635e+02   3.7870695520e+01    0.9174028    0.7460523  70.72  0.003179201    1.283    0.221
        26  -8.0951    148.9293    148.7008   9.5744968751e+01   2.2703209727e+01    0.2095482    0.1748286  31.37 0.0007880715    1.150    0.130
        27  -8.7587    133.5452    145.2906   9.8785599599e+01   2.6341053113e+01    0.2862032    0.1492874 -52.38  0.001150301    2.122    0.529
        28  -7.4942    153.4155    144.4832   9.3803395483e+01   2.2682541672e+01    0.1439021    0.1362886   3.09 9.592903e-05    1.014    0.014
        29  -8.7579    188.4739    138.8322   8.5280572915e+01   1.7106284308e+01    0.3701416    0.2164541  33.80  0.001765223    1.858    0.462
        30  -8.8154    221.8156    135.7243   7.8989233605e+01   1.1818877332e+01    0.4128623    0.1402919 -42.23  0.001663483    2.820    0.645
        31 -10.2973    198.6030    133.8642   8.2380056524e+01   1.6099928777e+01    0.3922468    0.3203628 -48.37  0.002033157    1.323    0.244
        32  -8.6460    160.3404    128.3552   8.8632486866e+01   2.4451993806e+01    0.2266101    0.1732293   3.26  0.001094037    1.630    0.387
        33  -8.6388    135.3813    121.1548   9.2808918135e+01   3.1086690089e+01    0.2235826    0.1435422 -56.54 0.0009503235    1.789    0.441
        34  -8.8178    136.4362    127.7785   9.4130999231e+01   2.9472836674e+01    0.2713308    0.2079128 -53.88    0.0013097    1.401    0.286
        35  -7.3598    176.5142    126.5214   8.4844981796e+01   2.1545257040e+01    0.1400966    0.1335356 -19.24 -2.219188e-06    1.023    0.022
        36  -8.9161    215.6928    124.4229   7.7561173432e+01   1.4567954628e+01    0.2498494    0.1949568 -65.42 0.0008800276    1.707    0.414
        37 -10.2460    186.6335    120.3956   8.1517795024e+01   2.0623318466e+01    0.4011317    0.2770871 -56.92  0.001985996    1.737    0.424
        38  -9.2302    160.9540    118.1778   8.6082761971e+01   2.6269074300e+01    0.2507567    0.2078034 -49.47 0.0003718282    1.240    0.194
        39 -11.0058    226.4502    111.8140   7.3318681543e+01   1.4589835023e+01     1.011117    0.3136136 -34.36  0.003966825    2.828    0.646
        40  -8.8003    216.2107    117.2514   7.5941700342e+01   1.5575759528e+01     0.214323    0.1626004  41.80  0.001013735    1.470    0.320
        41  -8.6209    176.1053    116.2669   8.2529026484e+01   2.3464968666e+01    0.2716856    0.1784008 -62.98  0.001204996    2.105    0.525
        42  -8.6679    167.8956    114.1248   8.3643071556e+01   2.5562910599e+01    0.2247826     0.203035 -76.76 0.0008841665    1.256    0.204
        43  -8.8669    134.6833    111.2151   9.0488137828e+01   3.3315704374e+01    0.3296802    0.1357506 -50.86  0.001102814    2.769    0.639
        44  -9.9216    205.9924    110.1592   7.5921450546e+01   1.8558820347e+01    0.3755254    0.2237655  50.59  0.001908095    1.851    0.460
        45  -8.7864    185.9841    109.8103   7.9158599741e+01   2.2564828432e+01    0.2658763    0.1971351 -37.91  0.001404286    1.267    0.211
        46  -9.5861    121.5353    107.0014   9.2877349914e+01   3.7082653286e+01    0.3006642    0.2312843 -27.63  0.001393449    1.498    0.332
        47 -10.2082    125.0764    102.2814   9.0633713657e+01   3.7308582773e+01    0.5054216    0.3207768  36.37  0.002144553    1.687    0.407
        48 -10.0955    189.0673    105.3685   7.7561814434e+01   2.2682223703e+01    0.5253535    0.4005688 -88.80  0.002701226    1.787    0.441
        49 -10.2079    187.8341     98.8048   7.6185912010e+01   2.4028737731e+01    0.4436527    0.3253513 -47.10   0.00232918    1.317    0.241
        50 -10.7019    186.0997     93.4582   7.5159934918e+01   2.5277397374e+01    0.8068738    0.3406513 -55.51   0.00259334    3.947    0.747
        51 -13.1315    221.9111     62.9784   6.3021942567e+01   2.2337047205e+01     2.328483    0.8995017  76.97   0.00829951    4.393    0.772
        52  -9.7404    200.6663    101.2973   7.4709130712e+01   2.0998449000e+01    0.3247527     0.315479 -65.20 0.0008452678    1.099    0.090
        53  -8.5003    163.4562    103.2071   8.1821508395e+01   2.8524518460e+01    0.2257345     0.192204  38.19 0.0005342116    1.227    0.185
        54  -8.6986    147.3825    102.5676   8.5142647239e+01   3.2232301837e+01    0.2804203    0.2568789  11.19 0.0007008394    1.193    0.162
        55  -9.0143    168.0327    100.9953   8.0338019764e+01   2.7916544749e+01     0.449582    0.1735848 -46.81  0.001469215    2.746    0.636
        56  -9.1748    134.0182     98.4349   8.7240693504e+01   3.6082753867e+01    0.2916816    0.2147989 -61.79 0.0007828701    1.567    0.362
        57  -9.7512    156.4951     97.3412   8.1740195859e+01   3.1161142052e+01     0.478177    0.2352165  43.11  0.001615697    2.184    0.542
        58  -9.0928    140.9342     92.5904   8.3923631047e+01   3.5639664698e+01    0.3149781    0.2748729  79.98 0.0008695746    1.239    0.193
        59 -10.6515    172.1051     89.0689   7.6478447495e+01   2.9090183404e+01    0.5641581    0.3776406  38.58  0.002625609    1.728    0.421
        60 -10.4730    155.1303     88.1059   7.9524492964e+01   3.3159742914e+01    0.3514753    0.2958877 -53.82 0.0006751905    1.195    0.163
        61  -9.0417    208.5671     85.5460   6.9865771853e+01   2.1836472563e+01    0.4013604    0.2047649 -54.50  0.001629906    2.278    0.561
        62 -10.0809    135.8475    233.0168   1.1269991662e+02   9.3430606621e+00    0.2104609     0.187773   6.58 0.0003298229    1.170    0.145
        63  -8.8816    107.1250     82.9335   9.0137320909e+01   4.5428218549e+01    0.2295737     0.220042  62.32 0.0003712214    1.023    0.023
        64 -11.4337    170.6622     75.4091   7.3082294016e+01   3.1687196827e+01    0.5016358    0.4201174 -15.30  0.001158028    1.384    0.278
        65  -9.4818    134.9028     73.3418   7.9671662819e+01   4.0669241018e+01    0.2499656    0.1913681  76.16  0.001181567    1.445    0.308
        66 -11.1919    133.9934     59.7424   7.5562873260e+01   4.3227175100e+01    0.6798809    0.4115631  87.39  0.002471158    2.494    0.599
        67  -8.0405      7.9173    220.5303   1.4107100900e+02   2.6959847892e+01    0.1684102   0.09841496  29.15 0.0006358182    1.523    0.343
        68  -8.3207    122.3550     55.2858   7.6758727619e+01   4.6900968309e+01    0.1562887    0.1141599  30.47 0.0007021698    1.670    0.401
        69  -7.9271    113.7488     49.9699   7.7019691771e+01   4.9937512071e+01    0.1860745    0.1313877 -34.39 0.0003902653    1.514    0.339
        70  -9.1781    173.1219     45.3145   6.4315308627e+01   3.5547665070e+01    0.3307167    0.1902999 -49.19 0.0008980689    1.667    0.400
        71 -10.3936    121.3145     61.2873   7.9071306993e+01   4.6155982092e+01     0.276886     0.264393 -44.04 0.0003169991    1.101    0.091
        72  -9.7878    127.3192     40.8699   7.0589451350e+01   4.7810827274e+01    0.2701229    0.1994649  78.78  0.001326768    1.369    0.269
        73  -8.2830    245.1884    204.8418   8.8064018818e+01  -7.8186707247e-01    0.1517425    0.1178251 -10.14 0.0004227216    1.145    0.126
        74  -9.4105    201.7368     32.9638   5.7826810924e+01   3.0394745587e+01    0.3861839    0.1858319 -42.38  0.001187237    1.768    0.434
        75 -10.3511    144.9911     29.8566   6.3655015532e+01   4.4628228565e+01    0.5204408    0.2762869 -14.04  0.002108277    2.720    0.632
        76  -8.9078    184.2537     27.7443   5.8146543588e+01   3.5037940344e+01    0.4821394    0.1974563 -30.18  0.002071544    2.375    0.579
        77  -8.9385    112.3878     29.7686   6.9680042915e+01   5.3185168100e+01    0.1907388    0.1439161 -10.41 0.0006612401    1.634    0.388
        78  -9.5915    243.1699    186.3935   8.5277699700e+01   1.7283127657e+00    0.2521493     0.214719 -50.67  0.001095681    1.921    0.479
        79 -12.3377     13.3331    176.3797   1.3783806486e+02   3.6199141245e+01    0.9070637    0.7390944  62.87  0.003910112    1.038    0.037
        80  -9.0625    231.4973    181.6701   8.6246740336e+01   3.8242533627e+00     0.203473    0.1722462  14.80 0.0003745916    1.254    0.202
        81  -7.9643    159.5170     22.5437   5.9365150500e+01   4.1726091362e+01    0.2312803    0.1257505  75.37 0.0006365367    1.722    0.419
        82  -9.0340    232.2211    176.9955   8.5300183355e+01   4.3591757345e+00     0.182975    0.1449599   6.09 0.0003148638    1.139    0.122
        83  -8.9666    232.5034    172.0125   8.4355841766e+01   4.9997570526e+00    0.1669811    0.1381888  -2.17     0.000402    1.085    0.078
        84  -8.3231    153.2921    171.8613   9.9331209358e+01   1.7419363683e+01    0.1868174    0.1633984  -4.57 0.0003056737    1.118    0.106
        85  -9.7573    144.0322     18.0549   5.9893831718e+01   4.6203514310e+01    0.3382033    0.2098458 -51.50  0.001154123    1.614    0.380
        86  -9.1592     86.8069    171.9577   1.1637404680e+02   2.8499915574e+01    0.2259848     0.189916  35.49 0.0003284337    1.088    0.081
        87  -8.0938    197.4357     17.7783   5.4378479246e+01   3.3060173939e+01    0.1567016    0.1212542 -13.58 0.0003637265    1.635    0.388
        88 -10.1033    200.4833    169.2732   8.9218597305e+01   1.0071668967e+01    0.2242548     0.196815  -1.17 0.0002540819    1.059    0.056
        89  -7.6341    213.4204    167.4765   8.6607285676e+01   8.3699136955e+00    0.1235216    0.1052707 -12.42 8.796051e-05    1.060    0.057
        90  -7.7559    167.5629     13.4765   5.5793109283e+01   4.0647910847e+01     0.135644    0.1138474 -74.01 0.0001790246    1.033    0.031
        91  -8.6593     92.2345     13.0123   6.7274247328e+01   6.0317159991e+01    0.2493482    0.1890609  63.64 0.0008803052    1.168    0.144
        92 -11.3597     57.3423    152.4545   1.2238159994e+02   3.7448962589e+01    0.8530066    0.6113863 -88.71  0.001889827    1.506    0.336
        93 -11.1387     43.4385    160.5203   1.2772322444e+02   3.7124856696e+01    0.5527823    0.4060632  -1.90  0.001756914    1.756    0.430
