#   1 NUMBER                 Running object number                                     
#   2 MAG_AUTO               Kron-like elliptical aperture magnitude                    [mag]
#   3 X_IMAGE                Object position along x                                    [pixel]
#   4 Y_IMAGE                Object position along y                                    [pixel]
#   5 X_WORLD                Barycenter position along world x axis                     [deg]
#   6 Y_WORLD                Barycenter position along world y axis                     [deg]
#   7 A_WORLD                Profile RMS along major axis (world units)                 [deg]
#   8 B_WORLD                Profile RMS along minor axis (world units)                 [deg]
#   9 THETA_WORLD            Position angle (CCW/world-x)                               [deg]
#  10 FWHM_WORLD             FWHM assuming a gaussian core                              [deg]
#  11 ELONGATION             A_IMAGE/B_IMAGE                                           
#  12 ELLIPTICITY            1 - B_IMAGE/A_IMAGE                                       
         1 -14.2373      7.4407     23.3438   1.1406744373e+02   6.9481454216e+01     1.345942    0.6348708 -47.33  0.007934925    1.602    0.376
         2 -11.7075     64.5327     17.5380   8.6481714949e+01   6.4451592775e+01    0.3946666    0.2746894  20.89  0.001897111    1.588    0.370
         3 -13.0674     87.0939      2.8282   7.1507657390e+01   6.2395971946e+01    0.7769567    0.4751444  36.24  0.004007834    1.602    0.376
         4 -12.1118     79.4896      3.6789   7.4336699594e+01   6.3794554725e+01    0.5188105    0.3713241 -44.11  0.002568902    1.674    0.403
         5 -11.8638     75.6524     13.5483   8.0517678399e+01   6.3188310287e+01    0.3178742    0.2877375  26.86  0.001016071    1.199    0.166
         6 -11.8090     81.9419     13.8731   7.8524859249e+01   6.1989454339e+01    0.3516089    0.2562216   1.22 0.0007423286    1.426    0.299
         7 -12.3990     87.2348     11.7569   7.5809881447e+01   6.1259499623e+01     0.476797    0.3969398  75.75   0.00176381    1.682    0.405
         8 -11.6857    123.8118     10.3620   6.5416325151e+01   5.3348103952e+01    0.2788445    0.2299399  16.49 0.0001284437    1.182    0.154
         9 -10.5993    137.7838      5.8078   6.0653797324e+01   5.0355425586e+01    0.2555076    0.2064208  59.04  0.001360478    1.211    0.174
        10 -10.1497    103.6514      4.7087   6.7764894639e+01   5.8658578668e+01    0.1486413   0.09348858  26.17 0.0007028072    1.667    0.400
        11 -10.6203     33.2315      4.2758   9.3605687022e+01   7.0836166656e+01    0.1834604    0.1313268  -7.85  0.001175053    1.403    0.287
        12 -11.7181     73.3604      1.5101   7.5280606412e+01   6.5210024864e+01    0.2332326    0.1553864  48.61 0.0004513094    1.633    0.388
        13 -13.2848    170.6298    158.4602   9.8020278478e+01   1.8152708100e+01    0.4867494    0.4354071  85.42   0.00288612    1.343    0.255
        14 -11.3620    215.1150    162.6150   9.0588587906e+01   9.0537596966e+00    0.2117207    0.1801248 -33.99  0.001326726    1.375    0.273
        15 -13.0036    164.8137    153.4757   9.8238164687e+01   2.0081337682e+01    0.6824261    0.4079274  26.50  0.003149892    2.150    0.535
        16 -12.9479    166.7988    147.6841   9.6726820644e+01   2.0662331335e+01     0.450236    0.4353426  73.87  0.002830832    1.128    0.113
        17 -13.1420     19.0111    153.3423   1.2921935466e+02   4.1236567604e+01      0.36743    0.3080003  50.71  0.002878653    1.358    0.263
        18 -10.9240    138.8901    152.3762   1.0335273277e+02   2.5138809086e+01    0.2378281    0.1995057 -41.02  0.001082835    1.353    0.261
        19 -13.4093    212.7623    139.4575   8.6278774230e+01   1.2681961443e+01    0.9089368    0.6409487  11.41  0.004746965    1.583    0.368
        20 -14.8101    217.8353    126.3610   8.2480779269e+01   1.3501748633e+01     1.649962     1.344886  58.65   0.00920338    1.417    0.294
        21 -10.8917    151.0223    152.0000   1.0076135681e+02   2.2959693307e+01      0.22991   0.06999698  44.92 0.0008079787    2.981    0.665
        22 -10.0287     91.5149    151.5240   1.1344193762e+02   3.3158373478e+01    0.1250281    0.1074146  74.56 0.0001079184    1.018    0.018
        23 -11.7406     58.5516    144.5954   1.1987830400e+02   3.8958947618e+01    0.5044991    0.2712084  65.28  0.002712453    1.974    0.493
        24 -12.4793     49.5517    142.1868   1.2163075018e+02   4.0487346201e+01    0.6028934     0.338247  37.60  0.003554193    1.882    0.469
        25 -13.5715    202.1003    147.7759   8.9955070008e+01   1.3625721259e+01     1.027257    0.4039988 -36.18  0.004206108    2.716    0.632
        26 -13.4422    194.1336    147.5071   9.1375511773e+01   1.5254819790e+01    0.6314881    0.5094703 -39.36  0.003180129    1.383    0.277
        27 -11.0976    168.7308    137.5287   9.4276205349e+01   2.1995151939e+01    0.3137025    0.2831386 -70.21  0.001830787    1.290    0.225
        28 -10.2197    163.6246    137.2577   9.5268440050e+01   2.3075420450e+01    0.1390046    0.1063617  73.99 0.0004444213    1.656    0.396
        29 -10.2701     90.0000    145.9824   1.1297840407e+02   3.4487985613e+01    0.1979919   0.06770623 -60.04 0.0007994571    2.922    0.658
        30 -11.8340    197.6232    167.6586   9.4646434744e+01   1.1651927203e+01    0.2707186    0.2211158  25.60 0.0008824941    1.103    0.094
        31 -14.5265    199.7964    129.2033   8.6379991564e+01   1.6877785941e+01     2.301377     1.159218 -15.76  0.008312864    3.356    0.702
        32 -11.1310    121.8934    127.2607   1.0239567416e+02   3.3020541695e+01    0.3149844    0.2421949  31.31  0.001707326    1.466    0.318
        33 -12.4240    171.3356    119.9011   8.9839375117e+01   2.4490449217e+01    0.5849082    0.4735993  28.76  0.003110371    1.266    0.210
        34  -9.9131     82.2347    116.0143   1.0993622255e+02   4.1881278776e+01    0.1659172    0.1008568 -60.55 0.0003145637    1.540    0.351
        35 -11.2428    147.8619    115.1580   9.3800896814e+01   3.0320754136e+01    0.2256168    0.2001331  84.82  0.001239321    1.257    0.205
        36 -11.4268    179.2518    111.6877   8.6252223277e+01   2.4169710041e+01    0.3824314    0.3401996  63.01  0.002094049    1.216    0.177
        37 -13.0627    192.6431    103.3420   8.1527698258e+01   2.2528030125e+01    0.4852816    0.4614509  30.26   0.00274845    1.044    0.043
        38 -11.0179    107.9524    104.1797   1.0087229129e+02   4.0252816194e+01    0.3712331    0.2198093 -35.87   0.00166595    2.076    0.518
        39 -12.8231    187.6171     94.8270   8.0279599169e+01   2.5069452361e+01    0.4871194    0.4000459  59.57  0.002504795    1.295    0.228
        40 -11.3403     42.8941     98.8884   1.1756172618e+02   5.0484796668e+01    0.2215514    0.1674661  27.84  0.001417372    1.635    0.388
        41 -13.0619    141.6610     97.2303   9.0808690063e+01   3.5042228305e+01    0.5012204     0.363724  60.27  0.002432549    1.508    0.337
        42 -10.4038    113.5881     96.2097   9.7511968462e+01   4.0880985552e+01    0.2755924    0.1330517 -52.48  0.001129324    2.102    0.524
        43 -10.5197    147.7445     95.7368   8.8995702722e+01   3.4013055920e+01    0.2740694    0.1827326  45.53  0.001150543    1.489    0.328
        44 -11.5467    160.2126     99.5932   8.7203376501e+01   3.0543885286e+01    0.3995534    0.2803306  54.47  0.001902536    1.456    0.313
        45 -11.7865     77.2227     88.9306   1.0576056488e+02   4.8482284193e+01    0.2817824    0.1717671 -66.83  0.001098842    1.699    0.411
        46 -13.4051     32.3730     83.6913   1.1814167191e+02   5.4831161677e+01    0.5469665    0.3007594  69.10  0.002781467    2.448    0.591
        47 -12.6081      4.9777     84.0213   1.2642643239e+02   5.6736253832e+01    0.4539939    0.2108744 -56.12    0.0026438    1.854    0.461
        48 -13.6778    135.9670     77.5904   8.6731004677e+01   4.0012971544e+01     0.899966    0.7123466 -86.79  0.004364308    1.671    0.402
        49 -12.3136     41.3624     82.4790   1.1516313458e+02   5.4261837612e+01    0.3553948    0.3057207 -51.12  0.002429517    1.186    0.157
        50  -9.7819     94.4193     83.4133   9.9457989005e+01   4.6968549543e+01    0.1360755    0.1267604 -62.81 2.763838e-05    1.026    0.026
        51 -11.3186    175.0307     81.9977   7.9253983829e+01   3.0174405193e+01    0.2511329    0.1829979  15.76 0.0007933021    1.697    0.411
        52 -12.1177    139.5131     84.2857   8.7803371126e+01   3.7974199636e+01    0.2902361    0.2743039 -85.67 0.0005011337    1.138    0.121
        53 -12.9962     96.1924     71.7970   9.5736183151e+01   4.9076803919e+01    0.5361727    0.4114013  33.12  0.001651719    1.447    0.309
        54 -14.5615     59.6782     70.9602   1.0682654827e+02   5.4750334654e+01     1.532901    0.4246598  37.43  0.005723767    3.883    0.742
        55 -12.2656     34.5145     69.8154   1.1485862305e+02   5.7694354105e+01    0.3718396    0.2264206  85.89  0.001964555    2.146    0.534
        56 -10.1849    182.5725     72.2345   7.4938965012e+01   2.9923821654e+01    0.1944157    0.1465155 -15.38 0.0002854168    1.421    0.297
        57 -10.7065     18.4892     72.0578   1.2056244502e+02   5.8482003526e+01    0.1899055    0.1445188  61.56 0.0007151787    1.491    0.329
        58 -12.3961     77.4759     70.0473   1.0090952552e+02   5.2498539228e+01    0.2897555    0.2298089 -63.40 0.0008457297    1.251    0.201
        59 -13.0477     83.2540     66.0682   9.7962977577e+01   5.2431215571e+01    0.5551637    0.4119821  14.81  0.002005607    1.758    0.431
        60 -14.3999     61.6773     66.9552   1.0514244670e+02   5.5359408421e+01    0.9932364    0.3920725  36.25  0.004226679    2.855    0.650
        61  -9.5230     13.3391     71.2766   1.2211235074e+02   5.8997441756e+01    0.1139382   0.07047489 -46.01 0.0003252574    1.615    0.381
        62 -11.2438    144.6444     73.8730   8.3528162893e+01   3.8751995989e+01    0.2471622    0.2006271  37.09  0.000343689    1.265    0.210
        63 -10.9067    169.7582     63.1534   7.4719933989e+01   3.4544842937e+01    0.3514797    0.2125707  46.88 0.0006770308    1.642    0.391
        64 -10.0458    214.4995     61.4707   6.6327536503e+01   2.3569107729e+01    0.2695894    0.1438774 -12.17  0.001029484    2.352    0.575
        65 -11.6840    124.9285     57.7383   8.3278372511e+01   4.6084728933e+01    0.3121902    0.2701534  33.60 0.0006662026    1.187    0.158
        66 -13.2089     67.7657     53.9262   9.9314294082e+01   5.7264283847e+01      0.48318    0.3727245 -72.91  0.002262715    1.570    0.363
        67  -9.8059    174.8487     56.5795   7.1660731458e+01   3.4283065961e+01    0.2034145    0.1501469  74.04 0.0005886171    1.584    0.369
        68 -12.3393     36.8655     54.8603   1.1059851175e+02   6.0716986280e+01    0.5732881    0.2156233 -45.54  0.002571513    2.418    0.587
        69 -12.8222     42.2017     47.6996   1.0664436199e+02   6.1696614404e+01    0.3378278    0.3172784 -27.92 0.0009664976    1.165    0.141
        70 -12.8921     41.9221     42.4575   1.0515849560e+02   6.2806275101e+01    0.6094607    0.3634196  -2.42  0.002487221    2.728    0.633
        71 -10.1671    210.5353     54.4884   6.4929211411e+01   2.5499555009e+01    0.1497947    0.1396462  11.26 9.594957e-06    1.071    0.066
        72 -10.6247    132.8912     53.8702   7.9943617358e+01   4.4971020062e+01    0.2290369    0.1925087  15.85 0.0005107424    1.287    0.223
        73 -11.4646     53.1443     53.8513   1.0442074214e+02   5.9190018718e+01    0.1924898    0.1675833 -73.50 0.0007868526    1.241    0.194
        74 -11.6232    145.4651     51.0927   7.6005776566e+01   4.2461438964e+01    0.2965027    0.2739155 -27.72 0.0006637499    1.071    0.066
        75 -12.6819      2.8626     46.3735   1.2153731416e+02   6.4949712660e+01    0.6432693    0.3635506  75.68  0.002733563    2.369    0.578
        76 -11.5902    193.7059    248.9887   1.0734933624e+02   2.6457420389e+00    0.1488997    0.1127728  35.28  0.001191898    1.078    0.073
        77 -11.5536     76.9629     48.4344   9.4365472131e+01   5.6975356770e+01    0.2934857    0.1385512 -32.34  0.001174957    2.552    0.608
        78 -10.3930    176.5053     45.9104   6.7940618015e+01   3.5414605709e+01    0.2224664    0.1487353 -27.30 0.0004121572    1.487    0.327
        79 -10.8485    156.9848     43.9728   7.1070833627e+01   4.0700817771e+01    0.2269133    0.2147043   4.19 0.0005619331    1.037    0.036
        80 -10.9420     57.0935     43.8937   9.9843952367e+01   6.0734063180e+01    0.1915312    0.1694702 -67.21 0.0008027662    1.270    0.212
        81 -10.9931    127.9738     40.0761   7.6256232197e+01   4.8360138788e+01    0.2204622    0.2107021  -1.17 0.0003702139    1.014    0.014
        82 -12.1283     26.3613     35.6575   1.0936370509e+02   6.5663448217e+01    0.4432025    0.3108434 -17.60  0.002817815    1.664    0.399
        83 -12.2040     38.8906     33.6491   1.0346925927e+02   6.4893797335e+01    0.3659886    0.3350343   4.04   0.00260076    1.254    0.203
        84 -10.8981     82.3038     34.3276   8.7310597301e+01   5.8690364098e+01    0.3177761    0.2332967 -47.77  0.001238462    1.413    0.292
        85 -11.6294     79.4423     30.3062   8.6651229044e+01   5.9880218012e+01    0.3149469    0.2488874 -33.57 0.0006638335    1.147    0.128
        86 -11.2173    176.5240     33.3977   6.3821105951e+01   3.7087654734e+01    0.2430666    0.2339099  -4.67 0.0001988123    1.033    0.032
        87 -12.2942     83.7876     22.7072   8.1938197499e+01   6.0339075741e+01    0.3587135    0.3197949  -4.47 0.0008758562    1.035    0.034
        88 -11.3655    187.4980    232.5081   1.0632738456e+02   5.2823553536e+00    0.1113845   0.08202683  37.52 9.614293e-05    1.007    0.007
        89 -12.5319    187.5404    196.9167   1.0137583576e+02   9.5179871195e+00    0.4299005     0.319995  64.59  0.002660013    1.727    0.421
        90 -10.2743    208.6434    190.6794   9.6737600326e+01   6.6668186248e+00      0.12951   0.08047453  19.67 0.0007045436    1.760    0.432
        91 -10.3335    178.3076    184.6731   1.0109678359e+02   1.2782776838e+01    0.1187057   0.09370868  72.03 0.0005458341    1.654    0.396
        92 -10.7270    144.6635    181.3317   1.0686894898e+02   1.9170252654e+01    0.1271412   0.08890834  71.01 0.0007052108    1.736    0.424
        93 -10.4319     33.5047    177.4962   1.2804645013e+02   3.5264080878e+01    0.1066427   0.07976399  74.67 0.0008106617    1.006    0.006
        94  -9.9474    130.6271     12.2695   6.4723884669e+01   5.1470096260e+01    0.1440587    0.1112335 -68.42   0.00069954    1.675    0.403
        95 -12.4122    243.0118    170.1500   8.7375900793e+01   3.0884212567e+00    0.7556204    0.4449997 -30.26  0.004288876    1.813    0.448
        96 -13.8180    239.6832    155.8552   8.5122160814e+01   5.3432834797e+00     1.343455     1.019364  11.61  0.008228366    1.188    0.159
        97 -13.8889    248.0777    148.6623   8.2314872923e+01   4.6643642665e+00     1.895468    0.5464335 -28.98   0.00718355    3.437    0.709
        98 -12.8096    177.5025    160.2258   9.7017893572e+01   1.6560870343e+01    0.7096001    0.4483166   4.21  0.003119922    2.824    0.646
