#   1 NUMBER                 Running object number                                     
#   2 MAG_AUTO               Kron-like elliptical aperture magnitude                    [mag]
#   3 X_IMAGE                Object position along x                                    [pixel]
#   4 Y_IMAGE                Object position along y                                    [pixel]
#   5 X_WORLD                Barycenter position along world x axis                     [deg]
#   6 Y_WORLD                Barycenter position along world y axis                     [deg]
#   7 A_WORLD                Profile RMS along major axis (world units)                 [deg]
#   8 B_WORLD                Profile RMS along minor axis (world units)                 [deg]
#   9 THETA_WORLD            Position angle (CCW/world-x)                               [deg]
#  10 FWHM_WORLD             FWHM assuming a gaussian core                              [deg]
#  11 ELONGATION             A_IMAGE/B_IMAGE                                           
#  12 ELLIPTICITY            1 - B_IMAGE/A_IMAGE                                       
         1 -12.4934     21.3615     86.1985   1.0980868494e+02   5.6380249582e+01     2.049431    0.9636332 -70.30  0.009149619    2.000    0.500
         2 -11.3101     59.4894      3.2338   6.3946721638e+01   6.6952560602e+01     0.915426    0.3658346  42.06  0.003285833    2.181    0.542
         3 -12.5961    104.5195     35.8638   6.3669158282e+01   5.4302483813e+01     1.359754    0.8567578   4.13  0.006155632    2.095    0.523
         4 -13.0895     91.8488     53.2051   7.4148001060e+01   5.4193499414e+01     2.128181     1.186094  47.54  0.001219385    1.924    0.480
         5 -12.5263     91.5356     18.4485   6.0371841276e+01   5.9224911659e+01     2.517508    0.7428202 -19.26  0.007281139    5.683    0.824
         6 -11.1098     65.9004     20.4332   6.9834318819e+01   6.3876475234e+01    0.5314932    0.4044761 -54.62  0.001841401    2.110    0.526
         7 -11.6713     59.4715     27.9358   7.5734071036e+01   6.3893914591e+01    0.7569419    0.3732449  20.98  0.003279356    2.653    0.623
         8 -13.0894     70.9113     30.6560   7.2490312359e+01   6.1608612402e+01      1.35486    0.6793149  38.80  0.006478134    1.939    0.484
         9 -12.3252     60.4595     47.2585   8.3272765697e+01   6.0564670076e+01     2.236843     0.915561  25.52  0.008518903    3.265    0.694
        10 -12.6875     52.8897     21.4796   7.5533339417e+01   6.5833409287e+01     2.118324      1.07576 -18.42   0.01006493    2.227    0.551
        11 -10.9409     22.8814     28.9472   9.2835245639e+01   6.8251304504e+01    0.7986445    0.4809473 -52.04  0.004635336    1.752    0.429
        12 -12.2808     31.9015     25.2535   8.6836946769e+01   6.7985334747e+01     1.144615    0.6735311  -8.88  0.006300726    1.831    0.454
        13 -10.2063     27.0238     18.6786   8.6310123318e+01   6.9561469254e+01    0.4903513    0.2336728 -16.09  0.002250607    2.766    0.638
        14  -9.9133     25.5565     13.8175   8.4761162153e+01   7.0460694326e+01    0.2258556     0.154551  10.11  0.000569173    1.353    0.261
        15 -12.0133      4.0479     26.9710   1.0176429891e+02   6.9973300821e+01    0.9785058     0.292825 -39.58  0.004583884    2.477    0.596
        16 -11.3898     14.8679     31.6626   9.7889226157e+01   6.8409123591e+01    0.4649549    0.2638438 -21.02  0.001098768    1.676    0.403
        17 -12.2251     25.3737      7.7169   8.1786904706e+01   7.1358100945e+01    0.6563148     0.332259 -37.42  0.003758705    1.838    0.456
        18 -13.3628      5.1804      9.9868   9.4273526869e+01   7.2856552684e+01    0.7202761    0.4263557 -41.30  0.001378316    1.387    0.279
        19 -12.5092      3.0936      2.8554   9.2094340269e+01   7.4121777911e+01    0.4405183    0.2547461  17.20  0.002947303    1.770    0.435
        20 -12.1626     13.3667      7.9693   8.8542491029e+01   7.2524827510e+01    0.5388949    0.2681758  13.40  0.001086148    2.097    0.523
        21 -12.1163     10.4039      3.2544   8.7859616102e+01   7.3480779911e+01    0.4746608    0.2262558  17.62 0.0005891704    2.126    0.530
        22 -12.0506     18.4203     13.7730   8.8543891080e+01   7.1179238212e+01     1.108548    0.3279991 -44.79  0.004621058    2.994    0.666
        23 -11.0726    192.7290     33.2046   4.5260932724e+01   3.3373066772e+01    0.6627091    0.3573431 -24.37   0.00157379    2.103    0.524
        24 -11.1716    181.1771     33.1051   4.6850062636e+01   3.6228973253e+01     2.057102    0.4196625 -41.82  0.005975354    4.619    0.783
        25 -10.0649    164.1234      6.0702   4.1307850916e+01   4.3353217251e+01    0.6747845    0.5516264  58.84  0.004079912    1.138    0.121
        26 -10.3626    157.4766      6.2629   4.2262245373e+01   4.4975539910e+01    0.7139092     0.290302 -11.03  0.002684303    3.727    0.732
        27 -10.1374    183.8566     14.7011   4.1307540026e+01   3.7659718735e+01    0.9116994    0.2946709  48.70  0.002971472    3.506    0.715
        28 -10.2780    177.0221     15.2500   4.2314856286e+01   3.9284448291e+01    0.3876687    0.3038766  51.40  0.001496424    1.288    0.224
        29 -10.8788    152.0113      8.9071   4.3881617928e+01   4.6086406343e+01    0.6504951    0.2989151  48.42  0.002895798    2.056    0.514
        30 -10.7252    161.5625     18.4094   4.5413569788e+01   4.2791162603e+01    0.4875673    0.3793416  56.75  0.001943666    1.192    0.161
        31 -11.2638    168.9936     14.2235   4.3080861059e+01   4.1374762143e+01    0.7935253    0.4615693  62.71  0.003320625    1.534    0.348
        32 -11.1175    154.4531     17.3193   4.6179266251e+01   4.4669362117e+01    0.6390254    0.3038011  42.58  0.001461318    2.275    0.560
        33 -10.4094    149.5710     15.9525   4.6532548703e+01   4.6016051961e+01    0.4827144    0.4081009   0.70  0.001318941    1.344    0.256
        34 -10.3573    204.3016     24.2300   4.1457969380e+01   3.1658492446e+01    0.7537064    0.2583325 -33.20  0.003016537    2.713    0.631
        35 -10.0692    217.0487      3.6913   3.5170008490e+01   3.0891093199e+01    0.4561478    0.2185273 -59.58  0.002211853    2.092    0.522
        36 -10.4091    208.9749      4.1584   3.5969722706e+01   3.2705391232e+01    0.4865077     0.308427  88.18  0.002727856    1.466    0.318
        37 -10.4690    212.8111     12.2239   3.7578338773e+01   3.0989404674e+01    0.6637363    0.3367018  80.60  0.003232826    1.944    0.486
        38 -11.5097     11.7718     25.6540   9.7219635782e+01   6.9725774253e+01    0.4997229    0.2303202 -24.68 0.0009643877    2.170    0.539
        39 -10.6663    241.9131     24.2602   3.7755344551e+01   2.3110869726e+01    0.5815315    0.1649526 -41.14  0.002386237    2.736    0.634
        40  -9.4516    205.0662     15.7443   3.9212583890e+01   3.2429177893e+01    0.3281786    0.2564471 -30.79  0.001957141    1.382    0.276
        41 -11.3076    214.1948     25.9348   4.0802567351e+01   2.9123995976e+01     1.099722    0.5963696 -14.45  0.004836112    2.752    0.637
        42 -11.6104    129.5910     20.0020   5.1598506198e+01   5.0474698456e+01     1.435164    0.6365359  50.03  0.006180421    1.977    0.494
        43  -9.3361    125.0902     16.4321   5.1238994842e+01   5.1916589266e+01    0.5306627    0.2418313  33.95  0.001998703    2.679    0.627
        44 -10.8625     99.3926      4.9835   5.2571400589e+01   5.8863379061e+01    0.4413055    0.3796173 -61.62  0.002738117    1.531    0.347
        45 -10.7216    102.6046     11.3930   5.4421656556e+01   5.7576596369e+01    0.5789475    0.3213103  47.74  0.002194352    1.552    0.356
        46 -11.6127    107.8747      6.5024   5.1191310613e+01   5.6839948456e+01    0.6815313    0.6370779  64.03  0.004118304    1.183    0.155
        47 -10.7334    125.6737      7.3366   4.7806936876e+01   5.2627633593e+01    0.5554573    0.2598805  41.32  0.002484851    2.083    0.520
        48 -12.0976    116.3503     14.9024   5.2555104512e+01   5.4119911317e+01    0.8124842    0.4838142  26.56  0.003909092    1.880    0.468
        49 -10.5622    110.8969     13.8148   5.3383755331e+01   5.5480240554e+01    0.3210484    0.2279374  27.89 0.0009884011    1.385    0.278
        50 -10.2918     81.6628     19.4909   6.3874422046e+01   6.1094702223e+01    0.5009211    0.4130698  67.65  0.002950405    1.659    0.397
        51  -9.8582    231.3755     19.2119   3.7537311387e+01   2.5999645700e+01    0.3681993    0.3303681 -84.36  0.002476308    1.115    0.103
        52  -9.3162    222.2627     12.7623   3.6848680534e+01   2.8762344952e+01    0.2645693    0.1664495  61.15  0.000970344    1.630    0.386
        53 -10.0447    225.6846      8.3433   3.5537400283e+01   2.8462802398e+01    0.3104263    0.2370837  -0.42 0.0009054508    1.912    0.477
        54  -8.9023     36.6467      6.0563   7.5209983037e+01   7.0183069734e+01    0.2154483    0.1771627  20.36  0.001431954    1.315    0.240
        55 -10.2911     41.9174      3.4530   7.1351255046e+01   6.9751610027e+01    0.3916658    0.2057579 -22.41  0.001109049    1.760    0.432
        56  -9.4542     38.7601      9.4012   7.5950377865e+01   6.9474901869e+01    0.2764227    0.1652009  18.62  0.001183848    1.590    0.371
        57 -10.0707     31.5110     12.0034   8.0814122133e+01   7.0049620515e+01    0.2710266    0.1700247 -22.26  0.000839479    1.342    0.255
        58  -8.6642     86.7065     10.9028   5.8525920182e+01   6.1018580534e+01    0.2904457    0.1142281  40.27   0.00117762    2.325    0.570
        59 -10.6873    200.3007      6.0327   3.7233721802e+01   3.4560215857e+01    0.5316744    0.2657723 -39.67 0.0007984061    1.915    0.478
        60  -9.6543     77.6303      8.7754   6.0345536888e+01   6.3048168009e+01    0.2147551    0.1895756  37.93 0.0003441189    1.207    0.171
        61  -8.8194     77.4913      4.5203   5.8414290480e+01   6.3482080961e+01    0.2087863    0.1278827  22.47  0.001132503    1.578    0.366
        62  -9.1731    250.6374      7.3556   3.3466517731e+01   2.3194219707e+01    0.2707576   0.07865958 -38.06 0.0009083835    2.655    0.623
        63  -9.2653    248.6993      1.9552   3.2480668645e+01   2.4167648713e+01     0.195986    0.1833114  88.23 0.0008474497    1.288    0.224
        64  -9.9672     67.5790      6.3582   6.2561708075e+01   6.5193985020e+01    0.3023766    0.2023192 -11.62 0.0008788416    1.441    0.306
        65  -9.9968     71.6206      3.7300   5.9917413377e+01   6.4692422056e+01    0.3376192    0.2319151 -33.89  0.001990925    1.723    0.420
        66  -8.6627    190.2251      7.5930   3.8658426149e+01   3.6821613860e+01    0.1875147     0.103899  60.62 0.0009395311    1.670    0.401
        67  -8.9189    184.8605      6.5755   3.8965700525e+01   3.8219776381e+01    0.3280593    0.2037118  18.18  0.001571369    2.502    0.600
        68  -9.4457    181.5062      4.3801   3.8736349139e+01   3.9240798420e+01    0.3669522    0.2581747  62.70  0.001562076    1.309    0.236
        69 -10.7251    138.5211      3.5113   4.4210938745e+01   4.9856512826e+01    0.5012555    0.2943834  10.62  0.001538167    2.272    0.560
        70 -10.0702    133.0497      4.7932   4.5563883062e+01   5.1075331351e+01    0.4253035    0.3477753 -35.25  0.002326695    1.373    0.272
        71  -9.0081    232.9574     10.7381   3.5491883109e+01   2.6595181177e+01    0.2314374    0.1435172 -78.10  0.001136646    1.542    0.351
        72  -9.6532    243.7147      3.4537   3.3122026859e+01   2.5053703736e+01    0.3506391     0.144816 -42.41  0.001171948    2.001    0.500
        73  -8.5808    189.5058      4.4413   3.7899234774e+01   3.7295968749e+01    0.1294206    0.1121009 -89.36 0.0002705611    1.010    0.010
        74  -8.3191     84.0080      4.0280   5.6240999575e+01   6.2216014020e+01    0.1514872    0.1266316  20.38 0.0003667957    1.050    0.047
        75 -11.0540     34.7330    131.0046   1.1304837781e+02   4.4477625744e+01     1.015547    0.3619954 -77.64  0.003558379    3.433    0.709
        76  -9.5588    211.4046    250.3359   9.0906673621e+01  -6.3579623307e+00    0.2362066    0.1258878  35.08  0.001106021    1.582    0.368
        77  -9.5707    183.2227    249.7548   9.6055882784e+01  -2.1877957512e+00    0.2262788    0.1266909  36.86  0.001282628    1.472    0.320
        78  -9.7464    162.2721    250.1758   1.0010127027e+02   9.0131531928e-01    0.2267621    0.1403562  29.32  0.001320017    1.413    0.292
        79 -10.4756     39.3504    115.7623   1.0928358630e+02   4.7785927255e+01    0.4775361    0.3400444 -83.58  0.001858206    1.432    0.302
        80 -10.4969     33.1365    109.4902   1.1014437638e+02   4.9890978136e+01    0.6603864    0.2700625 -53.71   0.00294661    1.976    0.494
        81 -11.7037     40.4090    124.3989   1.1040107179e+02   4.5558786711e+01      1.33909    0.5632461 -78.95  0.004977599    3.056    0.673
        82 -10.9664     33.8054    119.5851   1.1160623409e+02   4.7365451251e+01    0.5348876    0.3258446 -58.58  0.002029892    1.367    0.269
        83 -10.3234     28.3814    119.7393   1.1325512874e+02   4.7798488878e+01     0.370202    0.2548904 -79.96  0.001387234    1.328    0.247
        84 -10.0233     37.9926    108.8175   1.0847740359e+02   4.9612797327e+01    0.3352466    0.2174943 -36.97 0.0006970745    1.636    0.389
        85 -10.1151      3.2780    136.4625   1.2222364818e+02   4.5582638965e+01    0.3068205    0.2074003  -6.64  0.001863633    2.178    0.541
        86  -9.8032     73.4154    129.6055   1.0158929847e+02   4.0324105655e+01    0.2854801    0.2187372  86.25 0.0008789334    1.505    0.335
        87  -9.8220     50.4926    125.5041   1.0759427082e+02   4.4226346115e+01    0.3684512    0.2121937 -45.13  0.001024936    1.746    0.427
        88 -11.0962     46.8199    123.2223   1.0829600084e+02   4.5190746613e+01    0.6174952    0.3862115 -62.71  0.003193583    1.366    0.268
        89 -10.0594     55.8456    126.0790   1.0610574326e+02   4.3469469825e+01    0.3373905    0.2022657 -67.77 0.0008740132    1.540    0.351
        90  -9.6569     53.9780    120.7685   1.0569514088e+02   4.5001090325e+01    0.2623626    0.2147111 -28.85  0.001483752    1.378    0.274
        91  -8.6158    131.4958    124.4580   8.4031335545e+01   3.1411889753e+01    0.1554967    0.1516168 -29.32 0.0001332163    1.007    0.007
        92 -10.1546     93.0146    121.7488   9.4148964300e+01   3.9242909600e+01    0.4659193     0.412375 -61.35  0.002501186    1.092    0.084
        93 -10.1563     20.1218    117.7723   1.1543086258e+02   4.8925806013e+01    0.3167312    0.2314295 -89.62   0.00141782    1.318    0.241
        94  -9.6198     50.9806    116.8198   1.0587504232e+02   4.6315458778e+01     0.318133    0.2389005 -61.29  0.001358963    1.153    0.133
        95 -10.2805     48.6969    112.0990   1.0568744208e+02   4.7726060090e+01     0.388309     0.258093 -27.36  0.001275404    1.841    0.457
        96 -10.4290    116.5131    116.3689   8.6065805597e+01   3.6264619796e+01    0.3411001    0.2788821  28.61 0.0007358817    1.311    0.237
        97  -9.8683    104.7194    116.4165   8.9446229570e+01   3.8477652236e+01    0.3105466    0.2417174 -63.73  0.001498419    1.364    0.267
        98  -9.6683    108.6599    114.7759   8.7893319928e+01   3.8135475234e+01    0.3278862    0.2198611 -46.62    0.0011191    1.424    0.298
        99  -9.6611     97.4995    115.3602   9.1304209611e+01   4.0013086171e+01    0.3343812     0.232826  26.57  0.001509396    1.639    0.390
       100 -10.4935     96.6200    109.6385   9.0135262474e+01   4.1520723630e+01    0.4963718    0.4145365 -60.77  0.001770779    1.215    0.177
       101  -9.3070     82.6659    114.9344   9.5673392069e+01   4.2554973515e+01    0.2694961    0.2190986  45.73 0.0009623632    1.339    0.253
       102  -9.9727     42.2365    109.5778   1.0726114272e+02   4.9015809676e+01    0.3218316    0.2345319  26.47   0.00149098    1.600    0.375
       103  -9.5584     54.5945    112.9870   1.0399867341e+02   4.6844149049e+01    0.2390824    0.2036972  48.39 0.0005695185    1.324    0.245
       104  -8.9228    193.2388    111.5863   6.6351131066e+01   2.0550411801e+01    0.2000969    0.1449307  37.56 0.0003075662    1.493    0.330
       105  -9.6863    130.4948    110.7875   8.0758058703e+01   3.4697097208e+01    0.4980182    0.2950163  42.04  0.002060391    1.736    0.424
       106  -8.5682    103.8166    108.8202   8.7772740458e+01   4.0422017107e+01    0.2043945     0.181852  89.94 0.0004996965    1.305    0.234
       107  -9.1350     24.1308    109.0669   1.1291735767e+02   5.0733470751e+01    0.3075923    0.1469858  32.05  0.001513425    2.389    0.581
       108  -9.8797    117.7622    106.8927   8.3216604785e+01   3.8182999950e+01    0.3752855    0.2236017 -38.85  0.001556755    1.690    0.408
       109  -9.6139    113.1102    107.7070   8.4764197610e+01   3.8917511937e+01    0.3493668    0.2598971 -51.28 0.0005752455    1.325    0.246
       110 -10.7027    106.2271    102.3661   8.5327719304e+01   4.1454835684e+01    0.7975609     0.527312  71.75  0.003114226    2.581    0.613
       111 -10.7267    133.2525    100.2211   7.7101675827e+01   3.6409699838e+01     1.345703    0.4063599 -49.18  0.003691692    3.902    0.744
       112 -11.4385    141.2347    102.6923   7.5715093302e+01   3.4132862732e+01    0.8019934    0.4871883  19.63  0.002873755    2.697    0.629
       113 -10.3206    146.7682     99.5839   7.3443765735e+01   3.3542957880e+01    0.2540955    0.2200166 -53.33  0.000332287    1.199    0.166
       114 -10.0212    197.0257    104.6156   6.3823621772e+01   2.1007904716e+01    0.3188484    0.2872286  11.81 0.0005066655    1.204    0.169
       115 -10.8375     50.9973     92.3278   1.0066485419e+02   5.2230190969e+01    0.5562581    0.3423685 -51.77  0.002244195    1.381    0.276
       116  -9.6143     45.8676     98.2020   1.0376443887e+02   5.1395364856e+01    0.4403935    0.2673779  45.33  0.002046462    1.998    0.499
       117 -10.3520     39.3045     80.3441   1.0195197763e+02   5.6238200193e+01    0.8572401    0.5244767 -75.53  0.004145705    2.076    0.518
       118 -10.7965     54.7685     98.6528   1.0085681254e+02   5.0295130237e+01    0.8789216    0.3071945 -43.61  0.003159597    2.884    0.653
       119  -9.9089     48.2440    103.1986   1.0403676050e+02   4.9940735368e+01    0.5105356    0.2712205 -35.81  0.001968897    2.148    0.534
       120  -9.8201     39.7293     96.4516   1.0547915673e+02   5.2431336377e+01    0.3502883    0.2232935  -2.74  0.001762727    2.115    0.527
       121 -10.0389     39.8134     92.1339   1.0452191226e+02   5.3448492877e+01    0.4704597     0.247343 -36.28  0.001847276    2.018    0.504
       122 -10.6915     34.4968     91.5648   1.0625869885e+02   5.4075755452e+01    0.4940049    0.3031606  -9.45  0.001987173    2.195    0.544
       123  -9.6587     63.9805    100.9848   9.8327796464e+01   4.8589979170e+01    0.5459802    0.4909725  65.59   0.00316288    1.293    0.226
       124  -9.1086     38.5620    102.6477   1.0712697645e+02   5.1055221013e+01    0.2397449    0.1693394  16.61  0.001329528    1.709    0.415
       125 -12.2308    118.9841     90.8279   7.8298403839e+01   4.1446979730e+01     2.058135    0.9714859 -32.11  0.007170965    2.596    0.615
       126 -11.8886     34.4418     70.2091   1.0120491179e+02   5.8971317090e+01     1.545732    0.7040859 -22.70  0.005950535    3.511    0.715
       127 -12.2336     42.5913     53.2446   9.2762872047e+01   6.1720998142e+01    0.9128924    0.5291189  30.19  0.001650403    1.909    0.476
       128 -10.3063    235.8712    249.6331   8.6425899751e+01  -9.6055878082e+00    0.3647346   0.09035398  37.58  0.001480593    3.581    0.721
       129 -11.8216     21.3292     62.2515   1.0438951239e+02   6.1780508103e+01     1.127034    0.7960241  11.46  0.006975108    1.626    0.385
       130 -12.1843     32.5992     58.8910   9.8757589662e+01   6.1576824383e+01    0.5200781    0.4073365   9.44  0.003270856    1.394    0.283
       131  -8.8957    124.9626    249.7033   1.0721861630e+02   6.5948529274e+00    0.1896433   0.09036768  21.70 0.0007029616    4.139    0.758
       132 -12.3320    102.5915     76.4220   7.8712350719e+01   4.7745426135e+01     1.466809     1.281206 -29.14  0.007865733    1.088    0.081
       133  -8.4273    217.3025    248.3489   8.9530221061e+01  -6.9343969469e+00    0.1230316   0.07576422   4.93  0.000483481    1.694    0.410
       134 -11.4779     78.6519     61.0822   8.1495483840e+01   5.5134242912e+01     0.597818    0.4647658   6.93  0.001635144    1.356    0.262
       135 -10.2567    147.9052    247.1860   1.0248048608e+02   3.5413601793e+00    0.1852702    0.1434591  48.08 0.0004578889    1.211    0.174
       136 -11.5800     68.6838     68.5929   8.7623638972e+01   5.5214492324e+01     1.062371    0.6041227  27.19  0.003659686    1.951    0.487
       137 -12.1819     55.5695     66.9658   9.2020341993e+01   5.7364552112e+01      1.14938    0.5974971 -43.19  0.004393174    1.674    0.403
       138 -10.4839    141.9777    244.6251   1.0330893351e+02   4.8543381945e+00    0.3144536    0.2844989  44.01   0.00185975    1.111    0.100
       139 -10.9666     29.7662     48.2277   9.6622540219e+01   6.4013406393e+01    0.3868414    0.2106096 -31.83   0.00204401    1.674    0.403
       140 -11.7490     31.8535     41.9316   9.3502604167e+01   6.5038236297e+01    0.9965082    0.3498223  24.29  0.004258355    3.195    0.687
       141 -10.0731      4.2954    245.8004   1.2867920498e+02   2.2278283278e+01    0.2193754     0.153092 -71.68  0.001699733    1.634    0.388
       142  -9.4032    224.4915    244.5279   8.7632770135e+01  -7.4546359013e+00    0.1203803   0.09104944  11.88 7.495566e-06    1.018    0.017
       143 -12.2616     56.6229     37.7301   8.1065294670e+01   6.2779194660e+01    0.5632997    0.3562021  -7.84  0.002091894    1.799    0.444
       144 -12.1003     49.1925     39.5110   8.4900648047e+01   6.3498520887e+01    0.3886616    0.2805537   4.96 0.0002573468    1.377    0.274
       145 -10.0086    188.5957    243.9622   9.4193714552e+01  -2.1795903978e+00     0.226355    0.1476452  37.43 0.0006216016    1.337    0.252
       146  -9.5097      4.4452     98.4787   1.1758947130e+02   5.4515722163e+01    0.2917486    0.1575167 -82.11 0.0008991945    1.724    0.420
       147 -11.3245      4.3378     88.3679   1.1614241709e+02   5.6884475990e+01      1.10272    0.2651844 -63.89  0.003236714    2.668    0.625
       148 -12.5733    118.4739     69.2129   7.1648074554e+01   4.5855537990e+01     1.249169     1.017262  45.68  0.002164769    1.249    0.199
       149  -9.5557     33.3862     99.4514   1.0822976564e+02   5.2295558637e+01    0.2770368    0.2517236 -11.14  0.001793423    1.263    0.208
       150 -10.4932    240.9116     96.2732   5.4479394373e+01   1.2994489404e+01    0.4824264    0.2067114 -27.22  0.001805503    2.737    0.635
       151  -9.0917     10.1483     99.1092   1.1584430878e+02   5.4056052774e+01    0.1854625    0.1783384 -50.04  0.001106757    1.226    0.184
       152  -9.9135    156.3731     96.1187   7.0138717734e+01   3.2043973894e+01    0.4138383    0.3165967 -42.86  0.001145685    1.286    0.222
       153  -9.1553    189.4815     93.9139   6.2457045805e+01   2.4710619390e+01    0.2807512    0.2097687  29.08  0.001240628    1.585    0.369
       154  -8.9212     11.4759     93.9657   1.1461330053e+02   5.5193200211e+01    0.2451792    0.1520072   2.04 0.0008956816    2.097    0.523
       155 -10.7938    107.0393     60.3430   7.1952349120e+01   4.9900015317e+01    0.5870426     0.366173 -20.79   0.00223544    1.867    0.464
       156  -9.0536    103.4796     92.5401   8.3376468783e+01   4.4170933828e+01    0.3615405    0.2283182  22.74 0.0008616913    2.014    0.503
       157 -10.0876    107.0000     88.4986   8.1114618519e+01   4.4368171222e+01    0.5132694    0.2083491 -43.63  0.001826333    2.364    0.577
       158  -9.8130     58.8066    138.0596   1.0731739210e+02   4.0145654257e+01    0.2209896    0.2046446  40.88 0.0005925096    1.209    0.173
       159  -9.2039     67.7889     87.1007   9.3475985285e+01   5.1314116090e+01    0.2676987    0.2041279 -23.40 0.0008300719    1.379    0.275
       160  -8.2821    174.6506     91.6782   6.4827785896e+01   2.8611341027e+01       0.1619     0.121824  12.91 0.0007048787    1.744    0.427
       161  -9.4091    193.8570     89.6449   6.0488334993e+01   2.4458917365e+01    0.2412454    0.2029449 -22.27 0.0004752236    1.235    0.190
       162 -10.2514    112.3309     88.1247   7.9414501933e+01   4.3385603495e+01    0.5334532    0.2022161 -37.06  0.001722282    2.919    0.657
       163  -9.8175     57.5108     85.5921   9.6676395690e+01   5.3020168885e+01    0.6464691    0.4261321   1.43   0.00313844    1.992    0.498
       164  -9.0747     51.9867     85.6917   9.8673712812e+01   5.3661644310e+01     0.271562    0.1708021   2.56  0.001088803    2.137    0.532
       165  -9.2061     53.4777     82.4579   9.7290245810e+01   5.4226015822e+01    0.2662975    0.2069029 -53.73  0.001159168    1.177    0.151
       166  -9.7429    145.9924     86.8442   6.9940854612e+01   3.6281520128e+01    0.4326417    0.2929402  28.56  0.001796282    1.774    0.436
       167  -9.9926    146.6229     83.1695   6.8688618999e+01   3.6844622705e+01    0.3875872    0.2983198  -5.94  0.001586498    1.598    0.374
       168  -7.9888    101.2701     88.3368   8.2815443306e+01   4.5505408292e+01    0.1541052    0.1144816 -15.20 0.0001893316    1.598    0.374
       169  -9.9155    146.7150     74.9065   6.6149766469e+01   3.8363570435e+01    0.3563322    0.2414888  36.48  0.001582382    1.591    0.372
       170 -11.6907    135.4655     82.3985   7.1254739690e+01   3.9563819140e+01     1.137904    0.7170431  20.71  0.004415694    2.336    0.572
       171 -10.4192    140.2038     75.4166   6.7891382496e+01   3.9799652044e+01    0.5001722     0.316807  62.32  0.001317561    1.877    0.467
       172  -9.8478    143.0057     69.8614   6.5463155845e+01   4.0145966607e+01    0.5858072    0.2971468 -41.40  0.002317048    1.981    0.495
       173 -10.6290    137.6519     69.1537   6.6547057431e+01   4.1530445589e+01    0.5441883    0.5170873 -19.05  0.001273156    1.043    0.041
       174  -8.8131    156.2106     85.5503   6.7127629359e+01   3.4137282901e+01    0.2163039     0.145651  38.78 0.0006125256    1.584    0.369
       175  -9.2968     74.4574     84.2211   9.0361485117e+01   5.0988391858e+01    0.3983468    0.2237295  24.57  0.001736147    2.124    0.529
       176 -10.9915    161.0557     81.8589   6.4949970022e+01   3.3674142893e+01    0.4330921     0.297636  61.22  0.001932429    1.592    0.372
       177  -9.0724    169.4384     78.5870   6.2197769171e+01   3.2249594342e+01     0.272034    0.1942794 -36.59 0.0008315291    1.378    0.274
       178  -9.8427    189.2060     77.4162   5.8027052593e+01   2.7688613672e+01    0.5271704    0.2543433  39.14  0.001908784    2.720    0.632
       179  -8.4919    167.0052     88.7059   6.5623089518e+01   3.0981595431e+01    0.1754542    0.1404492  51.73 0.0003322575    1.277    0.217
       180  -9.4246      5.4588     77.1634   1.1387047136e+02   5.9405467379e+01    0.2002188    0.1761329  78.75 0.0007525539    1.363    0.266
       181 -10.0113      3.6496     72.9975   1.1378325288e+02   6.0433101098e+01    0.2941774     0.138006 -54.94 0.0007821404    1.545    0.353
       182  -8.3510    201.3664     77.3382   5.5885941822e+01   2.4816608380e+01    0.1543504    0.1145199  18.00 0.0007030005    1.840    0.456
       183  -9.3687     82.0786     75.3841   8.5066823141e+01   5.1685749469e+01    0.3094828    0.2033439 -53.72  0.001128634    1.627    0.385
       184  -9.5738     70.4389     76.3260   8.9420892981e+01   5.3320331660e+01    0.3348462    0.2660317   1.66  0.001810535    1.371    0.270
       185  -9.2065    248.3044     76.6579   4.8951425004e+01   1.4585497662e+01    0.1422425   0.09052398 -59.47 0.0007040659    1.682    0.406
       186  -8.5170    244.3504     76.2736   4.9356732851e+01   1.5453359569e+01    0.1277538    0.1041248  16.71 0.0006823968    1.633    0.388
       187  -9.6987    166.2477     73.0034   6.1226949845e+01   3.4001348920e+01    0.5493076    0.4004763  21.75  0.002483277    1.753    0.429
       188  -9.1790    164.5911     68.7834   6.0316104394e+01   3.5125490406e+01    0.2844243    0.2308043  70.77 0.0007895995    1.330    0.248
       189  -8.8598    204.3088    241.6425   9.0877877231e+01  -4.1973893798e+00    0.1086197   0.09453594  58.13 0.0007042104    1.731    0.422
       190 -10.3354    136.5610     42.1612   5.7852199798e+01   4.6081020771e+01    0.5295228    0.3844366 -55.63  0.002195824    1.659    0.397
       191 -10.7296    148.3653     34.4598   5.2803750688e+01   4.4221453976e+01     1.327423    0.3132253  52.57  0.004153534    3.490    0.713
       192 -10.3142    135.9324     34.0104   5.5190397954e+01   4.7317340256e+01    0.5714251     0.327983  11.32  0.001357096    2.880    0.653
       193 -11.4451    149.2264     66.2460   6.2870349445e+01   3.9287325807e+01     1.072076    0.5275224 -36.09  0.004225588    2.026    0.506
       194 -11.0095    142.2663     44.5686   5.7404492030e+01   4.4362614478e+01    0.7408173    0.3440671  38.59 0.0006388199    2.565    0.610
       195 -10.1921    140.0100     52.2142   6.0452579707e+01   4.3779524148e+01    0.4338541    0.3115825  45.37  0.001236642    1.351    0.260
       196 -11.4281    145.7979     48.3893   5.7902625253e+01   4.2951492645e+01    0.3533746    0.2976848  39.88 0.0002648666    1.170    0.146
       197 -10.4831    143.8023     58.1612   6.1532105063e+01   4.1932372954e+01      0.28487    0.2554337  42.51 0.0003712579    1.090    0.083
       198 -12.6793    147.2769     53.8493   5.9357552651e+01   4.1770135955e+01    0.4836299    0.3540824  46.77 0.0003813523    1.331    0.249
       199  -9.4858    177.0493     68.5662   5.7788804633e+01   3.2115265110e+01    0.4310419    0.3277297  77.48  0.002083072    1.498    0.332
       200  -8.9062    248.4807     68.4533   4.7055983379e+01   1.5780529046e+01      0.13387    0.1143139 -50.54 0.0001095388    1.011    0.011
       201  -8.9601    211.2316    240.0415   8.9338162396e+01  -4.9942385785e+00    0.1453911   0.09482381 -29.71 0.0008768804    1.634    0.388
       202  -8.9609    131.9261     67.0371   6.7310540922e+01   4.3234429381e+01    0.2427789    0.1795067  16.59 0.0009564018    1.644    0.392
       203  -9.1560     87.7648     65.6320   7.9923099186e+01   5.2669641508e+01    0.3098521     0.229939 -35.90  0.001592712    1.270    0.213
       204  -9.9693    167.5653     62.3448   5.7790984821e+01   3.5455012101e+01     0.410912    0.3053108 -21.25  0.001309532    1.486    0.327
       205  -9.1583    169.7487     58.9730   5.6362231916e+01   3.5449703528e+01    0.2409344    0.2025877 -28.81 0.0001908938    1.224    0.183
       206 -10.4538    166.3209     53.7887   5.5455013480e+01   3.7091343916e+01    0.6593335    0.3286179 -41.89  0.002501123    2.026    0.507
       207 -10.6191    161.2767     51.9201   5.5852871940e+01   3.8620289024e+01    0.5068231    0.3807663 -34.22  0.001740789    1.354    0.261
       208 -10.8049    157.9909     42.3090   5.3485577943e+01   4.0805827945e+01    0.8031198    0.4055659 -28.80  0.002388603    2.093    0.522
       209 -10.2153    152.7644     44.3923   5.5161665978e+01   4.1813031472e+01    0.6270506    0.3048673 -26.46  0.002522678    2.270    0.559
       210 -10.5470    133.2546     54.7673   6.2908059293e+01   4.4988024815e+01    0.7519729    0.4159784  -5.85  0.002503877    3.586    0.721
       211 -10.2337    116.4965     49.5974   6.5438458798e+01   4.9651234915e+01    0.4307454    0.3128911 -32.76  0.001269028    1.391    0.281
       212  -9.0656    131.8716     62.7884   6.5929807331e+01   4.3986664223e+01    0.2661899     0.203679 -49.96 0.0002303847    1.438    0.304
       213  -9.9006    127.2972     58.9331   6.5814808400e+01   4.5694057143e+01    0.4728885    0.3879722 -86.23  0.002348273    1.618    0.382
       214 -10.6779    121.7140     54.1400   6.5636803620e+01   4.7755511175e+01    0.5760056    0.5376884   8.33  0.003236459    1.027    0.027
       215  -9.6011    207.8942     60.0879   5.0317621225e+01   2.6009690229e+01    0.4822083    0.3045853 -15.33  0.002145707    2.125    0.529
       216 -11.0466    193.5348     55.0912   5.1144713883e+01   3.0193058991e+01    0.8010461     0.620005  58.86  0.004218516    1.299    0.230
       217 -10.2147    174.2440     56.7462   5.4867509564e+01   3.4682061590e+01    0.7681575    0.4330427   0.14  0.002436158    4.203    0.762
       218 -11.2467    184.7243     56.0717   5.2843858581e+01   3.2200149137e+01    0.7743537     0.370946 -45.14 0.0004161616    2.114    0.527
       219 -10.0877    180.0511     44.0940   5.0182867220e+01   3.5073574001e+01    0.5629898    0.3604654   0.00  0.002185334    2.451    0.592
       220 -10.8139    172.6426     47.1875   5.2326071538e+01   3.6483129908e+01     1.311128    0.5387682  74.45  0.003933266    4.205    0.762
       221  -8.7767    250.0121     59.0186   4.4744401894e+01   1.6835274751e+01    0.1617333    0.1357411 -50.87 0.0005199942    1.015    0.015
       222  -8.9867    200.5493     59.4588   5.1246278724e+01   2.7848771323e+01    0.3321054    0.1680709  52.90  0.001410963    2.019    0.505
       223  -9.0306    137.8131     59.0580   6.3230884365e+01   4.3217994151e+01    0.2522449    0.2006275  47.64 0.0004412447    1.229    0.186
       224 -10.5668      3.1685     56.2522   1.1052730446e+02   6.4135543212e+01    0.4149117    0.2729409  39.96  0.002568213    2.073    0.518
       225  -9.8224      4.1854     51.6161   1.0898633010e+02   6.5072115775e+01    0.2486473    0.1484518 -46.97 0.0008317072    1.247    0.198
       226 -10.2630     70.9336     53.1185   8.1439660768e+01   5.7896676225e+01    0.5297241    0.2814917 -43.36  0.002287694    1.814    0.449
       227  -9.8068    234.1114     56.0302   4.5859295994e+01   2.0637417621e+01    0.3521516    0.2418207  58.43  0.001907791    1.580    0.367
       228  -8.9470     11.8911     56.3358   1.0683226297e+02   6.3665632254e+01     0.160225    0.1328363 -30.77  0.001103332    1.148    0.129
       229  -9.4048    244.2587     54.8610   4.4429553025e+01   1.8622494042e+01    0.2267984    0.1754941 -16.16 0.0007782891    1.580    0.367
       230  -9.6695    238.0280     52.0043   4.4460139181e+01   2.0354309345e+01    0.2319533    0.1809475  73.51 0.0009221642    1.350    0.260
       231  -8.4049      9.8301     52.3161   1.0668686458e+02   6.4633116163e+01    0.1491928   0.09690289 -13.14 0.0004056024    1.638    0.389
       232  -9.2823    228.2348     49.8964   4.5085049363e+01   2.2803808566e+01    0.2215494    0.1829041  81.45 0.0006568796    1.232    0.188
       233  -7.9958     16.6283     50.7125   1.0324164304e+02   6.4547679533e+01    0.1320723    0.0709179 -31.16 0.0007020447    1.714    0.416
       234  -8.3211     21.5757     49.2297   1.0059457956e+02   6.4496157952e+01    0.1083147   0.09072232  50.73 0.0006876562    1.708    0.415
       235 -10.4629    207.6391     46.0519   4.6695198813e+01   2.8090742702e+01    0.5016506    0.1805039  58.38  0.001928148    2.665    0.625
       236  -9.8043    193.3592     44.2816   4.8203269744e+01   3.1772298929e+01    0.2977848    0.2458436 -61.22  0.001174201    1.195    0.163
       237  -9.5087    197.2218     41.9004   4.7007548957e+01   3.1154518194e+01    0.2146663     0.189195  81.55 0.0003272183    1.096    0.088
       238  -8.6522     23.8101     46.2805   9.8656389540e+01   6.4913199683e+01    0.1619906    0.1015498   3.16 0.0009256141    1.761    0.432
       239 -10.4037     14.8506    238.1901   1.2659211185e+02   2.2656565667e+01    0.2802782    0.1137678  85.87   0.00153408    2.343    0.573
       240  -8.2803    220.4933    237.5098   8.7226756337e+01  -5.9943542644e+00    0.1238132   0.09450039  10.78 0.0004679421    1.046    0.044
       241  -8.7703    172.3111    237.3712   9.6361565664e+01   1.2908312444e+00    0.1288165   0.08899427   3.24 0.0007034289    1.774    0.436
       242  -9.7950    182.5816    235.1674   9.4023149954e+01   2.2883369466e-02    0.2956668    0.1242532  47.76  0.001247472    2.808    0.644
       243 -10.6980      9.8603     41.8761   1.0373235669e+02   6.6769744260e+01    0.5444191    0.2796645  35.23  0.002961986    2.621    0.618
       244  -8.8983     21.0377    232.3750   1.2521944172e+02   2.3135594264e+01    0.1529357    0.1099205  61.18  0.001073306    1.114    0.103
       245 -11.5171     16.5523     38.2960   9.9395310699e+01   6.7033468306e+01     0.639093     0.410444 -45.20  0.003989957    1.241    0.194
       246  -9.4827     12.6631    231.7899   1.2665473630e+02   2.4075447421e+01    0.2260288    0.1282066  58.73  0.001503186    1.365    0.267
       247  -8.5564    227.0416    231.5378   8.5044996251e+01  -6.1431767120e+00     0.174991    0.1017183  31.29 0.0003883344    1.506    0.336
       248  -9.0308    219.1945    230.8665   8.6368292013e+01  -4.9187206590e+00     0.180111    0.1519213  26.45 0.0006038036    1.271    0.213
       249  -8.8237    202.1588    229.1088   8.9278185304e+01  -2.1136696500e+00    0.1877768    0.1429953  11.45 0.0004272711    1.163    0.140
       250  -8.7256    137.1521    224.8156   1.0165220183e+02   8.9887222428e+00    0.1727487    0.1482277   6.59 0.0006398312    1.337    0.252
       251  -8.6980    241.2753    224.6563   8.1317674362e+01  -7.2448355101e+00    0.1006711   0.09578969 -24.68 0.0005162881    1.623    0.384
       252  -9.9618    219.8001     42.9927   4.4394947351e+01   2.5663158423e+01    0.2608064    0.1560451 -53.80 0.0007619584    1.625    0.385
       253 -10.0401    215.7357     39.0476   4.3894353119e+01   2.7126819176e+01    0.3571439    0.2313744  88.76   0.00160435    1.684    0.406
       254 -10.0380    118.2801     42.0778   6.2249865609e+01   5.0378623225e+01    0.4093915    0.3015769 -30.12  0.002109086    1.389    0.280
       255  -9.2429    166.8201     42.4317   5.1914280585e+01   3.8591552603e+01    0.2899366    0.2172511  28.40  0.001444847    1.578    0.366
       256  -8.8782     40.9894    221.7269   1.2086427187e+02   2.3088958136e+01    0.1600098    0.1286947  66.23 0.0005176504    1.072    0.067
       257 -10.6568    202.2451     37.2146   4.5087311133e+01   3.0557852255e+01    0.4020416     0.333126 -38.29  0.002317003    1.213    0.176
       258  -9.6972     23.0653     40.9855   9.7226980196e+01   6.6011257866e+01    0.2973379    0.1441243 -41.13   0.00122565    1.631    0.387
       259  -9.5413    249.8584     40.6323   4.0657334587e+01   1.9380130966e+01    0.1773282      0.15326 -41.65   0.00114861    1.170    0.146
       260  -9.1904    235.1120     40.1742   4.2016716783e+01   2.2593429047e+01    0.2296898    0.1845051   0.43   0.00131459    1.741    0.426
       261  -8.4148    224.5277     41.5717   4.3498714808e+01   2.4772296721e+01     0.133521    0.1177109 -66.48 0.0002398363    1.011    0.011
       262  -8.4817    167.5266    220.5152   9.4745527399e+01   4.7783635224e+00    0.1319611    0.1140746  25.82 0.0001567946    1.005    0.005
       263  -9.4141    173.1265     39.8913   5.0078056431e+01   3.7360454136e+01    0.3973517    0.2283261  35.02  0.001676843    2.269    0.559
       264  -8.6991    112.4600     41.4554   6.3573327084e+01   5.1775544672e+01    0.1422091    0.1315906  19.73 0.0001000098    1.015    0.015
       265 -11.3147     79.7739     33.3540   7.0452018681e+01   5.9629596600e+01     0.361196    0.2934995  25.31 0.0004033325    1.142    0.124
       266  -9.7198     13.4334    211.7802   1.2545302987e+02   2.7952713536e+01     0.214594   0.08980669 -85.52  0.001138763    2.111    0.526
       267  -8.6681    240.2945    208.6615   7.8619203149e+01  -4.9415823018e+00    0.1068873    0.1011638 -46.74 0.0007029009    1.651    0.394
       268  -9.2798    160.3407     24.9819   4.7639966351e+01   4.2380310543e+01    0.4691846     0.262797 -52.40  0.002103812    2.095    0.523
       269  -8.5527    235.2853    208.6558   7.9514270563e+01  -4.2001601510e+00    0.1081034    0.1020856 -50.43  0.000628899    1.644    0.392
       270  -9.1007    124.0296    206.0028   1.0175898531e+02   1.4701840479e+01    0.1915005      0.17286  47.32  0.001165881    1.009    0.009
       271  -9.5798    233.9461    199.6873   7.8077424444e+01  -2.6917150754e+00    0.2382883    0.1569553  -7.61 0.0009709113    1.528    0.345
       272 -10.1193    179.9311     24.9978   4.4710108641e+01   3.7505289915e+01    0.2416446    0.2028541 -68.10 0.0003285384    1.190    0.160
       273  -8.1114    172.5119    195.5429   8.9447811132e+01   8.3475859437e+00    0.1392603    0.1267153  21.77 0.0001897331    1.023    0.022
       274  -9.4114     27.5069    193.6069   1.2144666262e+02   3.0443058825e+01    0.2083275    0.1810438  62.98  0.001140904    1.199    0.166
       275  -9.9707     11.2974    192.5999   1.2470747522e+02   3.2178367951e+01    0.2790084    0.1424567  43.20  0.001652085    1.845    0.458
       276  -8.6179    229.8643    187.8746   7.6531546460e+01  -2.4024306225e-01    0.1656023     0.154044 -27.12 0.0003943488    1.321    0.243
       277 -10.1037     10.3193    185.2535   1.2442656786e+02   3.3863436597e+01    0.3134448    0.2000384   3.84  0.001792222    2.775    0.640
       278  -8.6272    162.0320     38.9946   5.1707765694e+01   4.0244384948e+01     0.165407    0.1543503 -33.52 0.0009405547    1.121    0.108
       279 -10.8540    221.8868     34.6662   4.2114978217e+01   2.6271684841e+01    0.6446319    0.3572841  56.09  0.003190571    1.905    0.475
       280  -9.2710     26.5483    179.6048   1.2051092849e+02   3.3662240767e+01    0.2490661    0.1450921 -59.61  0.001298034    1.706    0.414
       281 -10.0826      2.0000    178.9457   1.2575041311e+02   3.5924294740e+01    0.2896323    0.1295139 -80.11  0.001579282    1.783    0.439
       282  -8.7662     36.6506    179.3305   1.1821993181e+02   3.2712421051e+01    0.1371515   0.07768058  67.21 0.0007048508    1.767    0.434
       283  -9.2403    211.3776     16.9099   3.8863474808e+01   3.0816289935e+01    0.3780763    0.1937149  50.02  0.001785593    2.245    0.555
       284  -8.7688     80.2333    176.7146   1.0763281124e+02   2.7929297306e+01    0.2168906   0.09284225 -52.82 0.0008862689    2.361    0.576
       285 -10.5481    226.6947     28.1871   4.0061216181e+01   2.5985133602e+01    0.4497691    0.4053457 -79.75  0.002870535    1.076    0.070
       286  -9.1279    221.9298     24.9750   3.9771358971e+01   2.7452557934e+01    0.2500667    0.1665838  78.05 0.0008070723    1.459    0.315
       287  -9.6834    122.0452     35.9540   5.9069597778e+01   5.0359535680e+01    0.5172697    0.2028661  57.21  0.001535593    2.536    0.606
       288  -8.7017     70.4696    174.5212   1.0970010138e+02   2.9798105091e+01    0.1343158    0.1208372  88.78  0.000160916    1.028    0.027
       289 -10.8072    245.6555     33.3440   3.9435899031e+01   2.1198525693e+01    0.4579634    0.2773032  67.27  0.001786018    1.721    0.419
       290  -8.8200    246.3114    170.9992   7.0201136811e+01  -2.6369217138e-01    0.2039851   0.09279074 -51.07  0.000702944    4.139    0.758
       291 -10.6570    235.6303     32.5840   4.0208284501e+01   2.3454290901e+01    0.4233023    0.3381906  -2.22  0.001655584    1.753    0.430
       292  -9.7961    237.7113     26.1403   3.8545582688e+01   2.3792657968e+01    0.3093714    0.2259551 -83.50 0.0007138225    1.303    0.233
       293  -9.2650     31.5310    170.4568   1.1853993623e+02   3.5284463873e+01    0.2444219    0.1672134  30.12 0.0008958441    1.710    0.415
       294 -10.7972     32.3401    166.2946   1.1793407500e+02   3.6179956061e+01    0.2694407    0.2416963 -38.49 0.0002755566    1.425    0.298
       295  -9.4355    172.7870     30.7574   4.7425492795e+01   3.8601725391e+01    0.3370277    0.2188636  23.49  0.001540851    2.162    0.537
       296  -9.3677    113.8562     31.1046   5.9323105467e+01   5.2866236258e+01    0.2862157     0.192283 -18.00  0.001027633    1.592    0.372
       297  -9.9057    186.0618     29.4791   4.5133971754e+01   3.5465062320e+01    0.3241985    0.2017447 -24.25            0    1.791    0.442
       298 -11.1279    167.4290     28.7787   4.7668643797e+01   4.0174034499e+01    0.3771971    0.2651152 -24.06 0.0007352984    1.560    0.359
       299  -9.6151    147.6756     23.9587   4.9478712322e+01   4.5638549127e+01    0.2922659    0.2045328  60.31 0.0007593859    1.309    0.236
       300  -9.1434    145.7744     28.8114   5.1435917967e+01   4.5550791679e+01    0.3709934    0.1886842  40.79  0.001563686    2.117    0.528
       301  -9.3861    150.7206     29.1857   5.0636872449e+01   4.4284688970e+01    0.4351186    0.2538592  47.24  0.001802458    1.650    0.394
       302  -9.5476    153.4259     24.7274   4.8716328805e+01   4.4128737473e+01     0.288787    0.2613381 -13.51  0.001704705    1.209    0.173
       303  -8.7262     16.8561    169.1244   1.2180162541e+02   3.6938267949e+01    0.1600443    0.1210249 -66.37 0.0003249526    1.288    0.223
       304  -8.9855     46.6525    165.6849   1.1440335261e+02   3.4825665488e+01    0.1292383   0.09376088 -40.57 0.0007047487    1.722    0.419
       305  -9.5893     18.9928    165.5145   1.2100237116e+02   3.7589868286e+01    0.1640944    0.1168723  36.44  0.001029317    1.582    0.368
       306  -9.9569    115.3087     24.0537   5.6285064755e+01   5.3384606455e+01    0.3849086    0.2224527  38.55 0.0008488302    1.677    0.404
       307 -10.4883      1.6788    159.5496   1.2450813847e+02   4.0312131148e+01    0.5281013    0.1362702 -79.34  0.002032018    3.274    0.695
       308 -10.8127     19.3487    158.3083   1.2026358765e+02   3.9244636122e+01    0.2737173    0.2279098 -27.88  0.001805605    1.629    0.386
       309 -12.5120     15.9075    151.2894   1.2043674119e+02   4.1182221712e+01    0.7389929    0.7062703  39.65  0.004065917    1.324    0.245
       310 -10.5793    110.8077     17.8026   5.4964933803e+01   5.5096470455e+01    0.3000673    0.2064751  46.04 0.0004671208    1.288    0.224
       311 -10.4834     31.5359    151.1976   1.1649911863e+02   3.9855354266e+01    0.3353728    0.2746551  -2.20  0.001298267    1.682    0.405
       312 -11.7201     29.4730    142.3741   1.1599394312e+02   4.2179927077e+01     1.642867     0.337623 -71.75    0.0049148    4.668    0.786
       313  -9.5181     94.7118     24.6725   6.2042519365e+01   5.7837196833e+01    0.4397421    0.2188329  -5.65  0.001666421    3.242    0.692
       314  -8.3143    185.3877     23.5193   4.3562041420e+01   3.6327394726e+01    0.2138543    0.1623944  12.47 0.0001020423    1.759    0.431
       315  -9.7590    188.8014     19.5409   4.2035831162e+01   3.5933930801e+01    0.2929205    0.2035284  39.11 0.0004190966    1.716    0.417
       316  -9.2749     70.7484     16.8758   6.6416348844e+01   6.3460780779e+01    0.3104694     0.146493  35.67  0.001308232    2.011    0.503
       317 -11.9221     22.6009    136.4748   1.1712628077e+02   4.4197790993e+01     1.380343    0.3995061 -65.23  0.005603125    2.555    0.609
       318  -9.0490     74.7427     18.9649   6.5963198920e+01   6.2476229672e+01    0.2199818    0.1659783  35.96 0.0005920323    1.234    0.190
       319 -12.4791     11.1001    107.7032   1.1677132561e+02   5.1955662393e+01     1.467799    0.5888241 -50.83  0.007013592    2.099    0.524
       320 -10.2161    246.9239     18.7817   3.6147919034e+01   2.2690728405e+01    0.4599419    0.2112217  77.08   0.00229011    2.229    0.551
       321  -9.2796    101.4214     18.8771   5.7780474579e+01   5.7071940098e+01    0.2075088     0.157838  28.23 7.281484e-05    1.215    0.177
       322  -9.2165    198.5092     16.3943   4.0076047687e+01   3.3923187800e+01    0.2298352    0.1818548  67.21 0.0008006829    1.216    0.178
       323  -9.1947    243.5519     13.0831   3.5182902712e+01   2.4050174219e+01    0.3081139    0.1265843  62.56  0.001043972    2.462    0.594
       324  -9.1324    193.6711     14.7288   4.0173870695e+01   3.5266476309e+01    0.2449419    0.1428484 -76.46  0.001005271    1.935    0.483
       325 -11.7899     21.7433    144.9323   1.1831437470e+02   4.2227516708e+01     1.286476    0.5377568  70.06  0.004546851    3.629    0.724
       326 -10.7019     13.4748    132.7893   1.1916751226e+02   4.5779143267e+01    0.4267761    0.2829894  21.22  0.002086329    1.905    0.475
       327 -13.1559     11.8308    126.0816   1.1886423891e+02   4.7502647859e+01    0.4181141    0.3405959 -82.19 0.0005390403    1.062    0.059
       328  -9.7631     45.3566    150.8953   1.1288282356e+02   3.8533668002e+01    0.2499282    0.1951681 -52.27 0.0008105038    1.320    0.243
       329  -8.9817     37.3417     12.7102   7.8307532235e+01   6.9224038763e+01    0.2064095    0.1440825  17.21 0.0008236134    1.302    0.232
       330  -9.1302     10.4241    144.8341   1.2118866649e+02   4.3123921778e+01    0.1897681    0.1470731  83.99 0.0007008238    1.135    0.119
       331 -10.0625      5.1774    147.2452   1.2270644351e+02   4.2922770934e+01    0.1982974    0.1582037 -79.56 0.0005860737    1.065    0.061
       332 -10.0548      6.4747    142.5960   1.2197349405e+02   4.3927861055e+01    0.2482608     0.174988 -81.59 0.0005747756    1.114    0.102
       333  -9.4250     66.4293     12.6175   6.5984362084e+01   6.4732365015e+01    0.3661494     0.128941  45.87  0.001561352    2.629    0.620
       334 -10.6427     40.6898    146.6297   1.1355140833e+02   4.0065575656e+01    0.4052774    0.2555698  10.59  0.001668866    2.299    0.565
       335 -11.0081     38.0381    143.2689   1.1381740678e+02   4.1153764595e+01    0.5970078    0.3929663  26.88  0.002415862    1.801    0.445
       336  -9.1001     98.7643    139.7549   9.6439572931e+01   3.3913476310e+01    0.2026595    0.1698751  85.16 0.0004857823    1.328    0.247
       337  -9.3448     47.5542    139.1605   1.1063912711e+02   4.1173577144e+01    0.3071761    0.1865177 -77.62   0.00115078    1.582    0.368
       338 -11.4289     75.5616    119.9904   9.8970436083e+01   4.2386046748e+01    0.2728163    0.2532893  35.64  0.001558996    1.177    0.151
       339 -10.6359     89.3472     88.0835   8.6516350759e+01   4.7716179138e+01    0.7058702    0.5466822 -21.83  0.003549304    1.378    0.274
       340 -10.2901     87.6363     96.8848   8.9557071283e+01   4.6023180848e+01    0.6398659    0.4461307 -60.26  0.003027895    1.535    0.348
       341 -10.9081     66.5448    134.5900   1.0451782021e+02   4.0024134116e+01    0.2976418    0.2603151  87.47 0.0001548535    1.151    0.131
       342 -12.2861     67.3060    119.5789   1.0139545774e+02   4.3634223681e+01     2.292871    0.9206451 -56.46  0.008990139    2.170    0.539
       343 -10.2817     61.3397    120.3169   1.0336546326e+02   4.4224796326e+01    0.3735086    0.2942541 -57.47  0.000487706    1.125    0.111
       344 -10.3027     82.1022     87.8297   8.8820518019e+01   4.8984671007e+01    0.6847851    0.4204527 -28.45  0.001782123    1.893    0.472
       345 -10.7120     76.1469    102.1104   9.4623638172e+01   4.6617748327e+01    0.5666429    0.4429995 -34.22  0.002962177    1.273    0.214
       346 -11.8361     77.0980     96.5378   9.2879005695e+01   4.7782814490e+01    0.7678836    0.6566446 -81.90  0.003751851    1.390    0.280
       347  -9.9143     55.4389    133.5793   1.0752786629e+02   4.1659413707e+01    0.4101367    0.2428576 -60.41  0.002020257    1.471    0.320
       348 -10.7296    236.7788    136.2763   6.4339123923e+01   7.0892346649e+00    0.3585371    0.2473158  27.77   0.00183168    1.665    0.399
