#   1 NUMBER                 Running object number                                     
#   2 MAG_AUTO               Kron-like elliptical aperture magnitude                    [mag]
#   3 X_IMAGE                Object position along x                                    [pixel]
#   4 Y_IMAGE                Object position along y                                    [pixel]
#   5 X_WORLD                Barycenter position along world x axis                     [deg]
#   6 Y_WORLD                Barycenter position along world y axis                     [deg]
#   7 A_WORLD                Profile RMS along major axis (world units)                 [deg]
#   8 B_WORLD                Profile RMS along minor axis (world units)                 [deg]
#   9 THETA_WORLD            Position angle (CCW/world-x)                               [deg]
#  10 FWHM_WORLD             FWHM assuming a gaussian core                              [deg]
#  11 ELONGATION             A_IMAGE/B_IMAGE                                           
#  12 ELLIPTICITY            1 - B_IMAGE/A_IMAGE                                       
         1 -10.3758     10.4875     18.6858   9.9743729361e+01   7.0888118969e+01      1.32534    0.4106301 -27.15    0.0040196    7.004    0.857
         2 -11.0886     23.7303     32.2771   9.8488582040e+01   6.7413825770e+01     1.549021    0.4305822 -39.83  0.003902313    3.094    0.677
         3 -10.3948     26.8227     11.2948   8.7914316990e+01   7.0643477457e+01    0.7185075    0.4447794  28.63   0.00368552    1.758    0.431
         4 -10.2917     18.4004      5.2344   8.9272061108e+01   7.2397418513e+01    0.5697786     0.493895 -50.85  0.003159006    1.802    0.445
         5  -9.7759      2.3195     14.5953   1.0246467521e+02   7.2127346339e+01    0.6451893    0.2097453 -58.90  0.002753333    3.657    0.727
         6 -10.1869      6.1685      5.2086   9.6139983984e+01   7.3435433055e+01    0.3893343    0.2442909 -29.84  0.001587761    1.179    0.152
         7  -9.8077      2.5139      3.1217   9.7272450276e+01   7.4020626500e+01    0.2634328    0.1320725 -35.31  0.001015628    1.475    0.322
         8 -10.5313     33.1979     63.5145   1.0440702711e+02   6.0318829084e+01     1.338529    0.4798226 -33.53  0.003948593    4.312    0.768
         9 -10.7612     37.2010      9.6150   8.1980192313e+01   6.9668224053e+01    0.8519627    0.3291544 -41.84  0.002688021    2.769    0.639
        10 -10.8715    134.0670     30.9515   5.9622130025e+01   4.8073886451e+01    0.4342836    0.2940084  -2.94            0    1.802    0.445
        11  -9.4944     77.6123      4.1792   6.3303612458e+01   6.3691887524e+01    0.4800141    0.3155872  -1.31  0.001405669    1.512    0.339
        12  -8.1759     72.1152      8.3132   6.7113954917e+01   6.4316696164e+01    0.2329875     0.188023 -27.79 0.0005413016    1.370    0.270
        13 -10.3790     73.6600     18.1912   7.1254089657e+01   6.2868399849e+01     1.231512     0.385368 -24.90  0.003584993    3.871    0.742
        14 -10.2753     69.6756     40.8306   8.2480840451e+01   6.0171268448e+01     1.244904    0.3528447 -39.38   0.00406836    3.288    0.696
        15  -9.8075     79.2123     24.2101   7.2046670545e+01   6.1053260430e+01    0.6289595    0.3055757  24.99  0.002005028    2.828    0.646
        16  -9.3524    102.7347     21.8802   6.3815728867e+01   5.6547948472e+01    0.5791352     0.313432 -23.03  0.001989222    1.912    0.477
        17 -10.3288     62.1841      3.7543   6.8377097096e+01   6.6592367568e+01    0.6184096     0.426159   9.20  0.003736239    1.327    0.247
        18 -10.2892     50.8582     15.3522   7.8730623217e+01   6.7004460023e+01     1.047677     0.557317   1.02  0.004632441    2.884    0.653
        19  -9.3360     63.1586     21.2464   7.6543196096e+01   6.4277641387e+01    0.3758518     0.260977 -43.52 0.0009303332    1.739    0.425
        20  -8.9116    128.6772     25.1621   5.8686555586e+01   5.0113974262e+01    0.5031707    0.2937276 -20.10  0.001966349    1.872    0.466
        21  -9.5880    118.9759     20.1668   5.8995369147e+01   5.3029459379e+01    0.6046239    0.3140008 -10.72  0.001947019    2.433    0.589
        22  -9.3719    131.1136      6.1256   5.1078534835e+01   5.1483349226e+01    0.5492293    0.1900529  50.31  0.001814029    2.414    0.586
        23  -8.5448    125.3560     12.9914   5.4804494795e+01   5.2254642957e+01     0.242623    0.2376205 -10.81 0.0006773509    1.127    0.113
        24 -10.3843    133.4865     12.1106   5.2843049537e+01   5.0338162699e+01    0.7611437    0.3911873  41.23  0.003368393    1.925    0.481
        25  -8.5998    126.6904      9.0062   5.3012889602e+01   5.2311939091e+01    0.2785241    0.1825382  54.50 0.0004864513    1.343    0.255
        26  -8.8455    125.9936      4.9524   5.1607269869e+01   5.2845586614e+01     0.286871    0.1854267   0.11 0.0009676833    1.797    0.443
        27  -8.9861    132.8490     17.1767   5.4835706292e+01   4.9982151074e+01    0.3210522     0.261303 -79.69  0.001097833    1.475    0.322
        28  -9.0421     96.2680     14.7745   6.2596817347e+01   5.8768202836e+01    0.5785717    0.2349324 -17.08  0.002210117    2.993    0.666
        29  -9.1906    113.7028     10.1439   5.6232600457e+01   5.5318648972e+01    0.4578474    0.2149764  38.34 0.0005644948    2.124    0.529
        30  -8.0757     80.5201     12.3176   6.6223975946e+01   6.2273029118e+01    0.2575852    0.1360467 -37.86  0.001036689    2.159    0.537
        31  -9.5378     85.2253     13.1147   6.5107361748e+01   6.1250216555e+01    0.4549453    0.2631049 -48.32  0.001424125    2.599    0.615
        32  -8.5281     85.3909      4.9162   6.1287662307e+01   6.2060091402e+01    0.4549815    0.2667124  -5.43  0.002337302    1.829    0.453
        33  -8.3621     88.9187      2.3612   5.9104039295e+01   6.1560263708e+01    0.2532627    0.1843939  15.66 0.0006782531    1.294    0.227
        34  -8.2244    141.3674     11.6098   5.1204047920e+01   4.8406674655e+01    0.2801943    0.1913845 -52.39   0.00139803    1.724    0.420
        35  -8.4425    155.3807      8.1293   4.7708505432e+01   4.5150445414e+01    0.3427328    0.1315035 -23.50  0.001336544    2.807    0.644
        36  -8.7916    102.0239      8.1225   5.8196986461e+01   5.8186031918e+01     0.252995    0.1823247 -26.47 0.0006333318    1.480    0.324
        37  -9.9514     64.4661     13.5111   7.2386497264e+01   6.5078980431e+01    0.3988162    0.2759587  -2.77  0.002322099    1.378    0.274
        38  -7.9049    143.9406      6.4222   4.8937554194e+01   4.8236391969e+01    0.3094018    0.1383879 -41.69  0.001277994    2.526    0.604
        39  -9.2598    105.0014      2.2506   5.4973307241e+01   5.8039773161e+01    0.5404348    0.1807752  55.27  0.002181967    2.420    0.587
        40  -7.5653    110.2883      7.6610   5.6005191323e+01   5.6348343618e+01    0.1423944    0.1201736  33.80 0.0002756642    1.050    0.048
        41  -8.3066    110.5590      4.5083   5.4645902954e+01   5.6568265405e+01    0.2238209     0.197117  -2.99  0.000717686    1.183    0.155
        42  -8.3550     97.6274      6.1392   5.8464729494e+01   5.9345396936e+01    0.2655539    0.1478285  27.22 0.0007220672    1.886    0.470
        43  -8.2772     95.8641      2.8640   5.7477713671e+01   6.0025938708e+01    0.2456564    0.2231919 -76.37 0.0007200641    1.448    0.310
        44  -8.2300    120.4045      5.9236   5.3097368516e+01   5.4115945079e+01    0.2396711    0.1762965  71.11  0.001054147    1.410    0.291
        45  -8.8386    115.3208      4.2130   5.3484052461e+01   5.5477098964e+01    0.2455024     0.219974 -31.95  0.000419769    1.270    0.213
        46  -7.4115    150.7120      1.3486   4.6145699025e+01   4.6946614010e+01    0.1393141    0.0970762 -61.68 0.0002572589    1.660    0.398
        47  -8.1497    136.5164      1.5018   4.8430361437e+01   5.0529367831e+01    0.1370116    0.1206328  54.54 0.0008104636    1.004    0.003
        48 -11.2373    120.9935    110.8702   8.8691947905e+01   3.6339345471e+01     1.362689    0.6731263 -49.86  0.003360313    2.008    0.502
        49  -9.1902    204.8759    249.6898   9.7120958441e+01  -5.0739454610e+00     0.211915    0.1803167  19.79  0.001564023    1.153    0.133
        50  -9.5184    200.7116    249.5714   9.7838577065e+01  -4.4206229541e+00    0.2254962    0.1656623   5.28  0.001510935    1.439    0.305
        51 -10.4824    108.6935     99.8163   8.9171831632e+01   4.1290305603e+01    0.9661475     0.601028  67.69  0.003741863    2.540    0.606
        52 -10.1545    130.3192    118.5648   8.8189387303e+01   3.2671129646e+01    0.5749947    0.4045867  84.94  0.001452533    2.160    0.537
        53 -11.3688    133.7660    109.2829   8.4886211014e+01   3.3983017545e+01     2.035671    0.6879226 -48.65  0.006244677    3.091    0.676
        54  -9.7820     98.6104    128.6562   9.9028917871e+01   3.6471640085e+01    0.6435755     0.383099  74.33  0.002118482    2.903    0.655
        55 -10.7523     70.1253    126.5144   1.0647386625e+02   4.1458381232e+01    0.7389074      0.63496  -7.67  0.001636449    1.516    0.340
        56 -10.0964     58.2599    124.6050   1.0945974147e+02   4.3483681350e+01    0.6200382    0.3476941  79.00  0.002557108    2.732    0.634
        57  -7.8914    126.5456    129.7769   9.1880668199e+01   3.0927190698e+01    0.2114864     0.146045 -62.91 0.0003964791    1.600    0.375
        58  -7.9456    160.5988    128.1496   8.3142967723e+01   2.3957487652e+01    0.2277507     0.148107 -30.84 0.0008276269    1.738    0.425
        59  -9.7046     41.6991    122.3294   1.1374806952e+02   4.5919796106e+01    0.6201074    0.2901677 -87.54  0.002406238    3.129    0.680
        60  -9.8188     27.3331    122.8950   1.1782618449e+02   4.7158497041e+01    0.5164889    0.2588577  71.78  0.002129005    2.676    0.626
        61 -10.0132    140.7521    118.5587   8.5525395893e+01   3.0426243504e+01    0.5056018    0.3657008 -86.54  0.001377632    2.035    0.509
        62 -10.8754    139.2629    104.3241   8.2126365569e+01   3.3834999492e+01     1.113539    0.6907862 -55.77  0.001414747    1.822    0.451
        63  -7.8748    158.1806    122.2061   8.2222734253e+01   2.5748545134e+01    0.2151924    0.1884691 -88.40 0.0005482091    1.319    0.242
        64  -8.3459     98.3112    120.2751   9.7256628415e+01   3.8501247341e+01    0.3514059    0.2100661 -18.01  0.001141816    3.989    0.749
        65  -8.6492      1.7097    116.8939   1.2406784550e+02   5.0429692430e+01    0.3712726    0.1327225 -87.22  0.001555782    2.992    0.666
        66  -7.5714     87.3106    117.3169   9.9703066477e+01   4.1065206985e+01    0.1458477     0.111733 -25.48 0.0007033165    1.639    0.390
        67  -8.9424    152.9665    115.7531   8.1801378218e+01   2.8294264415e+01    0.2598338    0.2258568 -39.71 0.0003457899    1.150    0.131
        68 -10.2672     78.1546    112.9215   1.0138805125e+02   4.3548487817e+01    0.5499759     0.328486 -78.13  0.001671382    2.273    0.560
        69  -8.8182     19.8543    116.2093   1.1901013230e+02   4.9348688461e+01     0.272742    0.1523865  11.57  0.001441314    2.626    0.619
        70 -10.1451     91.8695    112.9073   9.7377638536e+01   4.1349933338e+01     0.560082    0.3974339 -89.05  0.001710325    1.902    0.474
        71  -8.6303     91.7842    104.3429   9.5312911691e+01   4.3366002906e+01    0.8875997    0.4823517  17.07  0.002981905    3.774    0.735
        72  -8.7859    239.5224    113.9999   6.4182068781e+01   8.9211192063e+00    0.2254899    0.1292926 -34.80  0.001026457    1.577    0.366
        73  -9.7749    209.3132    112.2134   6.8919387606e+01   1.5851106399e+01     0.256408    0.2495074   4.32 0.0002360345    1.040    0.039
        74  -9.5315     59.1305    109.6429   1.0637559579e+02   4.6964100168e+01    0.4233029    0.2108398 -62.00  0.001621913    1.793    0.442
        75 -10.4095     62.8869     95.5941   1.0211073158e+02   4.9800854908e+01     0.637108    0.3961552  89.54  0.001489489    2.698    0.629
        76  -9.1581     64.9376     86.1136   9.9065859764e+01   5.1707756284e+01     0.789426    0.4668914 -44.89  0.003560273    1.532    0.347
        77 -10.0627     65.7603    110.9342   1.0464594893e+02   4.5793878599e+01    0.4231099    0.3544793  78.32 0.0008196745    1.302    0.232
        78  -9.8122     64.9612    103.6606   1.0331497625e+02   4.7630251769e+01    0.5395562    0.4727044 -32.23  0.003171658    1.225    0.184
        79 -10.9159     21.7376    101.9786   1.1640789717e+02   5.2537245676e+01     1.177837    0.5646172  86.22  0.003410751    3.084    0.676
        80  -9.5062     35.5975    111.2009   1.1372245909e+02   4.9177958662e+01     0.448247    0.2427559  33.11  0.002335502    2.116    0.527
        81  -9.5493     14.4011    111.5234   1.1993816253e+02   5.0847123092e+01    0.4210575    0.2246807  82.68   0.00181887    2.118    0.528
        82  -8.4853    158.8594    111.8568   7.9376035736e+01   2.7750712630e+01    0.2760922    0.2273279 -55.79 0.0004019128    1.281    0.219
        83  -7.8088    167.1820    114.1489   7.8065537627e+01   2.5337211263e+01    0.2153111    0.1885412 -79.01 0.0004483346    1.314    0.239
        84  -8.5532    149.6330    109.8302   8.1039674481e+01   3.0307537063e+01    0.2253357    0.1455592 -52.24 0.0003647108    1.647    0.393
        85  -8.0987    214.0171    108.6762   6.7171319455e+01   1.5404163684e+01    0.2098861    0.1917301  46.00 0.0004342067    1.148    0.129
        86 -10.9154     44.7468    102.4848   1.0936946008e+02   5.0329781382e+01    0.8753111    0.4675367  72.19  0.002967564    3.511    0.715
        87  -8.9873     40.1027    106.9071   1.1163079114e+02   4.9759002374e+01    0.2343723    0.1616838 -67.50 0.0005859628    1.229    0.187
        88  -9.7131      6.5788    103.8826   1.2121400694e+02   5.3126038134e+01    0.5530033    0.2692598  74.59  0.002554864    2.679    0.627
        89 -10.1417      4.6625     86.7260   1.1943338057e+02   5.7154527822e+01     1.401951      0.37985 -71.25  0.004484242    2.953    0.661
        90  -9.9146     15.9165     70.7925   1.1269420154e+02   6.0069987198e+01    0.6402771     0.248095 -47.25  0.002070325    2.075    0.518
        91  -9.7857     16.8920     60.9528   1.1010805520e+02   6.2154078702e+01    0.6715502    0.2601632 -55.50  0.003308265    1.878    0.468
        92  -9.7476    192.1240    248.3116   9.9186708124e+01  -2.9307412006e+00    0.2278026    0.1645756  58.37    0.0013008    1.831    0.454
        93  -8.9616     40.7970     20.4267   8.5573458745e+01   6.7632631656e+01    0.2983831    0.1561618 -37.81 0.0006586954    1.692    0.409
        94 -10.6810    162.5434    248.1256   1.0450278562e+02   1.7912173691e+00    0.4249908    0.2522432  34.09  0.002509653    1.444    0.307
        95  -7.6391     83.7585    248.9651   1.1877054340e+02   1.3688107472e+01    0.1250576   0.08856933 -77.95 0.0004897899    1.543    0.352
        96  -9.5143    185.0410    246.0102   1.0013750606e+02  -1.5175476325e+00    0.1780141    0.1349176  60.14 0.0007361981    1.694    0.410
        97 -10.1327      4.6660     42.0489   1.1038526206e+02   6.6816430170e+01    0.6525248    0.2496606 -60.32   0.00247767    2.028    0.507
        98 -10.8197     21.9980     53.6107   1.0614950121e+02   6.3347053606e+01    0.7776714    0.4537156 -88.60  0.002864792    3.652    0.726
        99 -10.2057     12.3844     45.6801   1.0799673928e+02   6.5642232557e+01    0.6936262    0.3354805 -11.25  0.003013556    2.831    0.647
       100 -10.1473    119.8860    243.9351   1.1181763180e+02   9.1828787623e+00    0.1990637    0.1779465  71.99  0.000382255    1.195    0.163
       101  -9.5309      6.7889     32.6826   1.0665514216e+02   6.8550385451e+01    0.2874414    0.1738939 -26.58 0.0007928156    1.521    0.342
       102 -10.0778      7.3333     28.3131   1.0494865921e+02   6.9349375357e+01    0.2804569    0.2640869  70.22  0.000892456    1.570    0.363
       103  -9.8250    152.3065    246.1389   1.0612205266e+02   3.7143641831e+00    0.3495685    0.2253028 -60.24  0.001990655    2.115    0.527
       104  -7.6259    236.5117    235.4870   8.9418026952e+01  -8.1830352995e+00    0.1183126    0.0906301  17.32 0.0008102948    1.026    0.025
       105  -8.5410    166.0928    104.1680   7.5634073387e+01   2.7606871202e+01    0.3269187    0.2168505 -45.67 0.0006014198    1.518    0.341
       106  -9.5698    149.4914    103.1805   7.9259374365e+01   3.1732676877e+01    0.4675348    0.3069551 -56.85 0.0009072928    1.756    0.430
       107  -7.6567     78.7019    105.0406   9.9416468329e+01   4.5330308353e+01    0.4279957    0.2523606 -14.15  0.001453189    4.022    0.751
       108  -9.5085     81.3823    100.0250   9.7371924360e+01   4.6085243254e+01    0.4526066     0.261526 -67.03 0.0008502224    2.067    0.516
       109  -8.3306     81.8391     94.3875   9.5779449623e+01   4.7312138198e+01    0.3512392    0.2279193   2.48  0.001446745    2.636    0.621
       110  -8.3715     14.4381    104.7355   1.1901365413e+02   5.2423633574e+01    0.1911064    0.1295093 -34.89 0.0008202496    1.735    0.424
       111  -8.2097     73.4649    102.8028   1.0048868160e+02   4.6641151754e+01     0.259406    0.1607272 -51.03 0.0007829191    1.453    0.312
       112  -8.5383    159.0725    101.2669   7.6442995908e+01   2.9866456233e+01    0.2853259    0.2232825 -50.06   0.00045718    1.311    0.237
       113  -9.3869     94.3941     97.3056   9.2697811237e+01   4.4525947734e+01    0.3541599    0.3029201 -68.11 0.0006944644    1.230    0.187
       114  -8.8385     95.9848     91.0297   9.0483461141e+01   4.5649934563e+01    0.4424384    0.2949696 -18.88  0.001885955    2.124    0.529
       115  -8.8696    237.7981     96.4188   6.0203391974e+01   1.2153804337e+01    0.2815696     0.173273  40.88 0.0008603133    1.879    0.468
       116  -8.7506    164.5251     94.4210   7.3266494902e+01   2.9910411666e+01    0.3381622    0.2646205 -56.98 0.0008388858    1.393    0.282
       117  -9.4423    138.5887     92.8945   7.9055873702e+01   3.6387724743e+01    0.3987102    0.3628961 -80.94 0.0009051753    1.217    0.178
       118  -8.0816    139.4278     88.0065   7.7398058567e+01   3.7189696330e+01    0.3927818    0.2014148  35.01  0.001194568    2.454    0.593
       119  -9.5457    187.8237    233.8245   9.7868836532e+01  -3.3190863225e-01    0.2466747    0.2231649 -16.02 0.0009618049    1.287    0.223
       120 -10.2501     20.4025     84.1664   1.1377384110e+02   5.6755022129e+01    0.8360363    0.1435546 -56.40  0.003042472    3.303    0.697
       121 -10.5895     25.8930     78.1254   1.1065339448e+02   5.7712627445e+01    0.8288597    0.4372275 -85.48  0.002903643    2.883    0.653
       122  -9.0567     39.5571     52.4145   9.8583867575e+01   6.2014597826e+01    0.4041242    0.1887545 -39.49  0.001942262    1.891    0.471
       123  -9.9972     49.9225     54.4858   9.5126194471e+01   6.0426672129e+01    0.4498427    0.3221882 -70.74  0.001142713    1.977    0.494
       124  -9.9731     55.8401     43.7156   8.8935321092e+01   6.1730252098e+01    0.9911879    0.5124677  -4.71  0.003171058    5.264    0.810
       125  -9.9250     34.4830     90.3946   1.1026685957e+02   5.4174321303e+01    0.6058717    0.2666286 -76.19  0.001929207    2.983    0.665
       126 -10.1288     37.0867     80.9247   1.0733176994e+02   5.6106295592e+01    0.6562015    0.3393946 -16.80  0.002683428    3.525    0.716
       127  -8.2834    149.4691     93.4789   7.6514231707e+01   3.3724064690e+01    0.1572249     0.155011 -10.99 0.0001490455    1.015    0.015
       128  -8.4994    157.2985     90.8240   7.3883705886e+01   3.2371068489e+01    0.3442297    0.2114919 -45.59  0.001418549    1.650    0.394
       129  -8.6631    150.6882     89.3459   7.5012625954e+01   3.4257665932e+01    0.2861793    0.1846952 -49.44 0.0006742475    1.631    0.387
       130  -7.8146     78.4909     89.8872   9.5638705949e+01   4.8866542250e+01    0.2177945    0.1312981 -51.29 0.0005658185    1.514    0.339
       131  -9.8859     81.5134     72.2871   8.9489464412e+01   5.2221503242e+01    0.4517432      0.31781 -68.37 0.0009499021    1.931    0.482
       132  -9.2232     83.3138     64.6912   8.6404439597e+01   5.3466846371e+01    0.6073104    0.3451322 -17.90  0.002322147    2.860    0.650
       133 -10.2852     85.3192     86.5239   9.2523249675e+01   4.8514199435e+01     0.521242    0.3967645 -87.28 0.0008930276    1.848    0.459
       134  -9.6098     87.5154     78.6443   8.9495749702e+01   4.9856013984e+01    0.5614996    0.3668741  12.12  0.001669659    2.237    0.553
       135  -8.5429    163.4194     87.2771   7.1454988948e+01   3.1557479112e+01    0.3601158    0.1923366 -37.26 0.0009781226    1.864    0.464
       136 -10.5422     48.3261     82.4979   1.0379305526e+02   5.4589097322e+01     1.116425    0.4197907 -54.74  0.002005413    2.175    0.540
       137 -10.0001     62.9592     60.7415   9.2255106358e+01   5.7455765548e+01    0.7370172    0.3132541  32.66  0.003103264    2.638    0.621
       138 -10.3359     85.2072     48.0679   7.9801191183e+01   5.6238789877e+01    0.4596013    0.3733765 -78.42     0.001069    1.920    0.479
       139 -10.6122     55.0304     70.7974   9.8279688588e+01   5.6397118247e+01    0.6356217    0.4651664  77.51  0.002334462    2.193    0.544
       140 -10.0566     73.0575     58.8453   8.7954711013e+01   5.6320879876e+01    0.9614829    0.2862207 -43.87  0.003310606    3.056    0.673
       141  -9.4547     80.0048     46.4658   8.0972610309e+01   5.7452977769e+01    0.6913649    0.4010307 -11.01  0.002145562    2.633    0.620
       142 -10.3203    103.9041     82.4846   8.5568226617e+01   4.6007338829e+01    0.5639408    0.3087088 -53.62 0.0009939559    2.005    0.501
       143  -8.6253    157.7142     83.6964   7.1688687654e+01   3.3643146438e+01    0.3099557     0.203357 -47.67 0.0006325231    1.581    0.368
       144  -9.3072    140.5162     82.0155   7.5309115902e+01   3.8123556401e+01    0.6066301    0.3411191 -30.54  0.001592359    1.973    0.493
       145  -8.9392    139.9410     75.5378   7.3439017076e+01   3.9504703427e+01    0.5690168     0.259964 -33.19  0.001658708    2.349    0.574
       146  -7.6964    170.4915     83.5311   6.8819068878e+01   3.0501817590e+01    0.1564058    0.1538552 -67.46 0.0001741815    1.023    0.022
       147  -9.0933     74.2582     79.5565   9.4127639311e+01   5.1823271235e+01    0.6196432    0.2423671 -52.90  0.001993648    2.455    0.593
       148  -8.8364    149.7973     80.1728   7.2473586495e+01   3.6250091254e+01    0.4481201    0.2454589 -38.50  0.001327964    1.812    0.448
       149  -8.8416    118.9973     80.5180   8.0570656982e+01   4.3302909883e+01     0.340654    0.2703899 -66.62 0.0007727482    1.522    0.343
       150  -8.0644    119.8202     76.1613   7.8964039552e+01   4.3997411165e+01    0.2988848    0.2246786  -1.14 0.0007331937    1.719    0.418
       151  -8.0941    239.0252     80.4902   5.6110574734e+01   1.4417862404e+01    0.2017519    0.1113146  35.69 0.0008103875    2.592    0.614
       152  -8.3535     68.5834     79.7304   9.6091952414e+01   5.2626433425e+01    0.2625036    0.1200732 -48.60  0.001039609    1.926    0.481
       153  -7.3983    174.3823     79.1088   6.6712952292e+01   3.0326926851e+01    0.2200314    0.1396091 -47.35 0.0007290217    1.630    0.387
       154  -7.9515    166.6408     78.5511   6.8172698091e+01   3.2376364294e+01    0.2599603    0.1823311 -57.16 0.0006702047    1.637    0.389
       155  -7.9401    184.1651     78.1403   6.4487452236e+01   2.8028096298e+01    0.2399303    0.2110926  20.13 0.0006317951    1.270    0.213
       156  -8.7712    157.0033     76.5389   6.9689429775e+01   3.5153004458e+01    0.2449292    0.2039201 -36.88 0.0004722915    1.200    0.167
       157  -9.4961    127.3899     75.2791   7.6608325622e+01   4.2481274692e+01    0.4793723    0.2643615 -48.50 0.0008316075    1.950    0.487
       158  -8.7434    129.9760     68.5104   7.3726537885e+01   4.3166059790e+01    0.4243535    0.2146776  32.86  0.001484424    2.687    0.628
       159  -8.7389    130.4727     64.9864   7.2430037746e+01   4.3691382703e+01    0.4449562     0.213895 -37.97  0.001314635    2.062    0.515
       160  -8.8373     43.8874     54.2066   9.7421696529e+01   6.1184973773e+01    0.2702874     0.162722 -47.91 0.0007673582    1.413    0.292
       161  -8.3102    162.8248     73.2389   6.7393170834e+01   3.4289619271e+01    0.2682229    0.2063015 -50.19 0.0006261858    1.358    0.263
       162  -7.1783    153.3179     74.6951   6.9963785108e+01   3.6404684828e+01    0.1595227    0.1242784 -75.59 0.0005060956    1.628    0.386
       163 -10.7349    113.6470     71.6452   7.9254839567e+01   4.6218154265e+01    0.3985882     0.387462  69.67  0.002203601    1.130    0.115
       164  -9.4907    105.2239     71.1521   8.1576537629e+01   4.8066136812e+01    0.6278496    0.4055425 -27.71    0.0028044    1.691    0.409
       165  -7.7186    175.4072     72.2192   6.4474195500e+01   3.1275515662e+01    0.2178448     0.141277 -45.67 0.0005190247    1.568    0.362
       166  -8.4330    169.4638     71.0905   6.5339638319e+01   3.2983746980e+01    0.2380704    0.1511875 -37.63 0.0006862549    1.561    0.359
       167  -9.2711    147.0056     69.3415   6.9754938841e+01   3.8930994030e+01    0.3877096    0.2733309 -53.33 0.0008044415    1.589    0.371
       168  -8.3699    156.7973     69.9964   6.7715794226e+01   3.6379564948e+01     0.277719    0.2084409 -39.65 0.0007506066    1.334    0.250
       169  -9.6716     94.8667     68.4420   8.3883975278e+01   5.0631081709e+01    0.4101961    0.2592392 -50.17  0.000836627    1.652    0.395
       170  -9.3565     97.3337     58.5356   7.9695080111e+01   5.2055730750e+01    0.8815863    0.5385749 -30.89  0.004034214    1.650    0.394
       171  -9.1123    121.1498     66.0807   7.5289711966e+01   4.5632622549e+01    0.4598204    0.3258135 -74.80 0.0008068772    2.242    0.554
       172  -8.3485    122.4750     61.1281   7.3246233865e+01   4.6229934299e+01    0.3262833    0.2369951  12.92  0.001120423    1.736    0.424
       173  -8.3742     75.6883     67.1741   8.9828052790e+01   5.4231007500e+01    0.4068719    0.1210304 -48.38  0.001349534    3.190    0.687
       174  -7.9051     23.5453     69.1062   1.0949177833e+02   5.9905429584e+01    0.1739283    0.1630764  50.00 0.0004791603    1.335    0.251
       175  -8.9000    138.1030     66.3483   7.0943564642e+01   4.1633737096e+01    0.3451356    0.2422034 -51.80 0.0005931648    1.587    0.370
       176  -8.5206    138.7688     62.2397   6.9425253381e+01   4.2194675891e+01    0.3795734    0.1936703  37.21  0.001398738    2.326    0.570
       177  -9.1157    209.2997     64.2913   5.6262256667e+01   2.3986312463e+01    0.3727377    0.2579482 -30.16 0.0009077671    1.453    0.312
       178  -8.2182    170.9141     65.1502   6.3244688656e+01   3.3620486378e+01    0.2735164    0.2334046 -12.01 0.0005434796    1.297    0.229
       179  -9.4017    109.7462     63.7698   7.7748414302e+01   4.8549227876e+01     0.447722    0.2733717 -49.76 0.0007598837    1.819    0.450
       180  -8.7113    111.0259     57.9695   7.5355364360e+01   4.9331459137e+01    0.3203027    0.2925083  29.23 0.0009350872    1.083    0.077
       181  -8.1561    157.7873     63.2394   6.5375746059e+01   3.7292328406e+01    0.2643917    0.2005588 -49.03 0.0007052406    1.386    0.278
       182  -9.0744     55.0605     63.7986   9.6165394282e+01   5.7882597780e+01    0.3719971    0.2548668  -8.96  0.001521791    1.808    0.447
       183  -7.7486    164.5044     60.4793   6.3096620805e+01   3.6034134141e+01    0.1542851    0.1483776 -80.34 0.0001424301    1.061    0.057
       184  -8.0014    152.5069     60.1083   6.5528898728e+01   3.9150627506e+01    0.2384496    0.1514276 -34.88  0.001029971    1.587    0.370
       185  -7.9709    122.2201    229.4980   1.0974583159e+02   1.1204435326e+01     0.222612    0.1327538  69.00 0.0008585515    2.086    0.521
       186  -8.6231    146.3743     59.0254   6.6558771024e+01   4.0868071865e+01    0.2732044     0.253721 -66.32 0.0007224219    1.160    0.138
       187  -8.6269    147.7621     54.2187   6.4654880978e+01   4.1302836811e+01    0.4274153    0.2475888 -13.99  0.001629468    2.420    0.587
       188  -8.8130     87.4864     57.8782   8.2646900702e+01   5.4045297478e+01      0.46327     0.228803 -39.67  0.001354645    1.915    0.478
       189  -8.7984    138.8978     56.8750   6.7599104804e+01   4.3071261580e+01    0.3557545    0.2084527 -42.78 0.0004995476    1.773    0.436
       190  -9.3671    141.3437     49.4402   6.4498475626e+01   4.3657095309e+01     0.588376    0.3658831   7.98  0.001798498    2.593    0.614
       191  -8.9584    130.1269     56.4849   6.9636644325e+01   4.5251063374e+01    0.5886588    0.2643111 -29.78   0.00149929    2.433    0.589
       192  -8.3949    122.9098     40.8129   6.5886502717e+01   4.9424394548e+01    0.4423926    0.2522218   3.49  0.001582433    3.135    0.681
       193  -9.0607    118.0980     55.4854   7.2476972219e+01   4.8204789548e+01    0.3475306    0.2865624  84.07 0.0007350824    1.592    0.372
       194  -7.8910    118.9661     51.2149   7.0716272994e+01   4.8723758974e+01    0.4543565    0.2419687  24.98  0.001418704    3.051    0.672
       195  -8.9526    121.1193     46.8390   6.8557829351e+01   4.8930529109e+01    0.2850308    0.2364851 -37.98 0.0005206875    1.250    0.200
       196  -7.7835    231.6788     55.3510   5.0803431034e+01   1.9897096629e+01    0.1549885   0.09665352 -61.40 0.0004029436    1.747    0.427
       197  -8.8527    162.6858     53.5282   6.1272335389e+01   3.7605614170e+01    0.4155435     0.209849 -38.87  0.001128945    1.977    0.494
       198  -6.9470    157.6195     55.7073   6.3007525160e+01   3.8565419062e+01    0.1644748    0.1141556  28.13 0.0007019238    1.749    0.428
       199  -8.9525    105.6039     51.8593   7.4749062405e+01   5.1552696094e+01    0.5948086     0.274814 -34.45  0.001792492    2.152    0.535
       200  -8.4648    157.2305     49.1624   6.0968762521e+01   3.9676010655e+01    0.4035009    0.2310359 -35.99  0.001253456    1.759    0.432
       201  -8.3835    157.9329     43.9698   5.9132370006e+01   4.0256407161e+01     0.266736    0.2159955 -28.03 0.0009637265    1.286    0.223
       202  -9.3721    150.0120     47.0256   6.1765902198e+01   4.1841710918e+01    0.6095392    0.2318646 -33.74  0.001404395    2.606    0.616
       203  -9.6110    130.6374     46.1004   6.5872392397e+01   4.6792569157e+01    0.8794208     0.368804 -21.04  0.001954877    3.523    0.716
       204  -8.8816    132.8657     36.1158   6.1762246162e+01   4.7689548719e+01    0.2727062     0.257138  -6.90 0.0005603588    1.082    0.076
       205  -7.4425      3.1730    225.6223   1.3098986933e+02   2.7350566525e+01    0.1183963   0.09040049  39.58 0.0008004369    1.664    0.399
       206  -8.5223    111.8707     46.7597   7.1050522963e+01   5.1039243554e+01    0.2631231    0.2031756 -36.98 0.0004093621    1.320    0.243
       207  -8.1565    113.2523     42.1935   6.8957456535e+01   5.1442627016e+01    0.3279631    0.2070279  21.80  0.001365712    1.992    0.498
       208  -7.4769    162.4775     46.4415   5.9047529618e+01   3.8723810764e+01    0.1502164    0.1434523  87.33 0.0001793326    1.056    0.053
       209  -7.8373    110.6030    224.2014   1.1137121639e+02   1.3984395854e+01    0.1573676    0.1148724 -50.55 0.0009547425    1.717    0.418
       210  -8.5342    231.3770    219.0903   8.7558317786e+01  -5.4349036728e+00    0.2038067    0.1494417  32.94 0.0003300269    1.245    0.197
       211  -7.8766      2.5089    217.4654   1.3074337336e+02   2.8927810795e+01     0.106339   0.07325926  74.56  9.01804e-05    1.008    0.007
       212 -10.1044     11.0981    207.2711   1.2875519719e+02   3.0083209117e+01    0.5029042    0.2743675  26.37  0.003046455    2.639    0.621
       213  -9.8412     76.0907     32.2303   7.6605106751e+01   6.0469538352e+01    0.4350072    0.3481912  47.89  0.001192042    1.463    0.316
       214  -9.1685    229.8603    201.4790   8.4668726212e+01  -2.8642625349e+00    0.2598737    0.2304812  73.19 0.0008669769    1.826    0.452
       215  -8.8850     84.7210     21.9230   6.9209070488e+01   6.0298008022e+01    0.2693263    0.2044016  -0.81 0.0006782543    1.274    0.215
       216 -10.0476     37.7864     42.1700   9.5826540079e+01   6.4210398974e+01    0.3643219    0.2907971  87.85  0.001630089    2.190    0.543
       217 -10.4260     35.9100     37.9981   9.5109070774e+01   6.5191771417e+01    0.4938713    0.2848531 -14.68 0.0003623686    2.101    0.524
       218  -8.2837    111.6610     22.3129   6.1632219299e+01   5.4490032142e+01    0.4062612    0.1860066 -30.09  0.001727994    2.215    0.549
       219  -9.0857    110.3030     33.0893   6.6265988776e+01   5.3422261945e+01    0.4164607    0.2246508 -40.51  0.001072622    2.018    0.504
       220  -8.2915    110.3491     26.3954   6.3605425762e+01   5.4292209769e+01      0.39879    0.2215215  26.16  0.001494081    2.227    0.551
       221  -9.0782    104.9877     41.1752   7.0912264852e+01   5.3415681341e+01    0.3816734    0.2196664 -44.74 0.0009756194    1.966    0.491
       222  -8.5080    106.4266     36.4888   6.8676522992e+01   5.3802199261e+01    0.3506158    0.2065643  36.62  0.001279839    1.719    0.418
       223  -9.1245     86.4125     39.7898   7.6166397415e+01   5.7396249365e+01     0.398616    0.2604799   5.54 0.0009844253    1.962    0.490
       224  -9.7911     91.7081     37.5141   7.3525629585e+01   5.6724361672e+01    0.5560524    0.3631742  29.81  0.001830238    1.580    0.367
       225  -8.8888    153.6345     41.0792   5.9031445026e+01   4.1772721189e+01    0.4146667    0.2368357 -47.40  0.001213701    1.960    0.490
       226  -9.0865    139.2812     40.0624   6.1716173119e+01   4.5554966626e+01     0.397526    0.3062439 -45.87  0.001525515    1.408    0.290
       227  -9.0279     53.4797     39.0137   8.8061090611e+01   6.2897669914e+01    0.2604276    0.1642282 -43.72  0.001044269    1.498    0.332
       228  -8.3691     54.3308     35.3384   8.6234133806e+01   6.3420084965e+01    0.1769365    0.1207699   9.56 0.0009755164    1.593    0.372
       229  -8.7430    144.0869     36.3152   5.9368700202e+01   4.4862195271e+01    0.2927213    0.2021558 -37.59  0.000652918    1.508    0.337
       230  -8.7447    118.8985     34.7915   6.4656041391e+01   5.1219302675e+01    0.3110486    0.2035985 -25.61 0.0006946325    1.572    0.364
       231  -7.7934     96.9415     33.0391   7.0085698008e+01   5.6322127238e+01    0.2229207    0.1541291  11.16 0.0004768136    1.649    0.393
       232  -9.3259    101.0276     31.8790   6.8399472435e+01   5.5623579922e+01    0.5520555    0.2127926 -32.59  0.001705524    2.560    0.609
       233  -8.5317    193.4881    196.9753   9.0686484991e+01   4.1947469250e+00    0.4158306    0.2422236 -62.28   0.00166485    3.540    0.718
       234  -8.8933    104.2358     15.3457   6.0687852892e+01   5.6959064592e+01    0.4055243    0.1593171  31.69  0.001355299    3.700    0.730
       235  -8.1988    153.6572     34.9435   5.6975521746e+01   4.2597350714e+01    0.2027491     0.188734 -30.07  0.000702291    1.127    0.112
       236  -8.4006    191.3377    193.0170   9.0384721226e+01   5.2357398405e+00     0.334766    0.2332551 -72.06  0.001527996    2.709    0.631
       237 -10.2464     45.8074     29.4415   8.7351060157e+01   6.5551046820e+01     0.435317     0.375474 -65.32  0.002325626    1.777    0.437
       238  -8.7321    217.7327    196.0424   8.5870646110e+01  -1.5272181364e-02     0.218712    0.1703667  37.87 0.0003243168    1.253    0.202
       239  -9.4642     60.3670     34.0895   8.3292201221e+01   6.2756223972e+01    0.4482011    0.2281356 -46.76  0.001853217    2.182    0.542
       240  -8.8158     63.1867     26.5320   7.8926001216e+01   6.3507926670e+01    0.4132551    0.2233848  28.75  0.001814749    1.962    0.490
       241 -10.4296    249.1517    193.9184   7.9856856117e+01  -4.9907744949e+00    0.2242847    0.1900828   7.91 0.0003041717    1.105    0.095
       242  -9.1862    152.7129     28.5220   5.4993310359e+01   4.3652588644e+01    0.3063574    0.1862504  -2.68  0.001289186    2.272    0.560
       243  -8.3872    139.3252     18.2392   5.3945812368e+01   4.8247821492e+01    0.2887515    0.1859699   8.94 0.0008355912    1.982    0.495
       244  -8.8236    144.0742     25.5421   5.5612905696e+01   4.6223568726e+01     0.375328    0.1889832 -30.60  0.001598736    2.048    0.512
       245  -8.7190    140.4969     22.9948   5.5416066119e+01   4.7426119206e+01    0.3033109    0.1534204 -49.90  0.001198756    2.558    0.609
       246  -9.3648     91.2874     26.2448   6.8998300875e+01   5.8421422180e+01    0.4446871    0.2438372 -47.55   0.00138027    2.501    0.600
       247  -7.8779    244.2926    192.3339   8.0386881538e+01  -3.9942157592e+00    0.1329128   0.08577977   4.45 0.0002926327    1.637    0.389
       248  -8.4108     92.4661     20.8538   6.6330888738e+01   5.8867198013e+01    0.3278264    0.2169161  22.74  0.001081593    1.559    0.359
       249  -8.9407    218.9089    191.3222   8.4753891529e+01   4.7965309016e-01    0.2223491    0.1945172  -6.77 0.0002791082    1.111    0.100
       250  -8.8919    218.9522    186.9160   8.3891629636e+01   1.1380742834e+00      0.23522     0.173325  20.03  0.000550096    1.282    0.220
       251  -7.6672    228.5909    186.5348   8.2041532003e+01  -5.1619585416e-01    0.1321293    0.1131976   5.77 0.0001078577    1.020    0.020
       252 -10.3233    187.1691    182.8062   8.9291579638e+01   7.7530737878e+00    0.2436187    0.2365227  26.65 0.0003641399    1.123    0.110
       253  -8.3542    139.4506    183.3160   9.9530150088e+01   1.6817072867e+01    0.2268188    0.1962387  43.07 0.0004509834    1.083    0.077
       254  -8.6100    245.8413    182.0835   7.8107247348e+01  -2.8337002582e+00     0.181912    0.1675313  -3.56 0.0004156073    1.234    0.189
       255  -9.1078     72.6096    180.1443   1.1402436273e+02   2.8608611935e+01    0.2014757    0.1832345  54.14 0.0003270271    1.223    0.183
       256  -8.4170    128.9049     16.1523   5.5262346844e+01   5.1064324995e+01    0.2455673    0.2034874 -34.53 0.0003659666    1.318    0.242
       257  -8.0282    230.5750    168.1495   7.7943722213e+01   1.9159114919e+00    0.3171262    0.1920502 -53.76  0.001391981    2.557    0.609
       258  -7.6626    189.3711     15.7364   4.5417685158e+01   3.5565042437e+01    0.1796593    0.1359705  -8.32 0.0006038254    1.625    0.384
       259  -8.5593    112.4427     15.7246   5.8785086398e+01   5.5048022748e+01    0.2382697    0.2130147 -50.22  0.001404852    1.333    0.250
       260  -8.7119    207.8543    166.5385   8.1864168113e+01   6.5164880047e+00    0.2218613    0.1883193 -21.96 0.0003288052    1.161    0.139
       261  -8.5207     72.8521    164.7308   1.1195157800e+02   3.2040235242e+01    0.2031394     0.164351 -64.82 0.0003767343    1.232    0.188
       262  -7.5187    192.8209    164.5529   8.4441424617e+01   9.8711259520e+00     0.191923    0.1361973  53.69   0.00041862    1.548    0.354
       263  -8.5259    235.4074    155.1671   7.4303750054e+01   3.0551133735e+00    0.1923686    0.1216465 -41.88  0.000637001    1.659    0.397
       264  -8.4672    133.4961    145.8472   9.3724311202e+01   2.5916713840e+01    0.5624391    0.1515665 -52.39  0.001560511    4.191    0.761
       265  -7.7439    168.6978     13.0886   4.7352943323e+01   4.1214373822e+01    0.1900502    0.1711494  60.03 0.0004737186    1.067    0.062
       266  -8.6199    236.9986    146.4999   7.2114967904e+01   4.1342101544e+00    0.2032252    0.1094271  24.54 0.0008106405    2.580    0.612
       267  -7.9019    229.0184    146.2177   7.3452385094e+01   5.7393502730e+00    0.1830741    0.1136045  44.27 0.0003948877    1.664    0.399
       268  -9.2413     66.9992    144.1775   1.1035942092e+02   3.7658683811e+01    0.4693114    0.2606538  59.35  0.002161091    2.069    0.517
       269  -7.2750    226.3899    141.8617   7.2935238112e+01   6.9906372666e+00    0.1990772    0.1278944 -21.49 0.0003679134    1.633    0.388
       270  -8.5125    112.5307    134.1605   9.6504503458e+01   3.2660108875e+01    0.3694465    0.2478066  74.49  0.001045374    2.069    0.517
       271  -8.7147     83.5315    131.8764   1.0379583556e+02   3.8193273884e+01    0.6342331    0.3386011  75.73   0.00203529    4.203    0.762
       272  -9.9881    116.7940    125.2633   9.3373968821e+01   3.3900548741e+01    0.7810866    0.5507947  89.76  0.001629472    2.023    0.506
       273  -9.1643    130.5488     96.7412   8.2263531755e+01   3.7396662498e+01    0.5000337    0.3112328  26.00  0.001717527    2.204    0.546
       274  -9.8997    134.6052    131.7850   9.0304090672e+01   2.8818483309e+01    0.6677811     0.527367 -39.75  0.002686132    1.316    0.240
       275  -9.5645    111.0933     89.7549   8.5626806368e+01   4.3023431018e+01     1.039504     0.593262  16.47  0.003317728    3.814    0.738
       276 -10.5484    123.9319     90.0472   8.2098752481e+01   4.0263438549e+01     1.313002    0.5901906 -34.69  0.002624511    2.571    0.611
       277  -9.8227    127.7022    102.4982   8.4640222637e+01   3.6779769350e+01    0.4878359    0.4629252  45.72  0.001769405    1.075    0.070
       278 -10.3854    108.9193    113.3172   9.2632586706e+01   3.8176482611e+01     1.095652    0.4534267 -51.31  0.001801474    2.357    0.576
