#   1 NUMBER                 Running object number                                     
#   2 MAG_AUTO               Kron-like elliptical aperture magnitude                    [mag]
#   3 X_IMAGE                Object position along x                                    [pixel]
#   4 Y_IMAGE                Object position along y                                    [pixel]
#   5 X_WORLD                Barycenter position along world x axis                     [deg]
#   6 Y_WORLD                Barycenter position along world y axis                     [deg]
#   7 A_WORLD                Profile RMS along major axis (world units)                 [deg]
#   8 B_WORLD                Profile RMS along minor axis (world units)                 [deg]
#   9 THETA_WORLD            Position angle (CCW/world-x)                               [deg]
#  10 FWHM_WORLD             FWHM assuming a gaussian core                              [deg]
#  11 ELONGATION             A_IMAGE/B_IMAGE                                           
#  12 ELLIPTICITY            1 - B_IMAGE/A_IMAGE                                       
         1 -11.7296    235.2394      4.6016   2.8441320142e+01   2.7196148203e+01    0.9827574    0.3992828 -65.22  0.004850072    2.447    0.591
         2 -10.8386    242.1823      2.9648   2.7684959520e+01   2.5985798939e+01    0.6179045     0.263857 -66.95  0.003242885    2.223    0.550
         3 -12.7213    238.2050     15.9392   3.0460960707e+01   2.5363146238e+01     1.065354     0.654899 -86.37  0.006632519    1.481    0.325
         4 -11.4054    239.5785     30.9158   3.3351143249e+01   2.3308820388e+01     0.381635    0.3611068 -55.34 0.0003462316    1.320    0.242
         5 -13.1005    243.6591     53.9711   3.7699371878e+01   1.9449106755e+01     2.026451    0.5887689 -47.91  0.008072013    2.935    0.659
         6 -13.8442    246.3338     80.1664   4.2875871834e+01   1.5061958230e+01     2.889906     1.220379 -51.05   0.01285707    2.229    0.551
         7 -13.3832    247.9679     27.2461   3.1948098921e+01   2.2102616178e+01     2.762992    0.5930822 -33.86  0.009855947    4.637    0.784
         8 -11.8314    224.2817     27.4142   3.3958935889e+01   2.6893476851e+01    0.6453825    0.2816171 -38.83  0.002093055    2.073    0.518
         9 -11.1691    134.2282     18.1878   4.3005738856e+01   4.8842859603e+01    0.4919692    0.3344518  29.41  0.002627695    1.725    0.420
        10 -10.7683     87.9062     16.3134   5.2777636026e+01   5.9599452886e+01    0.3261649     0.287847 -39.81  0.001338118    1.398    0.285
        11  -9.3043     91.4043     12.7779   5.0395294888e+01   5.9192426008e+01    0.2990547    0.1800056  13.81  0.001517836    2.013    0.503
        12 -11.1304    141.1715     12.3394   4.0017504822e+01   4.7739999298e+01    0.3891908    0.2853345 -21.44 0.0005797723    1.608    0.378
        13 -10.0972    138.7962      5.9257   3.8421978738e+01   4.8872117118e+01    0.2265786    0.1849343  -8.24 0.0005951452    1.497    0.332
        14 -10.8126    194.6462     15.7180   3.4168564013e+01   3.4761946320e+01    0.4756175    0.2090419 -48.28  0.001452924    2.177    0.541
        15 -10.4771    156.6753     16.4198   3.8906242851e+01   4.3625670921e+01    0.3030501    0.1552153 -30.91  0.001482557    2.130    0.530
        16 -10.6211    101.4408     13.4877   4.8141796184e+01   5.6919584756e+01    0.2757589    0.2151153  39.78 9.551152e-05    1.122    0.108
        17  -8.9091    100.2810      9.7104   4.6983157807e+01   5.7517007673e+01    0.1760062    0.1297559  29.73 0.0001922865    1.314    0.239
        18 -10.9185    204.3979     11.9426   3.2363042332e+01   3.2966259450e+01    0.3258955    0.1940615 -66.63 0.0008160147    1.590    0.371
        19  -9.2554     60.6829     12.7004   6.0091987249e+01   6.5336119733e+01    0.2855301      0.16612  18.89  0.001349967    1.792    0.442
        20 -10.3528    128.9302     11.3012   4.1724689305e+01   5.0753529333e+01    0.2770085    0.1640349 -44.70  0.001246961    1.963    0.491
        21  -8.9376     84.9798     10.4704   5.1208762898e+01   6.0774185512e+01    0.1780815    0.1582609   6.04 0.0005296677    1.177    0.150
        22  -9.3590     42.1034     11.1614   6.7039336141e+01   6.8617246194e+01    0.1856234     0.130608  11.57 0.0003950565    1.198    0.165
        23 -11.8945    113.0955     12.5094   4.5173945108e+01   5.4356869065e+01    0.3233987    0.2548277 -17.86 0.0003058596    1.451    0.311
        24  -9.6172    148.9877      8.9667   3.7847309450e+01   4.6175269406e+01    0.3843701    0.1324255 -51.95   0.00132278    4.404    0.773
        25 -10.2760    143.5545      4.0314   3.7158632329e+01   4.7896644712e+01    0.4075096    0.2418456 -53.27   0.00216139    1.939    0.484
        26 -10.5577    111.2429      4.4827   4.2695418131e+01   5.5460352540e+01    0.4663552    0.3217206 -67.32 0.0009381236    1.955    0.489
        27 -10.0389     26.2484      9.9662   7.4257323661e+01   7.0973013806e+01    0.3455799    0.1924584  40.78  0.001947391    2.214    0.548
        28 -10.4355    217.9716      3.8032   2.9486579211e+01   3.0854050180e+01    0.2819705    0.1773406 -65.00 0.0004238647    1.368    0.269
        29  -9.7659    210.4211      9.4022   3.1276497033e+01   3.1905904220e+01    0.2397262   0.06583683  59.22 0.0009544706    3.454    0.710
        30 -10.4225    182.8176      8.8697   3.3726332234e+01   3.8182440579e+01    0.2202245    0.1839792  62.62  0.000385458    1.240    0.194
        31 -10.8349    186.5083      3.1186   3.1963040605e+01   3.7879378606e+01    0.2810074    0.2432134  51.62 0.0004618076    1.366    0.268
        32  -9.3142    182.5910      2.2610   3.2129590226e+01   3.8857297191e+01    0.2005513    0.1592911 -18.60  0.001290396    1.617    0.381
        33 -10.4925     32.3313      6.4591   6.9295929675e+01   7.0592958104e+01     0.263848    0.1787427   7.05  0.000819694    1.241    0.194
        34  -8.5817     74.3055      6.3330   5.2570166750e+01   6.3338648035e+01    0.1337244   0.07774355  27.27 0.0007038821    1.663    0.399
        35 -10.9412     65.7095      5.6843   5.5047232661e+01   6.5082956143e+01    0.4750413    0.2478425  39.29  0.002019293    1.583    0.368
        36 -10.6288    202.9445      3.1307   3.0516268036e+01   3.4179009776e+01    0.3127269    0.1588955  88.37 0.0008883511    1.848    0.459
        37  -9.2074    169.3474      4.7184   3.4121937692e+01   4.1718433226e+01    0.1309207   0.08228622 -72.98 0.0002831926    1.644    0.392
        38 -10.3923    149.4562      2.7359   3.5979759355e+01   4.6599340772e+01    0.3593516    0.1994197  46.57  0.001875271    1.838    0.456
        39 -10.0135    162.0421     10.7014   3.6591068905e+01   4.2897295421e+01    0.1835638    0.1448543  75.40 0.0005123108    1.089    0.082
        40  -9.0780     78.2402      2.9747   4.9940774156e+01   6.2817368641e+01    0.1663345    0.1417028  16.92  0.000474432    1.145    0.127
        41 -10.1319     94.3626      5.1855   4.6636703003e+01   5.9204857615e+01    0.4062369    0.2004121  67.66  0.001910655    2.167    0.539
        42 -10.7559    223.1280      5.7536   2.9511318092e+01   2.9566139347e+01     0.398537    0.2778254 -59.77  0.002648348    1.212    0.175
        43  -9.2992    231.6216    194.1086   6.8904150156e+01  -1.7769637773e+00     0.205185    0.1800788  23.83  0.001012226    1.314    0.239
        44  -9.4166    249.4929    250.0402   7.5666645527e+01  -1.2217342096e+01    0.2143821    0.1341293  -8.24 0.0008841405    1.314    0.239
        45  -9.5124    249.0000    245.9716   7.5082144640e+01  -1.1645226424e+01    0.2505981    0.1290667 -29.87  0.001171259    1.729    0.422
        46  -9.6338    209.8196    249.9135   8.2921246066e+01  -7.3630392836e+00    0.1969217    0.1356992   2.31  0.001221109    1.280    0.219
        47  -8.9270    110.8066    249.8554   1.0327317952e+02   6.8954812569e+00    0.1787799    0.1341272  60.97  0.001069472    1.406    0.289
        48 -10.0295     20.5213    249.2822   1.2135819203e+02   1.8457559974e+01    0.3567784     0.137473  50.67  0.001905759    2.014    0.503
        49  -9.9019     12.7355    248.9875   1.2276973371e+02   1.9306085432e+01    0.2658215    0.1409343  66.48  0.001645128    1.549    0.355
        50  -9.8692      3.9042    250.2213   1.2440782043e+02   1.9925228868e+01    0.2398006     0.130484  38.19  0.001540969    1.699    0.411
        51  -9.4081    237.5364    191.9928   6.7431787720e+01  -2.2887992860e+00     0.239076    0.1598527 -28.09 0.0009832543    1.274    0.215
        52 -10.1673    237.2204    187.4889   6.6614449366e+01  -1.5034401583e+00    0.3791787    0.2106894 -41.23  0.001415526    1.708    0.414
        53 -10.1225    249.6699    184.6130   6.3912474560e+01  -2.8177362888e+00    0.3143673    0.1857733 -37.38  0.001724833    1.477    0.323
        54  -8.8577    224.2892    183.6586   6.8206462159e+01   1.1058898149e+00    0.1241249    0.1068003 -61.24 0.0007023132    1.646    0.393
        55  -9.9357    226.1960    178.5442   6.6829485831e+01   1.6970201694e+00    0.2317859    0.1447485 -31.52  0.001190291    1.419    0.295
        56  -8.8634    233.2293    174.9331   6.4832945813e+01   1.2188498611e+00    0.1807718    0.0977356 -38.29 0.0008705921    1.627    0.385
        57  -9.8354    226.0457    172.7125   6.5674089101e+01   2.7464564096e+00    0.3833057    0.1811958 -40.96  0.001708031    1.919    0.479
        58  -8.9567    250.6973    172.4393   6.1364354839e+01  -9.9140341980e-01    0.2365195   0.09860777 -37.44  0.001066179    2.004    0.501
        59  -9.6067    237.2310    169.1377   6.2961881110e+01   1.5914742401e+00    0.2460258    0.1693167 -47.99  0.001177085    1.585    0.369
        60 -10.6623    245.5688    168.2615   6.1376210090e+01   4.5997418456e-01     0.282679    0.1603479 -38.33  0.001231581    1.507    0.336
        61  -9.1183    234.0055    163.7936   6.2428053352e+01   3.0299594319e+00    0.2532852    0.1565092 -47.39  0.001269707    1.684    0.406
        62 -13.1030    244.1230    148.9086   5.7669563035e+01   3.9772080517e+00     1.641441    0.5296023 -41.17  0.006315456    2.622    0.619
        63 -12.4142    249.0370    133.9918   5.3821051751e+01   5.7227630637e+00     2.818271    0.2444046 -41.38  0.005992539    8.625    0.884
        64 -13.5036    241.9816    134.1142   5.4913357537e+01   6.8901820615e+00     2.786633     1.116764 -51.51   0.01023607    3.214    0.689
        65 -10.2445    233.2591    246.1592   7.7920493990e+01  -9.8169257467e+00    0.4837164    0.1779509 -29.29  0.002220405    2.798    0.643
        66  -9.6957    225.5036    248.8550   7.9788021559e+01  -9.2249327967e+00    0.2467622    0.1536537   1.22  0.001480393    1.485    0.327
        67  -9.4402     65.5073    248.5270   1.1255481003e+02   1.3377016905e+01    0.2943388    0.1368775  62.04  0.001383414    2.416    0.586
        68  -9.1831     49.9951    249.5187   1.1573784314e+02   1.5109491313e+01    0.1783587   0.09980906  38.42 0.0006674448    1.565    0.361
        69 -13.7646    248.1715    105.2634   4.7928966224e+01   1.0698823010e+01     2.348675     1.334233 -48.91   0.01210863    1.566    0.361
        70 -10.5971    235.6344    147.8681   5.8833157862e+01   5.5623542252e+00    0.3868327    0.2622655 -68.29  0.001798437    2.505    0.601
        71 -10.9841    224.1079    146.0234   6.0406648221e+01   7.8924482541e+00    0.3680651    0.2322231 -28.99  0.001802967    1.520    0.342
        72 -10.3161    230.4719    140.9702   5.8225955315e+01   7.6806811169e+00    0.3677734    0.1202131 -39.91   0.00133966    2.646    0.622
        73  -9.5106    225.1715    140.4042   5.9003259448e+01   8.7279046197e+00    0.2374829    0.1490273 -42.47 0.0008218779    1.425    0.298
        74  -8.4318    209.3311    137.7001   6.1237223823e+01   1.2185598154e+01    0.1414316    0.1137913 -73.86 0.0006364561    1.646    0.393
        75  -9.0712     65.6578    131.9947   9.7103781969e+01   4.0954899840e+01    0.2109857    0.1762666 -60.34 0.0004518201    1.115    0.103
        76  -8.9527    221.7813    129.5957   5.7204367209e+01   1.1328759267e+01    0.1811561     0.138279  64.01  0.000945784    1.658    0.397
        77 -10.4338    228.4208    125.0944   5.5107782675e+01   1.0900350858e+01     0.263609    0.2017155 -54.76   0.00142715    1.346    0.257
        78 -10.7791     69.4090    122.8092   9.3972938222e+01   4.2772772981e+01    0.2473009    0.2392176 -23.08 0.0002865506    1.065    0.061
        79  -8.2362    220.3009    115.3040   5.4238603517e+01   1.4212296724e+01    0.1367167    0.1081745  -4.35 0.0003662386    1.591    0.371
        80 -10.3698     36.2266    247.8631   1.1830678093e+02   1.7036206381e+01    0.4532234    0.1162433  57.24  0.001545743    4.837    0.793
        81  -8.4795     15.5118    112.4511   1.1010971314e+02   5.1028835486e+01     0.133086     0.110774 -61.88 9.505309e-05    1.008    0.007
        82  -8.8779    104.9516    111.5630   7.9884692758e+01   3.9542430108e+01    0.2326832    0.1541056  38.42 0.0006078055    1.545    0.353
        83  -9.4830    230.7971    103.1009   4.9875883244e+01   1.4304301180e+01    0.2781031    0.1282113 -48.55  0.001051121    2.047    0.511
        84 -10.2469    243.0487    245.8107   7.6102482088e+01  -1.0938642460e+01    0.3038161    0.1601344 -33.13  0.001789481    1.794    0.443
        85  -8.3770    120.2484    102.9980   7.3012898089e+01   3.8396084536e+01    0.1966879    0.1325977 -43.77  0.000308226    1.465    0.318
        86  -8.3654     80.3594    102.6775   8.5410964223e+01   4.6029990181e+01    0.1533669    0.1206421  75.24 0.0001727145    1.773    0.436
        87  -8.7108    130.6031     98.4859   6.8867978293e+01   3.7129696546e+01    0.1549422     0.149653 -24.40 0.0001097222    1.022    0.021
        88  -9.1270     72.7736     95.4119   8.6054205872e+01   4.8937842506e+01    0.2052485    0.1413545  15.86 0.0009481977    1.662    0.398
        89  -9.1070    233.3023    152.5675   6.0213795478e+01   5.1237023163e+00    0.2559107    0.1088178 -38.55  0.001073006    2.033    0.508
        90  -8.2948     99.2987     90.6728   7.5749488542e+01   4.5335116207e+01    0.1493713    0.1244683 -89.06 0.0004747095    1.635    0.389
        91  -9.7617     38.3281     89.9353   9.7410898509e+01   5.4639246689e+01    0.2160709    0.1868032  -9.28 0.0002870134    1.187    0.158
        92  -9.2384     27.9526     89.1713   1.0125215517e+02   5.5776294174e+01    0.1957118    0.1771735  87.53 0.0009653949    1.325    0.245
        93 -10.3898    189.0074     88.0095   5.3033835450e+01   2.5779364705e+01    0.2086599    0.1968971 -63.00  0.001177338    1.010    0.010
        94  -9.4193     54.4271     88.2302   9.0800080869e+01   5.3196699495e+01    0.1971453    0.1329624 -62.27 0.0008496388    1.616    0.381
        95  -9.0784      4.6628     88.3168   1.1005794250e+02   5.7515202551e+01    0.1214303    0.0909595  68.61 0.0007048353    1.700    0.412
        96  -9.4319    226.4848     87.5062   4.7003642172e+01   1.7781599934e+01    0.2020648      0.12454 -29.56 0.0009790319    1.744    0.427
        97 -10.3034    231.3376     83.1852   4.5384418664e+01   1.7506361479e+01    0.4284955    0.2112759 -53.44  0.001925474    2.045    0.511
        98  -9.3301    228.6777     84.3222   4.5990285048e+01   1.7858036051e+01    0.2613074    0.1801487 -72.01 0.0008616841    1.670    0.401
        99 -10.3488    195.7381     82.1045   5.0387121504e+01   2.5283411460e+01    0.2389674    0.1989944  57.41 0.0002554213    1.259    0.206
       100  -9.4662     88.2486     82.0884   7.6750496370e+01   4.9246615858e+01    0.2887917    0.2121567  40.27  0.001412563    1.399    0.285
       101  -8.5358     63.5338     82.4333   8.5705616042e+01   5.3256228693e+01    0.1451856    0.1283242 -20.94 2.759963e-05    1.027    0.026
       102  -8.5941    146.6476    157.2896   7.9454332480e+01   2.0529962093e+01    0.1569932    0.1252848  75.79 0.0007026478    1.672    0.402
       103  -9.0950     32.9334     76.5662   9.6175518826e+01   5.8238974087e+01    0.1838551    0.1282905  14.32 0.0005228897    1.545    0.353
       104 -10.1646     21.8931     75.1337   1.0040793136e+02   5.9502320147e+01    0.4422226    0.1396973  29.59  0.001771992    3.368    0.703
       105 -10.5141    128.8528     71.0520   6.1138864353e+01   4.2847022646e+01    0.3088896    0.2595947  12.82 0.0003512015    1.331    0.249
       106  -9.8531     28.9798     71.5615   9.6487665554e+01   5.9712730911e+01    0.2355677    0.1695722 -48.94 0.0003476503    1.208    0.172
       107  -8.5195     80.5385     71.5795   7.6040409530e+01   5.2774859012e+01    0.1443841    0.1328705  -2.31 8.008047e-05    1.025    0.024
       108  -8.9996     37.1748     71.1940   9.2912874488e+01   5.9002350617e+01    0.1589883    0.1554835  25.63 0.0002887631    1.277    0.217
       109  -8.4687     70.7059     70.7048   7.9331127172e+01   5.4622582088e+01    0.1451861    0.1040873  -9.90 0.0002756096    1.560    0.359
       110  -9.1301    114.0172     69.4930   6.4651343417e+01   4.6463551712e+01    0.2108203    0.1340841  71.97 0.0008101442    2.602    0.616
       111 -11.1578    227.4345     66.6227   4.2202234632e+01   2.0887172528e+01    0.3623797    0.2232813 -39.79  0.001384573    1.476    0.323
       112  -9.7548     95.1729     66.7474   6.9456700779e+01   5.0924741902e+01    0.2080995    0.1658858   1.85  0.001058964    1.356    0.262
       113  -9.5024      3.3932     66.3987   1.0628363976e+02   6.2586950603e+01    0.2700731   0.03394486 -52.85 0.0009618783    3.348    0.701
       114  -9.2710     15.3340     66.1511   1.0097764560e+02   6.1961769877e+01    0.2020344    0.1484059 -19.20 0.0004033227    1.295    0.228
       115 -10.2688    100.9626     62.9779   6.6348938690e+01   5.0414753081e+01    0.3803966    0.3115959 -84.47  0.001106865    1.776    0.437
       116 -11.1032     39.9407     60.8176   8.8533001890e+01   6.0877370942e+01    0.4625588    0.3373238 -68.86  0.001702815    1.961    0.490
       117 -10.4757     34.5411     59.5992   9.0518959430e+01   6.1711380361e+01    0.2904637    0.2436748 -12.46 0.0006457086    1.085    0.078
       118  -8.9267    144.4923     64.0373   5.5249010285e+01   4.0363871886e+01    0.2214355    0.1927934  56.20 0.0005904014    1.109    0.098
       119  -8.7654    118.5155     64.5318   6.1787496716e+01   4.6331807801e+01    0.1486108    0.1385615  24.07 0.0003266763    1.032    0.031
       120  -9.7935    134.9419     59.5155   5.6033723763e+01   4.3358428685e+01    0.6257809    0.2408546 -50.70  0.001922586    4.015    0.751
       121  -8.6404    174.3506     59.2546   4.8050057277e+01   3.3952964415e+01    0.1407092    0.1060673  35.22 0.0006958682    1.598    0.374
       122 -10.7485    192.8450     56.8180   4.4489072532e+01   2.9966687507e+01    0.2660711    0.2051951 -64.43 0.0003884129    1.273    0.214
       123  -8.8417     19.6331     57.1830   9.6560326897e+01   6.3559133570e+01     0.187052   0.09095042 -45.62 0.0008131381    1.641    0.390
       124  -8.9944    120.6469     56.4698   5.8574383789e+01   4.7170007093e+01    0.2035576    0.1300297  41.86 0.0009394228    1.515    0.340
       125  -9.5490    112.8336     55.4268   6.0311369204e+01   4.9102499722e+01    0.2651242    0.2393796   7.51 0.0007933396    1.115    0.103
       126  -9.5407    208.0358     54.9503   4.1949354648e+01   2.6788835260e+01    0.2298387    0.1749487 -59.14 0.0004348646    1.209    0.173
       127  -9.5012    204.9673     51.5498   4.1534342290e+01   2.7961006565e+01    0.2904535    0.1542333 -50.05 0.0006004236    1.790    0.441
       128  -9.0129    172.8461     52.1012   4.6359929393e+01   3.5369542436e+01    0.4264748    0.1233508 -40.12   0.00145657    3.241    0.691
       129 -10.8930    229.0788     51.2235   3.8624307673e+01   2.2782403802e+01     0.365118    0.2269972  56.00  0.002007939    1.816    0.449
       130  -9.6182     10.2060     52.4180   9.9622242797e+01   6.5198484528e+01    0.1603749    0.1070952  26.16 0.0009581085    1.768    0.434
       131  -9.4882    120.1952     50.5091   5.6706302597e+01   4.8185556844e+01    0.2231519    0.1939104 -25.49 0.0003076165    1.216    0.178
       132  -9.6261     85.0277     50.9379   6.7226112577e+01   5.5654718690e+01    0.2919034    0.1835411  45.32  0.001422641    1.578    0.366
       133  -9.3989     79.7704     49.6091   6.8548557714e+01   5.6873728110e+01    0.2561464    0.1887032 -25.32  0.001371528    1.352    0.261
       134  -9.5228    192.5893     48.7998   4.2510017158e+01   3.1174936114e+01    0.2581313    0.1802685  77.93 0.0007531105    1.427    0.299
       135  -9.2540    163.9737     45.9779   4.6151183557e+01   3.8363873593e+01     0.209143    0.1842917 -78.42 0.0003243048    1.127    0.113
       136  -9.8898    240.0688    239.8675   7.5640397969e+01  -9.7948872168e+00    0.2790218    0.1921242 -25.19  0.001161765    1.326    0.246
       137 -10.4268     32.3195     44.1133   8.6186600892e+01   6.4936373249e+01    0.4795074    0.2113094  23.60  0.002015483    2.340    0.573
       138  -8.9504    189.7621     43.9457   4.1676157620e+01   3.2496893885e+01    0.1730988     0.110672 -34.89 0.0008804788    1.618    0.382
       139  -9.0689    134.8730     43.6981   5.1041105643e+01   4.5700195651e+01    0.3155304    0.1366809 -51.88  0.001089194    3.489    0.713
       140  -9.1685     95.6716     43.7832   6.1150157918e+01   5.4594647123e+01    0.2136876    0.1662213   4.98 0.0007842949    1.374    0.272
       141  -9.0312    218.4564     42.0315   3.7738869233e+01   2.6288496360e+01    0.1878855    0.1160039 -38.53 0.0008950632    1.559    0.358
       142  -9.5479    223.3581     40.7627   3.6940803836e+01   2.5404941856e+01    0.2342647    0.1978908 -39.98  0.001511469    1.278    0.217
       143  -8.6774    185.4369     41.5008   4.1647068991e+01   3.3835645849e+01    0.1328494    0.1218238 -88.32 6.587357e-05    1.043    0.041
       144  -8.9449    128.3533     40.6300   5.1477342205e+01   4.7661010575e+01    0.2910026    0.1804479  27.14 0.0006485568    2.070    0.517
       145  -8.9090     92.7753     40.8373   6.0938606610e+01   5.5622210969e+01    0.1716328    0.1637523 -84.72 0.0002031657    1.330    0.248
       146  -9.7595      1.5476     39.6313   1.0015845791e+02   6.8242920912e+01    0.2766336   0.07748783 -53.36 0.0008631002    2.529    0.605
       147 -10.0273    232.6654     37.5458   3.5334645961e+01   2.3875523692e+01    0.2154391    0.1374749  89.09 0.0006755578    1.563    0.360
       148  -9.3227     61.3782     37.9562   7.0889641490e+01   6.1957685479e+01    0.2412701     0.188115 -59.03  0.001295008    2.035    0.509
       149 -10.0142    191.6332     36.5116   3.9567086055e+01   3.3031906647e+01    0.3598916    0.1969134 -88.39   0.00120035    2.250    0.556
       150  -9.7781    124.5873     35.2177   5.0522803149e+01   4.9242171011e+01    0.3721011    0.1987314 -42.37  0.001027961    2.110    0.526
       151  -9.3032    113.6592     35.9142   5.3338526384e+01   5.1694953441e+01    0.2622727     0.171845  33.64  0.001017201    1.576    0.365
       152  -9.7810    243.4895    236.0666   7.4385563572e+01  -9.6909189090e+00     0.276215    0.1329922 -40.93  0.001312578    2.298    0.565
       153  -9.6316     51.7160     38.2406   7.5023448497e+01   6.3436192987e+01    0.2282452    0.2190319 -87.01 0.0009820517    1.626    0.385
       154 -10.9487    212.7720     31.4546   3.5958187228e+01   2.8882773316e+01    0.4357582    0.2133445  64.04 0.0009942577    1.969    0.492
       155  -8.5605    134.4043     32.4792   4.7547269149e+01   4.7241182761e+01    0.1356236    0.1236145  52.92 0.0001955058    1.030    0.029
       156  -9.6364     68.9937     31.7566   6.5382800570e+01   6.1527190409e+01    0.1856907    0.1500035  24.45 0.0003462374    1.084    0.078
       157  -9.8694     20.1350     31.7159   8.7494422743e+01   6.8359805957e+01    0.1807127    0.1441742 -30.91 0.0003838313    1.198    0.166
       158  -8.9542     24.4437     30.9694   8.4941142444e+01   6.8064697778e+01    0.1782699    0.1031495 -39.47 0.0004206613    1.545    0.353
       159  -8.9201     12.9716     30.4984   9.0846562620e+01   6.9189989118e+01    0.1506417   0.09039062  40.97 0.0008100143    2.579    0.612
       160  -9.2005     85.0006     29.1201   5.8816070207e+01   5.8774906313e+01    0.2413022    0.1689559  48.18 0.0008763684    1.346    0.257
       161  -8.6225    166.5798     28.5145   4.0867211158e+01   3.9938752950e+01    0.1323401    0.1186215  85.11 0.0001981076    1.014    0.014
       162  -8.9803    157.8732     28.4041   4.2148497439e+01   4.2050760045e+01    0.1975806    0.1072733  54.60  0.000938267    1.691    0.408
       163  -9.1883    226.9725    157.0266   6.2250628788e+01   5.3959693174e+00     0.226851     0.156975  -9.84 0.0009649393    1.688    0.408
       164  -8.8242    202.5753     27.1962   3.6046737394e+01   3.1668930745e+01    0.1617678     0.124043 -16.30 0.0009409467    1.747    0.428
       165  -8.8672     30.5170     27.4560   8.0338290705e+01   6.7965266716e+01    0.1242477   0.09819734  -7.35 8.167729e-05    1.022    0.021
       166  -9.5585    192.6405     25.6246   3.6765924676e+01   3.4119794974e+01    0.1846259    0.1459055  41.52 0.0007134466    1.581    0.367
       167  -9.4599    136.7545     25.3312   4.4816428945e+01   4.7493405604e+01    0.2706659    0.1815102 -52.99   0.00123284    1.737    0.424
       168  -8.6207    123.6347     25.8268   4.7569479064e+01   5.0564155102e+01    0.1742952    0.1215886 -40.52 0.0003896923    1.611    0.379
       169  -9.4690     37.8564     25.7015   7.5943492601e+01   6.7311221107e+01    0.2034847    0.1422179 -15.97 0.0004992145    1.258    0.205
       170  -9.3793      8.4578     26.3146   9.1700938626e+01   7.0262795028e+01    0.1746932    0.1313862  30.09  0.000898054    1.733    0.423
       171  -9.0357    174.1213     24.8357   3.8831586087e+01   3.8554281689e+01    0.2071675    0.1648289 -76.29 0.0009993297    1.211    0.174
       172  -9.8091    142.0593     23.6524   4.3341857861e+01   4.6398762321e+01    0.3353647    0.1838676 -35.05  0.001639571    1.965    0.491
       173 -10.4141    157.2662     22.9124   4.0669712692e+01   4.2808663776e+01    0.2616968    0.1851584  71.11 0.0003054597    1.268    0.211
       174  -9.3683    161.7534     21.5851   3.9639899325e+01   4.1870926657e+01    0.2304172    0.1633607  57.59 0.0006933545    1.311    0.237
       175  -8.4287      1.4279     23.5462   9.4650023188e+01   7.1214644035e+01    0.1194275   0.08295804 -26.15 3.921919e-05    1.069    0.064
       176  -9.9509    199.0485     21.5599   3.5096091779e+01   3.3119306960e+01    0.2259574    0.1760081 -45.13 0.0003652167    1.294    0.227
       177  -9.0251     78.0802     21.8158   5.8040712206e+01   6.1033927373e+01    0.1797934    0.1728819  47.69 0.0006101222    1.289    0.224
       178  -9.5151    103.5139     20.5155   5.0278582082e+01   5.5766835810e+01    0.2471819    0.2164595 -81.26 0.0009006633    1.428    0.300
       179 -10.0681     71.0555     20.0985   5.9671047475e+01   6.2598159439e+01    0.2181847    0.1749864 -21.75 0.0004576034    1.338    0.253
       180  -8.3360    176.2840     20.6491   3.7456610053e+01   3.8503182490e+01     0.136095    0.0866451 -65.53 0.0004901553    1.657    0.396
       181 -11.6988    247.9180    216.4485   7.0163953227e+01  -7.4676340362e+00     1.032645    0.3390523 -33.58   0.00444948    2.738    0.635
       182  -9.3674    127.8246     18.7017   4.4351532804e+01   5.0317713597e+01    0.2134806    0.1796186   9.37 0.0009341961    1.366    0.268
       183 -10.1360    249.1421    234.0834   7.3051866820e+01  -1.0095361245e+01     0.402304    0.1571875 -31.23  0.001632442    2.295    0.564
       184 -10.0779    245.2985    230.5615   7.3118309345e+01  -9.1524205125e+00    0.3972264    0.1669641 -37.95  0.002001859    2.275    0.560
       185 -10.1031    170.1837     17.5704   3.7411830953e+01   4.0277252219e+01    0.4408952    0.1681998  54.31  0.001550367    2.447    0.591
       186 -10.1018    248.0057    227.3085   7.2076399897e+01  -9.0283326635e+00    0.2621859    0.1833674 -17.36 0.0009765117    1.150    0.130
       187 -10.7989      2.9350    243.0052   1.2426414297e+02   2.1419448369e+01    0.3873711    0.1787496  72.32  0.002231828    1.869    0.465
       188  -9.5731    121.9243     17.6836   4.5163118446e+01   5.1812286356e+01    0.1946307    0.1705309  26.54 0.0001616253    1.195    0.163
       189  -8.6496     52.1572     18.4272   6.6144428721e+01   6.6158182327e+01    0.1633456    0.1111795  46.71 0.0005749835    1.681    0.405
       190 -10.4359     23.5959     17.9007   7.9597797036e+01   7.0201471786e+01    0.4257095    0.1588459  32.16  0.001622988    2.636    0.621
       191  -9.5220     45.1923    244.4168   1.1631298635e+02   1.6687592605e+01    0.1785196    0.0843197  46.23 0.0009498289    1.719    0.418
       192 -10.6142    225.4939    241.5363   7.8585171860e+01  -8.2153705860e+00     0.361806     0.192706 -26.10  0.001998931    1.789    0.441
       193 -10.1261     17.9643    241.3719   1.2140417069e+02   2.0283029716e+01    0.2300627    0.1259253  75.88  0.001373666    1.617    0.382
       194  -9.5948    214.6017    240.1839   8.0419917158e+01  -6.6005512634e+00    0.1746114    0.1002402 -24.01 0.0009535003    1.712    0.416
       195  -9.2649     29.6555    239.3226   1.1903093756e+02   1.9470766898e+01    0.1303901   0.06624895  61.40 0.0007050199    1.733    0.423
       196 -10.8581      6.4497    236.2492   1.2330229747e+02   2.2441069702e+01    0.3416863    0.1557088  73.65  0.001876378    1.977    0.494
       197  -9.9226    236.7436    228.9476   7.4367117446e+01  -7.8617920596e+00    0.4421706    0.2122024 -32.79  0.002334518    1.894    0.472
       198  -9.9384    216.5051    230.4155   7.8401057182e+01  -5.4058911490e+00    0.2271464     0.157831  -3.16  0.001348042    1.314    0.239
       199 -10.1511    229.1463    227.4537   7.5498952250e+01  -6.6617582939e+00    0.3237504     0.149082 -32.37  0.001450943    2.022    0.505
       200 -10.3634    231.1313    235.3168   7.6491264643e+01  -8.0566424276e+00    0.4170103    0.2031004 -29.56  0.002205256    1.916    0.478
       201  -8.8508      9.9775    224.9930   1.2203820225e+02   2.4440838862e+01    0.1441491    0.1116906  70.36  0.001006022    1.026    0.026
       202 -10.8670    238.7867    218.9005   7.2220375063e+01  -6.6584077442e+00    0.5626655    0.2536905 -35.28   0.00225647    2.000    0.500
       203 -10.3757    227.3973    219.2093   7.4362666671e+01  -5.1859424380e+00    0.3415294    0.1793764 -21.38  0.001688292    1.985    0.496
       204 -10.2819    212.7914    219.1872   7.7147850008e+01  -3.1317844864e+00    0.1885878    0.1681007   2.25  0.001221843    1.197    0.165
       205  -8.2935     56.2514    216.7079   1.1162628008e+02   2.1205383006e+01    0.1289625   0.08469542  67.35            0    1.483    0.326
       206  -9.8493    233.1155    212.3807   7.2066567088e+01  -4.9138016026e+00    0.3214802    0.1806573 -26.26  0.001567148    1.617    0.381
       207 -10.2822    213.6159    213.0618   7.5878482580e+01  -2.2572314358e+00     0.282275    0.1160256 -39.82  0.001217602    2.360    0.576
       208  -8.4995    186.6640    212.3321   8.1220284825e+01   2.0019517233e+00    0.1280603    0.1109122  69.23 4.556624e-05    1.736    0.424
       209  -9.2285    241.2350    209.4341   7.0061594326e+01  -5.5557124597e+00    0.2025901    0.1494467 -47.19  0.001196497    1.813    0.448
       210 -10.5495    246.9411    240.1308   7.4465834133e+01  -1.0646441314e+01    0.3176855    0.2030053 -14.73  0.001394187    1.292    0.226
       211  -8.1096    124.2224    205.7422   9.4215024380e+01   1.3658480158e+01    0.1276648    0.1060217  69.89            0    1.391    0.281
       212  -9.5621    235.5590    203.7004   7.0013111988e+01  -3.8913557185e+00    0.2409309    0.1071443 -33.79 0.0009010822    2.010    0.503
       213 -10.1514    250.1034    200.4035   6.6842039476e+01  -5.3507674448e+00    0.4156713    0.1534611 -36.10  0.001865084    2.321    0.569
       214 -10.0112    242.6537    200.5525   6.8158349641e+01  -4.3741087016e+00    0.3200169    0.1789215 -32.59  0.001725137    1.539    0.350
       215  -9.4278    229.1668    199.5659   7.0399687289e+01  -2.3164068104e+00    0.2545919    0.1637228 -32.81  0.001404938    1.390    0.281
       216  -8.3792    133.2381    199.2886   9.0985353310e+01   1.3542490588e+01    0.1365971    0.1092151 -15.02 0.0006809503    1.459    0.315
       217 -10.5217    247.1407    192.6891   6.5891292447e+01  -3.7519678177e+00    0.5009606    0.2271439 -47.54  0.002189898    2.788    0.641
       218 -11.7500    242.7464    180.9003   6.4361334902e+01  -1.2241185938e+00    0.7511539    0.2735367 -44.28  0.003022188    2.776    0.640
