#   1 NUMBER                 Running object number                                     
#   2 MAG_AUTO               Kron-like elliptical aperture magnitude                    [mag]
#   3 X_IMAGE                Object position along x                                    [pixel]
#   4 Y_IMAGE                Object position along y                                    [pixel]
#   5 X_WORLD                Barycenter position along world x axis                     [deg]
#   6 Y_WORLD                Barycenter position along world y axis                     [deg]
#   7 A_WORLD                Profile RMS along major axis (world units)                 [deg]
#   8 B_WORLD                Profile RMS along minor axis (world units)                 [deg]
#   9 THETA_WORLD            Position angle (CCW/world-x)                               [deg]
#  10 FWHM_WORLD             FWHM assuming a gaussian core                              [deg]
#  11 ELONGATION             A_IMAGE/B_IMAGE                                           
#  12 ELLIPTICITY            1 - B_IMAGE/A_IMAGE                                       
         1 -13.7675    244.9834    158.0490   8.9540628379e+01   4.2192778955e+00     1.980213    0.7977287 -37.43   0.00856331    2.905    0.656
         2 -13.2397    193.8389     31.3084   6.5434568517e+01   3.2602734575e+01     1.844372     1.184363  15.90  0.008066822    1.946    0.486
         3 -13.4716    205.1313     17.1681   5.9607369544e+01   3.1210620951e+01     1.093941    0.9388412 -58.74  0.004204102    1.212    0.175
         4 -13.0869    210.3100     11.0134   5.7209787234e+01   3.0488494489e+01    0.8749896    0.6006712   8.11   0.00136919    1.746    0.427
         5 -12.0554      2.2406     14.6754   1.2515618263e+02   7.1614581489e+01      1.07832    0.1241252 -64.78  0.003230205    5.936    0.832
         6 -12.6735      2.3583      5.3502   1.2199231873e+02   7.3500016196e+01    0.8439612    0.5373415 -13.74  0.005607728    1.606    0.377
         7 -10.8788    190.1001     15.7755   6.1091938413e+01   3.5277315600e+01    0.2489196    0.2431841 -86.04 0.0008185891    1.049    0.046
         8  -9.8996    204.9906    250.4989   1.1178539012e+02   2.5051569531e-01    0.1705957   0.07670753  35.98 0.0004850332    1.561    0.360
         9 -10.1203    184.1336    250.4054   1.1528021543e+02   3.1845165135e+00    0.1905149    0.0958126  34.54 0.0006810943    1.411    0.291
        10 -10.6070    169.6756    248.6163   1.1754093806e+02   5.4227051854e+00    0.2767659    0.1633095  18.66 0.0008385829    1.926    0.481
        11 -11.4926    149.7070    247.9771   1.2091606818e+02   8.3088000903e+00    0.3441823     0.301622 -89.24  0.002821179    1.639    0.390
        12 -10.2911    143.2028    249.1286   1.2215718985e+02   9.0726732947e+00    0.1788452     0.154579  60.81 0.0004633122    1.371    0.270
        13 -12.3191    133.9995    248.9620   1.2372830341e+02   1.0356126522e+01    0.9701087    0.4297082  28.14  0.005020555    2.654    0.623
        14 -11.2803    135.4018    236.5109   1.2224633747e+02   1.1772028179e+01    0.3847265    0.2401134  23.06  0.001520043    1.809    0.447
        15 -11.4244    133.9994    232.3250   1.2206221236e+02   1.2534675021e+01     0.374466    0.2433389 -31.16 0.0005576287    2.383    0.580
        16 -10.6800    122.9832    249.9648   1.2571416764e+02   1.1712253210e+01    0.2596694    0.1315196  42.91  0.001690945    1.407    0.289
        17 -11.7512    128.7598    234.8507   1.2327006842e+02   1.2928147967e+01    0.5348136    0.2329269  50.70  0.002584165    2.147    0.534
        18 -11.1580    121.6577    244.6907   1.2546992422e+02   1.2577473255e+01     0.271872    0.1592859  60.88  0.001674875    1.911    0.477
        19 -12.6611    125.6085    241.1204   1.2444558260e+02   1.2516891102e+01    0.7134805     0.386697  33.00  0.004497342    1.595    0.373
        20 -10.8336     99.0195    247.6701   1.2961921835e+02   1.5121982804e+01    0.4352005    0.1992495  61.06  0.002473452    2.568    0.611
        21  -9.6860    102.7866    247.4009   1.2895614334e+02   1.4682335784e+01    0.1887539    0.1231379  43.25 0.0009488214    1.121    0.108
        22 -11.3279    114.9724    250.3174   1.2711381793e+02   1.2722403899e+01    0.4416563    0.1962903  36.46  0.002014469    1.758    0.431
        23 -11.5846    109.6728    247.1532   1.2775672261e+02   1.3831307047e+01    0.3841713    0.3377913  51.73  0.002272768    1.225    0.184
        24 -10.6740     81.4543    246.3724   1.3249780842e+02   1.7452053664e+01    0.4221446    0.2391646  71.97  0.002910894    1.953    0.488
        25  -9.7969     89.1881    250.6638   1.3149491402e+02   1.5926438157e+01    0.2629881   0.08384342  34.80 0.0006720002    2.808    0.644
        26 -10.7688     88.0146    247.4976   1.3147066102e+02   1.6505905834e+01    0.3714854    0.1897232  37.27  0.001412865    1.579    0.367
        27  -8.7096     74.7698    250.5757   1.3387857610e+02   1.7644848315e+01    0.2501724   0.08097762  34.05  0.001279195    2.906    0.656
        28  -8.8524     69.1390    250.6163   1.3480335740e+02   1.8281927040e+01     0.204377   0.05137742  43.64  0.001078377    2.495    0.599
        29 -12.5251     64.3342    245.5802   1.3530078136e+02   1.9537637735e+01     1.561895    0.5285323  29.46  0.006950673    4.400    0.773
        30 -13.2512     19.5828    168.1520   1.3907205810e+02   3.7258563376e+01     1.093412    0.6979772 -51.18  0.004700147    2.018    0.504
        31 -14.3886     11.2491    154.3151   1.4005254314e+02   4.0649850602e+01     2.142542    0.8100975 -82.97  0.008135119    2.299    0.565
        32 -13.6539      2.7417    191.0491   1.4337922250e+02   3.4317767474e+01     2.413906     0.284807 -77.70  0.009087331    6.149    0.837
        33 -11.5350     63.1722    221.8429   1.3403439750e+02   2.3284684755e+01    0.4763274    0.3129342  58.83  0.001590292    1.207    0.172
        34 -14.2430      9.6390    210.5101   1.4285067354e+02   3.0414901015e+01     1.825117     0.991275 -82.31   0.01365861    1.720    0.419
        35 -11.8532     43.7110    239.8952   1.3838811523e+02   2.2577345498e+01    0.4444834    0.1770144 -84.05  0.002747161    2.856    0.650
        36 -13.1054     38.2780    228.6564   1.3875361860e+02   2.4848617973e+01    0.5653874    0.2787762  42.81  0.001919981    1.550    0.355
        37 -14.5819     46.1711    217.2917   1.3679335272e+02   2.5873602050e+01     1.383718     1.028729  15.66  0.008602147    2.028    0.507
        38 -10.2557     85.0355    235.0478   1.3108389309e+02   1.8658673534e+01    0.3443793     0.165975  77.86  0.001806156    3.348    0.701
        39 -11.0692     99.3578    223.4849   1.2755539506e+02   1.8583144086e+01    0.3488994    0.2011511  50.66 9.147119e-05    1.405    0.288
        40 -10.2740     84.6591    229.4891   1.3073052308e+02   1.9540200060e+01    0.1901975    0.1634298  29.35 0.0008382647    1.403    0.287
        41 -11.3068     96.9042    239.8520   1.2937574468e+02   1.6480028935e+01    0.3562002    0.2634938  48.38  0.002128705    1.013    0.012
        42 -11.4598    104.3318    238.0949   1.2792904943e+02   1.5775785634e+01    0.4037572    0.3029334 -26.27  0.002850773    2.268    0.559
        43 -11.2015     98.5559    232.0416   1.2844579641e+02   1.7400791316e+01    0.3388621    0.2323439 -84.31  0.000767998    1.809    0.447
        44 -11.1634    112.7406    230.1026   1.2570821477e+02   1.5804769095e+01     0.345147    0.2770039  -4.77  0.001948399    1.898    0.473
        45 -11.5098    105.6237    228.9249   1.2689560736e+02   1.6933855539e+01    0.4984252    0.2205104  40.48  0.002022503    1.707    0.414
        46 -11.1011     79.4642    226.2073   1.3141352254e+02   2.0681156455e+01    0.3424897    0.2630019 -89.98  0.001268446    1.411    0.291
        47 -10.4879     77.4521    220.9322   1.3137864149e+02   2.1756140566e+01    0.1980718    0.1412299  52.91 0.0004639153    1.076    0.070
        48 -11.2375    164.4683    241.5475   1.1763766607e+02   6.9820946459e+00    0.3205715    0.2005358  59.02  0.001963927    2.218    0.549
        49 -11.8895    245.0312    241.7307   1.0404434356e+02  -4.4301593099e+00    0.2622491    0.1915909  16.09  0.002055332    1.157    0.136
        50 -10.3056    172.8632    240.3292   1.1602172074e+02   5.9105798548e+00    0.1863029    0.1465941  71.28  0.001295209    2.054    0.513
        51 -10.6245    116.3798    238.8664   1.2586682116e+02   1.4073704002e+01    0.2927168    0.2251996 -13.38  0.001692503    2.137    0.532
        52  -9.5954     61.5128    238.4808   1.3536033987e+02   2.0893235058e+01    0.2220541    0.1366802  23.02  0.001476676    2.275    0.560
        53  -9.8152     82.0288    238.4514   1.3185450623e+02   1.8522521731e+01    0.2832529    0.0790699  37.11  0.001271881    2.795    0.642
        54 -10.3864    165.9717    235.5168   1.1666185803e+02   7.4874413839e+00    0.1583664    0.1444015  10.58  0.001264204    1.298    0.229
        55  -9.9227     55.6856    236.0595   1.3620425332e+02   2.1895770163e+01    0.2777727    0.1195419  56.67   0.00160245    1.886    0.470
        56  -9.5314     77.9127    233.3442   1.3220954033e+02   1.9775499402e+01    0.1727682    0.1218042  80.98  0.001226914    1.481    0.325
        57 -10.9552    156.7762    231.5574   1.1784202633e+02   9.3340182174e+00    0.1984871    0.1714574  23.85 0.0002816493    1.197    0.164
        58  -9.1657     62.9156    233.0770   1.3479768516e+02   2.1553118391e+01     0.129098    0.1136173  24.10 0.0003597277    1.557    0.358
        59  -8.7009     92.4546    232.5097   1.2957548653e+02   1.8111695459e+01    0.1073248   0.08063485  49.75 2.601455e-05    1.010    0.010
        60 -10.9023    141.8058    230.0582   1.2039421890e+02   1.1721452510e+01     0.282963    0.2035356 -40.91  0.001816673    1.856    0.461
        61  -9.2088     57.4835    230.9825   1.3560689586e+02   2.2477239153e+01    0.1331863    0.1026022  69.13 0.0009161176    1.148    0.129
        62 -14.1559     30.6194    245.9914   1.4073804028e+02   2.2970767073e+01     1.534151    0.7207349  36.19   0.01097344    1.862    0.463
        63 -10.8955    122.3651    233.2071   1.2426045096e+02   1.4044027768e+01    0.2828043    0.2681757 -56.19  0.001865053    1.405    0.288
        64  -9.8547    197.6230    226.6826   1.0987611600e+02   3.8034303188e+00    0.2190863    0.1698531  51.08  0.001502256    1.676    0.403
        65  -9.8192    166.1180    226.8982   1.1557311150e+02   8.5357317983e+00    0.1707145    0.1312986  46.08 0.0005652342    1.278    0.217
        66 -10.2509    132.4908    224.4809   1.2149540356e+02   1.3844044349e+01     0.205486    0.1851823  22.30   0.00127897    1.255    0.203
        67 -10.4706    129.1430    221.0685   1.2174641102e+02   1.4820054193e+01    0.2233482    0.1693936  64.55 0.0009893569    1.460    0.315
        68 -10.2818     92.5447    225.9606   1.2902203981e+02   1.9088169706e+01    0.2378239    0.1179608  46.01 0.0008464813    1.530    0.346
        69  -8.8869    147.3859    225.4469   1.1883981555e+02   1.1527838299e+01     0.114008   0.08837482  36.23  5.32912e-05    1.034    0.033
        70 -10.7142    117.2209    224.3412   1.2432262352e+02   1.6032303358e+01    0.2291293    0.1610917  37.23  0.000359041    1.187    0.158
        71 -10.6899    160.3612    223.8130   1.1624087244e+02   9.8025673574e+00     0.324815     0.171322  25.83  0.001341825    1.988    0.497
        72 -10.8422    137.9895    214.1313   1.1926200338e+02   1.4532468474e+01    0.4786077    0.3207895  30.17  0.002612542    1.358    0.264
        73  -9.8369    145.2995    221.6926   1.1878327810e+02   1.2354236839e+01    0.1921487    0.1416707  67.86 0.0006798435    1.775    0.437
        74  -9.8711    110.9765    221.0197   1.2515761447e+02   1.7394518787e+01     0.252652    0.1392463 -53.95  0.001172965    2.289    0.563
        75 -11.3876     72.9069    209.9027   1.3136596687e+02   2.4112154832e+01    0.3795778    0.2284361  29.89  0.001758862    1.779    0.438
        76 -10.7555     70.7496    218.9482   1.3245819079e+02   2.2876035708e+01    0.3415097    0.2298293 -85.73   0.00240422    1.600    0.375
        77 -10.8097    245.9957    220.0436   1.0060557787e+02  -2.6218725905e+00    0.2979771    0.1210278 -14.87  0.001413771    3.314    0.698
        78  -9.4707    104.8524    218.7973   1.2609288402e+02   1.8572534267e+01    0.1567025    0.1260782  41.24 0.0002725034    1.121    0.108
        79  -9.9122     99.7635    217.5392   1.2693409766e+02   1.9453633524e+01    0.1848557    0.1643368   2.71 0.0007973502    1.543    0.352
        80  -9.0643     93.7768    217.3438   1.2804571571e+02   2.0274361758e+01    0.1834872    0.1246407  85.47  0.001123249    1.731    0.422
        81 -11.1936    141.9489    221.6219   1.1940282921e+02   1.2862797224e+01    0.2632003    0.2152515  34.07 0.0002170235    1.094    0.086
        82  -9.6829     88.1486    212.8862   1.2871448325e+02   2.1722030943e+01    0.1920452    0.1336083  80.47 0.0007623645    1.567    0.362
        83  -9.8637     67.8507    214.8011   1.3268914606e+02   2.3894085195e+01    0.1937695    0.1372876  65.85 0.0005329361    1.216    0.178
        84 -10.2609    102.3786    212.1860   1.2591876486e+02   1.9953386243e+01    0.3088375    0.1480572  59.15  0.001579982    2.416    0.586
        85 -13.9458      5.9916    245.2881   1.4447115870e+02   2.5290715875e+01    0.9507281    0.4998419  68.28  0.007903774    1.402    0.287
        86 -10.4595    107.3480    209.3134   1.2466178239e+02   1.9731948321e+01     0.325766    0.2296961 -25.59  0.001544252    2.387    0.581
        87 -10.6275    112.5656    208.3642   1.2353924301e+02   1.9150222268e+01    0.2743432    0.1826852  34.74 0.0006470675    1.341    0.254
        88  -9.2544    134.8638    208.0688   1.1912736879e+02   1.5914292936e+01    0.1817158    0.1342301  11.45 0.0008982785    1.719    0.418
        89 -12.0947     93.3712    202.6233   1.2673369430e+02   2.2750224626e+01    0.4335022    0.3729328  67.58  0.003215618    1.123    0.110
        90  -8.8148     28.6526    208.2846   1.3944311704e+02   2.9114851567e+01    0.1093366   0.05232025  58.59 0.0007018633    1.650    0.394
        91 -11.6533    246.8700    206.0291   9.8166169220e+01  -1.3886285163e+00    0.3407537    0.2304835  -5.50  0.002289447    1.341    0.254
        92  -9.6632    174.9156    206.2372   1.1110620945e+02   9.8753100823e+00     0.282113    0.1678479  -2.06  0.001350783    2.880    0.653
        93  -9.0999     32.7873    207.0362   1.3863746417e+02   2.8936592620e+01    0.1320114   0.09742872 -61.21 0.0003803169    1.729    0.422
        94  -8.9654    125.8014    205.7932   1.2063579994e+02   1.7631467661e+01    0.1640773    0.1193282  55.95 0.0004770369    1.329    0.247
        95 -10.0586    102.7438    202.8770   1.2489271179e+02   2.1431361127e+01    0.3467956    0.1780588  49.94  0.001934196    1.691    0.409
        96  -9.4203    166.9100    203.1185   1.1218963399e+02   1.1600395373e+01    0.1771402    0.1398816  44.75            0    1.231    0.187
        97  -8.5035    133.0000    202.9453   1.1885407863e+02   1.6992511447e+01    0.1622107    0.0706123 -52.65 0.0004651994    2.838    0.648
        98 -12.8703     14.0413    238.9612   1.4307067066e+02   2.5532770812e+01    0.4456413    0.2915785  55.79   0.00106839    1.076    0.071
        99  -9.7940     64.1434    202.0588   1.3243269722e+02   2.6490362786e+01    0.2315635    0.1416195  27.96 0.0002643309    1.855    0.461
       100 -10.5908     32.6945    201.8304   1.3838013724e+02   2.9846769397e+01    0.1717988    0.1278243  60.35 0.0002891838    1.044    0.043
       101 -10.0944    115.1132    200.2591   1.2211729003e+02   2.0105767502e+01    0.1809662    0.1618213  74.20 0.0002379739    1.205    0.170
       102  -9.5634    197.0102    200.4944   1.0604428660e+02   7.0370622429e+00    0.1948515   0.09947317  37.00 0.0006040004    1.568    0.362
       103  -8.8009    182.9882    200.4762   1.0869074224e+02   9.3398412897e+00    0.1831482    0.1006488  38.20  0.000382099    1.463    0.317
       104  -8.6549    169.4938    200.4820   1.1129698587e+02   1.1553229405e+01    0.1264032    0.1006255  32.57 0.0001229907    1.023    0.023
       105  -9.6346    120.0315    199.5638   1.2104050576e+02   1.9495529306e+01    0.1825797    0.1527375  70.32  0.001244943    1.287    0.223
       106  -9.6089     43.5636    199.1137   1.3618313452e+02   2.9250776722e+01     0.179939    0.1521995 -35.50  0.001102307    1.822    0.451
       107  -9.7007     86.0348    197.0025   1.2765052235e+02   2.4689367921e+01    0.3418246     0.151092 -66.40  0.001677005    2.579    0.612
       108  -9.0829     84.5648    192.4640   1.2750148855e+02   2.5686138312e+01    0.1655217    0.1074779 -70.03 6.943455e-05    1.695    0.410
       109 -10.9510     57.7545    194.1927   1.3307876929e+02   2.8614781236e+01     0.467895    0.2637548 -70.88  0.002670901    1.839    0.456
       110 -10.1581     53.2899    197.9002   1.3423050728e+02   2.8441076321e+01    0.3063192    0.1283681  44.80  0.001590299    1.883    0.469
       111  -9.6713    134.1110    197.8508   1.1797167152e+02   1.7629773725e+01     0.183482    0.1633622  87.56 0.0004361096    1.359    0.264
       112  -9.2374    133.5910    194.2049   1.1759127415e+02   1.8300612260e+01    0.2146734    0.1266586  40.72 0.0002451102    1.396    0.284
       113 -10.0380     98.7526    197.0513   1.2507478810e+02   2.2975325620e+01    0.4301302    0.1714678  50.62  0.001587032    2.380    0.580
       114  -9.1895    102.6938    195.7170   1.2412383088e+02   2.2656895593e+01    0.1855672    0.1557243 -26.43  0.000425388    1.648    0.393
       115 -10.0665     76.9423    188.4725   1.2868376867e+02   2.7383842989e+01    0.2662492    0.1799849 -88.77   0.00110329    1.586    0.369
       116 -11.5541     64.2551    194.9986   1.3184884395e+02   2.7729180193e+01    0.2928882    0.2279009 -49.07  0.001453683    1.714    0.417
       117 -11.7603     69.8093    187.4753   1.3006902406e+02   2.8444576556e+01    0.2687545    0.2415168  -7.06 0.0006703078    1.577    0.366
       118 -10.1756    113.1164    193.9398   1.2177352538e+02   2.1462564953e+01    0.3847418    0.2116015 -63.91  0.002096132    2.247    0.555
       119  -9.7685     40.6860    188.1526   1.3603338195e+02   3.1525922521e+01    0.2197858    0.1551254 -88.77 0.0009108193    1.307    0.235
       120 -11.2549    249.4176    194.2880   9.5710181068e+01  -5.7154536561e-01     0.321341    0.2016356  17.49  0.002002467    1.272    0.214
       121  -9.2824     32.0491    195.5058   1.3815461859e+02   3.1027530623e+01    0.2419906   0.05931164  39.50  0.001196067    2.847    0.649
       122  -9.8106    159.8466    194.0734   1.1224108689e+02   1.4078029603e+01    0.2166343     0.159298  44.80 0.0004385712    1.238    0.192
       123  -9.9499    120.7787    191.9137   1.1993446714e+02   2.0662186623e+01    0.3550198    0.2567598 -43.58  0.001905573    1.707    0.414
       124  -9.0875    118.0129    189.9941   1.2026515416e+02   2.1409543871e+01    0.1667805     0.141253  49.47            0    1.039    0.038
       125  -9.6428     72.9032    193.0366   1.2993915410e+02   2.7053121672e+01    0.1638431    0.1378377  58.12 0.0003125378    1.051    0.048
       126  -9.0280     25.8422    192.5264   1.3916833466e+02   3.2137129039e+01    0.1752964    0.1063611  68.94 0.0009038695    1.346    0.257
       127  -9.6671     20.4250    191.7814   1.4015183891e+02   3.2751008485e+01    0.2407333    0.1235246  70.88  0.001581811    1.663    0.399
       128 -10.0236    191.4601    191.4475   1.0560814388e+02   9.1474995935e+00    0.2229308    0.1773804  23.81 0.0006271661    1.014    0.014
       129  -9.7927     32.3164    189.9704   1.3778720948e+02   3.2004051533e+01    0.2981427    0.1530086  39.35  0.001924464    1.710    0.415
       130  -9.2366    135.1499    189.9713   1.1668809182e+02   1.8749321668e+01    0.1825394     0.147939  55.45 0.0003811339    1.233    0.189
       131 -12.1044    249.6200    183.4189   9.3703965937e+01   5.5174596963e-01    0.9416816    0.2219407 -34.15   0.00347978    4.603    0.783
       132 -10.7004    236.2596    145.7081   8.8450073557e+01   7.3058168135e+00    0.3485837     0.205487  27.13  0.001003795    1.597    0.374
       133 -12.7840    248.3535    101.4879   7.6353989791e+01   1.0758420071e+01    0.8574432    0.5604342 -24.85  0.004503674    1.381    0.276
       134 -10.3983    200.4141    246.2454   1.1201232073e+02   1.3125829266e+00    0.2219853    0.1395521  55.44  0.001070565    2.569    0.611
       135  -8.8293    154.6560    184.7504   1.1186477783e+02   1.6392108148e+01    0.1554573    0.1236198 -56.33 0.0008154729    1.604    0.376
       136 -10.0136    140.1324    183.1639   1.1465886940e+02   1.9076123422e+01    0.1918172    0.1638103  40.93 0.0003456657    1.034    0.033
       137  -9.7593     29.9875    183.6799   1.3787252372e+02   3.3383725158e+01     0.238474    0.1592519  72.43  0.001149725    1.238    0.192
       138 -10.1123     24.5385    184.2822   1.3897891369e+02   3.3763068826e+01    0.2169376    0.1456346  45.71 0.0005345571    1.331    0.248
       139  -9.0845     36.6832    184.0078   1.3655899597e+02   3.2690441670e+01     0.149244    0.1187066  63.06 0.0004638891    1.051    0.049
       140  -8.2599     52.3015    182.3440   1.3325644271e+02   3.1406185802e+01    0.1009956   0.08400339 -40.78 0.0006368119    1.680    0.405
       141  -9.6280    126.1636    180.0949   1.1719121204e+02   2.1868845171e+01    0.2216952    0.1741499  89.46  0.001154382    1.623    0.384
       142 -13.3591    248.2648    114.2035   7.9378990225e+01   9.1345317741e+00     1.534266    0.8588573 -11.27  0.007180641    1.884    0.469
       143  -9.8324    115.3361    177.7485   1.1921269245e+02   2.3985905659e+01    0.3126957    0.1965511 -61.09  0.001732434    1.847    0.459
       144  -9.1392     47.8546    179.7025   1.3397187653e+02   3.2380835539e+01    0.1551336   0.07961566  43.51 0.0005505572    1.666    0.400
       145  -9.6786     19.9782    179.0775   1.3959561888e+02   3.5130798023e+01    0.1514491    0.1241921  75.61 0.0003164623    1.097    0.089
       146  -9.9297     64.4833    175.4761   1.3007569683e+02   3.1350920731e+01     0.256459    0.1752188  78.85  0.001201805    1.444    0.307
       147 -10.8557     66.8563    172.3539   1.2925223611e+02   3.1678508624e+01    0.4505329    0.2452171  84.96  0.002353974    2.250    0.555
       148  -9.5702    121.9446    175.5479   1.1745379287e+02   2.3351554634e+01    0.1731128    0.1615379  56.52 0.0003104308    1.089    0.082
       149  -9.5320     85.2523    174.2799   1.2539949296e+02   2.8975633048e+01    0.2588261    0.1640697 -86.63   0.00127593    1.864    0.463
       150 -11.2434     78.8988    175.3486   1.2691916094e+02   2.9602986421e+01    0.2876789    0.2237209  38.10    0.0010978    1.256    0.204
       151  -9.7608    107.2023    172.8770   1.2034175478e+02   2.6124508756e+01    0.1896905    0.1525735  62.28 0.0008055266    1.215    0.177
       152  -9.2806     95.2587    172.4743   1.2295598741e+02   2.7944776770e+01    0.1691186    0.1010473  48.56 0.0005196726    1.503    0.335
       153  -8.9476     52.6324    171.1381   1.3225052261e+02   3.3534305520e+01    0.1349081    0.1298011  89.34  0.000230524    1.253    0.202
       154 -10.1897     29.0388    170.7435   1.3726014334e+02   3.5940435830e+01    0.3069602    0.2118624  58.83  0.002188891    1.218    0.179
       155  -8.7459    166.7549    170.6249   1.0697353304e+02   1.6552755344e+01    0.1319963   0.09692618   0.68 0.0001932982    1.632    0.387
       156 -10.9773     44.5339    168.4303   1.3378284813e+02   3.4917328731e+01    0.3540706    0.3442447 -70.20  0.002789019    1.314    0.239
       157  -8.8752     36.9483    171.0000   1.3561069848e+02   3.5157641976e+01    0.1651664   0.05748884  30.65 0.0005379996    2.874    0.652
       158 -12.1852     86.9337    166.9769   1.2414678827e+02   3.0171174555e+01    0.5957174    0.4219862  44.13  0.003618106    1.270    0.213
       159  -9.5616    126.7660    167.3858   1.1514859825e+02   2.4061366886e+01    0.2309361    0.1957882  34.35  0.001030908    1.095    0.087
       160 -10.0020     68.8765    166.7989   1.2822678949e+02   3.2533815518e+01    0.1889878    0.1545606 -88.67 0.0004845193    1.173    0.148
       161  -8.7955     58.4954    167.5018   1.3062646311e+02   3.3608374517e+01    0.1170826   0.09809969  68.98 -0.0001720464    1.013    0.012
       162 -10.6716     89.4338    159.2560   1.2256886530e+02   3.1366185426e+01     0.403365    0.2281978 -76.07  0.001049056    2.158    0.537
       163  -9.7436     33.1403    164.2504   1.3593707103e+02   3.6850534567e+01    0.2804843    0.1263971 -77.75  0.001529221    2.046    0.511
       164 -11.6338    248.1715    142.5830   8.5764292626e+01   5.5546247862e+00    0.6377512     0.432443  -2.15   0.00263611    1.354    0.261
       165 -10.5178     39.8216    162.1028   1.3430332241e+02   3.6651533318e+01    0.3148311    0.1636261  24.41  0.001245039    2.328    0.570
       166  -9.2126     79.0035    158.7173   1.2495549436e+02   3.2888325903e+01    0.1876224    0.1490597  65.92 0.0004840571    1.184    0.155
       167  -9.3282     81.9430    156.2354   1.2394254154e+02   3.3006702672e+01    0.1878853    0.1225162  38.97 0.0004606008    1.450    0.310
       168  -9.0426     73.5358    159.5375   1.2633829492e+02   3.3423334747e+01    0.1232194    0.1052274  67.42 3.752584e-05    1.046    0.044
       169  -8.9725    112.3240    157.9016   1.1697643637e+02   2.8210082867e+01    0.1674342    0.1606147 -87.72 0.0003231634    1.108    0.097
       170  -8.7588     52.4571    158.4684   1.3112006926e+02   3.6101925591e+01    0.1155207    0.1003386  76.53 0.0004848143    1.033    0.032
       171  -9.2450     31.1011    150.5263   1.3534425121e+02   3.9832045502e+01    0.1601368    0.1059701  33.35  0.001036403    1.606    0.377
       172 -11.2087     23.9333    149.6683   1.3692645367e+02   4.0618474910e+01    0.2463084    0.1862355  76.66  0.001026073    1.100    0.091
       173 -11.7473     31.7297    155.8360   1.3561807408e+02   3.8680825594e+01    0.4347488    0.3681837  60.47  0.003269324    1.131    0.116
       174 -12.2140     22.8274    155.2639   1.3756872970e+02   3.9560825110e+01    0.4268928    0.3763746  80.36  0.003361325    1.138    0.122
       175  -9.6777     72.3605    156.2750   1.2622517897e+02   3.4240232752e+01     0.272543    0.2038543  14.07  0.001441553    1.771    0.435
       176  -8.8538     47.7017    157.6948   1.3213990329e+02   3.6761589565e+01    0.1065098   0.08599152 -43.14 0.0001795587    1.588    0.370
       177  -9.4202    228.4485    155.1305   9.1816984323e+01   7.4990627908e+00    0.1916687    0.1211351 -23.56 0.0005926681    1.558    0.358
       178 -11.0142     99.1184    151.2567   1.1909996499e+02   3.1586312922e+01    0.3280504    0.3123359 -39.66  0.001280631    1.188    0.158
       179  -9.6417    102.0447    146.4483   1.1762397225e+02   3.2127463869e+01    0.3258138     0.188098 -35.74  0.001251473    2.426    0.588
       180 -10.0239    113.9058    150.6683   1.1542595451e+02   2.9386721516e+01    0.2779714    0.2341628 -72.74 0.0005725241    1.309    0.236
       181  -9.8023     60.3391    150.9787   1.2847823145e+02   3.6784392592e+01    0.2868285    0.1372243  60.01   0.00135205    2.401    0.584
       182 -10.7628     56.2513    149.9312   1.2934564940e+02   3.7464554605e+01    0.5470296    0.2944611  67.49  0.002801959    2.117    0.528
       183 -10.1933     86.8690    150.6514   1.2199417174e+02   3.3486290232e+01    0.2446846    0.1607193 -87.92 0.0007284015    1.847    0.459
       184 -12.6540     67.9552    144.4201   1.2582058052e+02   3.7274987744e+01    0.6716119    0.4639682  74.94  0.002608543    1.535    0.349
       185 -11.3435     38.8545    146.7166   1.3319521414e+02   3.9924216960e+01    0.3524567    0.2099118  50.93  0.002042582    1.570    0.363
       186 -10.8598    133.3987    142.1889   1.0918563676e+02   2.7702847527e+01    0.6904423    0.2452867 -50.42  0.002509136    3.134    0.681
       187 -11.6295     41.2927    205.1003   1.3697385981e+02   2.8432885273e+01    0.7319148    0.2067277  48.09  0.003183134    2.586    0.613
       188 -10.1918     35.3009    148.6816   1.3421212773e+02   3.9840485346e+01    0.1731943    0.1324346 -86.58 0.0008210115    1.141    0.124
       189 -12.0050     32.5490    140.3009   1.3413235945e+02   4.1860701537e+01    0.4093722    0.2539794  46.24  0.002249016    1.548    0.354
       190 -11.5027     73.8167    139.5584   1.2368353491e+02   3.7586153094e+01    0.5769848    0.3277701  50.92   0.00204561    1.770    0.435
       191 -11.1223     60.0880    136.6850   1.2682082267e+02   3.9874918211e+01    0.3537462    0.2215266  86.46  0.001324919    1.773    0.436
       192 -10.0850    110.5056    136.2201   1.1372647587e+02   3.2894090810e+01     0.316074    0.2340094  -0.41  0.001310398    1.933    0.483
       193 -11.5517     45.2617    131.4958   1.3002846283e+02   4.2590463986e+01    0.4140054    0.2758048  78.63  0.002445617    1.512    0.339
       194 -10.1979     79.8319    132.0399   1.2099096808e+02   3.8426566867e+01    0.3425902    0.1891548  60.58  0.001237646    2.277    0.561
       195 -12.6390     11.8365    127.5235   1.3819521041e+02   4.6193003259e+01    0.4402269    0.3868019   7.96  0.002748283    1.509    0.337
       196 -12.7877     20.4583    121.7926   1.3552194352e+02   4.6844819784e+01    0.6073706    0.3014718  21.40  0.003361829    2.444    0.591
       197 -11.5271      7.4075    120.7077   1.3881712901e+02   4.7942332922e+01      0.45411    0.1429263  20.85  0.002131746    3.758    0.734
       198 -11.6510     33.2294    127.4982   1.3272936124e+02   4.4580286033e+01    0.3800749    0.1448954 -82.30   0.00164295    2.826    0.646
       199 -11.2641     30.4742    126.5331   1.3335057543e+02   4.5025267562e+01    0.2217486    0.1761021  60.91 0.0007522427    1.218    0.179
       200 -11.4109     67.2152    128.9648   1.2388449536e+02   4.0730574092e+01    0.3540131    0.2724136 -76.98  0.001887469    1.250    0.200
       201  -9.7106    116.5343    128.7469   1.1073580287e+02   3.3425557078e+01    0.3365367    0.2138759   0.57  0.001295556    3.135    0.681
       202  -9.4312    106.1991    128.8093   1.1344519196e+02   3.5165039328e+01    0.3085514    0.1133655 -60.26  0.001042677    3.519    0.716
       203 -12.5448     37.9907    194.3457   1.3695344695e+02   3.0662671030e+01    0.2320211    0.1749909 -83.73  0.000499396    1.305    0.233
       204 -10.5095    209.7906    125.7949   8.8800382441e+01   1.5246559232e+01    0.2961454    0.2328911 -12.46 0.0005000694    1.218    0.179
       205  -9.0947    234.4477    125.4615   8.4257794064e+01   1.0331434805e+01    0.1402949    0.1180247   4.70 8.599101e-05    1.006    0.006
       206 -10.4959     38.0382    121.5257   1.3079500834e+02   4.5482856892e+01    0.1834771    0.1415855 -77.91 0.0003350303    1.130    0.115
       207 -12.3672      2.4013    127.3564   1.4050716710e+02   4.6812489433e+01    0.9383615     0.189489 -80.08  0.003561516    4.128    0.758
       208 -10.3208     54.7124    120.7415   1.2610867318e+02   4.4009271855e+01    0.2511359    0.1810284  20.02  0.001121094    1.671    0.402
       209 -12.0629     15.0970    114.5424   1.3629988270e+02   4.8811534801e+01    0.3031526    0.2407812  89.31            0    1.051    0.049
       210  -8.7567     86.5088    117.4860   1.1663821031e+02   4.0699439291e+01    0.3034175    0.1288547 -73.97 0.0008092159    6.055    0.835
       211 -11.0599    249.5624    150.9138   8.7301220058e+01   4.2930169527e+00    0.4831193     0.290359 -30.22  0.002627087    1.688    0.408
       212  -9.2633    203.5177    111.5234   8.6553273537e+01   1.8760935804e+01    0.1523074    0.1307326  11.20 0.0002615971    1.063    0.059
       213 -10.4816     31.6558    110.9313   1.3132162663e+02   4.8411939277e+01    0.2100001    0.1651767  46.93 0.0005542134    1.351    0.260
       214 -11.0191    168.1933    113.3237   9.4466310768e+01   2.6194064160e+01    0.3639891    0.3181122  79.54 0.0009428427    1.501    0.334
       215 -10.0119     62.4978    107.0187   1.2169284905e+02   4.6246900876e+01    0.2037794     0.120215 -65.29  0.001028673    1.587    0.370
       216 -12.5497    248.3609    134.2594   8.3919574040e+01   6.5591713364e+00     0.993565    0.5803116 -25.39  0.005171525    1.587    0.370
       217  -9.4881     42.8379     92.1353   1.2522851759e+02   5.1750102600e+01    0.1687138     0.132501 -43.04 0.0002998714    1.296    0.229
       218 -12.0125    248.2245    171.8426   9.1741442892e+01   2.0609134257e+00    0.5507885    0.3427624  26.04  0.003217347    1.348    0.258
       219  -9.4479     24.1716     88.1381   1.3065283339e+02   5.4175382788e+01    0.1621262    0.1271543  79.76 0.0003674065    1.292    0.226
       220 -10.5276    250.0278     86.7219   7.2519374934e+01   1.2313055947e+01    0.1904102    0.1702128   3.25 0.0005196334    1.057    0.054
       221  -8.6799     77.9799     85.0385   1.1221290061e+02   4.9235645389e+01     0.160835    0.1530662 -42.17            0    1.022    0.021
       222 -10.5465    193.7936    245.1898   1.1300144573e+02   2.3610681403e+00    0.1896749    0.1447564  32.12 0.0003004109    1.164    0.141
       223 -10.3580    222.5054    244.9803   1.0815792244e+02  -1.6581593016e+00    0.1819785    0.1047831  30.82 0.0007979522    1.213    0.175
       224 -11.7870    135.4019    241.1473   1.2271922504e+02   1.1161824077e+01    0.4192885    0.2794192  12.50  0.002661851    2.160    0.537
       225 -11.5978     90.5910    239.4986   1.3044733402e+02   1.7322619876e+01    0.5168158    0.2793449  75.97  0.002184706    2.501    0.600
       226  -9.4554     84.1129    242.1174   1.3175496952e+02   1.7739308780e+01    0.1691477    0.1461884  10.87 0.0007919267    1.695    0.410
