#   1 NUMBER                 Running object number                                     
#   2 MAG_AUTO               Kron-like elliptical aperture magnitude                    [mag]
#   3 X_IMAGE                Object position along x                                    [pixel]
#   4 Y_IMAGE                Object position along y                                    [pixel]
#   5 X_WORLD                Barycenter position along world x axis                     [deg]
#   6 Y_WORLD                Barycenter position along world y axis                     [deg]
#   7 A_WORLD                Profile RMS along major axis (world units)                 [deg]
#   8 B_WORLD                Profile RMS along minor axis (world units)                 [deg]
#   9 THETA_WORLD            Position angle (CCW/world-x)                               [deg]
#  10 FWHM_WORLD             FWHM assuming a gaussian core                              [deg]
#  11 ELONGATION             A_IMAGE/B_IMAGE                                           
#  12 ELLIPTICITY            1 - B_IMAGE/A_IMAGE                                       
         1 -14.7081    226.4739    167.2492   3.1231882323e+01   5.9280423509e+00     7.277367     4.152346 -54.68   0.03104673    4.105    0.756
         2 -13.2170    246.2856     76.8614   9.7270938220e+00   1.5015432969e+01     2.252683     1.212598 -28.95  0.008172697    1.591    0.372
         3 -13.9003    242.2328    207.4495   3.5758142309e+01  -1.0925439094e+00     4.504961      2.22421 -32.47   0.02765863    1.955    0.489
         4 -16.0425    246.2224    129.4877   2.0903792453e+01   8.0631247658e+00     2.510012     2.368367  44.35  0.009649823    1.397    0.284
         5 -14.7949    248.4204    110.7139   1.6756893420e+01   1.0211057825e+01     3.520993     1.827378 -61.18  0.005051669    5.329    0.812
         6 -11.2828    207.0515     16.6798   3.5890636773e+02   3.0332432866e+01    0.7765715    0.2000482  53.10  0.002469125    5.295    0.811
         7 -12.2303    234.1431      4.0830   3.5424106425e+02   2.5743918255e+01    0.7933757    0.3535534  69.97  0.004162195    2.395    0.582
         8 -11.3331    246.2775      3.7154   3.5361018461e+02   2.3369218700e+01    0.5393677    0.3288506  82.80  0.003425523    1.741    0.426
         9  -9.8745    120.1364      8.8761   5.9537547083e+00   5.3423771412e+01    0.3226655    0.2928571  79.58  0.001857892    1.009    0.009
        10 -10.6181    215.1006    182.1364   3.5857394948e+01   5.5465895104e+00    0.4138643     0.326942  -4.63   0.00195065    1.044    0.042
        11 -14.0256     89.4916    243.1719   6.9752297133e+01   1.3926551886e+01     4.780758     1.193612  28.78   0.01729519    3.863    0.741
        12 -10.9832    187.2506    166.1938   3.7964818695e+01   1.2207966946e+01    0.6541234    0.4661199  -5.67   0.00226764    1.487    0.328
        13 -11.4231    195.6847    170.8021   3.7241289759e+01   1.0114475905e+01    0.4519096    0.3671145 -28.57  0.002094326    1.252    0.201
        14 -11.3229    203.6752    166.6666   3.4993585596e+01   9.4694406506e+00    0.5776155    0.3940423 -12.78  0.002514018    1.456    0.313
        15  -8.7518    111.6863    170.6829   5.5900369954e+01   2.4327401458e+01    0.2934586    0.2210982  -7.00  0.001468227    1.749    0.428
        16  -8.8671      4.8429    170.1489   8.4943506060e+01   3.7850527873e+01    0.1498369    0.1404434 -66.17 0.0003064898    1.307    0.235
        17  -9.3458    179.2729    169.0497   4.0084526158e+01   1.3075472501e+01    0.3617611    0.1745927  33.23  0.001608429    2.016    0.504
        18 -10.9248    158.0003    163.0445   4.3415273523e+01   1.7789160305e+01    0.7624545    0.4386043  18.39  0.003244073    2.306    0.566
        19  -9.1590    207.0233    206.1649   4.1366827819e+01   3.4717044744e+00    0.1715114    0.1281495  48.12   0.00106785    2.013    0.503
        20 -11.1393    172.8644    157.8352   3.9204916472e+01   1.6076590254e+01    0.5139915    0.3437835  37.49  0.001786937    1.435    0.303
        21  -9.7778    166.7550    159.3972   4.0800722596e+01   1.6889205860e+01    0.2845363    0.2192481  31.44 0.0008453443    1.216    0.178
        22 -13.6170    249.1955    175.9570   2.9351070891e+01   1.7245185702e+00     4.047492    0.3097921 -34.20  0.009489788   10.965    0.909
        23 -10.1814    193.1500    155.0632   3.4640982239e+01   1.2995568412e+01    0.3682993    0.1774868 -46.38  0.001605873    2.453    0.592
        24 -10.6537    152.8927    153.3736   4.2648467226e+01   2.0518402613e+01    0.6887055    0.1766821  33.62  0.001569282    6.862    0.854
        25  -8.2941      2.5385    226.5272   8.7249102006e+01   2.6257694713e+01    0.1105797   0.08278578  53.09 0.0008083162    1.049    0.046
        26 -10.7524    134.1268    148.3154   4.6092893915e+01   2.5035552888e+01    0.8825147    0.2881516 -54.38  0.001495245    4.279    0.766
        27 -11.8661    181.1421    135.0208   3.2702252306e+01   1.8518903310e+01    0.5235995    0.4788093  33.20  0.001353716    1.136    0.120
        28 -11.7783    174.9523    131.8717   3.3233895652e+01   2.0273455142e+01    0.8338997    0.3438023 -37.84  0.002808785    2.404    0.584
        29  -9.8032    141.8841    133.3051   4.0948191589e+01   2.6616163092e+01    0.2409492    0.1895067  59.59   0.00066149    1.444    0.308
        30 -10.3187     21.9740    132.7695   7.7455491595e+01   4.5610935871e+01    0.2318704    0.2152664  55.34 0.0002998885    1.107    0.097
        31 -10.8629    166.0732    109.3206   2.9662257083e+01   2.6211026484e+01    0.5663966    0.3347999 -39.07 0.0006696788    1.653    0.395
        32 -11.7927    168.6768    127.8117   3.3599813787e+01   2.2258563187e+01    0.6888217     0.401331 -32.42  0.002648635    1.780    0.438
        33 -10.4605    175.5900    117.0100   2.9628450053e+01   2.2797689551e+01    0.3431521    0.2913077  34.79 0.0006881679    1.199    0.166
        34 -10.7074    170.5354    121.0291   3.1615972951e+01   2.3120030089e+01    0.4084954    0.2758908 -56.75  0.001043079    1.839    0.456
        35 -11.6090    170.4069    116.8843   3.0643285607e+01   2.3901551504e+01    0.5203747    0.4254035  43.17  0.001668216    1.244    0.196
        36 -10.8703    136.7802    128.4724   4.1105160293e+01   2.8650768808e+01    0.4354009    0.2922298 -33.47  0.001468907    1.644    0.392
        37 -11.5398    160.9424    129.3862   3.5627443398e+01   2.3530235564e+01    0.6450835    0.2854872 -39.95  0.002501487    2.275    0.560
        38 -11.4868    154.6386    115.1859   3.3620498766e+01   2.7576546626e+01    0.5570385      0.38312  50.99  0.002121228    1.500    0.333
        39 -10.3762    152.3571    110.0448   3.2837295548e+01   2.9072786727e+01    0.3862219    0.3051319 -27.82  0.001510084    1.327    0.247
        40  -8.5272    135.3105    113.6593   3.7878349957e+01   3.2064402506e+01    0.1570282     0.123994 -88.29 0.0004671515    1.693    0.409
        41 -11.1431     47.7598    104.4668   6.4173920903e+01   5.0317977087e+01    0.8607454    0.5200015  36.11  0.003954223    1.645    0.392
        42 -11.5146     64.2784    109.1615   5.8903023822e+01   4.6792714428e+01      1.01965    0.8246197 -80.58  0.004916328    1.286    0.223
        43 -11.3071     55.9729    104.6266   6.1043773145e+01   4.9179931765e+01    0.6815122    0.5011338  21.99  0.003325759    1.494    0.331
        44  -7.9413     98.0574    109.0000   4.7315101699e+01   4.0890377092e+01    0.2499256   0.08759724  39.70  0.000379652    2.796    0.642
        45  -9.0876    138.9592    106.6552   3.5143844290e+01   3.2714748700e+01    0.2215477    0.1944107  47.73 0.0005427629    1.132    0.116
        46  -9.1608    133.9578    107.0051   3.6499232092e+01   3.3751600897e+01    0.1939505    0.1849309  43.63  0.001017435    1.035    0.033
        47 -11.1178     23.4679    103.1012   7.3567202974e+01   5.3241041650e+01    0.5365325    0.3521459  55.96  0.002701733    1.576    0.365
        48 -11.0425     18.9888    105.2666   7.5622670412e+01   5.3031921169e+01     0.478817    0.2562722  34.29  0.002266451    1.865    0.464
        49  -9.6729    215.9803     96.1425   1.7785837816e+01   1.8007387614e+01    0.2727919    0.2156057 -14.61 0.0004468391    1.289    0.224
        50  -9.3492     93.0854    213.9629   6.6192995598e+01   1.8520854786e+01    0.1844961    0.1561559  35.03 0.0003449015    1.064    0.060
        51  -8.4647     72.2210     91.2003   5.1621232749e+01   5.0038780140e+01    0.2165107    0.2046348 -27.70 0.0003963215    1.115    0.103
        52  -9.2830    210.3228     88.2664   1.6706814331e+01   2.0301683168e+01    0.3431704    0.2287194 -48.30  0.001392252    1.481    0.325
        53  -9.6041    101.0055    176.0001   5.9476497781e+01   2.4929039694e+01    0.1972278    0.1743748  40.06  0.001145522    1.003    0.003
        54  -9.3188    183.7962     78.6646   1.8293341128e+01   2.7521285688e+01    0.2973416    0.2461426  37.08 0.0007811921    1.347    0.257
        55  -8.1646    123.9623     77.2821   3.0496699788e+01   4.2140526613e+01    0.2113954    0.1957428  54.50  0.000267256    1.064    0.060
        56  -9.6516    220.6756     67.8338   1.0426478857e+01   2.1097862184e+01    0.2653461    0.2239455  27.75 0.0007566984    1.449    0.310
        57 -10.7930    222.5650     63.5951   9.1919891858e+00   2.1282056783e+01    0.7345515    0.3253699  55.25  0.002949747    2.506    0.601
        58  -8.8158    163.9101     62.5400   1.7105466236e+01   3.4835162605e+01    0.2182064    0.1931463 -43.08 0.0004159385    1.099    0.090
        59  -9.8933    243.4484     60.6961   6.4170409775e+00   1.7580971183e+01    0.3420245    0.2241414  61.26  0.002010271    1.807    0.447
        60  -9.7296    195.6069     55.9660   1.0450893460e+01   2.8182401362e+01     0.266808    0.1808336 -70.48  0.001324618    1.676    0.403
        61  -8.5101    228.6039     55.2250   6.5663079304e+00   2.1145437580e+01    0.1757146    0.1123287 -21.62 0.0004191527    1.625    0.385
        62  -8.5077    246.6405     54.1416   4.6743862312e+00   1.7793164427e+01    0.1633828    0.1282618 -35.06 0.0003897783    1.091    0.083
        63 -10.4899    228.0585     49.0042   5.1428154067e+00   2.2036520470e+01    0.2888314    0.2498716 -12.95  0.001859134    1.317    0.241
        64  -8.5999    124.0208    205.9842   5.8151562630e+01   1.5542836002e+01    0.1767259    0.1471861  29.76  0.001103636    1.008    0.008
        65  -8.3187    223.3607     49.9132   5.8063245457e+00   2.2890068742e+01    0.2399333    0.1545979  46.68 0.0008637317    1.932    0.482
        66  -9.0692    192.0498    193.1086   4.1927051450e+01   7.3549802294e+00    0.4411088    0.2494114 -60.82  0.001447464    7.021    0.858
        67  -8.3534    204.0360     35.5441   4.0712810528e+00   2.8889978701e+01    0.1852162    0.1272336  76.06 0.0003478144    1.514    0.340
        68  -9.9457    213.7927     32.4135   2.3679115286e+00   2.7069008818e+01    0.2933209    0.1803591  37.38  0.001440299    2.389    0.581
        69  -9.9828    217.4767     30.4806   1.5741921368e+00   2.6485742507e+01    0.2280857    0.1121661 -30.66 0.0008001376    1.817    0.450
        70  -9.7982    231.1356     24.3766   3.5908330925e+02   2.4277730287e+01    0.2441059     0.136194 -76.08  0.001299728    1.927    0.481
        71  -9.6110    226.7899    190.8563   3.5436329720e+01   2.7977507932e+00    0.3109187    0.1881489 -27.00  0.001427977    1.504    0.335
        72  -8.7453     92.1494     13.9779   1.4098088662e+01   6.0345784029e+01    0.2114365    0.1871024 -70.73  0.000421692    1.246    0.198
        73  -7.8402    108.5228     13.5541   1.0085561520e+01   5.6086456477e+01    0.1450854    0.1326275  73.44 6.920916e-05    1.024    0.023
        74  -9.5657    223.1843    187.8517   3.5507449358e+01   3.6637407529e+00    0.2489634    0.2037903  34.92  0.001002342    1.517    0.341
        75  -8.7051     37.0995    192.9795   7.7865772457e+01   2.9737510698e+01    0.1838251    0.1535825  53.76 0.0003242454    1.039    0.038
