#   1 NUMBER                 Running object number                                     
#   2 MAG_AUTO               Kron-like elliptical aperture magnitude                    [mag]
#   3 X_IMAGE                Object position along x                                    [pixel]
#   4 Y_IMAGE                Object position along y                                    [pixel]
#   5 X_WORLD                Barycenter position along world x axis                     [deg]
#   6 Y_WORLD                Barycenter position along world y axis                     [deg]
#   7 A_WORLD                Profile RMS along major axis (world units)                 [deg]
#   8 B_WORLD                Profile RMS along minor axis (world units)                 [deg]
#   9 THETA_WORLD            Position angle (CCW/world-x)                               [deg]
#  10 FWHM_WORLD             FWHM assuming a gaussian core                              [deg]
#  11 ELONGATION             A_IMAGE/B_IMAGE                                           
#  12 ELLIPTICITY            1 - B_IMAGE/A_IMAGE                                       
         1 -12.2740    187.8337     38.5663   5.5793421725e+01   3.3222652505e+01     1.390922     1.068425  29.69  0.006044152    1.516    0.340
         2 -11.9738    211.2152      6.3777   4.3600200629e+01   3.0966897442e+01     1.012989    0.7990572  71.13  0.005659945    1.205    0.170
         3  -8.7230    120.3201      9.4398   5.8148193623e+01   5.3831069068e+01    0.3044672    0.2660825  53.26  0.001063431    1.122    0.109
         4  -9.4986      3.8947     10.8859   1.0269052188e+02   7.2079144989e+01    0.2259817    0.1706178  57.98  0.001487208    2.613    0.617
         5  -8.8390    179.4846      4.9603   4.6720736271e+01   3.9273783625e+01    0.2184317    0.1765185  68.60 0.0006553228    1.133    0.117
         6  -8.5036    171.4228      4.4564   4.7600781209e+01   4.1420601209e+01    0.2373486    0.2167772  59.58 0.0002834997    1.054    0.051
         7  -8.7090    138.0325      3.7964   5.2488688179e+01   5.0040586054e+01    0.2066105    0.1909784  -0.29 0.0002870011    1.144    0.126
         8  -8.8554      5.2199      2.4128   9.8184074672e+01   7.3385139923e+01    0.1289122   0.09520426  22.77 0.0006801524    1.697    0.411
         9  -8.3207     93.0703    219.9938   1.1681064488e+02   1.7925095078e+01    0.1829413    0.1430984  63.90  0.000623956    1.011    0.011
        10  -8.3756    237.1170    250.2595   9.5180402741e+01  -9.1757084630e+00    0.1735288    0.1150959  21.16  0.000561032    1.185    0.156
        11 -15.5718     11.3129    210.8000   1.3059614983e+02   2.9643292952e+01     5.583819       3.9565 -49.72   0.03993111    2.340    0.573
        12  -8.3975    191.7957    193.1208   9.3849490235e+01   5.5847009454e+00    0.2498125    0.1584592 -63.24  0.001130201    2.748    0.636
        13 -17.4803     20.0866    247.0448   1.3096243397e+02   2.2388198713e+01     3.519283     1.703232  34.92   0.01553465    2.576    0.612
        14  -9.6560    238.7515    191.6755   8.4975154821e+01  -2.6348162819e+00    0.2952279    0.2740239 -40.12  0.001190334    1.472    0.321
        15  -8.9360     90.2334    201.9892   1.1541100705e+02   2.1709843148e+01    0.1770847    0.1560419  70.79  0.001205375    1.127    0.113
        16  -9.3957    131.2265    188.9343   1.0532799277e+02   1.7528889866e+01    0.4414874    0.2709122 -88.57  0.001519667    2.704    0.630
        17  -7.8398    107.4829    189.9736   1.1041749382e+02   2.1379528826e+01     0.270293     0.131291  67.50  0.001026125    3.309    0.698
        18  -8.5675    154.7970    188.6015   1.0040923640e+02   1.3290272951e+01    0.2500307    0.1552444  57.12  0.001055791    1.708    0.414
        19  -9.0398    226.9442    186.7656   8.6113520239e+01   9.8514710274e-02    0.3170038    0.1953865  38.11 0.0006863017    1.483    0.326
        20  -6.9992     89.3228    185.2951   1.1358843305e+02   2.5191156603e+01     0.113642    0.1032176 -18.90 0.0002317418    1.618    0.382
        21  -9.0331     96.0037    202.0236   1.1427685234e+02   2.0830987358e+01      0.34331    0.1559667  46.68 0.0004661313    1.898    0.473
        22  -9.2945    227.6795    181.9521   8.5041624871e+01   6.5508895181e-01    0.2620285    0.1958328  32.52 0.0003618052    1.221    0.181
        23  -9.2904    222.7002    180.1370   8.5582623064e+01   1.8293003896e+00    0.3426696    0.2522588 -76.11  0.001590431    2.913    0.657
        24  -8.8220     99.0359    178.8352   1.1065491101e+02   2.5021888868e+01    0.5089236    0.2494199  70.95  0.001546245    3.676    0.728
        25 -13.9054     14.4979    240.3345   1.3149999977e+02   2.4082735954e+01    0.2416884    0.1737983  66.41  0.001047957    1.157    0.136
        26  -9.3704     98.3167    199.6580   1.1353439745e+02   2.0932618664e+01    0.5686709    0.2674144  73.72  0.002005751    4.405    0.773
        27  -7.6594      8.5182    179.9336   1.2933304045e+02   3.5931373020e+01    0.1554335   0.08313043 -82.99 0.0003027452    1.458    0.314
        28  -9.2286     96.7953    195.8549   1.1337427911e+02   2.1913055938e+01    0.3414273     0.218964 -52.65  0.001908192    1.819    0.450
        29  -7.5267    237.9792    176.9926   8.2229528451e+01  -4.8729535985e-01    0.1618299    0.1311586  24.46 0.0004836051    1.124    0.111
        30  -8.9119    228.2171    176.8934   8.3937238920e+01   1.2931926933e+00    0.2415963    0.1840501  18.86            0    1.225    0.184
        31 -10.0913    195.9635    174.1292   8.9440487609e+01   7.8783599305e+00    0.2649071    0.2538807 -10.85  0.000349319    1.118    0.105
        32  -8.4716    148.6845    175.8085   9.9462600950e+01   1.6840556507e+01    0.2151009    0.1965885  22.74   0.00032272    1.189    0.159
        33  -7.5114     89.7164    174.3597   1.1205289370e+02   2.7429288156e+01    0.1384564   0.09028022  77.33 0.0007018783    1.676    0.403
        34  -8.7157     93.2586    193.4538   1.1379610997e+02   2.2934264811e+01    0.3169537    0.1932797  72.25 0.0008434372    1.781    0.438
        35  -8.7354     77.6761    200.1902   1.1767959185e+02   2.3884254516e+01    0.2127328    0.1375167  59.33 0.0009091708    1.329    0.248
        36  -9.4128     71.2594    161.4567   1.1440625789e+02   3.2941527572e+01    0.3649408    0.1854371  54.95  0.001468813    2.010    0.502
        37  -7.1843      1.2857    162.6694   1.2962746816e+02   4.0100894548e+01    0.1156329   0.06105537  72.46 0.0002438735    1.616    0.381
        38  -8.7581     92.3072    160.1223   1.0937413685e+02   3.0127398065e+01     0.229423    0.1823341  56.18 0.0004064965    1.203    0.169
        39  -8.7864    216.0355    157.1011   8.2034650803e+01   6.7064368677e+00    0.2040124    0.1867269  11.44 0.0002759232    1.024    0.023
        40  -9.8212     97.7154    153.5122   1.0703022398e+02   3.0729916803e+01    0.5231192    0.4489231 -32.76  0.002544498    1.482    0.325
        41  -7.2053    201.6568    155.3042   8.4397601075e+01   9.9399028220e+00    0.1402885    0.1173319 -89.93  0.000704074    1.685    0.406
        42  -9.4290    133.9391    150.2044   9.7882642374e+01   2.4918163863e+01    0.6521882    0.2103115 -54.29  0.002051023    3.598    0.722
        43  -8.7788     81.4970    197.5062   1.1663594335e+02   2.3871471045e+01    0.2535416    0.1834248  62.63  0.001587641    1.175    0.149
        44  -9.3405     38.8321    151.3102   1.2056821816e+02   3.9168679702e+01    0.4845855    0.1329749  46.03  0.001961131    3.497    0.714
        45  -8.2958    149.0515    148.6922   9.4103040654e+01   2.2207130018e+01    0.2061371    0.1870677  45.21 0.0004484414    1.074    0.069
        46  -9.4662    110.6028    147.2665   1.0282979270e+02   2.9925359334e+01    0.3396592    0.2186013  83.15  0.001462775    2.234    0.552
        47  -7.9679     80.7104    194.3396   1.1643986789e+02   2.4617643149e+01    0.2032344    0.1340579  85.86  0.001133292    1.509    0.337
        48  -7.6907    243.3298    145.3011   7.4573313942e+01   3.1885354183e+00    0.1434398   0.09920602   9.33 0.0006473251    1.646    0.393
        49 -10.3299     97.3970    139.3904   1.0458108305e+02   3.3982404181e+01    0.3698917    0.2877769  80.40 0.0001083143    1.379    0.275
        50  -9.7504    108.3029    139.5051   1.0189062346e+02   3.2078807635e+01    0.4580202    0.3060903 -36.16  0.002131719    1.875    0.467
        51  -8.7015    240.5880    209.7903   8.7996478869e+01  -5.2403328154e+00     0.204362    0.1694435  31.23 0.0006141414    1.253    0.202
        52  -6.9593    236.7217    136.2876   7.3653546134e+01   5.8922816235e+00    0.1305125    0.1103292 -60.42 0.0001947462    1.518    0.341
        53  -8.2944    144.1126    152.8863   9.6092350559e+01   2.2338685259e+01    0.2178693    0.1904691  75.87            0    1.208    0.172
        54  -7.2893    182.3035    133.7015   8.3407713148e+01   1.8053887368e+01     0.148644     0.122251 -83.92 0.0002282115    1.585    0.369
        55  -9.1469      8.9933    132.6630   1.2557632911e+02   4.6024118616e+01    0.2242099    0.1650979 -27.21 0.0009865157    2.036    0.509
        56  -8.5636      9.5477    129.4782   1.2513551323e+02   4.6694224413e+01     0.198173    0.1336731 -78.89 0.0006045871    1.124    0.110
        57 -10.5004      3.1115    126.9776   1.2644220028e+02   4.7700173605e+01    0.6266587     0.188534 -76.18  0.002825367    2.567    0.610
        58  -8.7694    115.4990    130.2401   9.8166281069e+01   3.2859424175e+01    0.2731056    0.2052434  44.25 0.0008790068    1.361    0.265
        59  -9.4291     29.2616    129.3295   1.2026608203e+02   4.5109909536e+01    0.2619347    0.1857329  73.93  0.001200894    1.381    0.276
        60  -8.9407    103.3351    126.2348   1.0041693735e+02   3.5984989108e+01     0.314923    0.2445054 -27.35 0.0007253243    1.636    0.389
        61 -10.0957     49.3942    126.6318   1.1471706480e+02   4.3681827571e+01    0.3281984    0.2421981 -85.48   0.00141908    1.247    0.198
        62  -7.5008    110.5684    119.4717   9.7018447034e+01   3.6220977460e+01    0.1471095    0.1390935 -62.88 0.0001173526    1.025    0.024
        63  -6.9733    172.7393    131.2859   8.4876939957e+01   2.0655927943e+01    0.1450003    0.1209912 -80.62 0.0006880488    1.486    0.327
        64  -8.8588     41.6392    114.8172   1.1493797140e+02   4.7272475111e+01      0.16852    0.1502989 -63.56  0.001115264    1.142    0.124
        65  -9.1723    116.3832    196.2155   1.0944487168e+02   1.8687548474e+01    0.2327775    0.1869873  79.44 0.0005758466    1.233    0.189
        66  -9.2116      5.4878    109.1304   1.2399785551e+02   5.1537487398e+01    0.3082357    0.1715192  18.83  0.001848061    2.464    0.594
        67  -8.6091    160.0132    107.9463   8.1811475958e+01   2.8248835418e+01    0.2227647     0.218522 -37.72            0    1.011    0.011
        68  -9.3439     29.1061    108.3777   1.1741695896e+02   4.9952087795e+01    0.4264424     0.121079  26.10  0.001679576    4.374    0.771
        69  -9.7510     63.8787    105.6768   1.0692177523e+02   4.6837719874e+01    0.3099926    0.2531552  -3.37  0.001559772    1.624    0.384
        70  -8.2400    122.6729    104.9604   9.0231107999e+01   3.7102325907e+01     0.211962    0.1839117 -48.40 0.0002189561    1.114    0.102
        71  -9.6170    216.2656    102.6703   6.9016657234e+01   1.5922920782e+01    0.2572654    0.2440275 -26.44 0.0002536185    1.012    0.012
        72  -8.0170     34.9520    102.5652   1.1479754419e+02   5.0771137974e+01    0.1613331    0.1262573  30.04 0.0007998906    1.568    0.362
        73  -7.8351    221.0953     98.7873   6.7183975835e+01   1.5460988786e+01    0.2587716    0.1926297  46.13 0.0008582532    1.407    0.289
        74  -8.7908    103.8519     85.9025   9.0154093252e+01   4.4957924568e+01    0.2946732    0.2367982  80.95 0.0003519941    1.627    0.385
        75  -8.1026    161.0707     81.4178   7.4048321851e+01   3.3185256989e+01    0.2323811    0.2078056 -39.00 0.0003833492    1.106    0.096
        76  -7.6895    135.3973     69.7741   7.6530553452e+01   4.1517027799e+01    0.2038188     0.145853 -24.51 0.0002547917    1.499    0.333
        77 -10.2322    118.6740     64.8958   7.9337753657e+01   4.6183998521e+01    0.2545559    0.2399584  13.01 0.0002574509    1.058    0.055
        78 -10.8652    172.6362     52.2667   6.2651736517e+01   3.5221390000e+01    0.5350577    0.4497639 -25.04  0.001681466    1.224    0.183
        79  -8.9791    214.4982     54.4973   5.6373231670e+01   2.4114096414e+01    0.3850947    0.2604915 -29.64  0.001366092    1.467    0.318
        80  -8.0484    249.6217    249.6098   9.3060851434e+01  -1.0884484875e+01    0.2212954   0.06689566  31.21 0.0009596386    3.178    0.685
        81 -10.9336    192.1984     32.1663   5.3216375365e+01   3.2920144411e+01    0.5240473    0.4827792  55.43  0.001316111    1.102    0.092
        82  -7.3365    162.4436     35.3981   5.9116102500e+01   4.0286888373e+01    0.1474981    0.1391722  49.24 0.0001042713    1.029    0.028
        83  -7.5484     14.7012     18.2857   1.0023289574e+02   7.0056591504e+01   0.09445579   0.08613431 -62.69            0    1.552    0.355
        84  -7.5657    141.4403     15.5502   5.6171120418e+01   4.8047302924e+01    0.1419832    0.1298816  41.54 8.802625e-05    1.018    0.017
        85  -9.4170    184.2431    214.8642   9.8953832038e+01   3.6302040848e+00    0.3047242    0.2361125  47.29  0.001483636    1.213    0.176
        86  -8.5592    119.4972    246.9151   1.1483803956e+02   9.4924679802e+00    0.1404404    0.1095921 -74.86 0.0004783509    1.517    0.341
        87  -9.0059    116.0625    243.7564   1.1511235272e+02   1.0496651375e+01    0.2153691    0.1414297  36.22  0.001367528    1.559    0.358
        88  -7.3901    186.5065    233.4509   1.0134673234e+02   6.4618573214e-01    0.1225881   0.09596114  32.62 0.0002257656    1.050    0.048
        89  -7.5632    246.3123    226.3017   8.9879977606e+01  -8.0302039494e+00    0.1207945   0.07253709  13.65 0.0007017845    1.610    0.379
        90  -9.3683    157.3838    220.4373   1.0481295961e+02   7.4478759110e+00    0.2106853     0.200526  23.63   0.00136213    1.189    0.159
