#   1 NUMBER                 Running object number                                     
#   2 MAG_AUTO               Kron-like elliptical aperture magnitude                    [mag]
#   3 X_IMAGE                Object position along x                                    [pixel]
#   4 Y_IMAGE                Object position along y                                    [pixel]
#   5 X_WORLD                Barycenter position along world x axis                     [deg]
#   6 Y_WORLD                Barycenter position along world y axis                     [deg]
#   7 A_WORLD                Profile RMS along major axis (world units)                 [deg]
#   8 B_WORLD                Profile RMS along minor axis (world units)                 [deg]
#   9 THETA_WORLD            Position angle (CCW/world-x)                               [deg]
#  10 FWHM_WORLD             FWHM assuming a gaussian core                              [deg]
#  11 ELONGATION             A_IMAGE/B_IMAGE                                           
#  12 ELLIPTICITY            1 - B_IMAGE/A_IMAGE                                       
         1 -14.9685     10.3839    152.1453   1.4313103226e+02   4.2026749662e+01     11.24263     4.349148  72.91   0.04666926    3.444    0.710
         2 -13.2829    195.6259     29.9374   6.7661301626e+01   3.2518850342e+01     1.381616     1.326218  14.83  0.007230129    1.198    0.165
         3 -13.4306    211.2868     10.0887   6.0644080307e+01   3.0899953071e+01      1.24884    0.9442316  38.74  0.007120694    1.646    0.392
         4 -11.7332      3.0813      8.2075   1.1613158946e+02   7.3007229959e+01    0.6841413    0.2067409 -38.13  0.003326447    2.568    0.611
         5 -10.8936    124.8375    250.0939   1.2969531203e+02   7.8617897165e+00    0.5205824    0.1318169  36.06   0.00175225    4.706    0.787
         6 -11.6334    237.9452    246.8968   1.0931594132e+02  -8.8240697713e+00    0.3355564    0.2415269 -27.19  0.002390235    1.578    0.366
         7 -11.6177    243.5352    248.8116   1.0869034860e+02  -9.7932078579e+00    0.3572547    0.2356676   5.45  0.002458113    1.354    0.262
         8 -10.8001    139.5314    250.1299   1.2705342872e+02   5.6152513813e+00    0.3496149    0.1284017  44.50  0.001671488    2.152    0.535
         9 -10.7762     99.5473    248.8574   1.3409649671e+02   1.1790216341e+01    0.3734081    0.1712894  53.65  0.001817447    1.881    0.468
        10 -10.7010    100.5601    245.4969   1.3359383312e+02   1.2195481090e+01    0.2161748    0.1670786  59.30 0.0007643403    1.049    0.047
        11  -8.4637     66.7560    250.0299   1.3991979526e+02   1.6072507104e+01    0.1227899   0.08300909 -83.47 0.0003283907    1.502    0.334
        12 -10.4570     29.4525    249.0731   1.4605199235e+02   2.0695698013e+01    0.3232421    0.2347019  71.01  0.002588793    1.064    0.060
        13 -10.8711     35.2185    244.1317   1.4483687982e+02   2.0907607821e+01    0.3284414    0.2534909  53.11  0.002207253    1.289    0.224
        14 -10.1246      2.2149    249.6368   1.5033005365e+02   2.3399731349e+01    0.1792854    0.1418966  55.03   0.00156775    1.405    0.288
        15  -9.8420     19.2547    242.4915   1.4735645200e+02   2.2927267698e+01    0.1819547    0.1146406  87.19 0.0008085333    1.319    0.242
        16 -10.0905      5.8105    240.9885   1.4942838154e+02   2.4540629352e+01    0.1592225    0.1102717  58.47  0.000408745    1.202    0.168
        17 -10.0573     12.8863    240.1682   1.4826860019e+02   2.3986942938e+01      0.16385   0.09875778  65.83 0.0006560729    1.186    0.157
        18 -10.0027    183.4073    238.8089   1.1760061423e+02   3.3581783974e-01    0.2032892    0.1224161  34.43 0.0005707901    1.379    0.275
        19 -10.5586    120.0013    238.6745   1.2931891454e+02   1.0418304947e+01    0.2125673    0.1500699  73.51  0.000720627    1.585    0.369
        20 -10.6165    229.7346    230.7427   1.0813406585e+02  -5.7946553270e+00    0.3554467    0.1967906 -51.46  0.001694345    3.672    0.728
        21 -10.6315     50.3934    234.7556   1.4164097483e+02   2.0798173306e+01    0.3037296    0.2075087 -43.42  0.001459046    2.592    0.614
        22 -11.6605     22.6294    126.7960   1.3738721681e+02   4.6821923826e+01    0.5586552    0.2241609  47.59  0.002581174    2.810    0.644
        23 -10.9932    198.8416    247.0253   1.1602609841e+02  -3.1401938857e+00    0.2888438    0.2199837 -44.53  0.001971934    1.749    0.428
        24 -12.4477      9.7881    206.7558   1.4708816255e+02   3.0525404083e+01    0.6482434    0.3895233  35.24  0.002922623    1.892    0.471
        25 -11.4187     60.3892    198.3385   1.3664744163e+02   2.6627036711e+01    0.2522022     0.220898 -67.01 0.0005566822    1.341    0.254
        26  -9.6724    192.9507    195.0574   1.0867426321e+02   5.2901496032e+00    0.6438139    0.2844998 -58.27  0.001621672    8.668    0.885
        27 -11.6708     14.9495    196.8357   1.4553387478e+02   3.2024797836e+01    0.2907579    0.1619463  59.44  0.001405941    1.509    0.337
        28 -10.9007      1.9862    193.6322   1.4778549646e+02   3.3848885828e+01    0.5255311    0.1144488 -78.60  0.002141228    3.834    0.739
        29 -10.8770      4.3856    188.3063   1.4702230049e+02   3.4731458850e+01    0.3984455    0.1885684  42.93  0.002436702    1.981    0.495
        30 -10.6242      2.4410    183.2296   1.4709222890e+02   3.5947669031e+01    0.3335464    0.1468574 -80.90  0.001905096    1.814    0.449
        31  -9.5180    153.3283    229.3399   1.2186063622e+02   6.6139476700e+00    0.1231169   0.09191959  10.24 0.0007051634    1.736    0.424
        32 -11.7392     66.7414    190.0084   1.3443382278e+02   2.7542742924e+01    0.2706811    0.2283237 -65.12 0.0004711284    1.308    0.235
        33 -12.5760     33.5294    232.0947   1.4440020027e+02   2.3249984970e+01    0.2647268    0.2344612  83.71 0.0007479507    1.361    0.265
        34 -10.5872     76.9101    177.3117   1.3064626420e+02   2.8885096870e+01    0.2232582    0.2017377  87.80 0.0003315566    1.087    0.080
        35 -13.1097     63.7083    175.1708   1.3336034875e+02   3.1175351321e+01    0.4850129     0.275131 -46.40  0.001857615    2.263    0.558
        36  -8.7546     97.3956    173.3462   1.2539001216e+02   2.6641257803e+01    0.2465516    0.1227001 -55.12 0.0005533877    2.021    0.505
        37 -11.5531     84.4432    168.1336   1.2761624949e+02   2.9819452190e+01    0.5809172    0.5475798 -72.74  0.003662955    1.160    0.138
        38 -13.6839     39.0758    224.7624   1.4294783617e+02   2.3983994492e+01    0.7146674    0.5477812  64.57  0.002461248    1.095    0.087
        39  -9.7031     97.4105    152.1988   1.2185977857e+02   3.1386547751e+01     0.267136    0.2485939  72.58 0.0008081282    1.047    0.045
        40 -11.9376     85.9195    151.2649   1.2456369752e+02   3.3443542849e+01    0.2967316    0.2454814 -47.92 0.0005798867    1.309    0.236
        41  -8.7273    100.2960    148.0418   1.2037401140e+02   3.1855386817e+01    0.1940547    0.1733252 -66.97 0.0003460107    1.082    0.076
        42 -12.1645     67.3228    143.5860   1.2802072650e+02   3.7940962304e+01    0.7108523    0.4282264  63.70  0.002989456    1.950    0.487
        43  -8.2483    191.8070    143.9971   9.8434646068e+01   1.4484084054e+01    0.1876228    0.1126713 -38.59 0.0003486013    1.650    0.394
        44 -10.2322     54.5152    229.5990   1.4052486720e+02   2.1235648092e+01     0.258773    0.1389543  62.00   0.00140577    1.585    0.369
        45  -9.5729    109.2971    137.2514   1.1593589432e+02   3.2750312951e+01    0.4362611    0.2647952 -27.12   0.00158087    2.711    0.631
        46 -10.2388     96.3718    134.4482   1.1871821101e+02   3.5662152850e+01    0.2579938    0.2261519 -32.29 0.0004192007    1.298    0.230
        47 -10.8446     56.3483    130.6395   1.2879961650e+02   4.2421903775e+01    0.5466475    0.2670779  86.97  0.001803395    4.363    0.771
        48 -10.5734     32.1582    132.0048   1.3552951610e+02   4.4744585176e+01    0.3707759    0.1847543  54.81  0.001485381    2.309    0.567
        49  -8.7623     79.0640    131.2902   1.2272411166e+02   3.9165156487e+01    0.2377116    0.1469342  65.14  0.001062752    2.081    0.519
        50  -9.3344     87.8480    129.1082   1.1990498662e+02   3.8314222702e+01    0.2106675    0.1772723  86.33 0.0003133844    1.250    0.200
        51  -8.7764    106.3676    123.8806   1.1376659955e+02   3.6346484238e+01    0.1963953    0.1717792 -52.64  0.000341996    1.104    0.094
        52  -9.9647    167.7542    112.8586   9.5901618170e+01   2.5805086145e+01    0.3418664    0.2713016 -70.46 0.0008421053    1.532    0.347
        53  -8.7544    203.4571    111.4948   8.8370529439e+01   1.7897294173e+01    0.1497548    0.1409064 -14.10 7.466898e-05    1.054    0.051
        54  -9.1235    172.3062    222.3431   1.1722654874e+02   4.5527927939e+00    0.1265442   0.09199215   8.54 0.0007042355    1.689    0.408
        55  -7.9516     38.2974     94.6735   1.2748364111e+02   5.2881856140e+01    0.1269505   0.09403611  82.10 0.0007025594    1.631    0.387
        56 -10.1352    242.5016     92.4945   7.7398511979e+01   1.2517540863e+01    0.1398694    0.1245797 -39.32 -5.749549e-05    1.011    0.011
        57  -9.3030     43.9519     68.0019   1.1905278264e+02   5.8215835562e+01    0.3380364    0.1382561  43.93  0.001385959    3.358    0.702
        58  -8.4730    152.4757    212.9534   1.1966090928e+02   9.4581943861e+00    0.1632163    0.1302654 -53.35 0.0003987481    1.452    0.311
        59  -9.0476     31.9838     62.4574   1.2200229873e+02   6.0606083028e+01    0.1647837    0.1224692  22.69 0.0009781865    1.565    0.361
        60 -10.9746     13.6993     54.8028   1.2717725480e+02   6.3669665006e+01      0.25949    0.1773866  35.51  0.001036913    1.862    0.463
        61 -10.6870      2.1230     51.1026   1.3100262496e+02   6.5118832531e+01    0.2710818    0.1156342 -44.38  0.001475697    1.825    0.452
        62  -9.2622    156.6562    249.6797   1.2391232224e+02   3.0297255363e+00    0.1167597   0.08284745  16.15 0.0007049803    1.725    0.420
        63  -9.3955     47.0192    249.4934   1.4320644294e+02   1.8612420928e+01    0.1542776   0.08302385  45.90 0.0003711557    1.520    0.342
        64 -10.8342      2.9253     38.2743   1.2726100461e+02   6.7648175743e+01    0.2543769     0.153055 -73.86  0.001485994    2.046    0.511
