#   1 NUMBER                 Running object number                                     
#   2 MAG_AUTO               Kron-like elliptical aperture magnitude                    [mag]
#   3 X_IMAGE                Object position along x                                    [pixel]
#   4 Y_IMAGE                Object position along y                                    [pixel]
#   5 X_WORLD                Barycenter position along world x axis                     [deg]
#   6 Y_WORLD                Barycenter position along world y axis                     [deg]
#   7 A_WORLD                Profile RMS along major axis (world units)                 [deg]
#   8 B_WORLD                Profile RMS along minor axis (world units)                 [deg]
#   9 THETA_WORLD            Position angle (CCW/world-x)                               [deg]
#  10 FWHM_WORLD             FWHM assuming a gaussian core                              [deg]
#  11 ELONGATION             A_IMAGE/B_IMAGE                                           
#  12 ELLIPTICITY            1 - B_IMAGE/A_IMAGE                                       
         1 -13.2346    166.8196     42.4219   7.0348104506e+01   3.8321496278e+01     1.449314     1.126163   3.34  0.004415171    1.427    0.299
         2 -13.4002    183.4017      9.2769   5.6373298289e+01   3.7871160683e+01     2.006004     1.214173  59.87  0.008110422    1.557    0.358
         3  -8.5681    159.9527    248.2799   1.1374117676e+02   8.2267511935e+00    0.1419533    0.1011262  42.50 0.0005066233    1.055    0.052
         4  -8.6219    137.9189    250.5342   1.1732412691e+02   1.1108549009e+01    0.1512385   0.07235239  44.51 0.0004088592    1.481    0.325
         5 -18.8337     63.5857    230.7497   1.2729230407e+02   2.3399217558e+01       4.0376      2.79005  54.53   0.02214586    1.137    0.121
         6  -9.3750    179.9380    193.5957   1.0363510449e+02   1.1658432592e+01     0.238764    0.1728773  69.00  0.001427756    1.871    0.466
         7 -10.4405    170.0138    183.9325   1.0392259215e+02   1.4703755281e+01    0.3941343    0.2291295  55.84  0.001315683    1.784    0.440
         8 -11.1666    172.4025    189.0984   1.0428538022e+02   1.3563731155e+01    0.4653096    0.3436508   5.05  0.002817298    1.831    0.454
         9 -10.4284    164.3336    188.9323   1.0570667233e+02   1.4978595976e+01    0.3657717    0.2196514  17.88  0.001570746    2.842    0.648
        10 -11.9728    244.2262    239.5028   9.9981813894e+01  -3.2707047721e+00    0.1882092    0.1447017  29.59 0.0002538299    1.205    0.170
        11 -10.8910    187.7115    240.5774   1.0862191832e+02   4.9487313259e+00    0.2498465    0.1897618 -42.41 0.0006967303    1.854    0.461
        12  -9.1115    198.9357    179.1731   9.7993710894e+01   1.0193556867e+01    0.4199023    0.2731908 -68.37  0.001910448    3.641    0.725
        13 -11.3584    194.8083    169.1218   9.6963662747e+01   1.2281845777e+01    0.3713405    0.3432484  -6.17 0.0008609583    1.187    0.157
        14 -10.7819    192.4947    164.0306   9.6456405661e+01   1.3419899436e+01    0.3775178    0.2775363  23.92  0.001505135    1.361    0.265
        15  -8.3577    136.7355    180.4032   1.0957428180e+02   2.0951681558e+01    0.1666165    0.1021204  38.21 0.0004930145    1.547    0.354
        16 -11.4687    204.2810    176.7114   9.6638873830e+01   9.5440991496e+00     0.874988    0.4118164 -52.90  0.003384056    4.629    0.784
        17 -10.1712    202.4477    170.5128   9.5858771968e+01   1.0679794254e+01    0.2572247    0.2364348 -37.72 0.0009992106    1.342    0.255
        18 -10.2142    204.7480    167.6990   9.4943200193e+01   1.0622605328e+01    0.4705006    0.3258494 -55.59  0.002549979    2.200    0.546
        19 -11.9272    136.4822    171.5882   1.0834084596e+02   2.2434330091e+01     1.063596    0.5012151  64.56  0.003925075    4.082    0.755
        20  -9.4937     36.6738    174.8523   1.2815150806e+02   3.5575245428e+01    0.2854883    0.1306298  49.31  0.001474261    1.820    0.451
        21  -9.2718     35.1667    169.5772   1.2805419055e+02   3.6696799693e+01    0.3098649    0.1703909  82.24  0.001344826    1.613    0.380
        22  -9.5167    175.6154    167.9902   1.0027228423e+02   1.6010085285e+01    0.2638993    0.1602065 -57.59   0.00131734    2.389    0.581
        23 -10.0691    175.8414    231.8413   1.0944798257e+02   7.6777138227e+00    0.2433526    0.1578585 -28.98  0.001131324    2.205    0.546
        24 -10.3715    126.8741    173.6682   1.1051757143e+02   2.3691443301e+01    0.4145733    0.2254083  57.92  0.001467224    1.888    0.470
        25  -8.7317     14.1109    222.3496   1.3443286622e+02   2.9824506708e+01    0.1293389   0.09264156  88.09 0.0004694162    1.327    0.246
        26  -9.0445    122.7889    166.7902   1.1033517602e+02   2.5544537881e+01    0.2310925    0.1447477  52.61 0.0004739805    1.429    0.300
        27 -10.3253      7.4244    221.7812   1.3540645295e+02   3.0514889913e+01    0.1411153    0.1010266  71.04 0.0004415503    1.136    0.119
        28  -9.1909     23.6076    166.7950   1.3006433113e+02   3.8327395720e+01    0.1672288     0.137652  12.71  0.001294518    1.993    0.498
        29  -9.1996    150.6669    245.9991   1.1493997974e+02   9.8212628833e+00    0.1656961    0.1364053  48.72 0.0006735348    1.159    0.137
        30  -9.0481    249.1092    161.6729   8.6426487603e+01   3.2487805979e+00    0.1828144    0.1567258 -10.54 0.0004907423    1.246    0.197
        31  -9.7600    103.9996    144.7670   1.1092962137e+02   3.2651227937e+01    0.2679856    0.1924772 -73.21 0.0007000461    1.454    0.312
        32 -10.7547    105.3674    157.7429   1.1258654783e+02   2.9970401018e+01    0.3310561    0.2125524 -60.25  0.001710051    1.637    0.389
        33 -11.8909    108.7367    152.3727   1.1108410219e+02   3.0444689444e+01    0.5645633    0.5253478  48.25  0.001525906    1.181    0.153
        34  -8.8380    249.9617    156.8672   8.5348505197e+01   3.6236035271e+00    0.1864739    0.1510383  18.76 0.0004207005    1.031    0.030
        35  -9.0622    171.1867    155.1203   9.8799722460e+01   1.8811629454e+01    0.1934183    0.1635869  26.53 0.0002966502    1.174    0.148
        36 -10.7964    133.8720    146.7431   1.0482233603e+02   2.7215776376e+01     1.018573    0.2750797 -55.71   0.00293293    5.942    0.832
        37  -9.0513    210.3330    205.3249   1.0028230813e+02   5.1180344173e+00    0.1210834    0.0740556  21.24 0.0005396783    1.710    0.415
        38  -8.2195    249.9996    151.9366   8.4353884496e+01   4.1642314930e+00     0.152164    0.1236833  15.14 0.0003767221    1.003    0.003
        39 -10.3532    217.8304    150.1121   8.9260360685e+01   1.0441417391e+01    0.2347115    0.1829224  35.58 0.0003513597    1.136    0.120
        40 -10.5410    157.3835    200.7009   1.0860151160e+02   1.4495076800e+01    0.2739764    0.2332746  83.58  0.001952589    1.426    0.299
        41 -10.6960    163.3938    203.2034   1.0788932916e+02   1.3165851214e+01    0.3642286     0.255514 -88.41   0.00115781    2.423    0.587
        42  -8.9166    153.1833    202.9489   1.0963458828e+02   1.4869452417e+01     0.174975    0.1374351  65.64  0.001202244    1.345    0.256
        43  -9.3550     27.1187    145.1361   1.2777051560e+02   4.2156774600e+01        0.157    0.1271225 -80.65 0.0005782158    1.203    0.169
        44 -11.0082    115.8714    137.2888   1.0705189466e+02   3.2149430590e+01    0.4558778    0.2561257 -43.06  0.002211535    2.093    0.522
        45  -9.1444     28.7987    140.1447   1.2698499399e+02   4.2996164666e+01     0.196072    0.1495061  34.93  0.000791447    1.594    0.373
        46 -10.9910    105.9941    136.8954   1.0919861988e+02   3.3870597505e+01    0.2559782     0.222123  58.77 0.0005610369    1.086    0.079
        47 -10.1206      6.2571    137.6290   1.3162608431e+02   4.5367988122e+01     0.186327    0.1639989 -85.87 0.0009418236    1.294    0.227
        48 -11.5720     44.3168    130.0931   1.2247481549e+02   4.3521193170e+01    0.5707352    0.2266097 -80.71  0.002570928    2.830    0.647
        49 -10.5564     39.6224    125.7240   1.2307536712e+02   4.4909080585e+01    0.2705835    0.2183635  80.48   0.00105713    1.072    0.067
        50 -11.8451     45.8605    124.1558   1.2140060170e+02   4.4596087362e+01    0.5010155    0.3065415  27.71  0.002974436    2.091    0.522
        51 -10.5738    135.1908    122.7054   9.9874876134e+01   3.1450733079e+01    0.7574157    0.1410535 -47.90  0.002005494    5.734    0.826
        52  -8.3323    165.2854    132.6505   9.5516160798e+01   2.3666778467e+01    0.1361447    0.1094892 -86.15 0.0007020433    1.656    0.396
        53  -9.0048    236.9671    132.0487   8.2226336303e+01   8.9973970781e+00    0.1972492    0.1712496  16.94 0.0003404137    1.035    0.034
        54 -10.4984    120.2909    128.7709   1.0448182472e+02   3.3036903013e+01    0.2866225    0.2263471 -47.65 0.0009883184    1.343    0.255
        55  -9.3159    160.3921    128.6863   9.5682615461e+01   2.5347598470e+01     0.296052    0.2315384  89.56  0.001472375    1.729    0.422
        56  -9.1859    100.8116    127.6505   1.0878251336e+02   3.6554679958e+01    0.2134305    0.1706377 -53.32 0.0007199026    1.297    0.229
        57  -9.9669     26.3367    126.3426   1.2625813227e+02   4.6026555860e+01    0.2597306    0.1612657 -72.84 0.0009305656    1.346    0.257
        58  -9.8880    109.0646    124.6362   1.0628791100e+02   3.5803643874e+01    0.2360596    0.2228484  55.82 0.0005101854    1.102    0.092
        59  -9.0802     17.5455    129.9584   1.2859394605e+02   4.6028331538e+01    0.1898433    0.1419564 -60.26  0.001055001    1.472    0.320
        60  -9.8613      5.0083    120.9919   1.3072695533e+02   4.8792040540e+01    0.2088635    0.1495551  -4.85  0.001463758    2.373    0.579
        61  -9.7475     30.2780    118.8882   1.2454821992e+02   4.7227507569e+01    0.1812653    0.1331046  59.94 0.0007074268    1.330    0.248
        62 -12.2800     65.4183    108.2098   1.1414282635e+02   4.5729107690e+01    0.8793437    0.7796271  81.53  0.005657075    1.084    0.077
        63  -8.7907     34.3400    114.3193   1.2301846013e+02   4.7818872685e+01    0.1124336   0.07858618 -46.51 0.0007049687    1.713    0.416
        64 -10.7289     96.8806    111.3837   1.0665297625e+02   4.0532052537e+01    0.3492903    0.3149058 -21.43  0.001354076    1.369    0.270
        65  -9.3177    121.6903    199.3763   1.1477883796e+02   2.0360060189e+01    0.1908661    0.1619017  49.39   0.00038371    1.136    0.120
        66  -9.3099    114.0744    118.3535   1.0386306101e+02   3.6201750213e+01    0.2349464    0.1909488 -66.87 0.0003719932    1.247    0.198
        67 -10.4389    115.5162    110.3980   1.0183206067e+02   3.7547265155e+01    0.4566526    0.2136248  34.28  0.001255905    2.731    0.634
        68  -9.3469    134.4510    106.2659   9.6350956160e+01   3.4753639184e+01    0.3445997    0.1371901 -47.37  0.001291229    2.575    0.612
        69  -9.0447    113.4446     95.0177   9.8773511144e+01   4.1043816315e+01    0.2078954    0.1903896  49.88 0.0005751204    1.119    0.106
        70  -8.8496    177.0756     85.9594   8.1668728408e+01   2.9010774844e+01    0.2135307    0.2038183  18.36            0    1.010    0.010
        71  -7.8892    145.6976     81.3097   8.7160514922e+01   3.7080666284e+01    0.1479226    0.1181647 -77.12 0.0004436842    1.606    0.377
        72  -9.7433    233.0478     76.6171   6.9390998863e+01   1.7061985805e+01    0.2616645    0.2298971  19.77 0.0004535597    1.110    0.099
        73  -9.7361    153.7933    193.9133   1.0831508552e+02   1.6048252858e+01    0.2672422    0.1552179 -35.00  0.001480545    2.426    0.588
        74  -8.7177    119.1352     69.5242   9.0267770960e+01   4.4981065997e+01    0.2180116    0.1852443 -39.73 0.0003772418    1.134    0.118
        75 -12.6095    154.8521     57.4902   7.7795851567e+01   3.9048718065e+01     1.246736     1.224244  87.17  0.003856417    1.096    0.088
        76 -10.3586    133.5174    247.7129   1.1774210550e+02   1.2054945851e+01    0.1804411    0.1455203  53.62 0.0005216203    1.148    0.129
        77 -11.4476    170.8983     34.6995   6.6979807029e+01   3.8308900175e+01    0.4747814    0.3956007  19.71 0.0008807808    1.252    0.201
        78  -9.4669    100.1720     61.3146   9.2973348479e+01   5.0250005284e+01    0.4457766    0.2485661  57.47  0.001907654    2.365    0.577
        79 -10.2920    131.4566     46.9672   7.9651387122e+01   4.6313655072e+01    0.2571408    0.2444216   3.03 0.0002062668    1.017    0.016
        80  -9.3189    226.8015     27.9464   5.6754559176e+01   2.4517408072e+01    0.3463899     0.195461 -24.34  0.001478509    1.693    0.409
