#   1 NUMBER                 Running object number                                     
#   2 MAG_AUTO               Kron-like elliptical aperture magnitude                    [mag]
#   3 X_IMAGE                Object position along x                                    [pixel]
#   4 Y_IMAGE                Object position along y                                    [pixel]
#   5 X_WORLD                Barycenter position along world x axis                     [deg]
#   6 Y_WORLD                Barycenter position along world y axis                     [deg]
#   7 A_WORLD                Profile RMS along major axis (world units)                 [deg]
#   8 B_WORLD                Profile RMS along minor axis (world units)                 [deg]
#   9 THETA_WORLD            Position angle (CCW/world-x)                               [deg]
#  10 FWHM_WORLD             FWHM assuming a gaussian core                              [deg]
#  11 ELONGATION             A_IMAGE/B_IMAGE                                           
#  12 ELLIPTICITY            1 - B_IMAGE/A_IMAGE                                       
         1 -11.9044    101.5535     25.6462   5.0782094843e+01   5.5341028134e+01    0.2859768    0.2169419  67.20  0.001236831    1.397    0.284
         2 -11.4350    216.7306     14.3689   3.0724495170e+01   3.0349756076e+01    0.2723586    0.1771111  69.83   0.00118564    1.492    0.330
         3 -12.3549     84.0946     23.8800   5.4888421231e+01   5.9254447536e+01      0.33972    0.2782461 -73.73   0.00198349    1.811    0.448
         4 -11.0703     93.5997      9.2197   4.6635014725e+01   5.8693166953e+01     0.165542    0.1149399   3.32 0.0009542105    1.677    0.404
         5 -10.6979    210.1640      7.3451   2.9781313464e+01   3.2470285125e+01    0.1732899    0.1574712 -47.99 0.0006682498    1.325    0.245
         6  -9.6901    102.3088      8.2901   4.4302758890e+01   5.6860378483e+01    0.1307767    0.0798149  37.53 0.0002474628    1.579    0.367
         7 -10.6781    144.4452      5.0756   3.6025649724e+01   4.7457505371e+01    0.2227596     0.159126 -89.91  0.001331058    1.355    0.262
         8 -10.9088    131.1687      3.7545   3.7538330071e+01   5.0650198357e+01    0.2071846    0.1545994 -61.82 0.0005119418    1.511    0.338
         9 -10.8117    233.3225      3.2077   2.7312694185e+01   2.8179354256e+01     0.174695    0.1291748  80.36 0.0006098688    1.308    0.236
        10  -9.8572    144.5019    224.9626   9.0151194256e+01   6.4178878789e+00    0.1872694     0.108825 -25.53 0.0008073318    2.394    0.582
        11 -11.0857     88.7891    250.7249   1.0577485577e+02   9.6039125509e+00    0.1757564   0.08999297  40.99 0.0003036085    1.630    0.387
        12 -15.3576     28.4570    147.2106   1.0865585801e+02   4.1306879041e+01     5.766375     2.332835 -45.34   0.02281172    2.662    0.624
        13 -15.2949     42.6968    234.2450   1.1402470755e+02   1.8829361925e+01     1.418748    0.8115239  39.04   0.00797244    1.571    0.364
        14 -15.2454     30.6787    221.8938   1.1562497749e+02   2.2853818984e+01     1.362189     1.087169 -26.52  0.008433248    1.848    0.459
        15 -17.6373     59.1273    224.8212   1.0961817590e+02   1.8887371222e+01     3.392758     2.046645  56.48   0.01804258    1.570    0.363
        16 -18.5818     70.4868    194.9204   1.0350966790e+02   2.4330293814e+01     6.842263     5.513203 -48.89   0.03791446    1.344    0.256
        17 -10.1757    212.4845    224.5124   7.5825901657e+01  -3.6324214054e+00    0.1286445    0.1055358  -4.12 -4.234802e-05    1.021    0.020
        18 -12.9430    173.3763    220.0513   8.3009076521e+01   2.8495960841e+00     0.387135    0.2506578 -40.71  0.001679976    1.584    0.369
        19 -10.5132    159.4907    222.0467   8.6357319471e+01   4.6352773153e+00    0.1888095    0.1341805 -45.95 0.0004275571    1.518    0.341
        20 -12.6524    166.6017    219.8346   8.4434029864e+01   3.9413992316e+00    0.3321091    0.3047026  84.76  0.001987707    1.492    0.330
        21 -10.7231    152.8801    220.9522   8.7640340634e+01   5.8822695616e+00    0.2035111    0.1662974  -6.97 0.0002814542    1.270    0.213
        22  -9.9182    127.0000    229.8501   9.4816095698e+01   8.1627805089e+00    0.1969751   0.07799755 -54.34 0.0007825763    2.807    0.644
        23 -10.3871    223.3243    220.1382   7.3007123448e+01  -4.3973770785e+00    0.1679085     0.134844 -20.11 0.0003285095    1.127    0.113
        24 -11.7845    194.0430    219.5001   7.8597031670e+01  -1.7580278438e-01      0.22387     0.166531  -7.09  0.001102337    1.294    0.227
        25 -11.6843    139.0032    217.9131   9.0284567253e+01   8.6860252064e+00    0.2027849    0.1950939 -16.52 0.0003202265    1.095    0.087
        26 -10.7136    130.7280    215.9727   9.1886431253e+01   1.0404241515e+01     0.283959    0.1790155 -40.36  0.001288217    1.746    0.427
        27 -10.5848    148.9897    215.2570   8.7577497433e+01   7.6221504547e+00    0.3426051    0.1616166 -38.17  0.001404204    2.429    0.588
        28 -12.4458     37.2098    250.0038   1.1629976237e+02   1.6209464197e+01    0.2577405    0.1768525  60.34 0.0009339222    1.200    0.167
        29 -10.6599    232.9060    215.2084   7.0376845455e+01  -4.8839524847e+00    0.1722386     0.147724  -4.68 0.0003166364    1.165    0.142
        30 -12.3787    155.6162    212.4811   8.5613557346e+01   7.1067151756e+00     0.466163    0.4103557 -70.32  0.002668117    1.435    0.303
        31 -12.2428    180.7153    210.6397   7.9794985037e+01   3.4466843589e+00     0.312074    0.2018242 -23.90  0.001040946    1.657    0.396
        32 -10.9820     13.5923    212.0970   1.1860490992e+02   2.6763283700e+01    0.2898957    0.2071085  25.59  0.001066739    1.659    0.397
        33 -11.3969    209.3552    211.7295   7.4157961142e+01  -1.0798078319e+00    0.2304704    0.1530142  39.93  0.001082285    1.714    0.416
        34 -13.5327    181.8378    213.7192   8.0106527048e+01   2.7023164119e+00    0.5978091    0.2988075  26.90   0.00221044    2.067    0.516
        35 -10.5683    143.3715    210.3702   8.8047261638e+01   9.5254105736e+00    0.2201576    0.1641307  -9.86 0.0007566093    1.603    0.376
        36 -11.4600    229.4101    206.6337   6.9453118737e+01  -3.0510316993e+00     0.260047    0.1742331 -37.65  0.001342341    1.416    0.294
        37 -12.4770     33.0021    249.2144   1.1707391609e+02   1.6836168309e+01    0.2279187    0.2199898   2.90  0.001414288    1.449    0.310
        38 -11.6004    166.3846    196.9203   8.0406852133e+01   8.4524567296e+00    0.3353104    0.2170954   3.04  0.001466586    2.111    0.526
        39 -13.0943    168.1738    204.4261   8.1391263171e+01   6.6537739366e+00    0.5776214    0.4184486  68.31  0.001944844    2.312    0.567
        40 -10.4386    172.8196    201.8885   7.9905377185e+01   6.3893088951e+00    0.1930708    0.1700015 -23.15            0    1.097    0.088
        41 -10.8015    219.4611    206.4577   7.1257906027e+01  -1.6376297299e+00    0.2886737    0.1444891  29.38   0.00139204    2.070    0.517
        42 -12.7041     15.9914    241.8387   1.1993851528e+02   2.0120334603e+01     0.337611    0.1908127  61.38  0.002051488    1.472    0.320
        43 -11.3406    113.2788    196.3137   9.2929287047e+01   1.7541254292e+01      0.24847    0.2048129  21.63  0.000942382    1.261    0.207
        44 -11.6618    114.9313    204.0479   9.3767225651e+01   1.5516475143e+01    0.3611692    0.3136051 -17.55  0.001359271    1.296    0.228
        45 -11.9277    114.4241    199.8304   9.3218278698e+01   1.6550554934e+01    0.4388188    0.3305099 -17.85  0.001217506    1.693    0.409
        46  99.0000      6.4074    201.0987   1.1944113793e+02   2.9921319869e+01    0.3624354    0.1665542  22.37    0.0017329    2.652    0.623
        47 -10.8073     18.2127    205.7590   1.1714589351e+02   2.7777248478e+01    0.3013811    0.1546116  46.60  0.001592422    1.779    0.438
        48 -10.3505     14.3216    201.9490   1.1773770788e+02   2.9024972537e+01    0.2569399     0.149453  33.01  0.001079656    1.787    0.440
        49 -10.4135     10.2931    206.3442   1.1893581782e+02   2.8374214531e+01    0.1181658    0.0837962 -52.67 0.0007029354    1.661    0.398
        50 -12.5325    146.1205    202.9110   8.6129943842e+01   1.0625594790e+01    0.3695047    0.3272785  29.44 0.0004445542    1.082    0.076
        51 -10.4101    207.2840    201.9366   7.2755715477e+01   9.2331624480e-01    0.1877471    0.1504331 -23.62  0.000317623    1.113    0.102
        52 -11.1758     13.6009    238.2273   1.2020015822e+02   2.1100310948e+01     0.187042    0.1461244  82.46 0.0006299871    1.113    0.101
        53 -11.4582    121.7157    200.5098   9.1543356364e+01   1.5207216396e+01    0.3393003     0.257925 -34.21  0.001040207    1.456    0.313
        54 -12.7744    125.1983    195.9698   8.9927093275e+01   1.5649194018e+01    0.5033392    0.2920956  41.61  0.001407817    1.675    0.403
        55 -10.9193    169.1695    243.1388   8.7629216216e+01  -5.8736117004e-01    0.1607803    0.1446948  35.75 0.0003755525    1.272    0.214
        56 -10.9821    212.6436    200.2678   7.1400953899e+01   4.1311137539e-01    0.2774034     0.225847  75.01  0.001459569    2.270    0.560
        57 -12.2224    224.5029    197.1049   6.8574133857e+01  -7.7970901539e-01      0.42008    0.2142557 -25.87  0.001947258    2.048    0.512
        58 -11.2573    192.5212    198.9260   7.5159671960e+01   3.7607140713e+00    0.2865088    0.1284394 -42.70 0.0007950701    2.160    0.537
        59 -12.0151    190.4108    195.3509   7.4916720804e+01   4.7725065988e+00    0.3198227    0.2368091  10.03  0.001693928    1.404    0.288
        60 -11.0599    137.8967    199.1114   8.7401856171e+01   1.2818682116e+01    0.2428901    0.1888808  46.98 0.0005403202    1.333    0.250
        61 -12.4921    141.4444    196.6361   8.6118562960e+01   1.2754618464e+01    0.3885574    0.3144757  31.70  0.002053983    1.188    0.158
        62 -10.5005    156.5459    243.4359   9.0328771585e+01   1.1943335735e+00    0.1840892    0.1697458 -50.17 0.0005736186    1.334    0.251
        63  -9.8985    238.5220    196.4728   6.5951497098e+01  -2.6373174827e+00    0.1289127    0.1034182 -17.57  8.63325e-05    1.008    0.008
        64 -10.4829    212.5378    194.4866   7.0323460246e+01   1.4468042783e+00    0.2338709     0.120131 -50.19 0.0008371828    2.349    0.574
        65 -12.9426      7.2380    193.0445   1.1870506698e+02   3.1733915050e+01     0.541171    0.3735199 -64.71   0.00264548    1.407    0.289
        66 -10.7697     13.1142    194.2964   1.1744550976e+02   3.0932376754e+01    0.2360558    0.1581086 -46.17  0.001341086    1.823    0.451
        67 -11.1693    184.4946    193.9971   7.5900398009e+01   6.0015342870e+00     0.206142    0.1324201 -40.80 0.0003854739    1.511    0.338
        68 -12.7533    160.3718    191.7289   8.0789493860e+01   1.0548478389e+01    0.4490207    0.3720121  71.33  0.001599059    1.640    0.390
        69 -11.7239    166.9511    191.1117   7.9179530371e+01   9.5420570025e+00    0.4042003    0.1881595  44.76  0.001592312    2.357    0.576
        70 -10.9984    233.8161    192.1546   6.5960928760e+01  -1.2729751254e+00    0.1884627    0.1329967 -12.38 0.0008270889    1.353    0.261
        71 -11.5551    195.7086    195.3071   7.3816156481e+01   3.9267139026e+00    0.2908765    0.2112574  -6.73  0.001474413    1.461    0.316
        72 -10.3986    201.5508    192.4759   7.2090001723e+01   3.5202544609e+00    0.1381125     0.121091 -13.46 0.0001217199    1.027    0.026
        73 -11.5791    159.6133    242.2379   8.9500928516e+01   9.5352838697e-01     0.244289     0.202979  25.98 0.0005386097    1.081    0.075
        74 -11.0288     20.9222    190.2950   1.1528503277e+02   3.1178133946e+01    0.2536508    0.1901504  77.25  0.001210943    1.185    0.156
        75 -10.3924    116.5841    239.7127   9.8479374819e+01   7.7894659344e+00    0.2267061    0.1634815  61.45 0.0009013403    1.601    0.376
        76 -10.7185    174.1875    189.8267   7.7322524057e+01   8.5619260988e+00    0.2016801    0.1597252  -9.49 0.0004866719    1.314    0.239
        77 -12.7415    150.6630    196.4163   8.3907397291e+01   1.1229375364e+01     0.541575     0.333152  70.33  0.001888982    3.775    0.735
        78  -9.8444     20.5816    239.9893   1.1893493727e+02   2.0035261146e+01    0.1979376     0.100156 -78.30  0.001104695    1.865    0.464
        79 -10.7389    226.1570    187.8431   6.6503206725e+01   5.6670956476e-01    0.1835294    0.1372669  -5.73 0.0006568986    1.316    0.240
        80 -10.3936    208.6184    186.8190   6.9594052748e+01   3.4383631025e+00    0.1871754    0.1209021 -47.02 0.0005836192    1.627    0.385
        81 -10.8198    248.6402    185.8721   6.2250192675e+01  -2.2839647290e+00    0.2024589    0.1555388   5.39 0.0006588568    1.320    0.242
        82 -12.4995    176.3953    184.2126   7.5735696784e+01   9.3188981245e+00    0.4558804    0.2383653 -53.31  0.001361316    2.251    0.556
        83 -11.7932     17.9086    183.1010   1.1539151466e+02   3.3202344916e+01    0.2481255    0.2250268  61.13 0.0009584524    1.165    0.142
        84 -10.9999     22.5694    180.4541   1.1399447983e+02   3.3427430740e+01    0.2195398    0.2047046 -31.73 0.0006789384    1.326    0.246
        85 -11.5006    144.7193    181.5466   8.2514348786e+01   1.5505449157e+01     0.345992    0.2395722  23.89 0.0009103553    1.553    0.356
        86 -11.3824    140.6433    181.7128   8.3537202253e+01   1.6195634222e+01    0.2571175    0.2063395   3.25  0.000777521    1.415    0.293
        87 -10.3835      9.1527    182.3109   1.1745416086e+02   3.4143982986e+01    0.1678648    0.1174289  66.64 0.0004726727    1.325    0.245
        88 -11.6818    206.4811    236.5114   7.9030318858e+01  -4.7179860789e+00     0.296139    0.2146263  51.02  0.001665988    2.173    0.540
        89 -10.3768    107.9408    238.3258   1.0021270907e+02   9.3277164170e+00    0.1878972     0.112315  24.10 0.0009214344    1.772    0.436
        90 -11.4395    149.0172    179.6604   8.1110119919e+01   1.5153395220e+01    0.2515785     0.204502 -58.02 0.0007327971    1.348    0.258
        91 -11.3875    191.7144    177.7218   7.1165636958e+01   7.9632688846e+00    0.3195846    0.2433486 -25.99  0.001681842    1.251    0.200
        92 -11.7654    174.4885    174.9079   7.4274537686e+01   1.1570587642e+01    0.3754859      0.22382 -28.94  0.001153612    1.879    0.468
        93 -12.9782    143.1430    172.1032   8.1021488999e+01   1.7919683330e+01    0.5493227    0.4215946 -74.29   0.00113236    1.692    0.409
        94 -12.5494    176.9734    234.5189   8.4649484400e+01  -2.5619700512e-01    0.3337913    0.2122205  24.12  0.001308606    1.436    0.304
        95 -10.3556     17.6056    174.9853   1.1473433676e+02   3.5227525692e+01    0.1768176    0.1384744 -78.56 0.0004381397    1.099    0.090
        96 -12.2588    159.9825    170.7299   7.6703465997e+01   1.5113088142e+01    0.5121537    0.2787913 -31.40  0.002004325    2.195    0.544
        97 -11.8090    159.2652    233.3367   8.8216010492e+01   2.5805954260e+00    0.3917677    0.2318174  22.75  0.001952742    1.669    0.401
        98  -9.8575    234.3169    172.6703   6.2098705812e+01   1.9795736229e+00    0.1238193    0.1017331 -62.94 0.0005190899    1.682    0.406
        99 -11.0636    171.6378    166.9838   7.3254488993e+01   1.3756050030e+01    0.3438082    0.1370455 -45.62  0.001232696    2.427    0.588
       100 -11.3057    154.7993    230.3228   8.8713439575e+01   3.8093463294e+00    0.3210315    0.1636562  31.11 0.0009782595    1.801    0.445
       101 -12.2488    153.2062    166.8614   7.7494584056e+01   1.7230288874e+01    0.3113224    0.2574901  56.44  0.001532888    1.386    0.279
       102 -10.1831    118.6428    232.2397   9.7030558269e+01   8.9542194156e+00    0.1703468    0.1205405 -41.59 0.0008397278    1.606    0.378
       103  -9.9328      4.1765    159.2006   1.1677306968e+02   4.0205013915e+01    0.3131511    0.1459684 -47.50  0.001468013    2.296    0.564
       104 -12.0879    112.4771    228.4380   9.7910179079e+01   1.0651908615e+01    0.3341634    0.2676575  72.40  0.000467875    1.451    0.311
       105 -11.7149    159.8936    157.1759   7.3826005894e+01   1.8104892923e+01    0.2203312     0.212367 -89.86 0.0003922232    1.170    0.145
       106 -10.0018    184.3390    156.6413   6.8267358011e+01   1.3541495069e+01     0.149945    0.1194162 -82.08 0.0007038002    1.819    0.450
       107 -11.0011    211.9560    154.1562   6.2277932117e+01   8.9966573377e+00    0.2419192    0.1847114 -40.39 0.0003606203    1.184    0.156
       108 -10.7004    116.9116    228.5442   9.6915783810e+01   9.9608813798e+00    0.1970131    0.1738097  10.19 0.0003874656    1.194    0.162
       109 -13.2123    150.1284    151.1257   7.4814997906e+01   2.1362745073e+01    0.6666666    0.3688717 -31.47  0.002529741    2.212    0.548
       110 -13.1976    143.8923    150.0262   7.6107037175e+01   2.2839969278e+01    0.7878036    0.2958616  36.13  0.002538531    2.955    0.662
       111 -11.4697    180.2609    150.6185   6.7805639610e+01   1.5565546293e+01    0.3212915     0.255251  84.72   0.00109717    1.822    0.451
       112 -10.4545    221.8038    231.3670   7.5242706283e+01  -5.9387274702e+00    0.1702837    0.1002982  17.89  0.000793839    1.635    0.389
       113 -11.3988     11.0335    149.7924   1.1398916522e+02   4.2077559239e+01    0.4299559    0.1602337  30.86  0.001333775    2.783    0.641
       114 -12.2448     10.0257    229.0937   1.2039122541e+02   2.3363991274e+01    0.4921761    0.2112724  60.18  0.002521697    2.089    0.521
       115 -11.8816    164.9195    148.5056   7.0725359341e+01   1.9019932619e+01    0.3239268    0.2450322 -77.43  0.001450568    1.874    0.466
       116 -12.1716    159.1744    149.1339   7.2200037689e+01   2.0020686039e+01    0.3607042     0.260331 -78.65  0.001520597    2.121    0.529
       117 -11.4428     13.1994    225.2677   1.1952581168e+02   2.3884517314e+01    0.4001308    0.1882831  24.74  0.001629495    2.530    0.605
       118 -10.9126    171.6199    144.1331   6.8219872370e+01   1.8628643602e+01    0.2401344    0.2036843   6.52            0    1.315    0.240
       119 -11.7321    149.5546    143.8383   7.3292343270e+01   2.3124247422e+01    0.2770669    0.2245098 -73.20 0.0004426794    1.508    0.337
       120 -10.3480    211.5165    143.5061   6.0074385821e+01   1.1095901440e+01    0.1426222    0.1263143 -36.93 0.0008101665    1.036    0.035
       121 -12.6629     11.5633    220.4068   1.1956580536e+02   2.5100333167e+01    0.2973344    0.2111913 -69.82  0.001277506    1.414    0.293
       122 -10.9890    185.3075    228.3124   8.1899815530e+01  -4.1105499724e-01    0.1357613   0.09150806  -4.46 0.0002434365    1.622    0.383
       123 -15.4478     96.7680    194.0368   9.6715627912e+01   2.0703986354e+01     1.398836    0.7975821 -78.29  0.005088259    2.449    0.592
       124 -14.2768    116.2311    131.6811   7.9173189940e+01   3.2582698974e+01    0.9182332    0.7001761 -88.31  0.004044499    1.814    0.449
       125 -12.8803    119.4507    123.9769   7.6376110686e+01   3.3773554233e+01    0.3945819    0.3448982   8.22 0.0003296326    1.258    0.205
       126 -12.1624    120.3085    120.3231   7.5210947563e+01   3.4450201352e+01    0.4074017    0.2899403 -21.73  0.001596443    1.751    0.429
       127 -12.1536     51.0970    137.9440   1.0031669342e+02   4.1336210515e+01    0.3212186    0.2281902 -88.82  0.000993482    1.612    0.380
       128 -10.9653    137.9217    130.9680   7.3149964225e+01   2.8414150179e+01    0.2610181    0.2253071  36.21  0.000498557    1.189    0.159
       129 -13.0443    131.4361    132.2240   7.5149524282e+01   2.9446289657e+01    0.5679537    0.4193769 -29.61  0.001053581    1.485    0.327
       130 -11.3943     17.2490    136.3877   1.1059756837e+02   4.5020789015e+01    0.2775975    0.2282384  29.05 0.0007940963    1.409    0.290
       131 -11.8737     20.5266    133.9748   1.0926807911e+02   4.5381502035e+01    0.2600926    0.2424039  -2.37 1.881965e-05    1.258    0.205
       132 -10.3336      3.3679    136.2672   1.1474940204e+02   4.5998847220e+01    0.1804392    0.1048415 -83.87 0.0003926232    1.554    0.357
       133 -11.2274    140.9408    134.2767   7.3180763452e+01   2.7041371974e+01     0.436715    0.3276469  14.94  0.001742339    1.662    0.398
       134 -11.6005     51.9816    132.8385   9.9114892017e+01   4.2549908131e+01    0.2344824     0.187148 -32.06  0.001231526    1.331    0.249
       135 -10.3759     10.1591    131.2070   1.1211389036e+02   4.6841493270e+01    0.2718743    0.1562332 -83.21  0.001123896    1.657    0.397
       136 -13.1659    154.3159    129.6894   6.8777058588e+01   2.5295240152e+01    0.9003509    0.6571187 -79.13  0.002858927    1.998    0.499
       137 -12.8279    157.4937    128.5039   6.7738547589e+01   2.4886957282e+01    0.6767898    0.4943849 -66.87  0.002137318    1.703    0.413
       138 -11.6249     29.6019    129.0632   1.0567127775e+02   4.5869762823e+01    0.2411554    0.2011469  -3.21 0.0006495543    1.401    0.286
       139 -10.9907    170.9626    127.7113   6.4507495213e+01   2.2231045067e+01    0.2069783    0.1994685  48.21 0.0004586134    1.098    0.089
       140  -9.7209    138.2955    228.2751   9.2047933710e+01   6.7364943506e+00    0.1318859    0.1002426  -2.10 0.0003832123    1.526    0.345
       141 -11.9666    192.3318    225.1815   7.9930013879e+01  -9.0041758746e-01    0.2200782    0.1750742 -39.77   0.00131877    1.386    0.279
       142 -12.3438     24.1283    124.5180   1.0673549869e+02   4.7501270057e+01    0.3042035    0.2127879 -31.38  0.001630318    1.557    0.358
       143 -10.7337    152.3866    225.6989   8.8513918095e+01   5.0486843862e+00    0.1775865    0.1240966 -35.54  0.000758879    1.525    0.344
       144 -11.4654    195.7414    121.9441   5.8135224488e+01   1.8276283377e+01    0.2282468      0.21092  47.02 0.0004466153    1.181    0.153
       145 -10.2432    190.2172    122.1429   5.9230338750e+01   1.9363722682e+01     0.199355    0.1734253 -82.43  0.001055996    1.331    0.249
       146 -10.3364      4.8886    119.9144   1.1234634717e+02   5.0002533965e+01    0.2007124    0.1442354 -51.84 0.0004863018    1.228    0.186
       147 -11.1645    118.0557    213.5470   9.4484599614e+01   1.2929652570e+01    0.3458889    0.2928207  41.59  0.001749803    1.113    0.101
       148 -12.0977    155.2094    116.9840   6.5405288957e+01   2.7839121569e+01    0.2799377    0.2549958 -43.42 0.0003104224    1.063    0.059
       149 -11.2237     10.9924    116.2995   1.0984400470e+02   5.0533411581e+01    0.4663491    0.1713906 -36.71  0.001775673    3.257    0.693
       150 -10.2750    194.2101    115.7695   5.6975842585e+01   1.9777691814e+01    0.1948562    0.1640205 -18.53 0.0003918416    1.314    0.239
       151 -10.9796    143.8428    114.9404   6.7613157894e+01   3.0728292944e+01    0.3121762    0.2153955  75.38  0.001258582    2.195    0.544
       152 -12.0083    106.0287    114.6592   7.7869626835e+01   3.8576958924e+01    0.4166122    0.3015502   5.07  0.001797581    1.866    0.464
       153 -12.5302    115.0691    111.6030   7.4418792954e+01   3.7500122291e+01    0.5195298    0.3167073 -46.01  0.002197853    1.607    0.378
       154 -12.0641    109.5535    109.3823   7.5427995332e+01   3.9104121360e+01    0.3450452    0.3009519 -88.01 0.0006036789    1.385    0.278
       155 -10.7429    114.9576    221.8735   9.6430630971e+01   1.1638810093e+01    0.5206327    0.2310191 -53.92  0.002153654    2.399    0.583
       156 -12.4123     92.3203    112.9920   8.1643745218e+01   4.1506340893e+01    0.4186453    0.2687941 -44.59 0.0003507294    1.500    0.333
       157 -12.9892     88.9382    110.5049   8.2075443548e+01   4.2691404581e+01     0.517854    0.3409566 -33.73  0.001448834    1.630    0.386
       158 -11.9913     91.9996    108.0016   8.0439468369e+01   4.2737466716e+01    0.3459762    0.2834431  89.63  0.001663422    1.605    0.377
       159 -11.5491    165.3755    111.4425   6.1708779228e+01   2.6777260196e+01    0.3106592    0.1890606 -45.32  0.001343384    1.585    0.369
       160 -11.8290     64.8989    105.6927   8.8902430603e+01   4.7668378528e+01    0.2401118    0.1918626 -24.24  0.001235519    1.290    0.225
       161 -12.4440     60.2933    108.9558   9.1302461681e+01   4.7517264334e+01    0.3832512    0.2245793  21.79  0.001139555    1.942    0.485
       162 -10.3712     25.9538    112.4579   1.0410647011e+02   5.0391877211e+01    0.1809498   0.09941331  49.88 0.0007813214    2.351    0.575
       163 -10.2243    118.4162    220.4799   9.5428038736e+01   1.1397929526e+01    0.1709951    0.1342226 -68.74 0.0001590855    1.468    0.319
       164 -12.3891     54.6486    109.6408   9.3435933032e+01   4.8087288280e+01    0.4187767    0.3138905 -19.13  0.001449994    1.486    0.327
       165 -12.3372    142.3447    107.7233   6.6089824507e+01   3.2590439533e+01    0.5362722    0.4071581  23.90  0.001818254    1.565    0.361
       166 -11.6010      1.8533    105.2337   1.1136200482e+02   5.3785336805e+01    0.2210688    0.1499377 -62.78 0.0003881039    1.177    0.150
       167 -11.7756    213.0190    103.9573   5.1021336662e+01   1.8125229043e+01    0.2189915    0.2006449  56.88 0.0003325549    1.222    0.181
       168 -11.6319     14.2094    106.8289   1.0726521218e+02   5.2671773569e+01    0.3011986    0.1747944 -54.73  0.001316763    1.399    0.285
       169 -12.5047     82.1545    113.4416   8.5019243035e+01   4.3140860665e+01    0.3787841    0.3132689  88.63  0.001437968    1.530    0.347
       170  -9.8425     16.6846    102.7022   1.0566645411e+02   5.3514756813e+01    0.1405809    0.0822843 -39.20 0.0002543697    1.608    0.378
       171 -12.1990    162.4732    100.6593   5.9566451002e+01   2.9565740612e+01    0.3434409    0.2385724 -73.35  0.001476732    1.994    0.499
       172 -11.2023     69.3360     96.0656   8.4829894956e+01   4.9278078417e+01    0.2370048    0.1976023   8.88 0.0004038512    1.256    0.204
       173 -13.0092     75.3975     97.9100   8.3216598418e+01   4.7903662857e+01    0.6836393    0.3012144  32.56  0.002604945    2.404    0.584
       174 -10.1579     64.3037    101.3008   8.7999548085e+01   4.8801364433e+01    0.1510671    0.1064051 -23.11 0.0004255073    1.590    0.371
       175 -12.0323     58.2471    100.4033   8.9933982382e+01   4.9854380011e+01    0.3526917    0.2775626  44.16  0.001813486    1.451    0.311
       176 -12.9843     60.0355     96.1509   8.8190389735e+01   5.0611635221e+01    0.6760583    0.3041001 -55.30 0.0003475673    2.154    0.536
       177 -11.4724     78.5478    105.0489   8.4059608282e+01   4.5733682969e+01    0.2239219    0.1997432  22.02 0.0003470268    1.157    0.136
       178 -10.3671    178.6446     99.8577   5.6056691757e+01   2.6129617021e+01    0.2214041    0.1267317 -49.61 0.0009432059    1.742    0.426
       179 -11.1853     85.9910    100.2843   8.0296044389e+01   4.5580775460e+01    0.2107521    0.1930959  27.94 0.0005504718    1.121    0.108
       180 -10.6346    194.0208     99.5007   5.3138093354e+01   2.2859542795e+01    0.2052044    0.1432929  56.76 0.0005736478    1.538    0.350
       181 -11.2095    188.6885     99.5599   5.4101741885e+01   2.3993959744e+01    0.2804314    0.1381868  48.11  0.001152744    2.180    0.541
       182 -11.7724    149.9479     95.5017   6.0983508618e+01   3.3386177120e+01     0.257021    0.2146322 -71.23  0.001280939    1.352    0.261
       183 -11.5542     38.7223     95.9478   9.6066128225e+01   5.3242212380e+01    0.2644301    0.1769178 -21.99  0.001150946    1.639    0.390
       184 -11.5154    214.6453     92.1346   4.8094647842e+01   1.9850424133e+01    0.2813618    0.2388504  76.83  0.001658085    1.273    0.214
       185 -10.1655     50.6562     93.7123   9.1019557536e+01   5.2410077972e+01    0.1488809   0.09975123 -23.11 0.0003164217    1.648    0.393
       186 -10.5107    196.4774     92.4758   5.1031402631e+01   2.3592050656e+01    0.1421779    0.1298965 -57.43   6.2888e-05    1.001    0.001
       187 -11.2213    184.8223     91.8634   5.2904641499e+01   2.6238746200e+01    0.2017418    0.1657343 -78.40 0.0004284127    1.330    0.248
       188 -10.9826     20.7820     91.3002   1.0191755997e+02   5.5961531330e+01    0.2058555    0.1955182 -83.06 0.0006134798    1.224    0.183
       189 -12.0987    171.0829     88.6137   5.4655904522e+01   2.9898460614e+01     0.435568    0.1838209 -40.24  0.001644275    2.287    0.563
       190 -10.5971     34.3015     94.3307   9.7371768239e+01   5.4071660138e+01    0.1478522   0.08899992 -33.81 0.0007033554    1.649    0.394
       191 -10.6547      2.8239     91.3672   1.0883858126e+02   5.7069725555e+01     0.209032    0.1496432 -17.22  0.001129661    1.508    0.337
       192 -11.8283    162.8925     87.8201   5.6089971219e+01   3.1904393734e+01    0.2274718    0.2062783  20.33 0.0008185956    1.254    0.203
       193 -10.8839     79.4906     88.5525   7.9143087656e+01   4.9315170954e+01    0.3128673    0.1437489  36.21  0.001222171    2.228    0.551
       194 -12.2728     31.0280     87.5895   9.7065290026e+01   5.5967066371e+01    0.3203796    0.2324563  14.06  0.001285995    1.502    0.334
       195 -11.1648    207.1229     86.4683   4.7920025816e+01   2.2365153093e+01    0.2257499    0.2044033  57.47  0.001350816    1.227    0.185
       196 -10.8156     71.8193     87.1941   8.1436648190e+01   5.0879582425e+01    0.2092133    0.2077395  40.56  0.001216857    1.165    0.141
       197 -13.7212     53.9463     85.1590   8.7472220354e+01   5.3942901638e+01    0.6577042     0.372974  41.40  0.003008269    2.036    0.509
       198 -13.1660    124.9522    220.5425   9.3923452357e+01   1.0367018648e+01    0.4342115    0.4153221  66.97 0.0005319865    1.133    0.118
       199 -12.7110    124.1907    213.3923   9.3013071307e+01   1.1990204038e+01     1.050084    0.4907739 -54.69  0.003909235    2.302    0.566
       200 -11.5119    153.0453     80.2029   5.6087456169e+01   3.5541885583e+01    0.2410834    0.2114782 -43.88 0.0004592427    1.140    0.122
       201 -11.1341    214.4238     78.9518   4.5139905684e+01   2.2079901929e+01    0.2352785    0.1765717 -83.33 0.0005569091    1.455    0.313
       202 -11.8030    163.9615     83.9552   5.4840228289e+01   3.2360151031e+01    0.2452504    0.1783263 -76.42   0.00113719    1.743    0.426
       203 -11.5836    159.7180     76.9373   5.3798958838e+01   3.4571949697e+01    0.3012509    0.1843873  56.61  0.001058445    1.635    0.388
       204 -11.0278    160.7326     73.0153   5.2524552543e+01   3.5004439290e+01    0.2588275    0.1912044 -28.83 0.0005558906    1.491    0.329
       205 -11.5884     75.4645     75.8806   7.6675528282e+01   5.2657820157e+01    0.2741791    0.2429487 -12.48 0.0004689745    1.057    0.054
       206 -12.2527    189.3847     77.7345   4.8614465153e+01   2.7671285728e+01    0.4180212    0.2349359  46.90  0.001499929    1.998    0.500
       207 -11.3825     21.8478     76.1932   9.8028653869e+01   5.9359144678e+01    0.1834794     0.170825 -50.05  0.000536682    1.184    0.155
       208 -11.2484     15.6696     76.1371   1.0061890217e+02   5.9834769880e+01    0.2939776    0.1739115  24.53  0.001506181    1.898    0.473
       209 -11.6523    182.7733     76.5876   4.9430289242e+01   2.9344623574e+01    0.3087662    0.1758758  83.61  0.001192511    2.828    0.646
       210 -11.4127    116.1521     74.7767   6.3472348132e+01   4.4872686793e+01    0.3000098    0.2048453 -27.65   0.00098059    1.616    0.381
       211 -12.6759     31.9560     74.6927   9.3382405350e+01   5.8791208432e+01     0.356679     0.222339   1.68  0.001823144    1.820    0.450
       212 -10.7100    125.1684     73.3990   6.0652914054e+01   4.3128024053e+01    0.2392126    0.2057016 -14.18 0.0005636858    1.272    0.214
       213 -11.1178    230.4140     72.2739   4.1618704783e+01   1.9893264188e+01    0.3439018    0.2165603 -56.48  0.001887472    1.447    0.309
       214 -11.3243    106.0108    220.7253   9.8350743665e+01   1.3245544680e+01    0.4564797    0.2000489 -44.33  0.001747314    2.772    0.639
       215 -10.9604    196.9550     70.7640   4.5732394877e+01   2.7126385343e+01    0.2741045    0.2011606 -70.96 0.0007165453    1.431    0.301
       216 -11.4431    196.3188     67.6761   4.5082563429e+01   2.7751743134e+01    0.2782246    0.1889872  71.58   0.00137431    1.536    0.349
       217 -12.2846    198.6826     65.6840   4.4262588786e+01   2.7538825773e+01    0.3387455    0.2472009 -49.60   0.00173568    1.265    0.210
       218 -12.0104    107.1911     81.7462   6.8180232551e+01   4.5456889591e+01    0.3817671    0.3552246 -56.63  0.002086557    1.173    0.148
       219 -11.4103     99.6096     67.3246   6.5881482940e+01   4.9724764472e+01    0.3088918     0.251475  87.91  0.001550273    1.751    0.429
       220 -10.5305     78.2336     67.9855   7.3117794055e+01   5.3717956768e+01    0.1937715    0.1732024 -16.45            0    1.060    0.056
       221  -9.6707    220.2934     67.3101   4.1768283717e+01   2.2687688512e+01    0.1171286     0.103724   8.81 0.0002711157    1.588    0.370
       222 -10.1752    250.0218     66.3064   3.8244891889e+01   1.7053511469e+01     0.157387     0.130161 -71.32  0.000220873    1.118    0.105
       223 -11.5052    188.1026     65.1816   4.5705540910e+01   2.9973841296e+01    0.2555024    0.1860488 -56.98 0.0005951555    1.334    0.250
       224 -11.2714    205.7039     64.4590   4.3002058445e+01   2.6195625035e+01    0.3223712    0.2143727  11.12   0.00133753    3.454    0.710
       225 -11.4603    114.2878     63.7154   6.0488276835e+01   4.7220627495e+01    0.3611005    0.2337732 -64.05 0.0006939254    2.364    0.577
       226 -13.3169     25.7755     64.2668   9.3099683135e+01   6.1606201002e+01    0.7468885    0.2589044  18.60  0.002949116    3.336    0.700
       227 -10.4806    229.0576     62.7145   3.9737598792e+01   2.1595854945e+01     0.170133    0.1476643 -72.78 0.0002224273    1.073    0.068
       228 -11.2691    102.6402     62.8853   6.3506557228e+01   4.9868827617e+01    0.2391905     0.184786  33.18 0.0003246408    1.265    0.210
       229 -10.4668     74.2188     66.0034   7.3882098328e+01   5.4796995495e+01    0.1925273    0.1741906 -15.70 0.0003215251    1.055    0.053
       230 -11.5450     44.2618     60.4721   8.3812110875e+01   6.0366668092e+01    0.4123531     0.215965  35.94  0.001974018    2.057    0.514
       231 -11.3963    109.1875     59.8359   6.0622360320e+01   4.8977630635e+01    0.2100384    0.1992929  79.30 0.0005071757    1.187    0.158
       232 -11.4054      3.0032     59.3298   1.0215061198e+02   6.4270744975e+01    0.3054753    0.1885675 -24.67  0.001200572    1.485    0.327
       233 -11.4947    193.3037     58.0797   4.3193538092e+01   2.9876792623e+01    0.1953486    0.1645996 -53.71  0.001155575    1.118    0.106
       234 -10.7045    153.2579     57.7065   4.9710149746e+01   3.9197341733e+01    0.2225545    0.2006678 -34.21 0.0006969167    1.183    0.155
       235 -11.5560     98.9675     57.1447   6.2663638497e+01   5.1593801651e+01    0.2866614    0.2184708 -26.98 0.0004792755    1.366    0.268
       236 -11.4912     30.4288     56.9980   8.8758332994e+01   6.2634801107e+01    0.3006674    0.1618637   4.40  0.001419701    2.254    0.556
       237 -10.4986    224.5219     55.9718   3.8801651479e+01   2.3487534052e+01    0.1935897    0.1117405 -40.31 0.0004926046    1.583    0.368
       238 -11.8291    162.4090     55.1804   4.7318655892e+01   3.7419527167e+01    0.3676966    0.2023595  47.06  0.001657995    1.920    0.479
       239 -10.4436    139.2918     56.6438   5.2238049725e+01   4.2639869252e+01    0.1461205    0.1078802 -71.09 0.0004413407    1.686    0.407
       240 -12.0554    127.4167     55.1914   5.4457727319e+01   4.5618336672e+01    0.3727758    0.2585649  -7.02  0.001748831    1.979    0.495
       241  -9.9522    207.3073     53.6318   4.0294494529e+01   2.7438627872e+01    0.1427896   0.08587446 -65.21 0.0007035785    1.755    0.430
       242 -11.4595    174.9030     51.1954   4.4184439832e+01   3.5072473326e+01    0.2562985    0.1873224   9.23  0.001258251    2.180    0.541
       243 -12.0044    105.1405    214.0325   9.7621682230e+01   1.4831627908e+01    0.5630313    0.2442707  46.23   0.00183782    2.320    0.569
       244 -10.9297    111.3624    215.3031   9.6328276663e+01   1.3596027734e+01     0.280978    0.1647115 -60.68 0.0006513873    1.881    0.468
       245 -11.1314     95.0079     49.6985   6.1263835420e+01   5.3588957862e+01    0.3121771    0.1982602 -13.50  0.001254216    2.013    0.503
       246 -10.6131     17.4611     51.0786   9.2927418557e+01   6.4996071604e+01    0.1894351    0.1033966 -48.23  0.001018165    1.568    0.362
       247 -11.3421     38.3560     50.2389   8.2846028003e+01   6.3034284012e+01    0.2424882    0.1625858  33.91 0.0007609908    1.635    0.388
       248 -11.2030    110.4543     53.8601   5.8293200931e+01   4.9647514047e+01    0.3739501    0.1998872  51.33  0.001658424    1.776    0.437
       249 -10.6848      1.3673     46.7691   9.9573565845e+01   6.6932899891e+01    0.2016626    0.1015691 -61.01 0.0004932217    1.921    0.479
       250 -11.5107    142.7081     45.2239   4.8120293018e+01   4.3474393241e+01    0.2919659    0.1824227 -15.31 0.0008748435    2.195    0.544
       251 -10.3555    226.5082     45.4966   3.6360018338e+01   2.4532453206e+01    0.1241649    0.1033217 -67.25 0.0001890312    1.020    0.020
       252 -11.7417    196.7655     44.5369   3.9480676432e+01   3.1008423306e+01    0.3662684     0.183972  63.60  0.001775781    1.921    0.479
       253 -10.6533    153.0147     44.8033   4.6078270842e+01   4.1095424624e+01    0.2254333    0.1955755 -36.42 0.0005010117    1.241    0.194
       254 -11.1668     99.9827     44.1602   5.7849257998e+01   5.3351944900e+01    0.2049774    0.1824802  32.90 0.0003731258    1.019    0.019
       255 -11.0542    188.8395     43.0432   4.0133384897e+01   3.2987946222e+01    0.2318754     0.175472  75.08 0.0006580412    1.246    0.198
       256 -10.9877     51.8389     42.8841   7.4181835258e+01   6.2472373953e+01    0.2006579    0.1550471  -2.85 0.0003256417    1.188    0.158
       257 -11.2765    146.0725     39.6449   4.5834386382e+01   4.3414279435e+01    0.2116344    0.1780632 -56.45  0.001228362    1.253    0.202
       258 -10.3023    104.4274     39.7478   5.5073824858e+01   5.2993221181e+01    0.1724716    0.1308131 -10.49 0.0003635218    1.495    0.331
       259 -10.9844     60.2270     37.9077   6.8790723863e+01   6.1913062393e+01    0.2593646    0.1730973 -44.60  0.001349599    1.808    0.447
       260 -10.4821    231.7663     37.5740   3.4211974605e+01   2.4512205350e+01    0.1679018    0.1004047 -88.29 0.0009461156    1.708    0.415
       261 -10.5129    110.4710     37.4605   5.2725337959e+01   5.1951777803e+01    0.1360536    0.1226999  43.11 8.709346e-05    1.003    0.003
       262 -11.4240     26.6254     37.1046   8.3452963351e+01   6.6701795590e+01    0.2321506    0.1455568  -9.55  0.001307313    1.587    0.370
       263 -11.3230     11.5644     36.2402   9.0857323837e+01   6.8259820454e+01    0.2639522    0.2214463 -71.87  0.001741647    1.828    0.453
       264 -10.2697    117.7891     36.2135   5.0553557407e+01   5.0452748027e+01    0.1849673    0.1488768  24.29 0.0004905312    1.340    0.254
       265 -11.5311    222.2793     34.8944   3.4537616205e+01   2.6780975528e+01    0.2023199    0.1779741  78.51 0.0003253483    1.245    0.197
       266 -12.0951     44.6099     34.1286   7.3766557830e+01   6.4913773313e+01     0.383695    0.2169156  22.39  0.002003106    1.760    0.432
       267 -10.6032    113.7839    212.6316   9.5360538830e+01   1.3799816189e+01    0.2729616    0.1989515  38.50 0.0006490509    1.276    0.216
       268 -10.7255     22.9542     33.4635   8.3856618004e+01   6.7705070139e+01    0.1883228    0.1382056 -28.40 0.0005312436    1.171    0.146
       269 -10.5909    143.6552     33.0413   4.4319295780e+01   4.4801834520e+01     0.175299    0.1670452 -42.12 0.0003730752    1.157    0.136
       270 -11.0599    106.8199     32.3686   5.1863549875e+01   5.3399007422e+01    0.2393124    0.1926228 -14.97 0.0007448895    1.373    0.271
       271 -11.3111     31.9542     32.0418   7.8780211031e+01   6.6921451778e+01    0.2069052    0.1266731 -11.09  0.001132872    1.686    0.407
       272 -10.6332    155.9900     30.2365   4.1465351068e+01   4.2218461010e+01    0.1814735    0.1588209  78.38 0.0003874252    1.023    0.022
       273 -11.4131     39.3188     29.0656   7.4014541567e+01   6.6417662215e+01    0.2272387    0.1652935  25.68 0.0006540259    1.292    0.226
       274 -11.5534    238.0322    248.5529   7.5153548054e+01  -1.0359488176e+01    0.1999928    0.1393267 -22.94 0.0003729219    1.263    0.208
       275 -10.2303    172.4646     21.4789   3.6828368331e+01   3.9350071485e+01    0.1275613    0.1097351  89.21 0.0001161074    1.005    0.005
       276 -10.6132    172.9869    248.5874   8.7664235002e+01  -2.0294426030e+00    0.2183446    0.1464802 -13.54  0.001072738    1.664    0.399
       277 -11.5063    204.8876    245.5435   8.0815605965e+01  -5.8872164871e+00    0.3756919    0.1360775 -35.81  0.001658875    2.818    0.645
       278 -10.2731     20.5177     22.8829   8.0661199381e+01   6.9652016002e+01    0.1736657    0.1000811 -35.03  0.001019942    1.563    0.360
       279 -12.2397    187.2169    224.5828   8.0874826204e+01  -4.8865691711e-02    0.2510903    0.2133368  -2.69 0.0006294068    1.031    0.030
       280 -10.1605     26.1665    245.9804   1.1820532621e+02   1.8227209897e+01    0.1270442   0.07604263 -82.72 0.0003514151    1.593    0.372
       281 -11.9792    186.4022    244.1757   8.4253844908e+01  -3.1907543316e+00    0.3522698    0.2730099  52.44  0.001947838    1.860    0.462
       282 -11.0777    180.0841    244.2117   8.5542176427e+01  -2.3163402212e+00    0.2043551    0.1697979 -22.21 0.0007065578    1.223    0.182
       283 -10.4460     68.5375     11.4927   5.4605946232e+01   6.3644228278e+01     0.125319    0.1021017  29.11 0.0008094447    1.004    0.004
       284 -11.6659    174.5669    244.2289   8.6677128407e+01  -1.5402887592e+00    0.2358586    0.1896688  46.37  0.001080616    1.516    0.341
       285 -10.7835    109.0265    243.7162   1.0063744236e+02   8.1159190953e+00    0.1968767    0.1570917  67.21 0.0006798256    1.389    0.280
