#   1 NUMBER                 Running object number                                     
#   2 MAG_AUTO               Kron-like elliptical aperture magnitude                    [mag]
#   3 X_IMAGE                Object position along x                                    [pixel]
#   4 Y_IMAGE                Object position along y                                    [pixel]
#   5 X_WORLD                Barycenter position along world x axis                     [deg]
#   6 Y_WORLD                Barycenter position along world y axis                     [deg]
#   7 A_WORLD                Profile RMS along major axis (world units)                 [deg]
#   8 B_WORLD                Profile RMS along minor axis (world units)                 [deg]
#   9 THETA_WORLD            Position angle (CCW/world-x)                               [deg]
#  10 FWHM_WORLD             FWHM assuming a gaussian core                              [deg]
#  11 ELONGATION             A_IMAGE/B_IMAGE                                           
#  12 ELLIPTICITY            1 - B_IMAGE/A_IMAGE                                       
         1 -13.7222    177.3745      5.5446   6.7989277477e+01   3.9684627531e+01     0.939145    0.4618111 -67.68  0.003306549    3.109    0.678
         2 -13.9409    146.9660      7.0603   7.3047654633e+01   4.7590746903e+01    0.9318171    0.3952028  85.24  0.002660886    4.832    0.793
         3 -11.0319     10.9673    229.2007   1.4579264292e+02   2.9377805892e+01    0.1429268   0.08935956  75.44 0.0002953505    1.181    0.153
         4 -20.8469     98.4838    182.7455   1.2804904901e+02   2.6625400554e+01      10.8589     6.506089 -64.83   0.06843877    1.820    0.451
         5 -12.7608     40.4600    121.9757   1.3322819000e+02   4.5650378226e+01    0.3080902    0.2499633 -14.68  0.001931957    2.030    0.508
         6 -12.4146    204.9619    199.6759   1.1181890202e+02   7.1792127528e+00    0.4075726    0.2377291  47.96  0.001759986    1.516    0.341
         7 -12.2590    207.8905    214.8927   1.1354993461e+02   5.1077140057e+00    0.4150231    0.1542262 -34.34  0.002187574    3.400    0.706
         8 -13.0568    203.5810    174.5393   1.0802546082e+02   1.0344530360e+01    0.5435405    0.3235679 -53.29  0.002822302    2.688    0.628
         9 -10.1229    213.9573    166.0446   1.0481603982e+02   9.5285760257e+00    0.1456545     0.124089  24.11 0.0003576841    1.026    0.025
        10 -11.5436    231.3043    113.6983   9.1189369958e+01   1.2752406767e+01    0.2545373    0.2333102  14.28 0.0007827293    1.060    0.057
        11 -11.9087    167.7071    112.9183   1.0227431588e+02   2.6458351812e+01    0.3473579    0.2657494 -81.52  0.001592197    1.807    0.447
        12 -10.6876    174.5812    221.3077   1.1956788120e+02   9.5759738260e+00    0.1507021    0.1070695 -47.78 0.0006146423    1.894    0.472
        13 -12.9848      3.2909    111.6927   1.4118791691e+02   5.1010753037e+01    0.3140176      0.21302  84.42  0.002292163    1.141    0.123
        14 -11.2675    205.4174    110.1784   9.4601637834e+01   1.8721737649e+01    0.2974513    0.2187045  43.61 0.0008888787    1.307    0.235
        15 -11.0510      1.6933    215.4487   1.4671592660e+02   3.2270356228e+01    0.2760798   0.08792903 -83.87   0.00174369    2.761    0.638
        16 -11.5069    176.6304    154.7765   1.0922926348e+02   1.7970618487e+01    0.2285475    0.1879562  66.57 0.0006635073    1.371    0.271
        17 -14.1452    173.4776    148.5066   1.0864569070e+02   1.9518724543e+01    0.6798742    0.4167362  46.06  0.001923144    1.468    0.319
        18 -12.1998    186.8247    213.0719   1.1658645622e+02   8.6017223007e+00    0.3808165    0.2750413  21.80  0.002693913    1.450    0.311
        19 -11.5971    184.0770    208.3347   1.1639034433e+02   9.5779640211e+00      0.18647    0.1620021 -31.00 0.0006535665    1.451    0.311
        20 -12.3042    182.3657    203.1500   1.1595714139e+02   1.0464445759e+01    0.2592886    0.2004433 -37.81 0.0007957294    1.624    0.384
        21 -12.6122    138.0471     84.4367   1.0143331205e+02   3.7923866212e+01    0.3588738    0.2347137 -36.95 0.0009231422    1.553    0.356
        22 -11.3025     14.8529    221.5073   1.4494754818e+02   3.0161296876e+01    0.1897746   0.09618822  88.03  0.001414213    1.676    0.403
        23 -12.0833     13.4146     59.8580   1.3195796969e+02   6.1403821749e+01    0.1994531    0.1708654 -84.18  0.000507598    1.146    0.128
        24 -13.3759    153.3707    125.7205   1.0802981585e+02   2.7213513973e+01    0.6199336    0.2546701  54.55   0.00237314    2.688    0.628
        25 -13.8546     11.0891    206.1651   1.4493959279e+02   3.2890112398e+01    0.4784945    0.2926049  36.76  0.002758513    1.867    0.464
