#   1 NUMBER                 Running object number                                     
#   2 MAG_AUTO               Kron-like elliptical aperture magnitude                    [mag]
#   3 X_IMAGE                Object position along x                                    [pixel]
#   4 Y_IMAGE                Object position along y                                    [pixel]
#   5 X_WORLD                Barycenter position along world x axis                     [deg]
#   6 Y_WORLD                Barycenter position along world y axis                     [deg]
#   7 A_WORLD                Profile RMS along major axis (world units)                 [deg]
#   8 B_WORLD                Profile RMS along minor axis (world units)                 [deg]
#   9 THETA_WORLD            Position angle (CCW/world-x)                               [deg]
#  10 FWHM_WORLD             FWHM assuming a gaussian core                              [deg]
#  11 ELONGATION             A_IMAGE/B_IMAGE                                           
#  12 ELLIPTICITY            1 - B_IMAGE/A_IMAGE                                       
         1 -10.1616    113.9689     26.4141   5.1690272288e+01   5.2824825901e+01    0.2457527    0.1776246 -44.90 0.0008370735    1.607    0.378
         2 -11.3700     13.3599     15.6936   8.5766093828e+01   7.1523530173e+01    0.3468224    0.2621796 -20.23  0.002463567    1.086    0.079
         3 -10.9343     14.6390      7.7282   8.1134161683e+01   7.2557860940e+01    0.3110628    0.2782706 -19.48  0.001942062    1.510    0.338
         4 -11.2730     45.7008     26.5331   7.4361056626e+01   6.6063110503e+01    0.3617867    0.2184592  25.53  0.001259263    1.560    0.359
         5 -11.2296     66.0926     15.7915   6.1280664871e+01   6.4051169117e+01    0.2922114    0.2172704 -32.91  0.000668415    1.551    0.355
         6 -11.7154    234.8657     15.0275   3.2062290475e+01   2.5962262687e+01    0.2272286    0.1778747 -71.59 0.0002953228    1.013    0.013
         7 -10.3362     89.5198     13.4807   5.2935437661e+01   5.9613818646e+01    0.2559207    0.1675213  37.05  0.001088629    1.357    0.263
         8 -10.8441     84.6235     14.1148   5.4574930603e+01   6.0581148422e+01    0.4106741    0.1956671  34.57  0.001317331    2.118    0.528
         9 -10.4661     22.4495      9.5518   7.7687959313e+01   7.1457032103e+01    0.3236349    0.1608682  13.68   0.00169222    2.230    0.552
        10 -10.8285     20.6493      2.3090   7.4841679310e+01   7.2590541146e+01    0.3206464    0.1655381  22.54  0.001859551    1.772    0.436
        11 -11.2208     34.5305     12.5462   7.2983812178e+01   6.9538869993e+01    0.3034541    0.2504602 -10.56  0.001132131    1.198    0.165
        12 -10.6505     38.0477      7.0483   6.8516302293e+01   6.9702489596e+01    0.3926054    0.2843348  -8.73  0.001894204    1.216    0.177
        13 -11.7466     30.6033      7.4574   7.2337439584e+01   7.0702769855e+01    0.3895208    0.2512444  26.62  0.001835162    1.382    0.276
        14 -10.4104     27.6236      2.7041   7.1329032779e+01   7.1661052007e+01    0.2361425    0.1495127 -10.76  0.001508367    1.409    0.290
        15 -10.6074    126.0770     11.1083   4.3856492220e+01   5.1547443613e+01     0.198435    0.1674065  27.97            0    1.264    0.209
        16 -10.7912    123.7640      8.0115   4.3232067215e+01   5.2367200110e+01    0.2459638    0.1705035 -52.64  0.000840601    1.728    0.421
        17 -10.4693     45.1994     10.4870   6.7028979118e+01   6.8221749404e+01    0.3189221    0.1774836  16.91  0.001465778    1.908    0.476
        18 -11.0482    134.0274     10.8089   4.2367678133e+01   4.9682230777e+01    0.3185757    0.1941807  86.98  0.001579294    1.899    0.473
        19 -11.3131     57.3907      3.1574   5.8506480602e+01   6.6917378576e+01    0.4480341    0.2399332  30.48  0.001649016    1.680    0.405
        20 -11.1268    187.6456      7.3565   3.4434657245e+01   3.7208566393e+01     0.275609    0.1610001  39.35 0.0008997544    2.419    0.587
        21 -10.0925    218.0000      7.0055   3.1675988546e+01   3.0413255488e+01    0.1808632   0.06366121 -31.33 0.0008001158    2.926    0.658
        22  -9.9950      2.5092      6.6009   8.7906413101e+01   7.3812234633e+01    0.1923498    0.1136527  16.96 0.0006037925    1.633    0.387
        23 -10.9993    151.0364      6.0272   3.8331620505e+01   4.6026616445e+01    0.1955408    0.1670142  78.43 0.0003593655    1.025    0.025
        24 -10.3826    236.4865      3.9328   2.9714433152e+01   2.6845676944e+01    0.2984591    0.1998547  15.16  0.001528947    3.603    0.722
        25 -10.3819    135.5795      3.8000   3.9882939133e+01   4.9917495733e+01    0.1627526    0.1154762 -41.68 0.0004354988    1.585    0.369
        26 -10.5913    119.8558      3.6378   4.2443313805e+01   5.3646581966e+01    0.2816946    0.2017093  85.22 0.0006340358    1.508    0.337
        27 -10.5474    102.9878      2.5360   4.5353814594e+01   5.7607397737e+01    0.3606321    0.2720492  81.38  0.002154357    1.497    0.332
        28  -9.7552     83.6833      4.2935   5.0710383171e+01   6.1672701939e+01    0.3351245    0.1732932  68.19  0.001576303    2.380    0.580
        29 -11.4454     80.3129      1.6168   5.0485850108e+01   6.2591783993e+01    0.2702973    0.1435176  52.32   0.00144642    1.565    0.361
        30 -10.0309     49.8458      2.9048   6.1276637003e+01   6.8261365312e+01    0.1799981    0.1271609  17.48 0.0002450693    1.194    0.162
        31  -9.9403    176.3704      2.3143   3.4314042880e+01   4.0321831220e+01    0.1895286    0.1317728  43.75  0.001096666    1.702    0.413
        32  -9.7133     70.0010      6.5095   5.5740199738e+01   6.4247959381e+01    0.1867203   0.07491159  35.45 0.0008091218    2.437    0.590
        33 -11.0485     11.6047      1.7555   7.9762152506e+01   7.3666764137e+01    0.1786437    0.1342989  20.22  0.001298338    1.414    0.293
        34  -9.5961      1.1817      1.9974   8.6415593794e+01   7.4583786366e+01    0.1430282   0.06806376 -39.96 0.0008492767    1.836    0.455
        35  -9.7010      5.8936    191.8385   1.2181294508e+02   3.2339837056e+01    0.1782876    0.1350587  89.23  0.000948408    1.065    0.061
        36 -10.5612     30.8029    250.6588   1.2050591731e+02   1.7387429117e+01    0.2240916   0.09122898  37.66 0.0006824144    2.105    0.525
        37 -12.0490     17.8585    248.9439   1.2276886463e+02   1.9106160042e+01      0.31838     0.262311 -10.82  0.002224314    2.181    0.542
        38 -10.8945      1.9903    247.3754   1.2550243973e+02   2.0981104429e+01    0.3717242    0.1355408 -85.23  0.001968683    2.498    0.600
        39 -12.5840     10.1624    245.8077   1.2399256494e+02   2.0491277683e+01    0.4841593    0.2675272  59.61  0.003154104    1.394    0.282
        40 -12.1522      5.1686    240.5742   1.2464093307e+02   2.1998212571e+01    0.5171931    0.1771734  43.39  0.002790831    2.219    0.549
        41  -9.4030     22.0407    180.0005   1.1721901182e+02   3.3683025014e+01    0.1525813    0.1292832  80.20 0.0004464436    1.054    0.051
        42  -9.3130     13.3305    180.6743   1.1933076127e+02   3.4308935843e+01    0.1352005   0.07588656  66.18 0.0005386382    1.705    0.414
        43 -10.5669      4.5154    167.6301   1.2039385208e+02   3.8136176180e+01    0.1863253    0.1179581  26.42  0.001085954    1.878    0.468
        44  -9.6600    226.4438    164.0381   6.5779605635e+01   3.9745310864e+00     0.211274    0.1208339 -36.85 0.0008155875    1.553    0.356
        45  -9.0087    247.4898    155.4587   6.0439268441e+01   2.0037839182e+00    0.1329903    0.1107339 -28.16 0.0005139532    1.028    0.027
        46 -10.9025      3.2784    153.5517   1.1954353505e+02   4.1632210051e+01    0.3303896    0.1160799  23.64  0.001463282    3.257    0.693
        47 -11.3592     22.5880    146.3135   1.1361700847e+02   4.1947050530e+01    0.3656692    0.2212464 -63.84 0.0007627369    1.399    0.285
        48  -9.3915    236.3445    139.2988   5.8849704757e+01   6.6491739051e+00    0.1372126    0.1009767  -3.62 0.0004491497    1.675    0.403
        49  -9.6336     24.6105    139.1504   1.1215176638e+02   4.3579485546e+01    0.2032105   0.09772434 -59.61 0.0009443779    1.732    0.423
        50 -10.1085    212.5058    133.9421   6.1755025804e+01   1.2046069861e+01    0.2416877     0.206315  77.51 0.0006283238    1.485    0.327
        51  -9.3931     95.7825    133.9957   8.9849617499e+01   3.5666004163e+01    0.2094183    0.1219696 -54.07 0.0005771361    1.650    0.394
        52 -10.2804      1.6999    132.6450   1.1800035570e+02   4.6858577967e+01    0.1706802    0.1339439   8.34 0.0009509316    1.640    0.390
        53  -9.5260     24.3017    130.3544   1.1105868943e+02   4.5826974109e+01    0.1432006   0.08432527 -44.92 0.0007038612    1.705    0.414
        54 -10.9145     12.2499    129.6334   1.1459043830e+02   4.6927762546e+01    0.2489549     0.140693 -84.58  0.001256965    1.672    0.402
        55 -10.0489     28.5118    128.1022   1.0944103789e+02   4.6034514552e+01    0.1854177    0.1720989 -66.62 0.0004013645    1.093    0.085
        56 -10.0883      2.0000    123.0333   1.1687741969e+02   4.9202815387e+01     0.216583   0.05899475 -73.27 0.0008003223    2.928    0.658
        57 -10.8382     24.4027    122.0040   1.0980947906e+02   4.7921241061e+01    0.2479351    0.2013223  33.48 0.0003832681    1.424    0.298
        58 -10.4472     18.0372    121.8111   1.1179137157e+02   4.8465911777e+01    0.2266822    0.1573278 -55.25 -0.000430966    1.249    0.200
        59 -11.1199     10.1234    120.2885   1.1405986766e+02   4.9391452606e+01     0.273809    0.1808574 -56.78  0.001338728    1.281    0.219
        60 -10.1419     69.0376    116.9649   9.4315760753e+01   4.4185146377e+01    0.2232876    0.2025793 -48.36  0.001226765    1.021    0.021
        61 -11.4791     19.1698    116.7362   1.1068903884e+02   4.9647428933e+01    0.3750723    0.1692111  45.08  0.001655658    2.689    0.628
        62 -10.5723      2.1179    114.1494   1.1578898795e+02   5.1371352871e+01    0.2349929    0.1382775 -66.94  0.000873643    1.327    0.246
        63 -10.9298      2.7008    109.4386   1.1500121951e+02   5.2488012278e+01    0.2230852    0.1979504 -28.06  0.001380263    1.288    0.224
        64  -9.1058    139.3092    112.2673   7.2253436944e+01   3.2152724461e+01    0.1551641     0.125172   4.37 0.0001571475    1.539    0.350
        65 -10.4948     65.0620    110.0793   9.4048045011e+01   4.6451537478e+01    0.2480551     0.208395 -71.35 0.0003786883    1.252    0.201
        66 -11.3962     13.6336    109.4406   1.1140233297e+02   5.1840177440e+01    0.3137546    0.1953923 -89.44  0.001114313    1.741    0.426
        67  -9.2724     44.8062    110.6259   1.0104554380e+02   4.8832863780e+01    0.1843365    0.1263085  40.01 0.0007316643    1.645    0.392
        68 -10.8802     57.7131    107.8667   9.6029090017e+01   4.7980404907e+01    0.2361586    0.1954369   2.36 0.0005551394    1.361    0.265
        69  -9.9450     27.0080    106.9899   1.0645578570e+02   5.1446792083e+01    0.2180813    0.1250226 -38.82 0.0008012394    1.753    0.430
        70 -10.4152      1.4206    104.3234   1.1473858692e+02   5.3792403018e+01    0.2529003   0.08939113 -65.84  0.001123179    2.071    0.517
        71  -9.2668    186.7520    103.0047   5.9163435972e+01   2.3372419146e+01    0.1972179    0.1229645 -40.29 0.0006725078    1.521    0.342
        72  -9.5439    246.6654    101.6811   4.9228532523e+01   1.1228121559e+01    0.1275358    0.1011203  -3.39 0.0003930748    1.699    0.411
        73  -9.1271     84.0504    100.2474   8.5200133109e+01   4.5871385956e+01    0.1799008    0.1293189  31.97 0.0002972235    1.462    0.316
        74 -10.8436     19.4157    100.2697   1.0789929813e+02   5.3682149367e+01    0.2224313    0.1577589 -11.67  0.001230903    1.659    0.397
        75 -11.1756      3.1446     95.4212   1.1285751024e+02   5.5841092364e+01    0.2359786    0.1710266 -59.30 0.0002369841    1.087    0.080
        76 -12.0967     10.3700     86.8499   1.0875804607e+02   5.7477320022e+01    0.5908124    0.3222523 -81.21  0.001451934    2.097    0.523
        77 -11.0209      6.9438     91.1459   1.1079855708e+02   5.6658374551e+01    0.2211832    0.1534197 -54.67            0    1.147    0.128
        78 -12.2137     20.6349     92.9138   1.0607870158e+02   5.5363996951e+01    0.4250566    0.2756447 -29.30 0.0005023051    1.605    0.377
        79 -11.9723    125.2316     93.3031   7.0708858502e+01   3.9305372243e+01    0.2701976    0.2679148  20.80 0.0002172285    1.025    0.025
        80  -9.0000     78.7076     93.7379   8.5192372495e+01   4.8263110409e+01    0.1453068    0.1109608 -14.21 0.0002054698    1.500    0.333
        81 -11.6273     57.9777     91.7017   9.1954329894e+01   5.1817084663e+01     0.307637    0.2351796 -31.54 0.0002807619    1.267    0.211
        82 -10.3582     66.7171     92.0486   8.8901791932e+01   5.0516215022e+01    0.2794382    0.1943333  47.76   0.00118177    1.706    0.414
        83 -10.6149     43.5000     89.2641   9.6693373616e+01   5.4140546853e+01    0.3412228    0.2525285  66.90 0.0007539015    1.924    0.480
        84 -10.6652     24.1565     88.4393   1.0384103606e+02   5.6156451826e+01    0.4182053    0.1828553 -55.30  0.001926532    1.802    0.445
        85  -9.4844    124.4635     86.4668   6.8901295576e+01   4.0872073810e+01    0.1528873    0.1486552   1.92 0.0002908452    1.017    0.017
        86 -11.5217     55.3718     85.7517   9.1311707668e+01   5.3527732620e+01      0.24379     0.242082 -33.16 0.0002594751    1.163    0.140
        87  -9.4900     34.6863     84.6450   9.8923979526e+01   5.6121933094e+01    0.1483746   0.08547289 -33.65 0.0007044944    1.737    0.424
        88 -10.1387    145.9485     83.2192   6.2485927047e+01   3.6594818371e+01    0.2223733    0.2014788  85.41 0.0003778192    1.194    0.162
        89 -10.5615    139.0587     82.9383   6.4064064738e+01   3.8252678270e+01    0.2223788    0.2182317  31.23  0.001204928    1.018    0.018
        90  -9.3856     76.5777     83.1999   8.2859274758e+01   5.0957595310e+01    0.2062121    0.1273713 -35.62 0.0007848119    1.616    0.381
        91 -10.3348      3.0879     81.8588   1.1062232959e+02   5.9027522265e+01    0.3998778    0.1463903 -67.79   0.00177641    2.255    0.556
        92  -9.6377     88.8905     80.0463   7.7672304388e+01   4.9468814131e+01    0.3834226    0.2810107 -81.43  0.001673256    2.291    0.564
        93  -9.6214     90.7975     77.5907   7.6264545555e+01   4.9616763774e+01    0.2010215    0.1869607  26.70 0.0002515511    1.093    0.085
        94  -9.3654    124.4943     79.4534   6.6766358945e+01   4.2241397522e+01    0.1495591    0.1483026  48.26 0.0001766708    1.043    0.041
        95  -8.9759     80.7252     79.3801   8.0238206846e+01   5.1070201025e+01    0.1429952    0.1176808 -81.72 0.0007000975    1.704    0.413
        96  -9.3512     47.8863     79.1524   9.2335387142e+01   5.5947396126e+01    0.1875106     0.141243 -25.32 0.0003036035    1.288    0.224
        97 -11.7131     15.6122     75.2103   1.0429798011e+02   5.9832903084e+01     0.447639    0.2322297  10.27  0.002275692    2.266    0.559
        98  -9.3332     24.6577     78.6720   1.0143978576e+02   5.8380293621e+01    0.2060235    0.1030003 -46.64  0.001002109    1.637    0.389
        99 -11.3087      7.4746     76.8696   1.0794750089e+02   5.9947989648e+01    0.3054249    0.2026293  74.08  0.001084198    2.178    0.541
       100 -10.0461    176.6807     76.9534   5.4267289859e+01   3.0444274935e+01    0.2138464    0.1911002 -50.69  0.001058973    1.086    0.079
       101  -9.7614    160.2158     77.0339   5.7537668383e+01   3.4347640802e+01    0.2778397    0.1801071  42.60  0.001238076    1.651    0.394
       102 -11.4225     55.0084     75.2774   8.8434446172e+01   5.5895929391e+01    0.3332077     0.236967 -24.49            0    1.416    0.294
       103  -9.2517     28.0552     77.0466   9.9672749258e+01   5.8464404705e+01    0.1513854    0.1306978 -29.79 0.0003722841    1.081    0.075
       104  -9.4635     41.4967     74.5256   9.3561843638e+01   5.7704399281e+01    0.2335503    0.1580119 -41.37 0.0007865278    1.281    0.219
       105 -10.6335     37.2340     75.0075   9.5418246408e+01   5.8051868098e+01    0.5186225    0.1805992 -48.65 0.0004871195    2.331    0.571
       106 -10.3334     33.4915     73.2894   9.6474605427e+01   5.8804755625e+01    0.3204769    0.2262063  12.40 0.0006689145    1.542    0.352
       107 -12.6885    105.9022     70.7898   6.9301360371e+01   4.7927244102e+01    0.3191462    0.3044489 -66.33 0.0004848239    1.190    0.160
       108  -9.5231     92.9211     72.2039   7.3826098681e+01   5.0282104283e+01    0.2027871    0.1150214  42.64 0.0008717134    1.776    0.437
       109 -11.0835     10.2728     69.8277   1.0528763793e+02   6.1374431608e+01    0.3524161    0.1802587 -53.91   0.00148438    1.508    0.337
       110  -9.5462    100.0455     70.5066   7.0997676589e+01   4.9191920672e+01    0.2016802    0.1431753  43.86  0.000967378    1.409    0.290
       111 -10.6909     45.5508     69.3797   9.0406049074e+01   5.8350034907e+01    0.2572628    0.2490481 -30.23 0.0008487737    1.201    0.167
       112 -10.0730      7.2009     64.6002   1.0539249339e+02   6.2699476558e+01    0.2421604    0.1309428 -36.08  0.001327268    1.606    0.377
       113 -10.6494      4.6411     62.2988   1.0597097661e+02   6.3334791326e+01    0.2586488    0.1481533 -21.57  0.001456592    1.774    0.436
       114 -10.9649      4.9949     68.2540   1.0716075853e+02   6.2013261703e+01    0.2802727    0.1844324 -87.06  0.001564892    1.954    0.488
       115  -9.8625      1.4316     66.4495   1.0828167562e+02   6.2583632370e+01    0.1229128   0.09571498 -49.52 6.281446e-05    1.015    0.015
       116 -10.3761     80.5356     67.4466   7.6428088632e+01   5.3510699421e+01    0.2908917     0.235541  -1.68 0.0007355989    1.280    0.219
       117 -10.0778     77.5942     67.2037   7.7385636759e+01   5.4076054423e+01     0.331787    0.1830267 -31.36  0.001111731    1.940    0.485
       118 -10.2411     51.5495     66.2921   8.7005482815e+01   5.8243865956e+01    0.2592473    0.1872931 -13.06 0.0006299858    1.443    0.307
       119 -11.0939     15.1635     63.7449   1.0171176078e+02   6.2396570578e+01     0.352234    0.2525227 -30.56  0.001400498    1.226    0.185
       120 -10.8396     96.8300     64.0298   6.9834381810e+01   5.1040953246e+01    0.2522192    0.2001833  31.02            0    1.234    0.190
       121 -10.6118     62.7241     62.4976   8.1314912339e+01   5.7419053240e+01     0.272103     0.173971 -42.60   0.00136859    1.491    0.329
       122 -10.1437     38.7406     61.3788   9.0758267513e+01   6.0798156974e+01    0.2412813    0.1656419  -6.78 0.0009508008    1.550    0.355
       123  -9.6431     41.4930     58.4858   8.8637902715e+01   6.1070010749e+01    0.1358027    0.1107017 -22.49  0.000809906    1.053    0.051
       124 -12.9486     20.5842     57.7709   9.7656196332e+01   6.3263513733e+01     0.412578    0.2490073 -57.47  0.001120566    1.569    0.363
       125 -11.2352     83.6723     56.6654   7.1583464255e+01   5.4919467577e+01    0.4729047    0.3781739 -44.20  0.002027253    1.367    0.268
       126 -11.7559     86.6271     54.0610   6.9643959779e+01   5.4802896602e+01    0.6412022    0.3317007  28.03   0.00259781    2.397    0.583
       127 -10.4192      9.9928     59.5265   1.0291437375e+02   6.3632064566e+01    0.1672087    0.1164367   8.49 0.0005066508    1.584    0.369
       128 -10.1423    108.7979     58.3485   6.4291622711e+01   4.9508986219e+01    0.3935195    0.1581045  41.40  0.001428799    2.548    0.607
       129 -10.0114     49.1577     58.2701   8.5321993886e+01   6.0163788159e+01    0.2368652    0.1589667  21.33  0.001270661    1.530    0.346
       130 -10.8211      4.4482     57.7137   1.0495577155e+02   6.4327494477e+01    0.2810884    0.1586334 -14.82  0.001578281    1.879    0.468
       131  -9.9844     71.5554     56.5878   7.5878562223e+01   5.7104565477e+01    0.2100726    0.1294293 -49.89 0.0005684693    1.881    0.468
       132 -10.3546     32.7936     55.7758   9.1550588054e+01   6.2563983316e+01    0.3433367    0.1361655 -30.15   0.00128558    3.278    0.695
       133 -10.5231     96.3714     55.9211   6.7161648487e+01   5.2546254001e+01     0.260179     0.195207  33.28  0.000399073    1.291    0.225
       134 -10.8163    114.5754     53.5453   6.1049807144e+01   4.9007858770e+01    0.2881724    0.2544883  14.88 0.0007638404    1.153    0.133
       135 -11.9526     66.4431     52.7188   7.6394591180e+01   5.8649280454e+01    0.4181942    0.2180484  34.00  0.001007279    1.918    0.479
       136 -10.1665    149.1840     52.0689   5.2486683993e+01   4.1077151562e+01    0.2532379    0.1974718  60.00 0.0005960048    1.221    0.181
       137 -10.9049    105.9686     50.6277   6.2422901513e+01   5.1369236774e+01    0.2992629    0.2030112 -27.86 0.0006326529    1.554    0.356
       138 -10.1553    121.7000     50.6965   5.8235256491e+01   4.7822165980e+01    0.2374975    0.1775857 -29.18 0.0005392574    1.415    0.293
       139 -10.6160    119.7067     47.9748   5.7817929692e+01   4.8687519898e+01    0.3225185    0.2529767  40.46  0.001713636    1.216    0.178
       140 -10.1616      4.1545     50.8139   1.0331095612e+02   6.5784926926e+01    0.3006043   0.09761692 -38.26  0.001118654    2.551    0.608
       141 -10.9542      9.4025     47.6269   9.9890719203e+01   6.6128504585e+01    0.3829225    0.2550666   9.54  0.002396566    1.605    0.377
       142 -10.3414    101.9798     48.4334   6.2795029959e+01   5.2569772485e+01    0.2077657    0.1863342 -16.66  0.000467463    1.133    0.117
       143  -9.7787     76.2659     49.2980   7.1471093862e+01   5.7541545543e+01    0.1679563    0.1646603 -74.23  0.001025387    1.322    0.244
       144  -9.8688     37.5421     48.8539   8.7050712340e+01   6.3392351988e+01    0.2611988    0.1517542   6.87  0.001304774    2.005    0.501
       145  -9.6944     53.0550     48.1443   8.0045427696e+01   6.1517546769e+01    0.2528374    0.1530668  30.16  0.001310736    1.651    0.394
       146 -10.4951    152.8903     45.4522   4.9772797095e+01   4.1124399483e+01    0.4204157    0.2474272 -69.02  0.001357239    2.535    0.606
       147  -9.8745    136.5053     46.7698   5.3489545869e+01   4.4905994402e+01    0.2718602    0.1891288  58.53  0.001171766    1.361    0.265
       148  -9.5057     78.9006     45.7745   6.9202292309e+01   5.7628845871e+01    0.1682295     0.163862  77.82 0.0003029741    1.331    0.249
       149 -11.2382     17.5601     44.3932   9.4895079453e+01   6.6183327711e+01    0.3814244    0.2346408  24.26  0.001919516    1.787    0.440
       150 -10.3260     25.6788     43.6902   9.0717779873e+01   6.5606871883e+01    0.2190526    0.1894529 -62.40  0.001002284    1.552    0.356
       151  -9.8474     69.2730     41.9949   7.1217911800e+01   5.9963931471e+01    0.1851881    0.1598659 -12.35            0    1.093    0.085
       152  -9.9406     59.1374     41.6729   7.5032978397e+01   6.1700857740e+01    0.1914812    0.1529271  41.89 0.0006443336    1.452    0.311
       153 -10.6286     35.3319     41.7873   8.5447385540e+01   6.4939903168e+01    0.2919711    0.1930205   6.44  0.001252681    1.531    0.347
       154  -9.9314      4.3400     42.2960   1.0078468774e+02   6.7488052534e+01    0.1288218   0.06624638 -31.32 0.0003728239    1.658    0.397
       155  -9.7254    140.2659     40.8292   5.0812439869e+01   4.4818533542e+01    0.2806346    0.1627856  75.64  0.001203354    2.118    0.528
       156 -10.8672    128.2697     38.9691   5.2757084689e+01   4.7938362999e+01     0.344453    0.2137294 -48.51 0.0009496372    1.874    0.466
       157 -10.8088     97.6652     38.0372   6.0241778506e+01   5.5001734435e+01    0.3721238    0.2946447 -51.78  0.001089748    1.571    0.364
       158  -9.6308     42.9611     40.5429   8.1477378691e+01   6.4222807878e+01    0.1816478    0.1169207  25.08 0.0008161751    1.532    0.347
       159  -9.6518    168.4436     38.9904   4.5222535216e+01   3.8203177035e+01    0.1922072    0.1337844 -35.80  0.000370637    1.503    0.335
       160  -9.7779    152.3197     39.0621   4.7961974162e+01   4.2123020256e+01    0.1881962    0.1790092 -65.36 0.0005062986    1.091    0.083
       161 -11.8405    121.1990     37.4549   5.3862157066e+01   4.9800319467e+01    0.4016165     0.322847  36.49  0.001221515    1.211    0.174
       162 -10.5851     22.0725     38.4730   9.0581478878e+01   6.6907150703e+01    0.2367562    0.1530532 -39.75 0.0007586675    1.310    0.237
       163 -12.8366     39.8260     32.4914   7.9619696255e+01   6.5963495668e+01    0.3603891    0.2562958 -18.27 0.0004940596    1.240    0.194
       164  -9.7914     35.1478     28.8798   8.0284505086e+01   6.7129460572e+01    0.1697799    0.1438912  -8.64 -0.0006383859    1.127    0.113
       165 -10.9724     27.1208     34.6012   8.6586595658e+01   6.7100080601e+01    0.3157237    0.1985569 -18.95  0.001031977    1.475    0.322
       166 -11.3073     91.5862     33.2199   6.0206031502e+01   5.6930055627e+01    0.5152144    0.3192446  35.40  0.001936313    1.539    0.350
       167 -11.0306      7.0127     34.4860   9.6873020379e+01   6.8819765724e+01    0.3614413    0.1927326   2.04  0.001797567    1.979    0.495
       168  -9.3945    133.7002     34.6537   5.0172918099e+01   4.7195846011e+01     0.144071     0.100679  28.33 0.0007037084    1.681    0.405
       169 -10.8974     48.0294     32.9889   7.6134478544e+01   6.4759077423e+01    0.4420084    0.2404266  42.94  0.001696114    2.137    0.532
       170  -9.8710    241.7374     33.1118   3.5220206528e+01   2.2373575301e+01    0.1633285    0.1314256 -56.40 0.0003984671    1.097    0.089
       171  -9.6397     55.2846     33.0269   7.3060842942e+01   6.3658586944e+01    0.1730205    0.1403369 -11.25 0.0002326149    1.101    0.091
       172 -10.3470     17.5140     32.6430   9.0690971471e+01   6.8358204225e+01     0.308166    0.1584197   0.15  0.001252449    2.274    0.560
       173  -9.2796    166.4993     31.4662   4.3411513978e+01   3.9621408089e+01    0.1363977    0.1218246  86.42 5.344085e-05    1.024    0.023
       174 -10.0361    127.6672     30.4862   5.0054845413e+01   4.9143752550e+01    0.2858891    0.1962541  68.25  0.001471893    1.458    0.314
       175 -11.7557     10.4460     29.8547   9.3358877424e+01   6.9421217507e+01     0.343586    0.2044978  35.77  0.001185275    2.255    0.556
       176  -9.9809      2.7009     26.5932   9.6382616230e+01   7.0527500894e+01    0.3646594     0.160794  -3.01  0.001825866    2.662    0.624
       177  -9.6177    151.1978     29.7417   4.5357063645e+01   4.3552788874e+01    0.1778305    0.1481198  41.06 0.0007401024    1.269    0.212
       178  -9.9893     70.9811     29.0000   6.5283411277e+01   6.1541538479e+01    0.2434912    0.1703686  40.45 0.0008694171    1.344    0.256
       179  -9.4219     68.4750     26.4813   6.5120685720e+01   6.2330468853e+01    0.2072002    0.1533552 -12.66  0.001166961    1.328    0.247
       180  -8.9809    147.6461     28.7493   4.5665965154e+01   4.4533394375e+01    0.1403345   0.09302476  41.89 0.0003170792    1.598    0.374
       181  -9.8929    229.7237    247.9458   8.0746060049e+01  -9.6682791854e+00    0.1586039    0.1246417  -5.37 0.0004792073    1.115    0.103
       182  -9.4324    102.6883     25.6907   5.4206118364e+01   5.5459346362e+01    0.1408079   0.09224492  27.80 0.0003505253    1.624    0.384
       183  -9.2325     52.6650     25.7259   7.0987015286e+01   6.5122116266e+01    0.1306617   0.08476828   8.98 0.0003881616    1.602    0.376
       184 -10.0964     54.4096     22.1086   6.8637110350e+01   6.5327289065e+01    0.2153971    0.1569413   7.39 0.0006520423    1.256    0.204
       185 -11.4086     14.5864     21.9929   8.7903628631e+01   7.0419484999e+01    0.4260332    0.2399113  19.23  0.002459089    1.754    0.430
       186 -10.0802     20.2013     17.3809   8.2745462903e+01   7.0596941950e+01    0.2614201    0.1568424 -25.15   0.00114846    1.419    0.295
       187 -11.3111      2.1410     21.7236   9.4833359013e+01   7.1414125256e+01    0.2704231    0.1690018 -44.51 0.0007978641    1.373    0.272
       188  -7.3299      7.3847     20.3247   9.1241691613e+01   7.1285124747e+01    0.3184725    0.1685328 -35.54  0.001914728    1.495    0.331
       189 -10.2943    225.1062    247.4340   8.1504475388e+01  -9.0154274701e+00    0.2159808    0.1559831 -28.16  0.001434117    1.424    0.298
       190  -9.4805    170.8045    247.1379   9.1964468626e+01  -1.4127352111e+00    0.1744373    0.1318743   3.97 0.0006989995    1.341    0.254
       191 -10.4209    229.7062     21.5488   3.3828514199e+01   2.6284636412e+01    0.3229389    0.1529661 -71.16  0.001534262    2.343    0.573
       192  -9.3061     97.2088     21.8873   5.4196818471e+01   5.7090123275e+01    0.1773595    0.1331965  28.39 -0.000430966    1.275    0.216
       193  -9.5885    100.8516     21.1517   5.2958537462e+01   5.6370039112e+01    0.2675125    0.1414195  35.30  0.001240894    1.954    0.488
       194 -10.9022     74.9815     22.2821   6.1044102492e+01   6.1628925008e+01    0.3104057    0.1850732  52.36  0.001611762    1.724    0.420
       195 -11.3756     74.1880     18.0472   5.9489313107e+01   6.2267530442e+01    0.4342216     0.281275  38.06  0.002451051    1.341    0.254
       196 -10.7678     30.4758     21.0730   7.9092257842e+01   6.8889634502e+01    0.2897177     0.204746  11.07  0.001278972    1.253    0.202
       197 -10.1407    181.4924     20.9778   3.8550202495e+01   3.7230607817e+01    0.1797064    0.1286217 -31.28 0.0005641569    1.548    0.354
       198  -9.4794    131.8784     20.8140   4.6003513249e+01   4.9218916038e+01    0.1772907     0.149901 -83.72  0.000519042    1.288    0.223
       199  -9.4868    116.1337    246.7649   1.0319569036e+02   6.8631060227e+00    0.1591697    0.1411669  10.08  0.001036317    1.286    0.223
       200  -9.9434     59.3005     25.4519   6.8159109196e+01   6.4075519020e+01    0.3156247    0.1003546 -39.10  0.001215703    3.457    0.711
       201  -9.3028    214.3325     20.2866   3.4907429857e+01   2.9754640299e+01    0.1159099   0.09150022  47.44 0.0004232591    1.621    0.383
       202  -9.4735    165.4369     20.4655   4.0484938635e+01   4.1138198902e+01    0.1314446    0.1166145  78.82  0.000213357    1.024    0.023
       203 -11.3166     37.7599     18.9259   7.4525939818e+01   6.8253816461e+01    0.3017092    0.2191805  42.91  0.001399202    1.779    0.438
       204 -11.0352    209.1104     18.2066   3.4924373618e+01   3.1153837571e+01     0.179472    0.1551314  81.42 0.0004625004    1.161    0.139
       205 -10.2825    140.8197     18.0313   4.3518267762e+01   4.7355308164e+01    0.2240915    0.1721676  68.56 0.0006507018    1.164    0.141
       206  -9.5889     60.9876     18.6239   6.4448238060e+01   6.4645999167e+01    0.2590463   0.09541803  39.34  0.001109509    2.463    0.594
       207  -9.5009    125.4171     17.4603   4.6122192611e+01   5.1100031552e+01    0.1317603    0.1167085  55.06 6.817922e-05    1.012    0.012
       208 -10.4593      6.0001    250.0140   1.2491883309e+02   2.0093230194e+01    0.2058012    0.1606842  85.40  0.001179228    1.217    0.178
       209  -9.6154     49.4691     17.1055   6.8389093463e+01   6.6758419738e+01    0.1730819      0.11082 -25.65 0.0009091839    1.527    0.345
       210  -9.3953     39.6447    243.3331   1.1837155350e+02   1.7811332104e+01    0.1317923   0.06580999  61.73  0.000704411    1.791    0.442
       211  -9.5929     26.7557     16.6735   7.8924301179e+01   6.9971490291e+01    0.1487193   0.09712746  30.27 0.0006458426    1.589    0.370
       212 -10.5166    156.5226     15.2565   4.0253365608e+01   4.3836027142e+01    0.3562475    0.1344004  64.04   0.00149874    2.227    0.551
       213  -9.4798    202.4676    240.4630   8.4647167900e+01  -4.9873630053e+00    0.1260233    0.1009101   8.84 0.0001752512    1.009    0.009
       214  -9.8277     35.9786    240.4697   1.1888542458e+02   1.8801148743e+01    0.1721918   0.09857454  40.21  0.000573985    1.565    0.361
       215  -9.0763     99.3109     14.3148   5.0718002393e+01   5.7407391189e+01    0.1378306   0.08543745  31.27 0.0003520392    1.634    0.388
       216 -11.3166     14.6951    239.5948   1.2285771040e+02   2.1257325308e+01    0.2060255    0.1028091  73.61  0.001187603    1.761    0.432
       217 -10.0082     91.0746    237.3267   1.0738656459e+02   1.2318433925e+01    0.1912135    0.1676469 -56.52 0.0005278409    1.342    0.255
       218 -11.5264     25.5649    235.9908   1.2060430227e+02   2.0852195712e+01     0.246702    0.1673329  34.30  0.001029881    1.583    0.368
       219  -9.7660    249.3427    233.8860   7.4932164458e+01  -1.0232926634e+01    0.1626955    0.1171799 -10.49 0.0004816831    1.093    0.085
       220 -12.3782      3.9903    232.5789   1.2447973206e+02   2.3704087931e+01    0.3781143    0.2099409 -76.51  0.002397047    1.652    0.395
       221 -11.1336      1.6036    224.7831   1.2454824472e+02   2.5518693616e+01    0.2922635    0.1568084  72.60  0.001723408    1.526    0.345
       222  -9.5224      7.5279     14.3740   8.8541492601e+01   7.2231589091e+01    0.1163005   0.08196097 -15.42 -6.242673e-05    1.089    0.081
       223 -10.1037    222.4379     13.5256   3.2721340546e+01   2.8752143629e+01    0.1204545   0.09931095 -75.04 7.645246e-05    1.039    0.038
       224 -10.6361    208.0427     13.0284   3.3843111624e+01   3.1964719317e+01    0.1894077    0.1540643 -75.08 0.0003535667    1.028    0.027
       225 -10.9940      2.4894    220.4822   1.2416575229e+02   2.6336593967e+01    0.3115246    0.1272851  87.63  0.001583243    2.228    0.551
       226 -12.5901      9.6693    227.7120   1.2316945970e+02   2.4162368180e+01     0.404551    0.2420425 -79.16  0.002583983    1.506    0.336
       227  -9.4998     47.7878    229.8466   1.1574462796e+02   1.9592341496e+01    0.1702757      0.11346  64.65            0    1.306    0.234
       228  -9.1673    243.4678    230.4538   7.5366588451e+01  -9.0485896135e+00    0.1209945    0.0920941  -3.23 0.0001525518    1.002    0.002
       229  -9.8217    209.4910    229.5181   8.1473001290e+01  -4.3417388278e+00    0.1280689    0.1042055   4.64 -3.207154e-05    1.002    0.002
       230 -10.9577    140.5259    228.2116   9.5530633730e+01   6.5292821118e+00    0.2865255    0.2321556 -63.61  0.001677858    1.489    0.329
       231  -9.9663    223.1779    226.8474   7.8416322115e+01  -5.8652532477e+00    0.1751424    0.1221153  -2.81 0.0003753686    1.314    0.239
       232  -9.1807    167.3205    221.6904   8.8731635171e+01   3.4169276525e+00    0.1288686    0.1044081  62.43 0.0005225802    1.644    0.392
       233 -10.6205      8.6516    218.0106   1.2283421617e+02   2.6296769493e+01    0.2408966    0.1935351  27.71  0.001503583    1.589    0.371
       234  -9.8556    205.5049    212.8327   7.9326259335e+01  -1.0971406328e+00    0.1891919    0.1216557 -35.24 0.0008890404    1.530    0.346
       235  -9.9250     15.7880    213.1793   1.2110972878e+02   2.6661062557e+01    0.1886698    0.1292027  67.25 0.0008378447    1.201    0.168
       236  -9.5461    209.4869    211.4871   7.8300508995e+01  -1.4838857746e+00    0.1328821    0.1120175  -0.33  9.97004e-05    1.008    0.008
       237  -9.7499      3.3162    211.6741   1.2353957074e+02   2.8141838361e+01    0.1266492   0.06471723  64.87  0.000317662    1.672    0.402
       238  -9.9360     20.1987    209.8507   1.1997399022e+02   2.6959590143e+01    0.1943074    0.1273928  65.63 0.0006278724    1.297    0.229
       239  -9.4052    193.4969    202.4542   7.9840389191e+01   2.5986477964e+00     0.136754    0.1221677   3.80 0.0001159694    1.043    0.041
       240  -9.3205      3.8411     10.6501   8.9030904502e+01   7.3098651795e+01    0.1275514   0.09027959  16.56 0.0003310978    1.476    0.323
       241  -9.8903      3.6792    201.6442   1.2289512994e+02   3.0312291374e+01    0.1147544   0.07905283 -53.87  0.000704587    1.758    0.431
       242 -10.0459     23.9456    196.1793   1.1814311282e+02   2.9682677241e+01    0.2253843    0.1852355 -57.18  0.001428677    1.412    0.292
       243  -9.8279     13.9095    192.6396   1.2010782464e+02   3.1455214004e+01    0.1660239    0.1283364  63.78 0.0005028006    1.161    0.138
       244 -10.6649      1.5359    191.6471   1.2274359329e+02   3.2742899647e+01    0.3013803    0.1303997  83.08 0.0007580144    2.176    0.540
