#   1 NUMBER                 Running object number                                     
#   2 MAG_AUTO               Kron-like elliptical aperture magnitude                    [mag]
#   3 X_IMAGE                Object position along x                                    [pixel]
#   4 Y_IMAGE                Object position along y                                    [pixel]
#   5 X_WORLD                Barycenter position along world x axis                     [deg]
#   6 Y_WORLD                Barycenter position along world y axis                     [deg]
#   7 A_WORLD                Profile RMS along major axis (world units)                 [deg]
#   8 B_WORLD                Profile RMS along minor axis (world units)                 [deg]
#   9 THETA_WORLD            Position angle (CCW/world-x)                               [deg]
#  10 FWHM_WORLD             FWHM assuming a gaussian core                              [deg]
#  11 ELONGATION             A_IMAGE/B_IMAGE                                           
#  12 ELLIPTICITY            1 - B_IMAGE/A_IMAGE                                       
         1 -13.7818     58.4587    131.5769   1.1881682531e+02   4.2646260489e+01     3.483428    0.9541025 -70.11  0.008861923    5.371    0.814
         2 -13.7768    194.4951     32.9216   5.8499206473e+01   3.2039679882e+01     1.574697     1.259315  18.08  0.008314348    1.782    0.439
         3 -13.6832    204.9357     20.2485   5.4419670959e+01   3.1112163869e+01     1.052141    0.8393788  25.81  0.004051622    1.819    0.450
         4 -11.8365     58.7983      4.5229   7.3015109992e+01   6.9307535336e+01    0.5184388    0.4309777 -25.93  0.003137206    1.345    0.256
         5 -14.2209     68.0265    144.0220   1.1768351850e+02   3.8097808944e+01     2.855283     1.983595  59.55  0.007259788    1.530    0.347
         6  -9.8776     88.4809    236.4802   1.2356831184e+02   1.5031484443e+01    0.2682628    0.2022801  25.51  0.001665261    1.175    0.149
         7 -10.7963    192.3783    249.2128   1.0363771115e+02  -8.5387146242e-02    0.2421453    0.1532025  33.11   0.00161723    1.543    0.352
         8 -10.9090    183.9089    248.9684   1.0515972743e+02   9.3631428996e-01    0.3083211    0.2436477  34.57  0.002241358    1.531    0.347
         9 -13.8212    111.3776    248.7770   1.1973882733e+02   1.0044282748e+01     1.066646    0.3508095  30.66  0.001843176    2.336    0.572
        10 -14.9467    136.2744    243.0097   1.1383032520e+02   7.7309825894e+00     4.815115     1.825801  22.33  0.007772023    2.995    0.666
        11 -15.5197     52.6560    203.7076   1.2924960160e+02   2.5951722978e+01     5.353558     3.654161  72.15   0.03019447    1.517    0.341
        12 -14.9679      3.3827      7.7958   1.1320012639e+02   7.8100695831e+01     3.200042     2.435339 -76.72   0.01499834    1.912    0.477
        13  -8.8543     84.4987    234.1198   1.2425238490e+02   1.5960268193e+01    0.1569165    0.1246471 -62.99  0.001016838    1.566    0.362
        14 -12.1438    194.2879    195.0512   9.5025082651e+01   7.0403890247e+00    0.8793029    0.5675358 -59.37  0.004287528    3.068    0.674
        15  -8.8766    179.8269    192.5984   9.7405961918e+01   9.5390231857e+00    0.1809593    0.1104054  41.74  0.000613622    1.736    0.424
        16 -15.6442      1.8746     59.1632   1.3120366314e+02   6.6739665158e+01     11.10235     1.120677 -75.70   0.01969653   13.597    0.926
        17 -10.0225    210.9544    179.6693   8.9288477754e+01   6.9298358466e+00     0.437777    0.2009079 -22.04  0.001915116    2.759    0.638
        18 -11.2478     73.1973    180.4815   1.2134713620e+02   2.8517349124e+01     0.464722    0.2914535 -33.89  0.001489631    2.229    0.551
        19 -11.2137     77.1434    175.1330   1.1954693294e+02   2.9196815540e+01     0.359818    0.2734346 -32.00 0.0005797822    1.645    0.392
        20  -8.7402     99.4331    180.7144   1.1422411124e+02   2.4582797962e+01    0.1737753    0.1362499 -43.67  0.000566696    1.441    0.306
        21 -10.2347     58.3519    176.8187   1.2509844248e+02   3.1350165920e+01    0.3648601    0.2644947 -45.80    0.0012903    1.636    0.389
        22 -11.8793    143.0761    229.4578   1.1069727960e+02   8.9263525220e+00    0.5812217    0.4647364  -9.23  0.002230785    1.314    0.239
        23 -11.9747    195.9542    244.6895   1.0237399454e+02   5.2304340325e-02    0.4513497    0.3836687  86.11  0.002850067    3.148    0.682
        24 -10.0233    195.7395    170.1128   9.0249570252e+01   1.0682628095e+01    0.2892456    0.2560194 -16.35  0.001122887    1.118    0.106
        25 -10.2477     98.3090    227.4702   1.2042185631e+02   1.5369523718e+01    0.3256876    0.2019857  29.42 0.0005744582    1.328    0.247
        26 -11.8032     91.7776    157.6926   1.1268007274e+02   3.1047666080e+01    0.6656192    0.4312814 -26.81  0.002834172    2.215    0.549
        27  -9.1795    140.0451    156.7896   9.9534526184e+01   2.2728770611e+01    0.2132578    0.1905646  57.95 0.0005199115    1.250    0.200
        28 -10.2904    134.0137    145.0793   9.8621663426e+01   2.6295934238e+01    0.9612074    0.2278238 -52.79  0.002250908    6.421    0.844
        29  -9.1682    174.9692    149.0015   9.0090155807e+01   1.7790591187e+01    0.2071813    0.1761682 -88.60 0.0006798262    1.696    0.410
        30 -11.0884    104.4769    142.0406   1.0604067490e+02   3.2539579209e+01    0.5727191    0.3750189 -24.63   0.00236263    2.191    0.544
        31 -11.5646     92.2871    142.3720   1.0974195036e+02   3.4625186502e+01     0.307709    0.2800895 -17.16 0.0005270637    1.230    0.187
        32  -9.6974     96.9718    138.2053   1.0748922484e+02   3.4803666872e+01    0.2466069    0.2010628  63.12 0.0009279266    1.322    0.243
        33  -9.6083    193.3835    164.5794   8.9627065490e+01   1.1950331388e+01    0.3362753    0.2221061 -56.95  0.001668201    2.273    0.560
        34  -9.9170    105.9015    130.6393   1.0319286101e+02   3.4942256978e+01    0.3616061    0.3320408  69.37   0.00128851    1.140    0.123
        35 -10.1103    113.2302    131.4396   1.0123637398e+02   3.3341062019e+01    0.3934605    0.3002169  -2.97  0.001318907    1.753    0.430
        36 -11.5232    118.9554    126.5367   9.8489593053e+01   3.3314236410e+01     1.000724      0.37198 -38.95  0.003036349    3.544    0.718
        37 -11.4071     46.3045    129.3238   1.2274550731e+02   4.4807851165e+01    0.4863872    0.2686754  25.30  0.002116698    1.854    0.461
        38 -10.4542    100.3665    128.0449   1.0428249424e+02   3.6605223979e+01    0.3349727    0.2772976 -22.45 0.0006333152    1.420    0.296
        39  -9.5341    126.0344    127.5395   9.6786104885e+01   3.1656098637e+01    0.3042937    0.1951412 -88.65   0.00103047    3.384    0.704
        40 -11.5710     39.7400    123.7779   1.2429737067e+02   4.7029180703e+01    0.6053718     0.218717 -62.64  0.002235259    2.504    0.601
        41 -10.2126    135.0000    121.3703   9.2958741350e+01   3.1121688888e+01    0.5142943   0.08745447 -45.29  0.001163835    6.010    0.834
        42  -9.2672    109.0118    120.0213   9.9801841524e+01   3.6799565020e+01    0.2303416    0.2208242  22.66  0.001212845    1.061    0.057
        43 -12.0109     39.1348    116.3518   1.2337164731e+02   4.9057289382e+01    0.6180234    0.3691989 -48.09  0.002809926    1.737    0.424
        44  -9.6254    110.0297    115.5531   9.8399604693e+01   3.7617893996e+01    0.2722032     0.230508 -53.49 0.0003692787    1.225    0.184
        45  -8.9769    167.9059    112.7413   8.3302894652e+01   2.5814679528e+01    0.2879483    0.1863194 -64.12  0.001228526    2.181    0.541
        46 -10.7275    119.9007    111.3280   9.4470098940e+01   3.6494141173e+01    0.3642661    0.2573429 -76.42  0.001523387    2.014    0.504
        47 -10.8118    115.7514    109.5912   9.5197414335e+01   3.7763178850e+01    0.4443437     0.270834 -25.60  0.001674403    2.426    0.588
        48  -9.3172     36.3555    111.2863   1.2363526438e+02   5.0699340917e+01    0.1498038    0.1051238 -30.81 0.0007022395    1.672    0.402
        49 -14.4305     11.4946    206.4069   1.3971856158e+02   2.9585212653e+01     1.060902    0.6348512  23.17  0.004706088    1.665    0.400
        50  -9.1315    205.3984    110.0863   7.5997056308e+01   1.8683379997e+01    0.2116959    0.1808637  29.18 0.0006040153    1.295    0.228
        51  -9.5102    134.3985    104.5900   8.8818499896e+01   3.4745901088e+01    0.5525788    0.1491367 -43.28  0.001570449    3.759    0.734
        52 -12.2968     85.2105    164.9537   1.1576796950e+02   3.0377978320e+01     1.526608      0.47414  45.01  0.000622896    3.240    0.691
        53 -12.9955     73.5446    160.7628   1.1856774519e+02   3.3137272812e+01    0.7107413    0.5325306 -42.84  0.001337404    1.534    0.348
        54  -8.4121     24.5898     82.4757   1.2355717638e+02   5.9388668249e+01    0.1379172    0.1289495 -63.24  0.000115141    1.023    0.022
        55  -9.5146    137.4957    170.4991   1.0278068576e+02   2.0411346100e+01    0.1435631    0.1305536  23.27 0.0008106544    1.012    0.011
        56 -10.1274    158.9978     60.8463   7.0987725631e+01   3.6789659697e+01    0.3531416    0.2441758 -74.77  0.000696213    1.710    0.415
        57 -16.8025      6.2859    239.7299   1.4200121816e+02   2.3373780861e+01     6.512297     1.991478 -80.89   0.03107032    3.483    0.713
        58  -9.1058    116.1925     56.3988   7.8693667031e+01   4.8268690917e+01    0.2239876    0.1418747  68.79 0.0008606791    1.743    0.426
        59  -9.9472    161.2079     54.5587   6.8762862850e+01   3.7186071583e+01    0.3030201    0.2198913 -79.67 0.0008282218    1.516    0.340
        60 -12.3395     67.4720    242.7339   1.2880442514e+02   1.6492002955e+01     1.500156     0.647024  26.39  0.005950715    2.033    0.508
        61 -12.8130    184.9498     40.1858   6.1423852865e+01   3.3375063952e+01    0.8429819     0.627606  41.80  0.002255594    1.678    0.404
        62 -13.4652     85.4816    208.4797   1.2141956760e+02   2.0753345903e+01     2.251399     1.105927  39.06   0.01076331    1.665    0.399
        63  -9.8719     94.6504    225.2876   1.2103770534e+02   1.6257327403e+01    0.2669698    0.1458403  43.40 0.0008117408    1.570    0.363
        64 -10.4112     92.7035    235.7537   1.2254563541e+02   1.4620151521e+01    0.2777387    0.1723664  43.13 0.0003591657    1.354    0.261
        65 -12.9210     30.3046    205.8091   1.3505816424e+02   2.7945062158e+01     1.372103    0.1842755  40.67  0.004775681    3.602    0.722
        66  -9.0983    150.4179     22.9943   6.0653631044e+01   4.4011753195e+01    0.2648122    0.1736272 -81.91 0.0008396339    1.553    0.356
