#   1 NUMBER                 Running object number                                     
#   2 MAG_AUTO               Kron-like elliptical aperture magnitude                    [mag]
#   3 X_IMAGE                Object position along x                                    [pixel]
#   4 Y_IMAGE                Object position along y                                    [pixel]
#   5 X_WORLD                Barycenter position along world x axis                     [deg]
#   6 Y_WORLD                Barycenter position along world y axis                     [deg]
#   7 A_WORLD                Profile RMS along major axis (world units)                 [deg]
#   8 B_WORLD                Profile RMS along minor axis (world units)                 [deg]
#   9 THETA_WORLD            Position angle (CCW/world-x)                               [deg]
#  10 FWHM_WORLD             FWHM assuming a gaussian core                              [deg]
#  11 ELONGATION             A_IMAGE/B_IMAGE                                           
#  12 ELLIPTICITY            1 - B_IMAGE/A_IMAGE                                       
         1 -12.2459    205.7113     17.7965   5.1009412015e+01   3.1128654465e+01     1.069964     0.755594  16.93  0.005145712    1.782    0.439
         2 -12.1548    194.6588     31.9403   5.6743381880e+01   3.2410514684e+01     1.090897    0.8917332  34.47  0.004910272    1.319    0.242
         3  -9.5779     41.2270      5.9782   8.7398486435e+01   7.0279920988e+01     0.167387   0.08622738 -37.91 0.0007537557    1.679    0.405
         4 -10.1317     98.2062    248.2600   1.1959261094e+02   1.5190016430e+01    0.2495609    0.1901736  84.40  0.001168548    1.414    0.293
         5 -11.2932    109.7487    246.9499   1.1760146032e+02   1.3803666059e+01    0.5271338    0.2193448  37.34  0.002936896    2.191    0.544
         6 -12.5364    118.9994    249.7401   1.1632234734e+02   1.2142324850e+01    0.7323342    0.4976234  33.56  0.005315785    1.542    0.352
         7 -12.8989    127.7625    248.3070   1.1475761427e+02   1.1090911269e+01     1.687839    0.4018335  38.12  0.006503213    4.237    0.764
         8 -16.8085     11.1463    171.2785   1.3000766155e+02   3.8339586476e+01     15.39201     2.447143 -80.25   0.05208163    6.162    0.838
         9 -10.3754    134.6399    229.3959   1.1171633913e+02   1.2635494774e+01    0.1827118      0.14736 -56.73  0.001360297    1.613    0.380
        10 -10.4732     97.2586    239.1014   1.1903153016e+02   1.6621013852e+01    0.2448135    0.1506699  77.48  0.001421725    1.787    0.440
        11 -10.2635    196.2511    196.5448   9.6285964488e+01   7.0343412525e+00    0.4144259     0.264841  36.98  0.002076768    1.287    0.223
        12 -10.2614     72.6404    182.3780   1.1850245195e+02   2.9498502763e+01    0.3335412    0.2235613 -47.36   0.00200594    2.109    0.526
        13 -10.1792     76.9412    176.5909   1.1701649950e+02   3.0035482062e+01    0.2730705    0.2257013 -47.46 0.0009890286    1.637    0.389
        14  -9.0690    197.2461    174.9130   9.2403339727e+01   9.8281342229e+00    0.3270527    0.2485839 -68.88  0.001775419    2.153    0.535
        15 -10.1635     85.3512    237.8921   1.2092864587e+02   1.8384134518e+01      0.20935    0.1581902 -73.62  0.001352335    1.590    0.371
        16 -10.8204     84.7836    165.6863   1.1407379502e+02   3.1089570009e+01    0.4979462    0.3093545 -87.66 0.0009390615    1.781    0.439
        17 -11.8673     73.2975    162.0467   1.1615983607e+02   3.3425561673e+01    0.6226958    0.3770585 -54.56  0.002656496    1.865    0.464
        18 -11.8987     68.1790    144.1186   1.1510220420e+02   3.7862518915e+01    0.7883475    0.4608805  79.53   0.00384339    1.969    0.492
        19  -9.2919     92.5098    156.5006   1.1113032918e+02   3.1805806783e+01    0.2553652    0.1476704  44.25  0.001338201    1.604    0.376
        20  -9.0161    103.1567    144.0343   1.0674448945e+02   3.2695438542e+01    0.2099979    0.1520195 -31.23 0.0009909058    2.004    0.501
        21 -10.4661     91.9879    143.3093   1.0928355326e+02   3.4632192857e+01    0.2400127        0.233 -52.54  0.000380064    1.250    0.200
        22 -10.3413     90.1825    160.2634   1.1217504480e+02   3.1390746603e+01    0.3084418    0.2804084   9.35 0.0008700186    1.515    0.340
        23 -10.7514     58.3546    132.4903   1.1595976730e+02   4.1633326251e+01    0.3359377      0.20371  54.93  0.001865257    1.621    0.383
        24  -9.1829    100.2971    128.6770   1.0473689427e+02   3.6428338481e+01     0.250753    0.2144056 -21.36 0.0005558407    1.552    0.356
        25  -9.0569    113.5662    132.1528   1.0211438803e+02   3.3397390141e+01    0.2786264    0.1990643  37.36  0.001127349    1.465    0.318
        26  -8.0586    108.9835    120.6531   1.0096107930e+02   3.6657377754e+01    0.1897337    0.1741176  60.06 0.0004746141    1.067    0.063
        27  -9.4165    164.4672    237.0014   1.0744677921e+02   7.0690287487e+00    0.1354213    0.1132028 -43.42  0.001037725    1.612    0.380
        28  -8.5448    167.0180    111.8214   8.5087272523e+01   2.6543590576e+01    0.2418153    0.1767821  80.37 0.0009997697    1.926    0.481
        29  -9.0757    119.5839    111.7997   9.6318075619e+01   3.6577457126e+01     0.210929    0.1351961 -62.47  0.000953784    1.752    0.429
        30 -14.2378     53.8674    205.4303   1.2406114653e+02   2.7610231733e+01     2.408778     1.553609  74.03   0.01388379    1.291    0.226
        31 -11.5251    126.7132    229.8923   1.1315032424e+02   1.3756948167e+01    0.3333015    0.2832399  59.45  0.002589933    1.152    0.132
        32 -11.2360    114.7985    230.0182   1.1523746761e+02   1.5490834072e+01    0.3129126    0.2237417  87.87  0.002214212    1.642    0.391
        33 -11.7977    100.6677    228.6205   1.1756728529e+02   1.7711430066e+01    0.5245949    0.2893878  51.27  0.003170886    1.371    0.270
        34 -11.5961    109.2840    229.4306   1.1614156019e+02   1.6371711980e+01    0.4050078     0.203702  50.41  0.001882022    1.521    0.343
        35  -9.9410     93.2609    243.5923   1.2004611591e+02   1.6508064894e+01    0.2138149    0.1309088 -81.31    0.0012265    1.949    0.487
        36 -10.9312    185.5632     38.1775   6.0080027397e+01   3.4027541567e+01     0.386185    0.3647966  63.63   0.00107769    1.048    0.046
        37 -10.3397    101.9418    249.7800   1.1910314781e+02   1.4479448554e+01    0.3314156    0.1644003  34.62  0.001998556    2.120    0.528
        38 -10.3349     71.5868    229.3586   1.2262874616e+02   2.1457542029e+01     0.245319    0.1434737  55.57  0.001719452    1.259    0.206
