#   1 NUMBER                 Running object number                                     
#   2 MAG_AUTO               Kron-like elliptical aperture magnitude                    [mag]
#   3 X_IMAGE                Object position along x                                    [pixel]
#   4 Y_IMAGE                Object position along y                                    [pixel]
#   5 X_WORLD                Barycenter position along world x axis                     [deg]
#   6 Y_WORLD                Barycenter position along world y axis                     [deg]
#   7 A_WORLD                Profile RMS along major axis (world units)                 [deg]
#   8 B_WORLD                Profile RMS along minor axis (world units)                 [deg]
#   9 THETA_WORLD            Position angle (CCW/world-x)                               [deg]
#  10 FWHM_WORLD             FWHM assuming a gaussian core                              [deg]
#  11 ELONGATION             A_IMAGE/B_IMAGE                                           
#  12 ELLIPTICITY            1 - B_IMAGE/A_IMAGE                                       
         1 -11.7041      5.7460     37.3988   1.1673179709e+02   6.8748053031e+01     0.966349     0.650569  70.43  0.003737019    1.785    0.440
         2 -11.7873      1.9138     25.2558   1.1591626557e+02   7.1762138822e+01    0.4397264    0.1589904 -70.91  0.001972417    2.301    0.565
         3 -11.3352      6.8125     17.6844   1.1040605217e+02   7.3228759915e+01    0.4676416    0.3175997 -60.15   0.00169647    1.196    0.164
         4 -11.2999    182.2073     18.9582   5.1002822300e+01   3.6791849715e+01    0.3427601     0.240132 -15.78  0.000757728    1.436    0.304
         5 -10.9532    199.4083     17.6098   4.8640142511e+01   3.2523365184e+01    0.3166758    0.2457491  16.29  0.001660342    1.458    0.314
         6 -10.9049     24.5794     16.7885   9.8527776652e+01   7.1987579928e+01    0.2734751    0.2220956 -55.32  0.001128088    1.222    0.181
         7 -11.8305     79.3641     15.2795   7.1077485969e+01   6.3318550887e+01    0.5216371    0.4189157  77.72  0.002405639    1.690    0.408
         8 -12.4530    175.3372     11.4580   4.9278135299e+01   3.9349168314e+01    0.4035248    0.3313203  82.68  0.001138912    1.261    0.207
         9 -11.5279    147.9411     13.2164   5.3669049948e+01   4.6490464499e+01     0.347887    0.2323301  48.77  0.001628479    1.481    0.325
        10 -10.1118     51.2330     13.7956   8.1998339309e+01   6.8941243582e+01    0.2920029    0.1527889 -19.93  0.001189989    2.597    0.615
        11 -11.4997    210.7852     10.4715   4.5408297816e+01   3.0391227735e+01    0.5025416    0.2713499  20.87  0.002067795    2.685    0.628
        12 -11.9144    209.1206      4.8541   4.3881251165e+01   3.1306026121e+01    0.3845176    0.2749994 -67.88 0.0004298576    1.447    0.309
        13 -10.6103    217.9620     12.0391   4.5264918584e+01   2.8512118168e+01    0.2170855    0.1536016  32.16 0.0008745654    1.670    0.401
        14  -9.5642     97.8967     12.1272   6.3647578700e+01   5.9517859775e+01    0.1966092    0.1582438  15.29 0.0003250342    1.254    0.202
        15  -9.9317     67.5919     11.7931   7.3567173055e+01   6.6261294659e+01    0.1965094    0.1722677   9.39  0.001144878    1.085    0.078
        16  -9.9128     58.9827     11.9971   7.7327465627e+01   6.7878501224e+01    0.1924006    0.1623003 -62.09            0    1.593    0.372
        17  -9.7078     56.2717     10.3582   7.7587405893e+01   6.8629289605e+01    0.2110889    0.1478412 -16.11 0.0006667583    1.409    0.290
        18 -10.5693     20.7855     11.5452   9.8323529160e+01   7.3443265503e+01    0.2950207    0.1687885  43.39  0.001260556    2.384    0.581
        19 -10.4910     13.0550     11.1203   1.0338469167e+02   7.4221413676e+01    0.1895572    0.1329455 -37.07 0.0004532526    1.213    0.176
        20 -11.1147     39.8165      4.8311   8.2508143279e+01   7.2267342405e+01     0.491265    0.3717275 -78.87  0.002461489    2.707    0.631
        21  -9.7565     39.3936      9.9772   8.5970624082e+01   7.1454662290e+01    0.1851907    0.1478812 -30.21  0.001114873    1.075    0.070
        22 -11.5192    194.6818      8.4719   4.6242989884e+01   3.4598882235e+01    0.2825329    0.2373012 -51.40 0.0002376566    1.151    0.131
        23 -10.4109     76.8632      8.8772   6.8425135948e+01   6.4740901452e+01    0.2069977    0.1887095  -9.13            0    1.054    0.052
        24 -10.3708     73.7182      8.6639   6.9424993343e+01   6.5442454299e+01    0.2398539     0.202525 -14.98 0.0005052268    1.090    0.083
        25 -10.8462    159.8012      7.2064   4.9668167714e+01   4.3893906392e+01    0.3418965    0.2107072 -58.32 0.0009529121    1.841    0.457
        26 -12.4283    161.1304      3.2389   4.8027044895e+01   4.3891599681e+01    0.7662166    0.3819349  77.20  0.003147112    2.105    0.525
        27  -9.8994    128.1872      8.3838   5.5029381103e+01   5.2247427030e+01    0.1998542    0.1414244  82.75 0.0002887172    1.606    0.377
        28 -10.9249    108.0043      7.7741   5.8922942906e+01   5.7529769763e+01     0.311021     0.198602  72.05  0.001420616    1.772    0.436
        29 -10.5171    111.8579      5.1177   5.6771914157e+01   5.6826262248e+01    0.3006341    0.1885358  27.47 0.0003854819    1.738    0.425
        30 -10.6568     25.0553      6.8819   9.2873974364e+01   7.3898565230e+01    0.2459357    0.1808247 -49.76  0.001023613    1.334    0.250
        31  -9.8006     87.6647      6.9293   6.3844865643e+01   6.2559371389e+01    0.2007674    0.1714889 -12.63 0.0005641425    1.110    0.099
        32  -9.5417     19.7675      6.9961   9.6528337665e+01   7.4451490867e+01    0.1645044   0.08809562 -48.78 0.0004998705    1.560    0.359
        33  -9.7413     61.9732      6.4863   7.2725874125e+01   6.8132943355e+01    0.1964652    0.1341649  48.80  0.000754952    1.586    0.370
        34 -11.3622    194.0836      3.6372   4.4766724812e+01   3.5182256733e+01    0.3314053    0.2347395  54.03 0.0006847387    1.473    0.321
        35  -9.5749     14.2485      4.6688   9.9155583363e+01   7.5439720985e+01     0.110505   0.09133021 -72.61  0.000133496    1.550    0.355
        36 -10.3862    248.9986      2.9626   4.0696899627e+01   2.2309160596e+01    0.1970399    0.1604825 -39.19 0.0004033964    1.035    0.034
        37 -10.4190    217.9181      2.3262   4.2486935150e+01   2.9393258292e+01    0.2592687     0.190371 -15.98   0.00100232    1.339    0.253
        38 -10.1078     48.7817      2.7975   7.6404048019e+01   7.1106686851e+01    0.2543744    0.1570545  22.24  0.001267213    1.879    0.468
        39 -11.2337     47.3933      9.0183   8.1086870706e+01   7.0375920278e+01    0.5022737    0.2289685  38.60  0.002243355    2.386    0.581
        40 -11.3746    180.7128      1.9654   4.5460201338e+01   3.8790698216e+01    0.3691022    0.1991295  69.43  0.001299998    1.824    0.452
        41 -10.6675    144.1458      1.6169   4.9600113731e+01   4.8607349002e+01    0.2858272    0.1768538 -80.37 0.0008929278    1.965    0.491
        42 -10.2641    115.6760      2.0340   5.4510408519e+01   5.6137444873e+01    0.1977824    0.1783058  -0.46 0.0003391771    1.090    0.083
        43 -10.4646     73.6500      1.8828   6.5438720058e+01   6.6306453560e+01    0.2440969    0.2067454  56.48 0.0008520031    1.315    0.240
        44 -10.5498    199.5607      1.4814   4.3628135076e+01   3.3976128576e+01     0.280507    0.1329353  74.46  0.001204979    2.154    0.536
        45 -10.4190     90.4999      1.4385   6.0019015937e+01   6.2496275152e+01    0.2533987    0.1353396  60.30 4.183929e-05    1.888    0.470
        46  -9.5531     87.3923    231.2093   1.1687715990e+02   1.9235082712e+01    0.1483727   0.09052218  54.40 0.0004734919    1.381    0.276
        47  -9.9683    216.0834    250.6318   9.7212647101e+01   5.6003329882e-01    0.1441193   0.06819757  33.49  0.000335675    1.515    0.340
        48 -12.5468    186.8845    249.4407   1.0162021252e+02   4.3025700124e+00    0.2751988    0.1843209 -23.64  0.002150948    1.851    0.460
        49 -11.6333    127.6228    248.4821   1.1129313645e+02   1.1951240902e+01    0.2562357    0.1918533  50.57  0.001007396    1.260    0.206
        50 -12.8841     18.4502    247.1708   1.2950396514e+02   2.4117499453e+01    0.8644269    0.1277032  45.89  0.004709128    2.803    0.643
        51 -12.1593     10.1790    249.1317   1.3087121927e+02   2.4561008342e+01    0.4192145    0.1822086  53.18  0.002348987    1.482    0.325
        52 -12.7521      3.1811    246.7689   1.3192163369e+02   2.5494168432e+01    0.2362685    0.1684501  60.37 0.0004224585    1.118    0.105
        53 -11.6253      6.8323    240.5544   1.3120622311e+02   2.6101449449e+01    0.2784343    0.1833919  67.22  0.001271617    1.180    0.153
        54 -12.5470      2.2440    233.6525   1.3180127607e+02   2.7527826708e+01    0.6740667    0.1872218 -88.75  0.003764337    3.601    0.722
        55 -11.7891     28.1002    245.8449   1.2789853220e+02   2.3425916558e+01    0.2582207    0.2172963 -88.65  0.001147905    1.479    0.324
        56 -12.2167     34.2758    248.0954   1.2696952313e+02   2.2515678445e+01    0.3914971    0.1280307  40.55 0.0003351848    1.971    0.493
        57 -13.0770     35.7404    243.6955   1.2656030263e+02   2.3010688851e+01    0.3945032     0.254711  48.57  0.001424635    1.096    0.087
        58 -10.4045     74.5249    231.9780   1.1923908350e+02   2.0634444029e+01     0.160596    0.1587846  60.96 0.0007384575    1.412    0.292
        59 -11.6110     73.3899    226.4239   1.1906383308e+02   2.1602566574e+01    0.3237045    0.1351661  50.55  0.001020175    1.912    0.477
        60  -9.4685     57.9801    230.5486   1.2210104220e+02   2.2696641487e+01    0.2223807    0.1540949  79.58   0.00174766    1.447    0.309
        61  -9.4560    159.8625    230.9056   1.0396618363e+02   9.8599909883e+00    0.1362741    0.1031655  43.89 0.0003840959    1.273    0.214
        62 -10.2317    152.5126    230.5161   1.0519779306e+02   1.0903401106e+01    0.1840395    0.1353716  21.13 0.0009361578    1.282    0.220
        63 -11.2585    151.9353    227.0556   1.0490443122e+02   1.1411051261e+01    0.1945739      0.14929  31.38 0.0003398753    1.036    0.035
        64  -9.6076     80.9765    231.2622   1.1803372399e+02   1.9990113350e+01    0.1432746    0.1004273  46.94 0.0005234653    1.056    0.053
        65  -9.7245    187.1322    230.3405   9.9270727347e+01   6.2280081079e+00     0.145765    0.1086146  15.41 0.0006256878    1.174    0.148
        66  -9.5036     96.6437    230.2910   1.1513802717e+02   1.8240660994e+01    0.1117743   0.06109336  55.09 0.0007028235    1.685    0.406
        67  -9.3791    208.4776    228.4637   9.5537083919e+01   3.5667473030e+00    0.1080558   0.07741438  21.87 0.0001542059    1.003    0.003
        68 -10.0331    126.0685    228.1858   1.0963664544e+02   1.4756781726e+01    0.1611289    0.1170296  27.28 0.0005239593    1.295    0.228
        69 -10.7435    110.4388    227.1089   1.1235998257e+02   1.6952479537e+01    0.3682464    0.1757185  49.77  0.002010988    1.839    0.456
        70 -10.3036     93.3879    227.0926   1.1546604809e+02   1.9109029932e+01    0.1858414    0.1234411  81.17  0.001289961    1.853    0.460
        71 -10.0805     23.7016    227.2042   1.2798604970e+02   2.6659352265e+01    0.1764095   0.09784136  56.82 0.0007177476    1.292    0.226
        72 -10.0197     20.0190    225.2538   1.2855890328e+02   2.7305594093e+01    0.1553295    0.0969146  67.19  0.000325738    1.253    0.202
        73 -10.8051    216.1131    226.1758   9.4006273066e+01   2.7822809562e+00    0.1578833    0.1185993  12.74 0.0003706209    1.101    0.092
        74  -9.8704    202.9507    227.3510   9.6278447980e+01   4.4138984622e+00    0.1496365   0.09953976  28.27 0.0002927776    1.118    0.105
        75  -9.6190    173.9731    227.7889   1.0116670385e+02   8.3004567087e+00    0.1523815   0.06763315  36.76    0.0008688    1.713    0.416
        76 -10.7969    233.4011    225.1306   9.1172114265e+01   6.3862347933e-01    0.1834753    0.1720534 -33.03  0.001521006    1.990    0.497
        77 -10.0423    184.7857    225.8480   9.9085500841e+01   7.0370702809e+00    0.1623777    0.1137034  21.57   0.00057833    1.168    0.144
        78 -10.0759     13.5174    224.9119   1.2967684777e+02   2.7938538928e+01    0.1971976   0.07452462  84.93 0.0009416404    2.609    0.617
        79 -10.3602    164.0933    224.4574   1.0246178091e+02   1.0055443686e+01     0.169652    0.1536614  82.66 0.0008514436    1.646    0.392
        80 -10.3997     99.0012    223.6372   1.1414289804e+02   1.8918201902e+01    0.1966031    0.1506657 -63.89 0.0007812983    1.637    0.389
        81 -11.0514     95.9188    219.2062   1.1432638963e+02   1.9974394163e+01    0.2188413    0.1826903  57.52 0.0007880289    1.126    0.112
        82 -10.3220    101.2083    217.3592   1.1316435729e+02   1.9578372221e+01    0.2082783    0.1494873  21.32  0.001370651    1.621    0.383
        83 -10.5216     79.5569    224.2739   1.1777988217e+02   2.1208676661e+01    0.2465256    0.1425824  66.87  0.001614213    1.824    0.452
        84 -10.7741      6.1275    222.3988   1.3088343208e+02   2.8973084057e+01    0.3508232    0.1635347 -77.78  0.002455511    2.231    0.552
        85 -10.3661     37.6237    224.0209   1.2539758353e+02   2.5831280705e+01    0.2287535   0.09688087  45.06  0.001025998    1.656    0.396
        86 -10.2744    147.7824    221.4925   1.0499778117e+02   1.2695250684e+01    0.2872835   0.09272409 -48.93  0.001366362    4.031    0.752
        87  -9.8279     64.7177    222.6758   1.2039902726e+02   2.3173859368e+01    0.1653338   0.09031332  83.30 0.0004630107    2.150    0.535
        88  -9.4152     62.6652    219.7572   1.2058771651e+02   2.3867318374e+01    0.1456057    0.0898016  56.03 0.0003267055    1.295    0.228
        89 -10.2811    121.2830    222.0419   1.0988269099e+02   1.6244664968e+01    0.1421904    0.1171592  46.33 0.0003181356    1.097    0.089
        90  -9.8902     55.0242    221.7361   1.2212178438e+02   2.4392130348e+01    0.1806447     0.173455  80.19  0.001592517    1.394    0.283
        91 -10.4771    250.0071    220.4478   8.8000837009e+01  -1.0413371683e+00    0.1773606    0.1211448  -3.24 0.0003501871    1.255    0.203
        92  -9.7350     84.6094    220.9391   1.1658683139e+02   2.1113787492e+01    0.1424787    0.1113703  55.58 0.0005055798    1.083    0.076
        93 -10.6142     28.0920    220.1760   1.2693950667e+02   2.7375976993e+01    0.2118204    0.1656499 -75.59  0.001776918    1.548    0.354
        94  -9.5598     24.5085    218.5539   1.2751905325e+02   2.7977068586e+01    0.1475819    0.1261754 -26.59 0.0008882192    1.994    0.498
        95  -9.2504     21.4806    221.0093   1.2815254951e+02   2.7855209722e+01    0.1230242   0.08243009  87.60 0.0003087486    1.443    0.307
        96  -9.8499     20.1328    217.7970   1.2827689223e+02   2.8502725260e+01    0.1426262    0.1080551  54.97 0.0006013762    1.114    0.102
        97 -10.4830     14.8305    219.5651   1.2928156735e+02   2.8686065147e+01    0.2826742    0.1104438  50.19 0.0008772648    1.733    0.423
        98 -11.0113    135.1195    217.6026   1.0685517685e+02   1.4979309520e+01    0.2867649    0.2293266 -72.02  0.001529362    1.719    0.418
        99 -11.8247     39.7868    218.2251   1.2472713929e+02   2.6551903266e+01    0.3342839    0.1558274  32.76  0.002007112    1.951    0.487
       100 -10.2269     47.7288    218.0737   1.2325586932e+02   2.5760068226e+01    0.2129559    0.1653201   8.83  0.001156452    1.989    0.497
       101 -10.2645    173.9180    216.6909   9.9751149573e+01   9.6166966797e+00    0.2667829    0.1475931  49.26  0.001549761    2.014    0.504
       102 -10.0347    117.1974    216.4595   1.1006661374e+02   1.7598845671e+01    0.1626948    0.1504578  83.49 0.0005749821    1.292    0.226
       103 -10.6502     72.8631    216.3941   1.1844159076e+02   2.3235514152e+01    0.1832167    0.1605138  -2.14 0.0002739286    1.678    0.404
       104 -11.3949     74.2876    211.7003   1.1781285309e+02   2.3827944334e+01    0.2640642    0.1959375  88.19  0.001057201    1.443    0.307
       105 -10.5093    228.8058    220.2697   9.1174103808e+01   1.6772277414e+00     0.165878      0.12514  25.69 0.0003993243    1.242    0.195
       106 -10.8275    157.0547    215.2378   1.0256444402e+02   1.2204477672e+01    0.1663133    0.1548952  31.80 0.0002713982    1.233    0.189
       107 -11.0585    111.6920    214.1305   1.1086614413e+02   1.8686298909e+01    0.2340262     0.193357 -56.63  0.001000753    1.517    0.341
       108  -8.8780     92.3194    216.3027   1.1474916608e+02   2.0876801869e+01   0.09856915   0.08107346   9.79 0.0002547479    1.627    0.385
       109 -11.1910     85.1956    213.9725   1.1590459167e+02   2.2134534823e+01    0.2960293    0.2393777 -42.34  0.001788335    1.731    0.422
       110 -11.1521     25.3649    208.5518   1.2695376349e+02   2.9573859950e+01    0.3671426    0.2232574  42.34  0.001742974    1.344    0.256
       111 -11.6853     36.4438    205.6461   1.2471300490e+02   2.9006208355e+01    0.3512355    0.2888914  23.44  0.002764743    1.567    0.362
       112  -9.6760     31.5105    216.4374   1.2615967378e+02   2.7662758527e+01     0.138775    0.1037118  58.68 0.0001437586    1.042    0.040
       113 -10.7095     28.7950    213.6150   1.2653434152e+02   2.8392928578e+01    0.2513245    0.1248926  50.49 0.0009837089    1.460    0.315
       114 -11.5843     31.5824    211.7458   1.2593341228e+02   2.8439934093e+01    0.3527801    0.1439177  52.51  0.002162878    1.816    0.449
       115 -11.3038    120.5354    213.5861   1.0913376139e+02   1.7568265834e+01    0.4737549    0.1906196  44.24  0.001524347    2.012    0.503
       116 -12.4370    129.2007    207.7483   1.0682829188e+02   1.7223659160e+01    0.3804995    0.2533194  13.45  0.002266025    2.005    0.501
       117  -9.8805      1.3313    212.5491   1.3147731743e+02   3.0982654026e+01    0.2254474    0.1475714 -84.59  0.001532092    1.549    0.354
       118  -9.6685     13.8420    212.2210   1.2921937271e+02   2.9989699517e+01    0.2169379    0.1385389  57.62   0.00149083    1.115    0.103
       119 -10.5592     11.2132    215.3583   1.2979292538e+02   2.9692690845e+01    0.2062189   0.09677431  41.98 0.0006113504    1.584    0.369
       120 -11.8868      8.7578    211.0168   1.3010361949e+02   3.0628347773e+01    0.3115562    0.1706963 -69.15  0.001394928    2.111    0.526
       121 -10.0883    164.8841    213.2362   1.0089652633e+02   1.1339643761e+01    0.1749145    0.1280676  43.61  0.000848604    1.294    0.227
       122 -10.8980     39.0643    211.2551   1.2450671042e+02   2.7783953905e+01    0.1998176    0.1812316 -74.47 0.0009514372    1.453    0.312
       123 -10.4445    214.5084    210.0440   9.1927908055e+01   4.6216906375e+00    0.1455236   0.09925159 -18.76 0.0004815364    1.532    0.347
       124 -10.3749    144.8197    209.1074   1.0404093216e+02   1.4790197295e+01    0.2397352    0.1528847 -74.18   0.00131164    3.012    0.668
       125 -10.0758     77.8596    206.1434   1.1666829912e+02   2.4316428034e+01    0.2774617     0.145542  61.11   0.00160945    1.934    0.483
       126 -10.6907    194.6303    208.9711   9.5085370873e+01   7.5596524345e+00    0.3326704    0.1217753  33.44  0.001383424    2.346    0.574
       127 -10.0557    190.2186    207.3536   9.5607721465e+01   8.3869861148e+00    0.2234622    0.1159762  41.35 0.0007739505    1.689    0.408
       128 -10.5293     95.5918    195.0212   1.1205726604e+02   2.3924732306e+01    0.2036742     0.145619  35.26 0.0004184798    1.283    0.221
       129 -10.2668     96.7494    209.0363   1.1323278120e+02   2.1454761158e+01    0.2064174    0.1530086  41.11 0.0004699461    1.117    0.105
       130 -11.0026     99.6897    205.6121   1.1232294078e+02   2.1618126150e+01    0.2182884    0.1517981  47.80 0.0004652381    1.168    0.144
       131 -11.5014     96.7278    201.2790   1.1247362851e+02   2.2719874749e+01    0.3289832    0.2728446 -61.24   0.00146158    1.448    0.310
       132  -9.9011     89.7657    208.7902   1.1456872749e+02   2.2393864373e+01    0.1580154    0.1297914  38.88  0.001171571    1.165    0.141
       133  -9.8488     60.0285    209.2064   1.2038025098e+02   2.5894766509e+01    0.1462846      0.11577   7.26 0.0003167521    1.902    0.474
       134 -10.9702     17.7673    207.9757   1.2834888644e+02   3.0365214357e+01    0.1879506    0.1149191  58.24 0.0004404299    1.193    0.162
       135 -10.1612     13.8909    205.6196   1.2898576884e+02   3.1111712285e+01    0.2012424    0.1667599 -21.03  0.001194872    2.082    0.520
       136  -9.2233    237.4834    208.4985   8.8056863878e+01   1.6407471071e+00    0.1119665   0.07842378  13.80 -6.924412e-06    1.046    0.044
       137 -11.8873     67.3069    207.3693   1.1883439238e+02   2.5371002979e+01    0.2416254     0.150272  44.19 0.0005658986    1.270    0.213
       138 -10.6975    152.9241    205.8784   1.0211304873e+02   1.4058476387e+01    0.2551777    0.1585555 -30.67  0.001542371    2.086    0.521
       139  -9.4206     53.2810    206.3699   1.2149856221e+02   2.7124068496e+01   0.09231513   0.08148807 -36.02 0.0007013528    1.694    0.410
       140 -10.4764      4.5808    205.3192   1.3070109500e+02   3.1946921869e+01    0.1653537     0.138175  72.50 0.0005013511    1.243    0.196
       141 -10.3583      1.3001    204.6793   1.3128633684e+02   3.2321713089e+01    0.1596131   0.07732911  83.23 0.0004970462    1.776    0.437
       142  -9.8947     47.5214    204.9833   1.2253204696e+02   2.7982364303e+01    0.2499713   0.07409181  47.38  0.001253664    2.445    0.591
       143 -10.6395    195.7939    204.0813   9.4160607869e+01   7.9578980632e+00    0.1992775    0.1348893  23.90 0.0006677541    1.201    0.167
       144  -9.9761     58.9660    214.9463   1.2096688806e+02   2.5059328074e+01    0.1816983   0.09395941  60.60 0.0006327835    1.731    0.422
       145 -11.0222    121.1769    200.7596   1.0756007197e+02   1.9430706216e+01    0.3279808    0.2698918  81.82  0.002296427    1.470    0.320
       146 -10.9869     51.7814    202.7062   1.2155282434e+02   2.7920884565e+01    0.2569903    0.1587744  32.47  0.001196714    1.588    0.370
       147 -11.5281     55.5811    198.9782   1.2054265401e+02   2.8157899167e+01    0.2072038    0.1506364  54.31 0.0004408508    1.077    0.072
       148 -10.8568    240.0468    201.5322   8.6558980101e+01   1.9631842821e+00    0.1638079    0.1186748   1.90  0.000463398    1.134    0.118
       149  -9.6506    165.6641    201.9964   9.9221861266e+01   1.2695434893e+01     0.155595    0.1324221  28.75 0.0006828275    1.084    0.077
       150 -11.7614     19.4907    200.5488   1.2773409548e+02   3.1504791197e+01    0.2170842    0.1784686 -74.56  0.001376406    1.477    0.323
       151  -9.8018    190.8698    200.8372   9.4524133846e+01   9.0711687182e+00    0.1429565    0.1238136  34.53 0.0003389093    1.293    0.227
       152 -10.5351    185.8945    201.1630   9.5448193808e+01   9.7729646353e+00    0.1701104    0.1373292  35.28 0.0004052967    1.212    0.175
       153 -10.4775    108.5265    193.9951   1.0930234590e+02   2.2319037405e+01    0.1891785    0.1518731  81.33 0.0006142092    1.420    0.296
       154 -11.5266    105.3694    200.2277   1.1063656648e+02   2.1727329227e+01     0.235064    0.1782622  47.93 0.0003284812    1.090    0.083
       155 -10.5465    109.3236    197.8480   1.0958128641e+02   2.1570232243e+01    0.2821459    0.1597793  51.54  0.001060901    1.633    0.388
       156 -10.2022     70.2417    201.2758   1.1777797623e+02   2.6064638379e+01    0.2038607    0.1254272  49.35 0.0009020814    1.297    0.229
       157 -10.6510     71.4918    197.4948   1.1721260237e+02   2.6572768405e+01    0.1924692    0.1066177 -71.66 0.0007668083    2.005    0.501
       158  -8.9299     10.3049    201.2622   1.2951000033e+02   3.2178400603e+01   0.07956546   0.07672357 -71.16 0.0001452043    1.522    0.343
       159 -10.6150    209.1467    205.6302   9.2139546389e+01   5.8507148528e+00    0.1591074    0.1355858  -1.92 0.0002739775    1.262    0.207
       160 -10.5888     89.9424    199.1429   1.1362389149e+02   2.3970396112e+01    0.2946258    0.1648367  56.23  0.001004416    1.701    0.412
       161  -9.9927     86.7272    198.9667   1.1425629145e+02   2.4416532090e+01    0.1458154    0.1159105 -76.82 0.0005058055    1.415    0.293
       162 -11.2164     35.4194    198.5213   1.2453271458e+02   3.0361644375e+01    0.2646467    0.2045454 -41.41  0.001917087    2.010    0.502
       163 -11.2661      5.3056    200.0499   1.3041402181e+02   3.2806134172e+01     0.162206    0.1066246  51.11 0.0004497048    1.173    0.148
       164 -10.7453    209.2243    198.9010   9.1079929669e+01   6.5865643159e+00    0.2358366    0.1213033  19.25  0.001252097    2.111    0.526
       165  -9.8496    169.5183    198.3162   9.7982987349e+01   1.2607885966e+01    0.1813829    0.1171261 -45.97 0.0006053638    1.964    0.491
       166  -9.9147    149.8866    199.1890   1.0178784852e+02   1.5453575790e+01    0.1693133    0.1339291  41.43 0.0002873016    1.129    0.114
       167 -10.2284     14.0900    197.9381   1.2867091853e+02   3.2444028667e+01    0.2204433    0.1169052  65.95  0.001356657    1.483    0.326
       168 -10.3449    223.7662    198.5775   8.8639224390e+01   4.5226030107e+00    0.2081829   0.08707936  34.81 0.0006260733    1.987    0.497
       169 -10.8488    137.5021    197.5021   1.0395099779e+02   1.7553649574e+01    0.2572056    0.1623438  66.31 0.0009703985    2.419    0.587
       170  -9.7908    140.2939    195.6471   1.0315958841e+02   1.7417374422e+01    0.2017854    0.1583781  77.98 0.0009296104    1.765    0.434
       171  -9.7331     62.8969    196.3418   1.1886714509e+02   2.7794283187e+01    0.1764256    0.1267618  76.77 0.0004281522    1.326    0.246
       172 -10.8874    227.3879    195.1297   8.7496383760e+01   4.3694151703e+00    0.3228894    0.1072527 -28.71  0.001516112    3.212    0.689
       173 -10.4495    227.0330    189.3969   8.6596935907e+01   5.0313269577e+00    0.1841104    0.1464856 -13.22 0.0003090302    1.295    0.228
       174 -10.6021     82.8236    195.5301   1.1472324149e+02   2.5509265027e+01    0.1905905    0.1550403 -61.01 0.0006882048    1.467    0.318
       175 -10.9303    217.5751    194.6566   8.9010201300e+01   5.8385512766e+00    0.2143687    0.1622558  17.36 0.0003914444    1.017    0.017
       176 -10.3037    198.3480    194.8464   9.2290352530e+01   8.6746557796e+00    0.1739161    0.1348571  30.00 0.0004345567    1.146    0.127
       177 -11.2857    131.6107    186.5130   1.0364690455e+02   2.0163658557e+01    0.2670537    0.2087816  55.56 7.214523e-05    1.301    0.231
       178 -12.7608    123.1716    193.2681   1.0624698047e+02   2.0333483574e+01    0.3096265    0.2393773  57.33 0.0005310817    1.300    0.231
       179 -10.5175    127.0614    189.3293   1.0495157779e+02   2.0394477878e+01     0.175747    0.1699904  44.08 0.0004378574    1.149    0.130
       180 -10.5334     44.6467    194.5651   1.2245105715e+02   3.0131801441e+01     0.174129    0.1396156  59.65 0.0002528871    1.054    0.051
       181 -12.1750     52.8825    192.2851   1.2061241312e+02   2.9659484659e+01    0.2812138    0.1726977 -70.11 0.0008519512    1.744    0.427
       182  -9.8838     25.4045    193.7803   1.2627714220e+02   3.2179816640e+01    0.1377941   0.08617716 -71.63  0.000951233    1.718    0.418
       183  -9.9807     20.9128    194.2774   1.2719119583e+02   3.2500849502e+01    0.1375566    0.1045584  55.03 0.0001955826    1.104    0.094
       184  -9.7354     16.2373    192.8588   1.2805449379e+02   3.3173775707e+01    0.1248035     0.109249 -87.81 0.0004769663    1.342    0.255
       185 -10.8339    249.7986    190.5470   8.3263406696e+01   1.6983208292e+00    0.2001371    0.1553637   6.88 0.0005844625    1.134    0.118
       186 -11.3441    245.5130    191.0674   8.3996096931e+01   2.2356902243e+00    0.2084913    0.1264023  25.35 0.0004487414    1.339    0.253
       187 -10.1890    188.8700    190.5617   9.3275925545e+01   1.0654794849e+01    0.2405499    0.1452245 -13.06  0.001332515    2.085    0.520
       188 -12.3287     91.7765    189.0667   1.1221462340e+02   2.5472332051e+01    0.2507645    0.2131067 -76.92 0.0004053471    1.307    0.235
       189 -10.5529    166.2966    189.3897   9.7249058747e+01   1.4334738090e+01    0.2005879    0.1763467  41.44 0.0004101073    1.211    0.175
       190 -10.1612     74.5030    185.9618   1.1554996382e+02   2.8274968417e+01    0.3191947    0.1091067 -65.76    0.0011115    3.168    0.684
       191  -9.3918    205.4636    187.4006   8.9846816135e+01   8.4884902226e+00    0.1190988   0.09363008  19.34 6.210495e-05    1.023    0.023
       192 -11.3808    105.0337    184.9613   1.0895752425e+02   2.4359459440e+01    0.3330351     0.281211 -25.70  0.002080014    1.562    0.360
       193  -9.9001      4.7333    187.1794   1.3012380108e+02   3.5176382099e+01    0.1699886    0.1291845 -29.64  0.001230702    2.261    0.558
       194  -9.8684    221.1112    186.1308   8.7003331947e+01   6.2651920408e+00    0.1765187    0.1255845  14.36 0.0004198195    1.154    0.134
       195 -10.2871     57.3658    184.7812   1.1909817737e+02   3.0545345641e+01    0.1968228    0.1550871 -87.42 0.0002756433    1.265    0.210
       196 -11.1430     60.0198    179.9578   1.1812162941e+02   3.1153408847e+01    0.3367123    0.2038124 -55.21 0.0009819415    1.975    0.494
       197 -10.8614     32.8521    184.9874   1.2429065352e+02   3.3101885772e+01    0.3468219    0.1258922  35.54  0.001291313    2.291    0.564
       198 -12.6896     31.8171    176.7109   1.2401309762e+02   3.4791954823e+01    0.3401141    0.2345576 -67.47 0.0005571237    1.582    0.368
       199 -10.5784    177.6922    184.0485   9.4265094316e+01   1.3277717379e+01    0.2149927     0.170135  28.54 0.0004343087    1.057    0.054
       200 -10.6964     15.7238    183.3144   1.2775641219e+02   3.4990747620e+01    0.1828263    0.1561857  69.35 0.0006710402    1.183    0.155
       201  -9.8939      2.9697    183.6029   1.3036043974e+02   3.5980809543e+01    0.1382142   0.09952974  53.71 0.0004247441    1.147    0.128
       202 -10.7344     88.3189    182.2664   1.1221004832e+02   2.7160837770e+01    0.2203579    0.1758961  64.75 0.0006839705    1.163    0.140
       203  -9.1780    159.0083    181.0000   9.7347159399e+01   1.6718164739e+01    0.2151236   0.06132266  40.28 0.0001194701    3.013    0.668
       204 -10.8964    131.4028    179.4385   1.0268963585e+02   2.1360233518e+01    0.2267925    0.1888743  59.18 0.0001528878    1.260    0.206
       205 -11.7505     79.5816    174.6490   1.1328726126e+02   2.9749078186e+01    0.4744433    0.2887501  78.43 0.0007450997    1.971    0.493
       206 -10.6165     43.5503    179.0349   1.2162742829e+02   3.3156657993e+01    0.1553972    0.1239701  73.33 -1.922092e-06    1.076    0.070
       207  -9.8708     46.9311    177.4249   1.2077246516e+02   3.3109520755e+01      0.20722     0.121894  39.08  0.001276226    1.515    0.340
       208  -9.6001      4.4251    179.4147   1.2992561572e+02   3.6658176837e+01    0.1031942   0.07936223  68.48 0.0001115918    1.058    0.055
       209 -11.1642     55.1839    181.0073   1.1925976629e+02   3.1508111686e+01    0.2131683    0.1603765  57.80  0.000314723    1.087    0.080
       210 -11.7712    109.0133    176.6893   1.0706020623e+02   2.5249915114e+01    0.2128062    0.2001907  58.02 0.0003455528    1.093    0.085
       211 -11.3036     91.4059    177.4073   1.1098684063e+02   2.7637411806e+01    0.3412172    0.1814785  39.93 0.0001902962    1.624    0.384
       212 -10.7136     74.1825    177.2024   1.1475465315e+02   2.9956836540e+01    0.1855027    0.1604608  58.46 0.0003881142    1.049    0.047
       213 -12.7079     22.3658    175.7932   1.2599838532e+02   3.5852521214e+01    0.2595012    0.1701076  64.27 0.0005059627    1.211    0.174
       214 -10.6755     15.7642    175.6589   1.2740319014e+02   3.6456434326e+01     0.277159    0.1869484   6.13  0.001168444    2.371    0.578
       215 -10.0429    200.8527    175.7443   8.8644907381e+01   1.0662616063e+01    0.1814982    0.1373128  15.41 0.0004572396    1.143    0.125
       216  -9.6886    167.9984    174.2958   9.4493735172e+01   1.6254878403e+01    0.1758322    0.1390067  30.53 0.0002483749    1.087    0.080
       217 -10.0907    156.8684    173.8692   9.6620171140e+01   1.8161882155e+01    0.2638432    0.1400873  37.29  0.001343662    1.655    0.396
       218  -9.3499     94.6118    174.2751   1.0990454073e+02   2.7775169251e+01    0.1316517   0.07973994  59.55 0.0004214933    1.724    0.420
       219 -10.3810     87.4851    171.9572   1.1121220680e+02   2.9204868931e+01    0.1716378    0.1181477 -69.50 0.0005483633    1.572    0.364
       220 -10.7698     48.2563    181.7549   1.2081165537e+02   3.2131887772e+01    0.2020842    0.1555225  41.28 0.0004354656    1.253    0.202
       221  -9.5695     41.2354    171.4240   1.2158048079e+02   3.4892484385e+01     0.151193   0.08792826  47.15 0.0003245303    1.447    0.309
       222  -9.2074    166.2782    170.3227   9.4152206691e+01   1.7141649819e+01    0.1259363   0.09145402   6.03 0.0002569236    1.584    0.369
       223  -9.9044    137.4348    170.4756   1.0006802726e+02   2.1909002719e+01    0.1263814    0.1117011  31.20 0.0002837249    1.044    0.042
       224  -9.7126    121.5053    170.0420   1.0341543835e+02   2.4536454073e+01    0.1717413    0.1261279 -54.10 0.0005567156    1.536    0.349
       225  -9.7810     44.9225    170.2809   1.2066448448e+02   3.4733763881e+01    0.1561565    0.1232755  52.28 0.0003074398    1.126    0.112
       226 -10.2795     20.5203    170.1605   1.2609869552e+02   3.7127558442e+01    0.2042724    0.1377825  39.14  0.001407245    1.416    0.294
       227  -9.9460    114.0287    168.3317   1.0480487543e+02   2.6010942956e+01    0.1822879     0.141419  43.61 0.0003490459    1.140    0.123
       228 -10.5302     46.9026    166.8428   1.1993461554e+02   3.5213711799e+01    0.3313294    0.1454789  54.50  0.001691311    2.079    0.519
       229  -9.6687      2.1522    168.6209   1.3002391291e+02   3.8924667283e+01    0.1167472   0.09818957  23.70 0.0001714182    1.539    0.350
       230 -10.3240     60.6644    166.0794   1.1669189487e+02   3.3806458413e+01    0.2418582    0.1508292  42.29 0.0008387782    1.428    0.300
       231 -12.2186     23.8602    163.7052   1.2498208412e+02   3.8132761490e+01    0.3115789    0.2167285  35.23  0.001097738    1.472    0.321
       232 -10.6141    141.1849    161.2319   9.7747573155e+01   2.2873512313e+01    0.3108684    0.1805095  47.40  0.001413528    1.653    0.395
       233  -9.9156     75.8075    162.3238   1.1275176117e+02   3.2670148755e+01    0.1713068    0.1399758  75.83 0.0006465034    1.151    0.131
       234 -11.2060     34.5716    157.9602   1.2209900331e+02   3.8315381253e+01    0.6890928    0.1324629  49.88  0.002419818    4.517    0.779
       235  -9.0780     57.0000    158.9711   1.1684357775e+02   3.5694853560e+01    0.1844282   0.06440311 -69.84 0.0007904738    2.860    0.650
       236  -9.6609     66.2121    158.4229   1.1458053519e+02   3.4696592205e+01    0.1775751   0.09570228  47.31 0.0006508477    1.655    0.396
       237 -11.4377     96.0065    155.3920   1.0705924976e+02   3.1236962709e+01    0.3708184    0.1614333 -65.58  0.001583106    2.773    0.639
       238  -9.7974    240.8249    155.8626   7.8284329883e+01   6.6611728423e+00    0.1499326    0.1333141  -6.99 0.0004362704    1.307    0.235
       239  -9.6522     27.1774    157.8259   1.2383603269e+02   3.9045427591e+01    0.1988795    0.1376328 -42.50 0.0003751292    2.056    0.514
       240 -10.7458    126.6797    161.7881   1.0100068074e+02   2.5194005511e+01    0.2820552    0.2240474  27.64  0.001507714    1.261    0.207
       241 -10.1148    113.5520    154.0358   1.0272217583e+02   2.8783178752e+01    0.2390724    0.1667566  55.49 0.0007384169    1.453    0.312
       242  -9.5627     71.2210    154.3961   1.1290088841e+02   3.4897278250e+01    0.1668775    0.1027078  47.10  0.000338828    1.468    0.319
       243  -9.6426      4.4814    154.0799   1.2893069084e+02   4.1697131168e+01    0.1561392   0.08977191 -86.97 0.0004278382    1.472    0.321
       244  -9.5599      9.4779    152.4729   1.2768885644e+02   4.1658307517e+01     0.113489    0.0873186  72.94 1.294668e-05    1.004    0.004
       245  -9.0595      1.2511    152.6689   1.2961932252e+02   4.2221710765e+01    0.1156759   0.06014346  65.35 0.0002045575    1.554    0.356
       246  -9.3336    137.4689    151.4022   9.6824887045e+01   2.5257641549e+01    0.1328496    0.1195618  33.16 0.0001019586    1.030    0.029
       247 -10.4808     12.2980    156.2612   1.2722242563e+02   4.0647107344e+01    0.1960647    0.1589982 -74.13 0.0009633232    1.332    0.249
       248 -10.7035     85.8092    150.0608   1.0875775299e+02   3.3814349599e+01    0.2032091    0.1648624  50.83 0.0002839004    1.131    0.116
       249  -9.4263     15.5192    150.4790   1.2614323619e+02   4.1602170479e+01    0.1152255   0.09022715  73.77 -6.696189e-05    1.002    0.002
       250  -9.8025    201.7070    143.2670   8.2226170925e+01   1.4912170237e+01    0.2354067    0.1563051 -45.87  0.001226313    1.901    0.474
       251  -8.9052     44.6897    144.2802   1.1840210367e+02   4.0210867863e+01    0.1272887   0.07727258  63.30 0.0002011706    1.563    0.360
       252 -10.8913      4.9294    142.9376   1.2830759500e+02   4.4018095050e+01    0.1907184    0.1270238  89.06 0.0003768249    1.232    0.188
       253 -10.3925     16.5986    143.0207   1.2541974786e+02   4.3116480847e+01    0.1688642    0.1598943  -7.20 0.0001277374    1.454    0.312
       254  -9.3476     21.4613    142.4736   1.2415965897e+02   4.2832583743e+01    0.1172149   0.09543002  78.78 0.0008086856    1.025    0.024
       255  -9.5469    103.9803    139.9943   1.0267025443e+02   3.3140559881e+01    0.1604317    0.1484257 -73.68 0.0004340099    1.109    0.099
       256 -10.5313     23.6971    136.3225   1.2312114635e+02   4.3998087234e+01    0.4767943    0.1798084  82.33  0.001968172    3.160    0.684
       257 -11.9304     28.0470    132.1589   1.2161476733e+02   4.4549032128e+01    0.3902836    0.2702858  49.69  0.002451804    1.357    0.263
       258 -10.1373    236.0083    137.7512   7.5334271067e+01   9.5805106110e+00    0.1562968    0.1006577  39.82 0.0007129743    1.564    0.361
       259 -10.3642     95.6920    137.0430   1.0425186874e+02   3.5075618484e+01    0.2916536    0.2292968  36.62  0.001661794    1.277    0.217
       260 -10.4941     49.9598    135.9055   1.1611620523e+02   4.1490359612e+01    0.3333052    0.1971513 -45.70  0.001432049    2.121    0.528
       261 -11.4147     38.5416    131.2631   1.1868174445e+02   4.3753476113e+01    0.4437638    0.2118482  65.49  0.001940839    2.335    0.572
       262 -10.2557     44.0404    131.7212   1.1723207822e+02   4.3081076081e+01    0.1710386    0.1460104  67.34 0.0002449588    1.075    0.070
       263  -9.9711     47.7667    131.4293   1.1618076887e+02   4.2744171056e+01    0.2572503    0.1922907  -6.28  0.001042719    2.040    0.510
       264 -10.7956      9.7329    131.1398   1.2642636703e+02   4.6258279282e+01     0.182425    0.1710313 -69.79  0.000216153    1.305    0.233
       265  -9.4134     68.5655    131.5102   1.1052056713e+02   4.0207025919e+01    0.1296895    0.1169568  82.95 0.0001258421    1.014    0.013
       266 -10.5729     61.9449    131.0248   1.1225240830e+02   4.1167652597e+01    0.1886107    0.1692483  84.17            0    1.024    0.023
       267 -10.4040     91.9215    126.3003   1.0334078856e+02   3.7985147678e+01    0.2205009    0.1815234 -80.28 0.0003163829    1.253    0.202
       268  -9.5013     88.6630    127.7301   1.0447338026e+02   3.8177609098e+01    0.1288962    0.1073245 -11.90 0.0004297701    1.598    0.374
       269  -9.6782     30.1232    125.8683   1.2045311585e+02   4.5793645162e+01    0.1538582    0.1313341 -63.75 0.0003224354    1.263    0.208
       270  -9.6041     21.1428    126.2088   1.2298059861e+02   4.6493667117e+01    0.1753643    0.1157807  70.42  0.001060494    1.348    0.258
       271  -9.6270      3.5113    124.9805   1.2771754624e+02   4.8062401310e+01    0.1727913    0.0938464 -83.39 0.0003558806    1.512    0.339
       272  -9.3525    134.9498    124.0659   9.1925759258e+01   3.0882634465e+01    0.1631688    0.1566412 -38.29 0.0003407734    1.074    0.069
       273  -8.9048    120.3202    124.3152   9.5559457449e+01   3.3568086642e+01    0.1409773    0.1117329  -4.21 0.0004344165    1.656    0.396
       274  -9.3722     98.4610    124.4027   1.0123450377e+02   3.7347353858e+01    0.1351213    0.1286464  66.28  9.96371e-05    1.019    0.018
       275  -9.4239     39.2309    121.9424   1.1744538540e+02   4.5825938088e+01    0.1694544   0.09386017 -75.49 0.0008744469    1.631    0.387
       276  -9.9323    237.6830    121.3355   7.1503412754e+01   1.1304702593e+01    0.1224028   0.09796252 -48.87 0.0007048176    1.696    0.410
       277  -9.1905    123.3017    121.2750   9.4157790058e+01   3.3639882500e+01    0.1371825    0.1115755   0.87 0.0002415956    1.538    0.350
       278  -9.8255     63.4104    120.9573   1.1035251031e+02   4.3280898339e+01    0.1980096    0.1199657 -67.40 0.0005572799    1.562    0.360
       279  -9.4472     21.7137    121.3031   1.2239243903e+02   4.7573185895e+01    0.1736429    0.1290504  70.23 0.0002772517    1.190    0.159
       280 -10.4987     19.9855    118.4937   1.2263436664e+02   4.8362895945e+01    0.3843308    0.1332427  32.83  0.001782304    2.734    0.634
       281 -11.4479     92.1038    117.7488   1.0165602674e+02   3.9845624573e+01    0.5004208    0.3142053 -66.88  0.002401301    1.719    0.418
       282  -8.9490     55.6098    118.2866   1.1220201814e+02   4.4870452418e+01    0.1417377   0.08752286  64.03 0.0007006184    1.758    0.431
       283 -10.3412     10.2020    117.4862   1.2536472802e+02   4.9321706137e+01    0.2301693    0.1185932 -63.30  0.001044861    1.796    0.443
       284  -9.6873    100.8314    116.7748   9.9058724010e+01   3.8612205489e+01    0.1883142    0.1594823  86.07 0.0007367965    1.286    0.222
       285 -10.6046      1.7476    116.1740   1.2768672123e+02   5.0168796258e+01    0.2421401    0.1358893  65.83  0.000482213    1.574    0.365
       286 -11.4379      3.9961    112.6553   1.2681550488e+02   5.0840596049e+01     0.427413    0.2271849  60.30  0.002430226    1.734    0.423
       287 -11.5625      3.5065    107.5783   1.2661096553e+02   5.2047631284e+01    0.5738119     0.154116 -75.73  0.002386931    2.859    0.650
       288 -10.4526     48.8079    115.8374   1.1384933184e+02   4.6233802053e+01    0.1829339    0.1343876  78.26 0.0005964459    1.333    0.250
       289 -11.6041    149.8788    111.2231   8.5421920657e+01   3.0363819448e+01    0.2396274     0.226097  -8.74 0.0002415015    1.044    0.042
       290 -10.9297     60.3139    113.5723   1.1007017290e+02   4.5393913932e+01    0.3400261    0.2099169  84.31 0.0008966544    1.945    0.486
       291 -10.7742     37.3402    109.0754   1.1639158230e+02   4.9043021611e+01    0.3975506    0.1758174 -68.57  0.001856292    1.957    0.489
       292 -11.0436     19.7720    109.9891   1.2189306728e+02   5.0370209241e+01    0.2970741    0.1968081 -46.48  0.001414445    1.749    0.428
       293  -9.8077     91.9986    109.8107   1.0004406884e+02   4.1638321123e+01    0.2189782    0.1629883   5.33 0.0009886635    1.952    0.488
       294  -9.7966     84.8560    109.2846   1.0199727730e+02   4.2908024533e+01    0.2309905     0.163005  60.84  0.001158226    1.570    0.363
       295 -10.4335     65.7908    109.1726   1.0765857764e+02   4.5713249811e+01    0.3471746    0.1932044  80.84  0.001393859    2.830    0.647
       296 -10.0628    138.9011    115.5218   8.9027739147e+01   3.1775509835e+01    0.2029083    0.1959801 -29.19 0.0004316077    1.050    0.048
       297  -9.8790    123.9321    104.7136   9.0115005640e+01   3.6916778214e+01    0.1941787    0.1841081  46.70 0.0002873925    1.058    0.055
       298 -10.9893     43.1146    102.8577   1.1367554786e+02   4.9941188840e+01    0.1890429    0.1697612 -84.96 0.0004144187    1.042    0.040
       299 -10.9416     38.7317    100.6038   1.1474708658e+02   5.0935087931e+01    0.3154995    0.2013916  12.63  0.001642636    2.132    0.531
       300  -9.3475     29.4413    103.4548   1.1814050223e+02   5.1124362386e+01    0.1279134    0.1064885  89.82 0.0001230226    1.034    0.033
       301 -10.0104     18.6222    103.0380   1.2153774302e+02   5.2107187073e+01    0.2019961    0.1525397  53.19 0.0005873732    1.335    0.251
       302  -9.3164    134.9594    101.9772   8.6624090735e+01   3.5233669558e+01     0.173145    0.1690038  17.08 0.0003761949    1.014    0.014
       303 -11.4575     50.7528    101.9140   1.1106949294e+02   4.9320254891e+01    0.3522085    0.1915598  34.08  0.001549149    1.951    0.487
       304 -10.1230     70.5178    101.5149   1.0472276288e+02   4.6859799984e+01     0.198312    0.1598422 -32.87 8.613095e-05    1.465    0.317
       305  -9.6063     72.7784     99.0050   1.0348794906e+02   4.7122934077e+01    0.1916358    0.1581397 -41.90 0.0003650504    1.296    0.228
       306 -10.2727     16.6678     98.2817   1.2165809835e+02   5.3388011161e+01    0.2253474    0.2008263 -19.85  0.001015295    1.442    0.306
       307 -11.0061    106.3407     97.5904   9.3079213567e+01   4.1820238935e+01    0.2773575    0.2508696 -83.34  0.001522571    1.179    0.152
       308  -9.1420      3.6543     98.2767   1.2586767905e+02   5.4222723756e+01    0.1242543   0.07272544  62.02 0.0007004892    1.630    0.386
       309  -9.8242     86.5994     97.1855   9.8791658597e+01   4.5393251910e+01     0.203377     0.125267 -44.67  0.000416582    1.657    0.396
       310 -10.4718     54.7781     97.1235   1.0890023414e+02   4.9989909302e+01    0.2102826    0.1696923  80.41 0.0008478665    1.256    0.204
       311  -9.4575     79.3126     96.3282   1.0084294324e+02   4.6760153665e+01    0.1426404    0.1084482 -26.04 0.0007042757    1.669    0.401
       312 -10.7186     62.9079     96.1042   1.0603906555e+02   4.9192188874e+01    0.2068765    0.1893176  63.69 0.0003282407    1.124    0.111
       313 -10.3753     37.2530     95.2705   1.1441311568e+02   5.2370843507e+01    0.2319062    0.1847257 -31.65  0.000854419    1.538    0.350
       314 -10.4423     48.1135     93.2884   1.1040485001e+02   5.1700500972e+01    0.2974333    0.2275572 -35.91  0.001671221    1.534    0.348
       315 -10.5439     54.0597     92.6572   1.0827568925e+02   5.1151382793e+01    0.2417991     0.173461  83.30 0.0008290243    1.543    0.352
       316 -10.7072      1.3738     92.8946   1.2617825227e+02   5.5622286498e+01    0.2462523   0.09426554 -84.71 0.0003399713    2.187    0.543
       317 -11.5727      7.1583     90.6320   1.2404026584e+02   5.5842217454e+01    0.2877877    0.2015636 -87.00 0.0007276034    1.166    0.143
       318  -9.9660      2.9613     87.7711   1.2520695754e+02   5.6760449095e+01    0.1985632    0.1557754  54.82 0.0005144016    1.330    0.248
       319 -10.5302     17.5801     91.3232   1.2055711436e+02   5.4998408364e+01    0.2093274    0.1769397  87.87 0.0004746772    1.061    0.058
       320 -11.8891     21.3820     88.1938   1.1883601393e+02   5.5476029854e+01    0.2836977    0.2016485  47.92            0    1.495    0.331
       321  -9.7579    105.3203     91.4336   9.1760408106e+01   4.3349988401e+01    0.2980884    0.1437184  43.72  0.001185589    2.128    0.530
       322 -10.7051     40.1149     90.5903   1.1265871697e+02   5.3219476806e+01    0.2812738    0.2009051   2.45 0.0009631225    1.943    0.485
       323 -10.3024    117.7970     90.4131   8.7973569876e+01   4.1111561521e+01    0.2088725    0.1414219  32.42 0.0009414573    1.657    0.396
       324 -10.4615     87.9146     88.8726   9.6323593637e+01   4.7067522076e+01    0.2220349    0.1984071 -22.77 0.0005794481    1.248    0.199
       325 -10.2673     66.9928     88.7691   1.0308950102e+02   5.0371950785e+01    0.2435403    0.2004882 -15.79  0.001023867    1.534    0.348
       326 -10.1503     63.9405     86.9724   1.0370608874e+02   5.1226398459e+01    0.2104084    0.1941731 -69.39 0.0005695287    1.017    0.017
       327 -10.9022     28.0287     87.4565   1.1638229011e+02   5.5118365496e+01    0.4126197    0.2012328 -58.29  0.002030483    1.772    0.436
       328  -9.3853    155.0342     85.2608   7.7275756511e+01   3.4002150951e+01    0.1844623    0.1305758  47.67 0.0003708533    1.433    0.302
       329  -9.6484    129.0052     85.5580   8.3607302832e+01   3.9749575233e+01    0.2341479    0.1483213  46.59  0.001031717    1.608    0.378
       330 -11.7540     14.3149     83.6304   1.2075748929e+02   5.7087822747e+01    0.2321437     0.202248  76.15 0.0005012429    1.148    0.129
       331 -10.0199     98.8531     83.5617   9.1502538006e+01   4.6289169377e+01     0.235744    0.1894232 -37.44 0.0003847703    1.258    0.205
       332 -10.9910     50.0359     83.4723   1.0778488427e+02   5.3852091506e+01    0.2672818    0.2499619 -26.30  0.000961036    1.224    0.183
       333 -10.2946     53.5052     82.4958   1.0633103598e+02   5.3667293329e+01    0.2152049    0.1783906 -44.71 -0.0002922089    1.232    0.189
       334 -10.9532     73.0606     79.8725   9.8823076860e+01   5.1561795362e+01    0.5755625    0.2158711 -52.82   0.00215533    2.414    0.586
       335 -10.6063     20.0380     82.1035   1.1846832432e+02   5.7059523551e+01    0.2113852    0.1556415 -76.93 0.0003575652    1.130    0.115
       336  -9.6322      9.4646     85.4574   1.2270650073e+02   5.6950981300e+01    0.1977979    0.1152793  27.40 0.0006654246    1.973    0.493
       337 -10.2458     88.9964     78.0084   9.2991887437e+01   4.9324732822e+01     0.219458    0.2076717 -63.07 0.0003277034    1.040    0.039
       338  -9.1653     67.6996     78.7040   1.0037437611e+02   5.2645079935e+01    0.1396114    0.1056662 -28.10 0.0002271475    1.574    0.365
       339  -9.7445     55.0387     78.0183   1.0474021555e+02   5.4549818702e+01    0.2045563    0.1731053 -83.48  0.000387078    1.186    0.157
       340 -10.1120     17.0621     74.3789   1.1844715159e+02   5.9156108836e+01    0.2272064    0.1561362 -72.31  0.001026825    1.192    0.161
       341 -10.0681      4.3020     77.7846   1.2374120980e+02   5.9092488392e+01    0.3120555    0.1166852 -87.63   0.00113766    2.535    0.606
       342  -9.4475    124.6636     77.5704   8.2346810415e+01   4.2272513605e+01    0.3122623    0.1276054  35.44 0.0009496572    3.559    0.719
       343 -10.9105     62.4467     75.2657   1.0134837163e+02   5.4210710768e+01    0.3222542    0.2493178  41.34  0.001755922    1.407    0.289
       344 -11.1274     27.2528     72.8514   1.1420539787e+02   5.8750805752e+01    0.4467474    0.2725604  80.25  0.001087885    1.899    0.473
       345 -10.1849     80.7019     74.1442   9.4608336312e+01   5.1636979006e+01    0.2195621    0.1932468  59.56 0.0003209751    1.241    0.194
       346  -9.8979     69.2798     74.0110   9.8548789469e+01   5.3504553844e+01    0.2060174    0.1659788 -58.02 0.0008582806    1.146    0.127
       347 -10.3261    142.8666     72.4360   7.6168515557e+01   3.9116712876e+01    0.3079216    0.2132528 -26.93  0.001042809    1.487    0.328
       348  -9.9642     37.1106     71.6344   1.1007985788e+02   5.8138343543e+01    0.2411283     0.169443  -5.15  0.001276425    1.958    0.489
       349  -9.6604    125.0153     70.8095   8.0110862925e+01   4.3512997295e+01    0.1971533     0.193952  20.02 -0.0006383859    1.040    0.039
       350 -10.2901     88.8900     68.9112   9.0252099271e+01   5.1348239419e+01    0.4371416    0.1731257 -44.40  0.001586235    2.406    0.584
       351  -9.6679     42.0302     70.9830   1.0800109946e+02   5.7782446876e+01    0.1669168    0.1351607 -64.51            0    1.073    0.068
       352  -9.6937    118.1435     69.7582   8.1630773863e+01   4.5238572014e+01    0.2056399    0.1754201   2.97 0.0003820066    1.329    0.248
       353  -9.4673     79.8100     69.8731   9.3630353495e+01   5.2749810338e+01    0.1856749    0.1651175 -85.85 0.0003612611    1.248    0.198
       354  -9.3858    101.7248     69.6667   8.6398177385e+01   4.8709358301e+01    0.1502233    0.1167412 -11.36  0.000173374    1.600    0.375
       355  -9.5987     58.7560     69.5545   1.0117963610e+02   5.6069291622e+01    0.1837976    0.1300451  48.65 0.0009001505    1.591    0.372
       356  -9.8639     52.0519     69.0132   1.0360212884e+02   5.7079695211e+01    0.2276996    0.1610686  75.92  0.001134457    1.833    0.455
       357 -10.5087     45.4284     68.4969   1.0606399351e+02   5.8001557379e+01     0.291818    0.1473827 -40.58  0.000865704    2.214    0.548
       358 -10.4591      6.9568     68.2250   1.2156054414e+02   6.1269853356e+01    0.1918932    0.1848453 -78.34  0.000384937    1.205    0.170
       359 -11.2462      1.3910     65.9848   1.2352952575e+02   6.2084250869e+01    0.4854577    0.1038788 -79.08  0.001614528    4.063    0.754
       360 -11.0964      9.8300     62.8688   1.1959595227e+02   6.2413515185e+01    0.2477514    0.2102886  38.19  0.001007555    1.395    0.283
       361 -11.4546      5.8681     59.1264   1.2071740512e+02   6.3532507111e+01    0.3263699    0.2700094  69.27  0.001226001    1.290    0.225
       362 -10.3030    130.5314     67.8200   7.7697423739e+01   4.2825992166e+01     0.248754    0.2091165  48.53 0.0002720599    1.224    0.183
       363 -10.8331     22.9074     57.6848   1.1294775988e+02   6.2792908017e+01    0.3198537    0.2382467  37.94  0.001730962    1.557    0.358
       364 -10.4292     22.0888     67.6774   1.1531560050e+02   6.0428210439e+01    0.2375309    0.1960856  73.86 0.0008450915    1.270    0.213
       365 -10.6979     21.5195     62.9896   1.1465667764e+02   6.1613177573e+01    0.3141032    0.1703078 -71.96   0.00130214    1.577    0.366
       366  -9.7146     75.0987     66.4689   9.4233924748e+01   5.4305871509e+01    0.1972029    0.1444513  37.64 0.0003716033    1.482    0.325
       367 -10.4104     53.7860     66.0045   1.0211198035e+02   5.7570248193e+01    0.4211451    0.1534093  45.12  0.001530037    3.365    0.703
       368 -11.4740      2.0581     60.9311   1.2261348527e+02   6.3275896969e+01    0.3422586    0.1839526 -69.81  0.001288803    1.440    0.305
       369 -10.1105    113.7310     63.2763   8.0693148311e+01   4.7473612299e+01     0.199066    0.1715109   0.17 0.0003512667    1.288    0.224
       370  -9.0398    101.0066     64.0000   8.4732759785e+01   5.0027395786e+01    0.2409207   0.08648893  45.72  0.000799488    2.922    0.658
       371  -9.6884     73.9798     61.0198   9.2882191448e+01   5.5707532298e+01    0.2228208    0.1690413 -17.18 0.0006730332    1.625    0.385
       372 -10.4795     39.6786     60.4583   1.0635214653e+02   6.0566492903e+01     0.329565     0.246543   8.90  0.001477766    1.671    0.401
       373  -9.9398     70.3911     60.3198   9.3983275677e+01   5.6453338310e+01    0.2114615    0.1577985 -23.38 0.0005731491    1.574    0.365
       374 -11.0921     32.4072     58.9926   1.0908945298e+02   6.1654185286e+01     0.358154     0.187667  29.07  0.001760994    2.173    0.540
       375 -10.5818     55.4748     57.9851   9.9066954900e+01   5.9214647620e+01    0.2149272    0.1897428  78.50  0.000476781    1.307    0.235
       376  -9.9523    110.3457     56.7644   7.9365246905e+01   4.9471391160e+01    0.2583014    0.2100464  64.71 0.0008081212    1.416    0.294
       377  -9.3778    106.5275     57.5149   8.0765446360e+01   5.0160755275e+01    0.2237988     0.144673  36.51 -3.402299e-06    1.704    0.413
       378 -11.0608    225.8793     55.7208   5.6749729851e+01   2.1935905038e+01    0.2421954    0.1939839 -20.95  0.000279314    1.112    0.101
       379 -10.0041    204.9566     56.0962   5.9588095750e+01   2.6679849142e+01    0.2116003    0.1781048 -49.69  0.001141027    1.245    0.197
       380 -10.2938    117.3931     55.7574   7.7000992678e+01   4.8076007969e+01     0.409052    0.2372297  17.09  0.001341271    3.475    0.712
       381 -11.1181     29.4049     53.9821   1.0915203475e+02   6.3133802490e+01    0.3173566    0.2783044  40.76  0.001240978    1.329    0.248
       382 -11.0158     94.6827     49.0925   8.1312569514e+01   5.4300359941e+01    0.4233215    0.3173283 -20.97  0.000864487    1.446    0.308
       383  -9.6324     92.7124     55.3162   8.4316710696e+01   5.3472120351e+01    0.2049399    0.1732061  -3.77 0.0003692009    1.333    0.250
       384  -9.2720     95.5174     53.4815   8.2716329981e+01   5.3270728923e+01    0.2146236    0.1441585  33.95 0.0009748922    1.664    0.399
       385 -10.9904     79.7028     52.7452   8.7879885037e+01   5.6490202030e+01    0.4831819    0.2275758 -36.25  0.001611458    2.280    0.561
       386  -9.7057    151.0477     53.4995   6.8062239934e+01   4.0343536898e+01    0.2254345      0.15225  55.39 0.0005291245    1.519    0.342
       387 -11.6559     41.9604     51.9782   1.0294562038e+02   6.2313759602e+01    0.4258709    0.1992025 -48.07  0.001087818    1.872    0.466
       388  -9.7987     60.7962     52.0959   9.4940957297e+01   5.9782292062e+01    0.2027058    0.1828519 -72.38 0.0008881952    1.200    0.166
       389 -10.3982     77.8542    247.9703   1.1969775341e+02   1.7975256492e+01      0.22396    0.1249217 -86.40 0.0008894094    2.363    0.577
       390 -10.8759     20.0317     40.8462   1.1011492835e+02   6.7032366248e+01    0.4411688    0.1879865  28.39  0.001024798    2.657    0.624
       391 -11.4725     16.8042     47.1081   1.1335670457e+02   6.5784792270e+01    0.5992323    0.1927176 -59.21   0.00255389    2.250    0.556
       392 -12.3847     12.0499     45.3015   1.1527370463e+02   6.6524072177e+01    0.3716647     0.184573 -62.30 0.0005438785    1.556    0.357
       393 -10.2396    106.0960     50.8241   7.8409039343e+01   5.1527436118e+01    0.2598814    0.2120992  84.33  0.001147963    1.597    0.374
       394 -10.7418     66.1667     49.9738   9.2010145195e+01   5.9409543582e+01    0.4450337    0.2197069 -54.87  0.001844967    2.062    0.515
       395 -10.3146    174.0121     50.1276   6.2562242503e+01   3.5065586489e+01    0.2193585    0.2107472 -15.57 0.0003330682    1.010    0.010
       396 -10.1238    128.9505     49.9738   7.1847833196e+01   4.6370567351e+01    0.2288478    0.2128448  -3.87 0.0003052857    1.069    0.064
       397 -10.1540     22.4273     48.6075   1.1101523019e+02   6.5010072906e+01    0.2498981    0.1317607 -62.89 0.0006260204    1.542    0.351
       398  -9.5764    152.8383     48.3712   6.5913244399e+01   4.0684033077e+01    0.2201619    0.1330113  45.33 0.0005345228    1.705    0.414
       399 -11.0731      4.9951     52.5940   1.2006889726e+02   6.5153625756e+01    0.3515664     0.126891 -36.11  0.001438831    3.439    0.709
       400 -10.9624     13.2596     40.4202   1.1349632686e+02   6.7608663345e+01    0.2662553    0.1795513  -0.57 0.0008616276    1.855    0.461
       401 -10.1422    114.2258     47.1430   7.4643699338e+01   5.0352196517e+01    0.2232056    0.1957802 -10.93 0.0003187089    1.158    0.136
       402 -10.9753     61.7006     45.2211   9.2042102003e+01   6.1142611298e+01    0.3435988    0.2358859 -38.87 0.0007118295    1.353    0.261
       403 -10.2692    164.9871     45.9652   6.2764987097e+01   3.7942739510e+01    0.2216157    0.2106673 -14.04            0    1.014    0.014
       404 -11.2865     69.6122     42.4184   8.7701522630e+01   6.0420915590e+01    0.4336709    0.2449864 -28.24  0.001063673    2.141    0.533
       405 -11.0320     71.0082     37.9115   8.5254494226e+01   6.1076514888e+01     0.283121    0.2066637 -33.57 0.0003107241    1.281    0.220
       406  -9.8556     42.7341     44.2525   1.0006295644e+02   6.3996507802e+01    0.1912017    0.1406801 -34.37 0.0008241222    1.344    0.256
       407 -10.2548     33.6013     44.0458   1.0432342071e+02   6.5066294216e+01    0.2740972     0.167991  47.64  0.001204855    2.050    0.512
       408 -10.6180    141.4749     42.3598   6.6116626283e+01   4.4472291803e+01    0.2521662    0.2422252   7.41 0.0002130163    1.026    0.026
       409  -9.3222    151.6503     41.6874   6.3776555967e+01   4.1971239055e+01     0.164241    0.1134519  25.22 0.0007046051    1.721    0.419
       410 -11.7776    103.6276     38.9943   7.4415496926e+01   5.4195417396e+01    0.2680325    0.2547488 -65.02 0.0004013176    1.171    0.146
       411  -9.8414     91.6649     40.6972   7.8912683393e+01   5.6509936892e+01    0.1521895    0.1138861   6.58 0.0003612094    1.662    0.398
       412 -11.7857     41.4841     38.1775   9.8443168184e+01   6.5506070286e+01    0.3406481    0.2220499 -28.96 0.0003991192    1.682    0.405
       413 -10.2901    116.7177     38.6409   7.0584771311e+01   5.1192037993e+01    0.4032463    0.2199376  51.29  0.001671002    1.849    0.459
       414  -9.8176     82.3091     39.1078   8.1486221979e+01   5.8712875888e+01    0.2051756    0.1711956 -37.24 0.0004314062    1.124    0.110
       415 -10.5773     85.9786     37.4547   7.9468349197e+01   5.8281869900e+01    0.2221638    0.1836224 -33.87 0.0003088313    1.133    0.117
       416 -10.5313    131.1718     36.2323   6.6057739584e+01   4.7994393410e+01    0.3451674    0.2136104  57.86 0.0007788865    1.654    0.395
       417 -10.5429    119.7735     34.2393   6.7987854169e+01   5.1135818811e+01    0.2830278    0.2589721 -76.72 0.0009352352    1.248    0.199
       418  -9.6474    100.3300     35.5218   7.3932998278e+01   5.5529075038e+01    0.2087521    0.1374266  38.03 0.0005933465    1.616    0.381
       419 -11.7881     77.0402     33.4557   8.0940110434e+01   6.0795630021e+01    0.3971072     0.277558 -68.98  0.001773394    2.251    0.556
       420 -10.0059     57.6820     35.2873   8.9715352053e+01   6.3850986794e+01    0.4377401    0.2834311  71.84  0.001759573    3.306    0.698
       421  -9.9272     60.6323     33.7862   8.7759691501e+01   6.3678463623e+01    0.2717116    0.1223736 -41.62  0.001122625    2.012    0.503
       422  -9.9135     29.3311     34.0603   1.0306649112e+02   6.7774147855e+01    0.1801102    0.1429752 -56.10 0.0004259637    1.107    0.097
       423 -11.4012    142.5482     30.9478   6.1566295096e+01   4.5815595253e+01    0.4738274    0.3660674   1.97  0.001281169    1.426    0.299
       424 -12.5744    194.0585     35.3570   5.4808662371e+01   3.1924513287e+01    0.2951944    0.2822971 -49.17 0.0003914535    1.060    0.057
       425  -9.8559     65.9527     32.9548   8.5118055776e+01   6.2937763438e+01    0.2032461    0.1659618 -66.55 0.0003689576    1.538    0.350
       426 -11.9289    107.4745     29.1228   6.9046389704e+01   5.4890363962e+01    0.4405099    0.2928213 -24.32 0.0003860664    1.490    0.329
       427  -9.4591     34.3906     31.8165   9.9542470387e+01   6.7735532166e+01    0.1890774    0.1432578 -46.80 0.0004101238    1.111    0.100
       428 -10.8879     36.6021     27.2512   9.6454861805e+01   6.8458357631e+01    0.5528204    0.3010041  -8.80  0.002115352    3.715    0.731
       429 -10.0762    206.7343     31.4122   5.2055642560e+01   2.9242875961e+01    0.1948658    0.1279912  53.47 0.0009463043    1.608    0.378
       430  -9.8002     23.8243     30.6133   1.0479431835e+02   6.9070144447e+01    0.1659944    0.1570803 -34.51 0.0005198763    1.154    0.134
       431  -9.5318     23.3861     27.4602   1.0386053006e+02   6.9813118332e+01    0.1830077     0.114692 -69.22 4.414057e-05    1.688    0.408
       432 -10.1158    163.4723     30.0022   5.7464710309e+01   4.0451439422e+01    0.2292333    0.1456332 -22.52 0.0006138575    1.549    0.355
       433 -10.4335     15.2199     18.5748   1.0525263284e+02   7.2456253752e+01    0.1974372    0.1474323  33.94 0.0008179473    1.642    0.391
       434 -10.0693     18.9980     29.3080   1.0704750553e+02   6.9774328938e+01    0.3185134    0.2287673  74.64  0.001783408    1.939    0.484
       435 -11.8125     18.3342     23.6769   1.0536310980e+02   7.1087461104e+01    0.3060889     0.227315 -65.85 0.0008792244    1.302    0.232
       436 -11.1350     71.8752     29.1195   8.0922411901e+01   6.2574531520e+01    0.2122084    0.1953187 -50.33 0.0005544111    1.205    0.170
       437 -10.2937    158.9800     29.9848   5.8200383268e+01   4.1634044781e+01    0.2254679    0.2150446  -5.94 0.0003399783    1.033    0.032
       438  -9.8119    100.2980     27.0407   7.0159994128e+01   5.6894052329e+01    0.2104645    0.1833897 -18.40  0.000597665    1.095    0.086
       439 -10.8611     50.6092     28.6066   8.9977491365e+01   6.6285083382e+01    0.2777833     0.224675  78.67 0.0009151467    1.868    0.465
       440 -10.7504    243.0208     25.1813   4.6828263170e+01   2.1531205795e+01    0.2141877    0.1642544 -25.86 0.0004070684    1.130    0.115
       441 -10.1648     10.0808     22.7013   1.1007621388e+02   7.1906016914e+01    0.2370208    0.1522081 -74.53 0.0007615456    1.565    0.361
       442 -10.6347     73.4094    244.1717   1.2021889842e+02   1.9000321245e+01     0.172807    0.1051031  44.47 0.0006042963    1.173    0.147
       443 -11.8919     76.2536    241.4099   1.1955615943e+02   1.9068830134e+01    0.3306922    0.1910017  72.38  0.001627965    1.944    0.486
       444 -11.6519    175.8840     22.6240   5.3051528328e+01   3.8050835435e+01    0.3762279    0.2693522  18.05  0.000938022    1.626    0.385
       445 -10.7755    153.7727     23.1291   5.6538531983e+01   4.3839662555e+01    0.2859439    0.2273893  48.55 0.0003887952    1.260    0.206
       446 -10.0656     61.6942     23.5776   8.2435115038e+01   6.5434075992e+01     0.222146    0.1609127   0.05  0.001029935    1.659    0.397
       447 -10.0224    181.4980     27.0380   5.3786792620e+01   3.6093671459e+01     0.228642    0.1397613 -23.83 0.0005880519    1.566    0.361
       448 -11.9648    116.9938     22.5826   6.3683269035e+01   5.3485352640e+01    0.2760817    0.2447845 -21.58 0.0001347332    1.100    0.091
       449 -10.9470    131.7658     21.8897   6.0106401631e+01   4.9790717073e+01    0.2477242    0.2363666  66.29 0.0003027063    1.093    0.085
       450 -10.6430    101.7634     21.0624   6.6947391033e+01   5.7421331573e+01    0.4708546    0.1796192 -31.54   0.00104835    2.446    0.591
       451 -11.7723     46.1249    245.7785   1.2491831207e+02   2.1680152610e+01    0.2890599     0.157984 -88.68  0.002168606    2.029    0.507
       452 -10.2107     36.6456     21.4522   9.3741479514e+01   6.9650017056e+01    0.3047955    0.1904103  12.44   0.00122721    2.069    0.517
       453  -9.7534    190.4735     20.4537   5.0514027871e+01   3.4499851284e+01    0.1432997    0.1349713 -40.27 2.292376e-05    1.018    0.018
       454 -11.2429    222.0720     21.9031   4.7723654906e+01   2.6579897228e+01    0.2534178    0.1961084  -5.54  0.001227334    1.342    0.255
       455  -9.5000     95.4659     15.5493   6.6059074918e+01   5.9658985037e+01    0.2130864    0.1268225  44.91 8.123994e-05    1.666    0.400
       456 -10.4480     93.3988     20.1951   6.8985694617e+01   5.9497932120e+01    0.4248911    0.2219627 -43.21  0.001418669    2.069    0.517
       457 -10.5605     89.6006     19.1639   6.9661632811e+01   6.0508719273e+01    0.2493647    0.2166824  32.50 0.0004086205    1.145    0.127
       458  -9.3360     27.6634     20.7301   9.8527276643e+01   7.0844519315e+01    0.1311469   0.08616787 -25.54 0.0002748458    1.597    0.374
       459 -10.6724    141.4720    247.7951   1.0889644326e+02   1.0282671234e+01    0.2002894   0.09214702  43.64 0.0006943114    1.691    0.409
       460  -9.9560     35.5150     16.9750   9.2109651132e+01   7.0683512611e+01    0.2803423    0.1389662 -34.62  0.001289906    1.974    0.493
       461 -10.0944     31.5119     16.9997   9.4440971337e+01   7.1174663315e+01    0.2362443    0.1923895 -41.23 0.0006908348    1.076    0.071
       462 -10.1912     31.8218     12.9362   9.2092924085e+01   7.1933358149e+01    0.2118942    0.1822385  -6.06 0.0008946816    1.169    0.145
       463 -12.9109     12.6119    233.0814   1.3006628317e+02   2.6737297328e+01     1.714676    0.4080012  32.43  0.008995626    3.287    0.696
       464  -9.3845     71.4856    248.3978   1.2079892038e+02   1.8626690034e+01   0.09742243   0.07099386  44.51 0.0007995659    1.101    0.092
       465 -10.2589     44.7078     16.8480   8.7017351658e+01   6.9429575682e+01    0.2140269    0.1770408  80.71 0.0006912395    1.930    0.482
       466  -9.7038    229.7115     16.3258   4.5519175694e+01   2.5358945602e+01    0.1431399   0.08496346 -49.09 0.0007011837    1.611    0.379
       467 -10.6711    116.3249     15.3144   6.0572049801e+01   5.4568768939e+01    0.3009736    0.2445905  34.50 0.0008967731    1.221    0.181
       468  -9.9423    112.4893     15.4852   6.1543844919e+01   5.5518627432e+01     0.283571    0.2276144   8.06 0.0005908749    1.290    0.225
       469 -11.1118    179.4980     13.9334   4.9636231725e+01   3.8011644241e+01    0.2239156    0.1970533  75.50 0.0006378611    1.164    0.141
       470 -10.5059    210.5921    246.7740   9.7577563395e+01   1.5732322478e+00    0.1635362    0.1307492   3.28 0.0007970405    1.301    0.231
       471 -11.1995    206.9334    246.3214   9.8088918007e+01   2.0703481702e+00    0.2363603    0.1526962  25.05 0.0008520268    1.083    0.077
       472  -9.7287     88.8340     13.8541   6.7186276019e+01   6.1420090034e+01    0.1834246    0.1682041 -60.04 0.0002727958    1.290    0.225
       473 -11.3447    136.4339    245.8324   1.0955784788e+02   1.1157246509e+01    0.2034622    0.1397174  51.36 0.0007850954    1.421    0.296
       474 -10.3582    200.3732    244.8931   9.8941663890e+01   3.0292978622e+00    0.1905826    0.1089426  35.70 0.0004818193    1.344    0.256
       475 -12.1216    205.1261    240.1378   9.7600170530e+01   2.8736029379e+00    0.3498626    0.1863392  24.32  0.001619922    1.512    0.339
       476  -9.1045     92.4702     13.4601   6.5877316836e+01   6.0633245793e+01    0.1452035    0.1330636   6.16 0.0003116948    1.012    0.012
       477 -11.9679    197.9925    240.1280   9.8732668427e+01   3.7916938724e+00    0.2395267    0.2227158  80.68 0.0003562034    2.007    0.502
       478 -10.0833    197.4847    233.5701   9.7984705905e+01   4.5098325638e+00    0.1907797    0.1251331  25.52 0.0005175941    1.126    0.112
       479 -10.3449     97.5374    244.3048   1.1608379037e+02   1.6183170258e+01    0.1484817   0.09839538 -79.60 0.0009930647    2.014    0.503
       480 -10.9688    164.6391    243.5916   1.0458763761e+02   7.7713140220e+00    0.1641939    0.1313567  21.80 0.0004817271    1.156    0.135
       481 -11.2355    145.9662    242.8164   1.0764404035e+02   1.0289722751e+01    0.1809445    0.1577785  28.15 0.0004626188    1.205    0.170
       482 -12.1906    142.8083    238.8147   1.0777455326e+02   1.1181381518e+01    0.2137224    0.1546115  35.10 0.0002828716    1.026    0.026
       483 -10.7656     62.2930    242.7558   1.2203701939e+02   2.0423727498e+01    0.1624761    0.1226439  51.74 0.0004123932    1.073    0.068
       484  -9.5337      9.2299     11.2982   1.0616491755e+02   7.4468709362e+01    0.1856191    0.1060451  17.20  0.001039332    2.065    0.516
       485 -10.4238    191.3692    240.5917   9.9854198957e+01   4.6035626969e+00    0.2052807    0.1602651 -11.03  0.001683644    1.447    0.309
       486 -11.4919    178.2970    239.1613   1.0181818475e+02   6.4616246240e+00    0.2402823    0.1993179 -84.80   0.00132825    2.379    0.580
       487 -11.5855    115.4599    249.2451   1.1341505276e+02   1.3366082221e+01    0.2623418    0.1698298  28.78  0.001146177    1.422    0.297
       488  -9.6046    123.3191    241.3022   1.1138027131e+02   1.3389085829e+01   0.09810968   0.07057794  16.90 0.0007025644    1.625    0.385
       489 -10.9836    119.3278    241.0605   1.1204953432e+02   1.3926025925e+01    0.1805559     0.107957  33.11 0.0003326118    1.362    0.266
       490 -10.2300    109.6405    240.2112   1.1365988780e+02   1.5252386896e+01    0.2103827     0.118267 -49.91  0.001432905    2.432    0.589
       491 -10.9736    245.9968    239.1644   9.1264251105e+01  -2.0915349291e+00    0.2401699    0.1758939  35.08  0.001953715    1.656    0.396
       492 -10.7455     91.4846    242.5297   1.1699701632e+02   1.7144979460e+01     0.186597    0.1348079  32.75 0.0007396675    1.301    0.231
       493 -11.8675    217.9653    237.2686   9.5220042803e+01   1.5051964520e+00     0.307757    0.1688251  42.20  0.002059264    1.853    0.460
       494 -10.8764    167.9717    238.6400   1.0347662105e+02   7.8817364668e+00    0.1619195    0.1477829   9.39 0.0004932726    1.310    0.237
       495 -10.8823     97.0550    239.0858   1.1576810718e+02   1.6950824835e+01    0.2481501   0.09817305  46.72  0.001446287    1.936    0.484
       496  -9.9901    115.4964    238.4878   1.1248808203e+02   1.4746786512e+01    0.1058228    0.0782938  41.07 2.432311e-05    1.009    0.009
       497  -9.8887     84.0070    238.0085   1.1797619181e+02   1.8657030472e+01    0.1681612   0.08876208  55.92 0.0008159029    1.677    0.404
       498 -10.8548     43.4648    236.0783   1.2492894850e+02   2.3375758348e+01    0.3355183    0.1242034  50.87  0.002088843    1.912    0.477
       499 -10.7073    106.0677    235.2767   1.1386984012e+02   1.6366039151e+01    0.1920781    0.1297054  49.17 0.0002380886    1.195    0.163
       500  -9.7785    102.7834    233.9984   1.1434536879e+02   1.6952966542e+01    0.1288419    0.1091005 -83.32  0.001058969    1.467    0.318
       501  -9.5790     54.8984    240.3939   1.2317572260e+02   2.1554723214e+01    0.2482174     0.105691  83.46  0.001421305    3.199    0.687
       502  -9.7133    133.1920    234.2001   1.0897702481e+02   1.3022139520e+01    0.1358379    0.1029726  52.73 0.0005655863    1.318    0.241
       503  -9.7933    183.2415    232.9693   1.0024841848e+02   6.4683118427e+00    0.1417487    0.1087848  22.83            0    1.069    0.065
       504 -11.1659    143.9886    232.2984   1.0688451124e+02   1.1830160603e+01    0.3221941    0.1403772  36.48  0.001296436    1.741    0.426
       505 -10.0412     44.8022    223.2581   1.2406841121e+02   2.5227360522e+01    0.1853267    0.1071931  68.45 0.0007940775    1.533    0.348
       506  -8.6143     48.5663    232.5800   1.2387351223e+02   2.3383765745e+01    0.2054624    0.1097307  59.92  0.001160841    1.525    0.344
       507 -10.1006     45.3666    228.3517   1.2422551325e+02   2.4365879434e+01     0.264398    0.1630731  48.61  0.002007339    1.172    0.147
       508 -12.6646     22.7046    241.0318   1.2862550687e+02   2.4632445264e+01    0.5438043    0.2513687  87.63   0.00386764    2.196    0.545
       509 -10.0235     91.1412    232.5029   1.1630392241e+02   1.8595246950e+01    0.2702975   0.07410845  38.04  0.001312369    2.608    0.617
