#   1 NUMBER                 Running object number                                     
#   2 MAG_AUTO               Kron-like elliptical aperture magnitude                    [mag]
#   3 X_IMAGE                Object position along x                                    [pixel]
#   4 Y_IMAGE                Object position along y                                    [pixel]
#   5 X_WORLD                Barycenter position along world x axis                     [deg]
#   6 Y_WORLD                Barycenter position along world y axis                     [deg]
#   7 A_WORLD                Profile RMS along major axis (world units)                 [deg]
#   8 B_WORLD                Profile RMS along minor axis (world units)                 [deg]
#   9 THETA_WORLD            Position angle (CCW/world-x)                               [deg]
#  10 FWHM_WORLD             FWHM assuming a gaussian core                              [deg]
#  11 ELONGATION             A_IMAGE/B_IMAGE                                           
#  12 ELLIPTICITY            1 - B_IMAGE/A_IMAGE                                       
         1 -15.1668      7.7208    136.7592   1.4220025478e+02   4.5900714376e+01     8.761768     1.822972 -75.08   0.02593972    5.732    0.826
         2 -13.5464    198.8781     28.0023   6.7405504704e+01   3.2309836654e+01     1.517356     1.329597  23.79   0.00770156    1.484    0.326
         3 -13.5199    214.4048      9.0372   6.1098058401e+01   3.0762609705e+01    0.9761955    0.7963957  67.49  0.003001406    1.235    0.190
         4 -12.4902      3.5930      7.4172   1.1430565810e+02   7.1322450657e+01    0.9074675    0.2735878 -40.30  0.004844352    2.513    0.602
         5 -10.4851    177.0377    249.5166   1.2088715310e+02  -2.7523711741e+00    0.2044113    0.1047777  41.41  0.001038947    1.609    0.379
         6 -12.2732    243.5258    247.6757   1.0836854613e+02  -1.3169334221e+01     0.635902    0.2981866  40.78  0.003383907    2.002    0.500
         7  -8.9472     66.4888    250.4665   1.4139955343e+02   1.4956685988e+01    0.1189543   0.08817394  69.00 0.0001027781    1.005    0.005
         8 -11.3272     46.4670    248.8064   1.4466946508e+02   1.7938791737e+01    0.3821842    0.1870937  55.89  0.001941864    1.613    0.380
         9 -10.9186     29.2047    248.7523   1.4749091701e+02   2.0061858865e+01    0.3448485    0.1826257 -74.91  0.001680039    1.733    0.423
        10 -12.6421     34.2072    244.2821   1.4638415823e+02   2.0304621581e+01    0.6192534    0.4945868  86.51  0.004757554    1.243    0.195
        11 -12.2630     19.9527    242.2380   1.4857222181e+02   2.2334607812e+01    0.5988349    0.2723047 -75.97  0.003656576    1.907    0.476
        12 -11.8238      4.8062    249.0352   1.5130181220e+02   2.2693012785e+01    0.6779153    0.2980211  50.90  0.003266143    1.813    0.448
        13 -12.6582     10.9999    241.9045   1.4997379270e+02   2.3364893064e+01    0.5710644    0.3818045  64.28  0.004329925    1.183    0.154
        14 -11.0522     97.8129    248.5951   1.3565104087e+02   1.0663802678e+01    0.3700234    0.1674223  50.74  0.001880087    1.807    0.447
        15 -11.0175    100.8393    246.1703   1.3483845232e+02   1.0629877878e+01     0.262319    0.1944584 -80.70 0.0006458481    1.404    0.288
        16 -10.1445     81.1106    248.4567   1.3865312485e+02   1.3228216783e+01     0.241508    0.1364685  86.42  0.001327301    1.957    0.489
        17 -10.5507    161.4926    249.6675   1.2385130856e+02  -1.1624771519e-01    0.2366252   0.09904336  42.24  0.001083912    1.966    0.491
        18 -10.2865    189.7523    245.9753   1.1795343615e+02  -4.3822885679e+00    0.1455923    0.1086075 -38.18 0.0008830596    1.579    0.367
        19 -11.3730    151.2031    249.1972   1.2573798128e+02   1.7241010021e+00    0.3510512     0.157862  36.52   0.00160945    2.134    0.531
        20 -11.6086    139.2515    250.2083   1.2812941036e+02   3.5941788805e+00     0.698948     0.138658  39.72  0.002048112    5.122    0.805
        21 -11.2399    119.7663    238.2323   1.3034069875e+02   8.9980383285e+00    0.3301544    0.1951094  89.29  0.001569589    2.491    0.599
        22 -10.9381     50.0199    235.7629   1.4305250430e+02   1.9971031597e+01    0.2306777     0.191747  57.51  0.001138328    1.320    0.243
        23 -11.2188    126.6889    249.9037   1.3045156929e+02   5.7581387068e+00    0.2887447    0.1797666  47.51  0.001657262    1.311    0.237
        24 -10.2199     69.3631    218.8404   1.3790094697e+02   2.0756682867e+01    0.4611061    0.1166787  54.04  0.001454358    4.856    0.794
        25  -8.7509    152.4932    213.0750   1.2014162012e+02   7.9193549944e+00    0.1811373    0.1388672 -55.17 0.0003084886    1.448    0.310
        26 -12.3930      9.9481    207.1044   1.4799784134e+02   3.0334598200e+01    0.5878918    0.4038173  31.58  0.002802906    1.986    0.497
        27 -12.9008     31.0957    232.9050   1.4611611555e+02   2.2860654719e+01    0.2926065    0.2311231 -86.26 0.0007830648    1.263    0.208
        28 -11.6989     58.5592    199.0438   1.3793012188e+02   2.6491013209e+01    0.2737137    0.2254809 -80.02 0.0005533033    1.160    0.138
        29 -10.7957     10.6744    194.6916   1.4696982300e+02   3.2866312434e+01    0.2597917    0.1631619  55.65  0.001728373    1.493    0.330
        30  -9.3974    191.7760    192.9522   1.0836056502e+02   4.1596842919e+00    0.3829782    0.1786277 -62.60 0.0009512834    7.120    0.860
        31 -11.9652     65.1099    190.5667   1.3556543403e+02   2.7488955187e+01     0.272528    0.2254446 -71.56  0.000424283    1.204    0.170
        32 -13.1337     62.2764    175.6338   1.3427788970e+02   3.1289888805e+01     0.515595    0.2784406 -47.26  0.002019453    2.253    0.556
        33 -10.7503     75.7388    177.5907   1.3148289752e+02   2.8938565053e+01    0.2407159    0.2089307 -80.52 0.0003126758    1.076    0.071
        34  -9.9016     96.1718    173.3608   1.2608377455e+02   2.6709345724e+01    0.2516792    0.1984464  88.80 0.0003951407    1.258    0.205
        35 -10.7794     11.7395    233.0388   1.4934759034e+02   2.4971948891e+01    0.1558613    0.1053642  86.22 0.0006213766    1.112    0.100
        36 -11.8302     83.5426    168.5697   1.2829368592e+02   2.9865648981e+01    0.6204823     0.601963   7.72  0.003574941    1.312    0.238
        37 -12.0406     89.4009    226.8349   1.3487512080e+02   1.6132250821e+01    0.8484065    0.1794059  50.10  0.002640583    4.656    0.785
        38 -10.2078     96.3815    152.5634   1.2235327048e+02   3.1575121959e+01    0.3058792     0.291621 -66.24 0.0007763566    1.107    0.096
        39  -9.3078     99.4056    148.3680   1.2077644467e+02   3.2054068363e+01    0.2352892    0.2125598 -39.29 0.0004911089    1.235    0.191
        40 -12.0391     84.9788    151.6155   1.2505645439e+02   3.3661135499e+01    0.3126882    0.2479651 -49.06 0.0004584187    1.305    0.234
        41 -12.2057     67.3607    143.5432   1.2813102079e+02   3.8174184805e+01    0.6757277    0.4346387  67.55  0.002532524    1.890    0.471
        42  -9.8464    108.5751    137.7434   1.1620946825e+02   3.2927680521e+01     0.422755    0.2893491 -16.26  0.001161436    2.503    0.601
        43 -10.4510     95.8197    134.7375   1.1892103566e+02   3.5901267996e+01    0.2555377    0.2200592 -35.32 0.0004500632    1.279    0.218
        44 -12.8320    115.8741    231.6038   1.3026689054e+02   1.0896456959e+01      1.14237    0.1900179  43.01  0.003359426    4.814    0.792
        45 -11.5732     25.9101    128.7238   1.3657690833e+02   4.6281386316e+01    0.4073357    0.2087621  54.72  0.001249018    2.461    0.594
        46 -11.5304     20.1265    125.8082   1.3767318177e+02   4.7432428688e+01    0.3575962    0.1943548  56.57  0.001585339    2.309    0.567
        47  -9.0934     76.2375    129.4173   1.2310229392e+02   4.0269405455e+01    0.1882458    0.1276536  52.06 0.0005324002    1.640    0.390
        48 -10.3347     82.4769    125.2786   1.2052000875e+02   4.0301460783e+01    0.3269621    0.2319441  66.74  0.001027575    1.750    0.429
        49  -8.8404    106.2346    124.0086   1.1372506279e+02   3.6563041446e+01    0.1954367     0.179567 -57.81 0.0002665346    1.037    0.036
        50  -9.9214    168.0094    113.2025   9.5555003028e+01   2.5687986617e+01    0.2801753     0.225532 -57.80 0.0005828772    1.290    0.225
        51 -10.3667     41.7373     96.7133   1.2628837696e+02   5.2035111079e+01    0.4126121    0.2138841  51.73  0.001805669    2.875    0.652
        52 -11.1386    242.0023     91.7465   7.6664243561e+01   1.2442763052e+01    0.2650138    0.1863731 -25.68  0.001310723    1.655    0.396
        53  -8.3085     65.3020     81.6595   1.1504334468e+02   5.2462082295e+01    0.1274858    0.1052445 -87.37 0.0002850513    1.673    0.402
        54 -13.0742     46.3297    215.2154   1.4196048426e+02   2.4600647150e+01     1.169194      0.91777  58.33   0.00697037    1.240    0.194
        55  -8.5997     57.3077     75.6618   1.1600608333e+02   5.4716458214e+01    0.1223907    0.1025457 -88.02 0.0007042612    1.681    0.405
        56  -9.8087    158.1879     77.1579   8.7953999318e+01   3.5046903554e+01    0.2115805    0.1806155 -78.11 0.0005440642    1.306    0.234
        57 -13.9491     36.0482    226.3817   1.4477295691e+02   2.3569773349e+01    0.7461826    0.5290838  68.83  0.002369411    1.111    0.100
        58  -9.7691    172.5940    222.8089   1.1762284722e+02   2.3969697181e+00    0.2668702   0.09444631  40.04 0.0009676446    2.569    0.611
        59 -11.5326    216.5852    248.9919   1.1342967210e+02  -9.2241213190e+00    0.4063479    0.1582916  37.82  0.001891273    2.176    0.540
        60 -11.5401    198.3059    245.4916   1.1626643704e+02  -5.7521213080e+00    0.3785477    0.2346845 -44.69  0.002135713    1.957    0.489
