#   1 NUMBER                 Running object number                                     
#   2 MAG_AUTO               Kron-like elliptical aperture magnitude                    [mag]
#   3 X_IMAGE                Object position along x                                    [pixel]
#   4 Y_IMAGE                Object position along y                                    [pixel]
#   5 X_WORLD                Barycenter position along world x axis                     [deg]
#   6 Y_WORLD                Barycenter position along world y axis                     [deg]
#   7 A_WORLD                Profile RMS along major axis (world units)                 [deg]
#   8 B_WORLD                Profile RMS along minor axis (world units)                 [deg]
#   9 THETA_WORLD            Position angle (CCW/world-x)                               [deg]
#  10 FWHM_WORLD             FWHM assuming a gaussian core                              [deg]
#  11 ELONGATION             A_IMAGE/B_IMAGE                                           
#  12 ELLIPTICITY            1 - B_IMAGE/A_IMAGE                                       
         1 -15.1329      3.7477    124.5641   1.4398093677e+02   4.9208083288e+01     5.766166    0.5596613 -74.68   0.01454994    7.914    0.874
         2 -13.7373    199.1054     25.8596   6.7227942981e+01   3.2295124346e+01     1.296074     1.218117   4.67  0.005423536    1.267    0.211
         3 -13.5513    214.6982      7.5040   6.0658765751e+01   3.0399995543e+01    0.9007547    0.7580695  80.13  0.003752304    1.125    0.111
         4 -12.0538     84.8193    152.2419   1.2665966375e+02   3.3811125989e+01    0.2994817    0.2457425 -53.68 0.0007149531    1.306    0.234
         5 -12.1523    229.1982    249.9981   1.1252676687e+02  -8.0072981361e+00    0.7919084    0.1149656  42.47  0.002375441    6.473    0.846
         6 -12.5738    173.5085    248.9917   1.2206921791e+02   6.5787126247e-01    0.5097814    0.2316851  37.17   0.00267513    1.791    0.442
         7 -14.1941    143.8545    248.0598   1.2729537764e+02   5.5236853794e+00     1.560809     0.417796  43.86  0.006407281    2.847    0.649
         8 -12.6072    238.5452    247.6528   1.1061746695e+02  -9.0959454861e+00    0.3768556    0.3203918  16.88  0.002928607    1.256    0.204
         9 -12.8089     45.9613    216.4217   1.4242286795e+02   2.5302881059e+01    0.8096302    0.4266156  54.00  0.003900628    1.521    0.342
        10 -12.5681    106.6845    231.0604   1.3228282468e+02   1.4129015613e+01    0.6960079    0.1155233  44.87  0.002293676    4.307    0.768
        11 -14.7983     34.2102    230.2803   1.4545301755e+02   2.4067105386e+01    0.9866019    0.7134142 -72.27  0.007319874    1.571    0.363
        12 -10.3467     20.1427    212.3506   1.4689460499e+02   2.8978132530e+01    0.2540681    0.1245784  35.34  0.001520395    2.208    0.547
        13 -12.3336     10.2493    207.0174   1.4838512926e+02   3.0996344149e+01    0.5188846    0.3266084  30.66  0.002984654    2.056    0.514
        14 -10.1608     53.5893    205.2367   1.4006983939e+02   2.6574107413e+01    0.1563219   0.09872169 -67.14 0.0009503673    1.632    0.387
        15 -12.0139     58.0487    200.5035   1.3875755851e+02   2.6968725411e+01     0.246214     0.206694  89.36 0.0004615516    1.173    0.148
        16 -12.2325     64.7637    191.8507   1.3651928610e+02   2.7885119724e+01    0.2480175    0.2169023  78.84 0.0004518108    1.141    0.124
        17 -13.0844     61.8616    176.8896   1.3551795809e+02   3.1502992647e+01    0.4780086    0.2631587 -49.28  0.001524269    2.313    0.568
        18 -10.9117     75.6523    178.4759   1.3261032496e+02   2.9249500085e+01    0.2363316    0.2012853  81.97 0.0002763317    1.036    0.034
        19 -12.2052     82.8857    169.7840   1.2979312807e+02   3.0107011213e+01    0.5484953    0.4562737 -52.49   0.00198143    1.395    0.283
        20 -13.5645      9.3638    156.1197   1.4533512267e+02   4.1718116358e+01     1.106257    0.4500651 -81.82  0.005663621    2.026    0.506
        21 -12.2278    248.0804    248.7349   1.0921913007e+02  -1.0535141347e+01    0.5638562    0.2451828  42.04  0.003132573    2.183    0.542
        22 -12.1223     67.6857    143.4126   1.2961405683e+02   3.8387850846e+01    0.6343981    0.3803267  65.06  0.002019454    1.894    0.472
        23 -10.1752    108.6016    137.9612   1.1795175249e+02   3.3094727755e+01    0.4246053    0.2816298 -21.37  0.001709247    2.698    0.629
        24 -10.6505     95.6251    135.2400   1.2079987625e+02   3.6021922438e+01    0.2368322    0.2268981 -49.86 0.0003393922    1.159    0.137
        25 -11.5608     26.4284    128.9521   1.3847660135e+02   4.6459278443e+01    0.4287995    0.1859525  51.68  0.002028855    2.564    0.610
        26 -11.1816     18.5112    124.9774   1.4012042506e+02   4.8048912301e+01    0.2255672    0.1464777  55.12 0.0009158287    1.626    0.385
        27  -9.0585    106.1504    124.1745   1.1563853417e+02   3.6731672390e+01    0.1885824    0.1623423  79.92 0.0002707737    1.215    0.177
        28 -10.7925     96.1896    153.4653   1.2402752419e+02   3.1695793020e+01    0.3119964    0.2861578 -81.53 0.0008576708    1.069    0.064
        29 -10.1835    158.3648     76.4861   8.9341941762e+01   3.5264051657e+01     0.269553    0.1478426 -37.17 0.0008110792    1.830    0.454
        30 -12.0195      2.5370     48.9837   1.3301912948e+02   6.6000001079e+01    0.3996607    0.1408542 -57.76  0.001697283    1.956    0.489
        31 -12.8835      4.6048    247.0028   1.5107203374e+02   2.4238859012e+01    0.7081616     0.397939  77.75  0.005399967    1.297    0.229
        32  -9.7238     99.2000    149.0684   1.2249655442e+02   3.2198364507e+01    0.2146372    0.1992241  85.01 0.0004570713    1.033    0.032
        33 -12.9143     18.8379    248.2718   1.4891412919e+02   2.2572165076e+01    0.6382238    0.2826739  40.52  0.004104786    2.042    0.510
