#   1 NUMBER                 Running object number                                     
#   2 MAG_AUTO               Kron-like elliptical aperture magnitude                    [mag]
#   3 X_IMAGE                Object position along x                                    [pixel]
#   4 Y_IMAGE                Object position along y                                    [pixel]
#   5 X_WORLD                Barycenter position along world x axis                     [deg]
#   6 Y_WORLD                Barycenter position along world y axis                     [deg]
#   7 A_WORLD                Profile RMS along major axis (world units)                 [deg]
#   8 B_WORLD                Profile RMS along minor axis (world units)                 [deg]
#   9 THETA_WORLD            Position angle (CCW/world-x)                               [deg]
#  10 FWHM_WORLD             FWHM assuming a gaussian core                              [deg]
#  11 ELONGATION             A_IMAGE/B_IMAGE                                           
#  12 ELLIPTICITY            1 - B_IMAGE/A_IMAGE                                       
         1 -14.4599     68.6414    144.3734   9.8917242261e+01   3.7486484651e+01     5.143206     2.424455  65.50    0.0107167    4.610    0.783
         2 -13.2175    200.2914     42.4936   4.2153498820e+01   3.0294159692e+01     1.126361    0.9663435 -46.49   0.00360147    1.217    0.178
         3 -13.6184    210.4851     32.6851   3.8693129519e+01   2.9289365908e+01    0.9906687    0.8743737  -8.23  0.001652587    1.604    0.377
         4 -12.8795    235.9068      6.7232   3.0994462614e+01   2.6931357470e+01    0.8277764    0.6146937 -79.30  0.004840334    1.082    0.076
         5 -12.1869     81.3728    158.8493   9.7854249016e+01   3.1928989440e+01     1.297063    0.6675161  65.91 0.0007387563    3.202    0.688
         6 -11.0709    139.4848    249.6696   9.7612935354e+01   2.9413130548e+00     0.341906    0.2321256  48.60  0.001995478    1.400    0.286
         7 -12.5924     54.6055    185.9528   1.0875506622e+02   2.8997098348e+01     1.747957    0.9573401  77.44  0.007746866    2.202    0.546
         8 -14.2665     41.2095    195.3351   1.1297904536e+02   2.8398213033e+01     4.759716     1.775162  67.58   0.01082086    4.805    0.792
         9 -17.1412     14.4462    242.5992   1.2198632312e+02   2.1060171932e+01     6.718833     2.277757  26.23   0.02780582    4.384    0.772
        10 -10.6159    203.2181    200.3615   7.6832626738e+01   1.4853666492e+00     0.230322    0.1913014 -31.38  0.001378815    1.178    0.151
        11 -10.8563    122.0998    198.5677   9.4108469504e+01   1.5735178628e+01    0.3998375    0.2867038 -80.19  0.001244558    1.734    0.423
        12  -9.8936    111.9947    196.9986   9.6251922607e+01   1.7790396351e+01    0.2246694    0.1786323 -10.79  0.001137038    1.728    0.421
        13  -9.5156     59.1243    196.9339   1.0892215512e+02   2.5792086666e+01     0.200084    0.1734042  72.14  0.001002429    1.020    0.020
        14 -16.0821      7.3979    202.5392   1.2109541461e+02   3.0250969025e+01     14.40349     1.200122 -76.42  0.006639337    9.966    0.900
        15  -8.9033    151.0470    193.5028   8.6565509662e+01   1.1751044400e+01    0.2247677    0.1358351  37.27   0.00103095    1.587    0.370
        16 -10.2859    147.3943    187.6304   8.6340648625e+01   1.3647001000e+01    0.5626575    0.3407442 -73.61  0.002210816    2.761    0.638
        17  -9.9556    118.1171    191.0416   9.3836722473e+01   1.8093153305e+01    0.2260822    0.2108235  67.34  0.001285765    1.040    0.039
        18  -8.1173     76.4458    184.5385   1.0312818856e+02   2.6334757210e+01     0.143642    0.1250118  74.96 0.0001426088    1.057    0.054
        19  -8.8638     79.6829    182.6781   1.0204935831e+02   2.6303659130e+01    0.3054257    0.1643372 -89.08  0.001164667    2.755    0.637
        20  -8.0938     82.7095    182.3116   1.0123048621e+02   2.5934606942e+01    0.1478418    0.1022984  70.96 0.0006090739    1.586    0.369
        21  -9.6479     99.4249    180.9398   9.6792262759e+01   2.3604761646e+01     0.267036    0.2116592  39.94 0.0005427002    1.247    0.198
        22  -9.4839     64.9717    179.1870   1.0530370444e+02   2.9269586110e+01    0.2261666    0.1694664  66.91  0.001176835    1.305    0.234
        23 -10.6941     42.5827    177.4051   1.1076940986e+02   3.2546507854e+01    0.6294048    0.3741841  20.63  0.002436769    2.183    0.542
        24 -10.4631    186.8282    174.9667   7.5254745534e+01   9.0213844630e+00    0.3895923    0.3000629 -53.12  0.001225496    1.407    0.289
        25 -12.8854     69.6411    153.6685   1.0023383050e+02   3.4988563805e+01    0.6966752    0.4385803 -57.73  0.001448781    1.497    0.332
        26 -10.7041    197.9619    203.9823   7.8520109910e+01   1.6978064102e+00    0.3033427    0.2226004 -53.23   0.00113648    1.656    0.396
        27 -10.0213    240.2361    169.3987   6.4234633727e+01   9.1971735113e-01    0.1570499     0.125298  50.24 0.0003103395    1.575    0.365
        28  -8.1110    120.4746    165.5570   8.8716557766e+01   2.3587129339e+01    0.1508942    0.1438131  72.83 0.0001050826    1.028    0.027
        29 -11.3775     88.5443    152.0242   9.4647834223e+01   3.2494229485e+01     0.693158    0.4635435 -22.61  0.002893952    2.338    0.572
        30 -10.5319    133.7453    144.9017   8.1060209729e+01   2.5899760599e+01     1.184027    0.3247515 -55.92  0.002776713    5.590    0.821
        31 -11.0461     53.9804    147.9055   1.0375531660e+02   3.8561691438e+01    0.5615279    0.3463836 -63.39  0.002733127    1.466    0.318
        32  -8.7789    111.1523    149.7147   8.7999005186e+01   2.9115887498e+01    0.2667442    0.1624774  73.89 0.0008582929    2.783    0.641
        33  -9.3373    174.8687    149.1021   7.2349957646e+01   1.6601128099e+01    0.2318424    0.2052902 -77.89 0.0006252021    1.283    0.220
        34  -9.8564     37.9901    145.9772   1.0806855862e+02   4.0910156238e+01    0.3399239    0.1478965  43.23  0.001451108    2.387    0.581
        35  -8.9742    143.6721    145.6730   7.8760726794e+01   2.3715855240e+01    0.1583908    0.1242357  -7.07 0.0007050503    1.702    0.413
        36 -10.8382     28.0616    143.8522   1.1063101670e+02   4.2446874890e+01    0.3884855       0.3188 -29.09  0.002309283    1.488    0.328
        37 -10.2406    102.0382    138.4963   8.8141864488e+01   3.3526198927e+01    0.5692628     0.383518 -15.40  0.002248039    2.490    0.598
        38 -10.0797    105.8887    131.0613   8.5408544575e+01   3.4630166525e+01    0.4278683    0.3174434 -63.14  0.001708226    1.388    0.279
        39 -11.5655     89.7477    137.7678   9.1497570678e+01   3.5856066863e+01    0.2913839      0.25988 -44.02 0.0004129615    1.155    0.134
        40 -11.0569     27.9183    129.7398   1.0874142174e+02   4.5998715246e+01    0.3852274    0.2352805 -66.59  0.002003285    1.394    0.282
        41  -9.8552    135.3053    128.7531   7.6942636206e+01   2.9310687385e+01     0.363532    0.2213512 -53.66  0.001514157    1.677    0.404
        42  -9.5294    111.5059    129.2287   8.3409465710e+01   3.4003183363e+01    0.2927314    0.2474923  11.28 0.0009977549    1.418    0.295
        43 -11.3590     68.7261    171.4953   1.0325894058e+02   3.0644395845e+01    0.4534907    0.2982009 -33.69  0.002078854    2.140    0.533
        44 -10.8565     67.3349    128.6553   9.6342848560e+01   4.1643060399e+01    0.4909955    0.2629193  30.35  0.002104285    2.058    0.514
        45  -8.6612     67.2625    125.0073   9.5625843237e+01   4.2566400542e+01    0.3222575    0.1932126 -58.57  0.001276306    1.544    0.352
        46  -9.0620    161.0239    128.0315   7.0578384104e+01   2.3986182431e+01    0.2507255    0.1912532 -82.23  0.001130473    1.702    0.412
        47 -10.6640     39.4144    125.9303   1.0457063925e+02   4.5814340280e+01    0.4910781    0.1492517 -64.85  0.001733318    2.875    0.652
        48 -10.1073     98.8899    124.9168   8.6004962451e+01   3.7411140352e+01    0.3171129    0.2596251  -0.76  0.001349955    1.549    0.354
        49  -9.7504    117.2653    123.6107   8.0478500755e+01   3.4201437480e+01     0.275242     0.205975  31.01 0.0007647329    1.474    0.322
        50  -8.3772    163.4941    121.4672   6.8439950072e+01   2.4848201248e+01    0.1541607    0.1468651 -71.31 0.0003919245    1.041    0.039
        51  -9.0999     87.2798    120.6804   8.8485198998e+01   4.0488804122e+01    0.3490564    0.2272056  69.98  0.001425109    2.253    0.556
        52  -9.1015    135.0000    119.9432   7.4866443424e+01   3.1370548905e+01    0.2584436   0.08797763 -46.73 0.0006817162    2.895    0.655
        53 -11.1841     33.4717    118.6606   1.0524090670e+02   4.8234501738e+01    0.3160449    0.3034929 -56.16  0.001448482    1.111    0.100
        54 -11.4405     33.2438    110.6501   1.0390038168e+02   5.0231559715e+01    0.5757788    0.2012623 -65.79  0.002194978    2.601    0.615
        55  -9.2840    107.8296    118.4063   8.1854165548e+01   3.7283119125e+01    0.2462112    0.2078212 -49.33 0.0002487508    1.159    0.137
        56 -11.3634     72.9711    167.0371   1.0146557683e+02   3.1144826568e+01    0.4301775    0.3008172 -58.55  0.001247507    1.388    0.280
        57  -9.7885    231.2729    113.8151   5.4194532285e+01   1.2161644618e+01    0.2453015    0.2349677  79.27 0.0007115465    1.171    0.146
        58  -9.2367    205.6109    110.1341   5.7467759150e+01   1.7977336059e+01    0.2514742    0.2092987  45.33 0.0005784477    1.339    0.253
        59 -10.5664    115.4371    107.5444   7.6920651191e+01   3.8262769549e+01    0.4750039    0.2910729 -52.53   0.00202283    1.656    0.396
        60  -9.1929    134.5757    105.1950   7.1176562988e+01   3.4702484330e+01    0.3761683    0.1491269 -46.24  0.001280639    2.505    0.601
        61 -11.1073     41.9055    104.0159   9.9625279261e+01   5.0951317594e+01    0.4009057    0.2895131  44.33  0.001440233    1.568    0.362
        62  -8.2386    137.5641    104.4960   7.0236528274e+01   3.4192711820e+01     0.154278    0.1487215 -73.99 0.0001249524    1.025    0.024
        63 -10.0187     53.2853    103.8356   9.5642410151e+01   4.9650861711e+01    0.2291926    0.1780876 -78.34  0.001210727    1.423    0.297
        64 -10.9197    240.5106    101.7684   5.0312071107e+01   1.2473300598e+01    0.2718472    0.1716603 -59.24  0.001403876    1.631    0.387
        65 -10.9852     33.0244     99.9198   1.0190564748e+02   5.2849592851e+01    0.4298705    0.1911111  26.77  0.001912234    2.476    0.596
        66  -8.7110    124.9883     92.3002   7.0139397977e+01   3.9520247933e+01    0.2107705    0.2010762  65.29 0.0006075144    1.054    0.051
        67  -8.9709     53.3072     91.3019   9.2633056500e+01   5.2592158473e+01    0.1427005    0.0993559 -26.54 0.0007011879    1.600    0.375
        68 -10.1759     14.6629     89.2020   1.0649697464e+02   5.6897601329e+01    0.2686643    0.1713117  32.80  0.001142163    1.822    0.451
        69  -8.4246    154.4897     86.4856   6.1390802906e+01   3.3953629913e+01    0.1515148    0.1433982 -82.20 0.0001853033    1.028    0.027
        70  -8.6967     75.0192     85.2482   8.3309545536e+01   5.0755857386e+01     0.191976    0.1810368  29.26 0.0004066618    1.105    0.095
        71  -8.8354    158.8443     83.1568   5.9552731933e+01   3.3555844156e+01    0.2024788    0.1803428  22.80 0.0005527046    1.326    0.246
        72  -8.4188    150.8831     82.8333   6.1177486724e+01   3.5482767662e+01    0.2037323       0.1716 -85.93 0.0003870098    1.296    0.229
        73  -9.5163    112.6517     82.4133   7.0652774093e+01   4.4187947050e+01     0.436841    0.2747226  74.05  0.001658697    2.735    0.634
        74  -8.2977     69.9921     81.9637   8.4108047548e+01   5.2275165652e+01    0.1646127    0.1554675   2.28 0.0003683911    1.062    0.058
        75 -10.8268    194.4366    198.2185   7.8170474811e+01   3.3000904909e+00    0.3171577    0.2703435 -58.08  0.001529571    1.445    0.308
        76  -8.9677     55.9599     66.1168   8.4475338271e+01   5.7665209139e+01    0.1988187    0.1771178 -16.66 0.0003364023    1.027    0.026
        77 -12.8291    189.9637     50.2254   4.5415841756e+01   3.1597486714e+01    0.9167745    0.7394544  44.37  0.001171885    1.491    0.329
        78 -10.5813    191.8650    192.5074   7.7626100338e+01   4.7777322487e+00    0.6602071    0.3616323 -64.06  0.002356712    3.958    0.747
        79 -10.5226    111.0180    203.4779   9.7462729657e+01   1.6511904525e+01    0.2529414    0.2056618 -76.73 0.0005609894    1.320    0.242
        80  -9.1768     88.9948    210.4744   1.0354584353e+02   1.8442208121e+01    0.2328178    0.1738546  88.61  5.31594e-06    1.418    0.295
        81  -8.9512     34.7449    171.6178   1.1211461445e+02   3.4845355387e+01    0.2184048    0.1483259  49.12 0.0006810463    1.448    0.310
        82  -8.9854    198.3184     23.4691   3.7844705394e+01   3.3185751391e+01    0.2013333    0.1117182 -35.78 0.0006702005    1.853    0.460
        83 -10.0578    142.2106    208.6533   9.1121324776e+01   1.0173144944e+01    0.2221061    0.1644546  50.77 0.0006934929    1.359    0.264
        84  -8.7079    189.5221     15.0231   3.6754084694e+01   3.6179861697e+01    0.1768807    0.1204149 -37.25 0.0009447054    1.560    0.359
        85 -10.8000    107.5962    203.7835   9.8309043402e+01   1.7003948120e+01    0.3139707    0.2328992  73.19 0.0009322812    1.512    0.338
