#   1 NUMBER                 Running object number                                     
#   2 MAG_AUTO               Kron-like elliptical aperture magnitude                    [mag]
#   3 X_IMAGE                Object position along x                                    [pixel]
#   4 Y_IMAGE                Object position along y                                    [pixel]
#   5 X_WORLD                Barycenter position along world x axis                     [deg]
#   6 Y_WORLD                Barycenter position along world y axis                     [deg]
#   7 A_WORLD                Profile RMS along major axis (world units)                 [deg]
#   8 B_WORLD                Profile RMS along minor axis (world units)                 [deg]
#   9 THETA_WORLD            Position angle (CCW/world-x)                               [deg]
#  10 FWHM_WORLD             FWHM assuming a gaussian core                              [deg]
#  11 ELONGATION             A_IMAGE/B_IMAGE                                           
#  12 ELLIPTICITY            1 - B_IMAGE/A_IMAGE                                       
         1 -12.0092    210.4329     32.9379   4.2977676612e+01   2.9151912152e+01    0.9741396    0.7842723 -45.72  0.004425993    1.187    0.157
         2 -10.8004      2.2548     25.2393   1.0210146571e+02   7.0391248837e+01    0.6859703   0.08646061 -54.96  0.002383132    4.611    0.783
         3 -11.8446    228.8489     15.0260   3.6800191198e+01   2.7033646876e+01    0.7215358    0.6033247 -61.51  0.002871507    1.058    0.054
         4 -10.2291      1.9927     10.1154   9.6217419953e+01   7.3047843704e+01     0.419639      0.12956 -52.36  0.001919998    3.082    0.676
         5  -8.8931      2.0750      2.6046   9.2600857665e+01   7.4232563705e+01    0.2214909    0.1194964 -34.69  0.001303247    1.394    0.283
         6 -12.6813      8.9299    207.4270   1.2605481907e+02   2.9258092331e+01    0.8169097    0.7720674  84.04  0.004455908    1.397    0.284
         7 -10.8791    101.2420    247.1928   1.1149861589e+02   1.0470474738e+01    0.4193321     0.284665  40.18  0.002653964    1.268    0.212
         8 -10.2091     62.1255    249.1620   1.1895260146e+02   1.5353420797e+01    0.4125074     0.308923  54.06  0.001713274    1.094    0.086
         9  -9.8127     74.4000    250.3956   1.1681651324e+02   1.3571030359e+01    0.3471687    0.2723826  11.63  0.002281342    1.992    0.498
        10 -10.4798     69.8575    247.6072   1.1742473305e+02   1.4653668677e+01     0.573638    0.3240894  33.50  0.003382747    1.825    0.452
        11  -8.1384     28.7507    246.0004   1.2462244023e+02   1.9790050983e+01    0.2093738    0.1367315 -87.74  0.001300648    1.385    0.278
        12 -10.1627     32.1062    249.8839   1.2426359440e+02   1.8727542276e+01    0.5046024    0.2150133  34.61   0.00279615    2.364    0.577
        13  -9.7615     34.1227    244.3547   1.2360254499e+02   1.9508579100e+01    0.2819833    0.1899352 -82.83  0.001808529    1.415    0.293
        14 -11.6125      3.1222    185.2887   1.2590937351e+02   3.4446498027e+01     1.058753    0.3945655 -80.53  0.004447056    2.190    0.543
        15 -13.7291      3.0572    120.1983   1.2066130025e+02   4.9448289765e+01     7.448664     1.215831 -76.95   0.01844548    7.543    0.867
        16 -13.1447      6.1272    239.8134   1.2813148631e+02   2.3195045471e+01     1.785518    0.9586932 -86.01   0.01225875    1.589    0.371
        17 -10.9300    117.3013    230.3552   1.0645689929e+02   1.1098871522e+01    0.4732589    0.3174749  20.45  0.002565535    1.877    0.467
        18 -11.0444    127.8640    230.3215   1.0429943913e+02   9.4720058897e+00    0.5076955    0.2869683  26.91  0.002519505    1.986    0.497
        19 -10.2158    109.4329    230.5198   1.0807622455e+02   1.2260613245e+01    0.3131688    0.2007824  66.56  0.001647836    1.773    0.436
        20 -10.3951    122.5819    226.7461   1.0492218685e+02   1.0944806456e+01    0.4216547    0.2999441 -83.39  0.002376718    1.824    0.452
        21  -9.5395    150.1808    229.3307   9.9615245928e+01   6.1056522676e+00    0.2732164    0.1063834  32.17  0.001097012    2.634    0.620
        22 -11.4572     19.9950    221.1422   1.2477464490e+02   2.5431805096e+01    0.6022825    0.3058003  64.86  0.001850638    1.658    0.397
        23  -9.3102    167.8903    224.9116   9.5360660116e+01   3.9835117935e+00    0.2020693    0.1607629  13.37 0.0006286148    1.255    0.203
        24 -10.5944     84.8816    249.9624   1.1484488532e+02   1.2256806403e+01    0.6635506    0.2360499  32.14  0.002514471    3.233    0.691
        25  -8.1656     94.1760    221.1572   1.1012854168e+02   1.6307660326e+01    0.1788191    0.1294018  65.42 0.0005787545    1.330    0.248
        26  -9.2818     29.2078    218.2085   1.2287056077e+02   2.5080808044e+01    0.1942937    0.1333837 -72.63  0.001303293    1.443    0.307
        27 -10.4058     41.3513    236.3022   1.2181319862e+02   2.0202500423e+01    0.2577788    0.1675747  75.90 0.0005184377    1.306    0.234
        28  -9.2024     48.7973    224.6758   1.1958306882e+02   2.1598563498e+01    0.2277803    0.1876654 -59.88 0.0007170087    1.514    0.339
        29 -11.4454     31.6166    208.5372   1.2173179576e+02   2.6820199971e+01    0.4406793     0.316432 -49.07  0.001078639    1.882    0.469
        30 -10.4704     22.9261    208.6855   1.2344944794e+02   2.7677238657e+01    0.3257611    0.1661588  85.61  0.001157858    1.777    0.437
        31 -10.1156     24.5739    203.0959   1.2274551276e+02   2.8688639083e+01    0.2809268    0.2561555  78.95  0.002119414    1.261    0.207
        32  -7.8586     61.5425    199.7475   1.1473357964e+02   2.5241374996e+01    0.1715376    0.1080054  89.89  0.000905003    1.597    0.374
        33 -13.5906     40.7372    197.5477   1.1898725381e+02   2.8189668951e+01     3.524159     1.350045  69.11   0.01307652    3.958    0.747
        34 -10.1755     83.5787    227.2039   1.1294315142e+02   1.6629571040e+01    0.3727915    0.2052726 -72.00  0.002014381    1.987    0.497
        35 -10.3105     65.2233    174.9204   1.1102301754e+02   3.0397564545e+01    0.3216665    0.2556028 -40.99 0.0008482813    1.539    0.350
        36 -10.2149     59.5864    180.7259   1.1307701117e+02   2.9762717000e+01    0.4313606     0.270973 -39.77  0.001736299    2.213    0.548
        37  -9.0391     97.0608    171.7261   1.0274850401e+02   2.6553889869e+01    0.2830013    0.2051523 -53.97  0.001458957    1.391    0.281
        38  -9.4538     38.5405    232.0059   1.2204165198e+02   2.1340917992e+01    0.2155831    0.1790392  68.29 0.0004299437    1.136    0.119
        39  -9.9788     75.1158    165.1017   1.0721375652e+02   3.1395720898e+01    0.2988414    0.2711365 -18.75 0.0005054185    1.375    0.273
        40 -11.5835     81.0130    158.2483   1.0462755297e+02   3.2203877257e+01     1.059811    0.6822444  55.73  0.003295819    1.670    0.401
        41 -11.9090     68.1245    144.5764   1.0581134032e+02   3.7346121867e+01    0.8487043    0.5770461  85.82   0.00272436    1.725    0.420
        42  -9.1601     22.7968    156.8885   1.1929110967e+02   3.9284838798e+01    0.1945596    0.1496999 -64.03  0.001236849    1.244    0.196
        43  -9.0827     97.1196    144.1197   9.7773259638e+01   3.3129253956e+01    0.3648482    0.2128882 -47.48 0.0009893103    1.699    0.412
        44  -8.8235     99.6560    140.6978   9.6388801146e+01   3.3534980749e+01    0.3021065    0.1920547 -32.45  0.001283958    2.005    0.501
        45 -10.5011     85.1516    142.4240   1.0072774441e+02   3.5444839750e+01    0.3162605    0.2712589 -38.92 0.0005981214    1.249    0.199
        46  -8.6183     61.9185    235.6583   1.1794461744e+02   1.7865215197e+01     0.213515    0.1444358  87.04 0.0004714895    1.422    0.297
        47 -10.0421     58.4913    133.0484   1.0656006195e+02   4.1425368987e+01    0.2604448    0.2282427 -82.72  0.001014328    1.086    0.079
        48  -9.3153    108.0819    132.1783   9.2226387728e+01   3.4117480700e+01    0.3703586    0.2729345  39.49  0.001339164    1.406    0.289
        49  -9.7101     17.6893    130.1376   1.1771433285e+02   4.6112181803e+01    0.2630891    0.1484805  46.31 0.0009984219    1.973    0.493
        50 -11.7408     62.2334    161.2776   1.0993431722e+02   3.4029770229e+01    0.5185663    0.2997901 -44.18   0.00122933    2.044    0.511
        51  -8.8422     95.7862    128.5454   9.4879885766e+01   3.7133580433e+01    0.3095192    0.2308626 -20.45  0.001376277    1.720    0.419
        52  -8.1306    134.6669    121.3177   8.2406001720e+01   3.1468914790e+01      0.16005    0.1268633  88.29 0.0007047976    1.692    0.409
        53  -8.0551    106.1696    120.1399   8.9944284487e+01   3.7332896059e+01    0.2227406    0.1978131 -17.58 0.0002836316    1.221    0.181
        54  -7.9358    205.5286    110.0425   6.3609181858e+01   1.8113835099e+01    0.2308864    0.1387093 -39.49 0.0008247932    1.548    0.354
        55  -8.5561     52.6153    106.8141   1.0336437173e+02   4.8578867780e+01    0.1985483    0.1222225 -70.95 0.0005654877    1.673    0.402
        56  -8.4040    134.4682    101.4143   7.7116875185e+01   3.5890712175e+01    0.3677919    0.1301237 -55.34 0.0008078582    6.198    0.839
        57 -10.9692     88.8021    228.2791   1.1200230971e+02   1.5691426654e+01    0.5931894    0.3301518 -89.01  0.001964601    2.417    0.586
        58  -8.0181    160.0000     81.9930   6.5223872983e+01   3.3901840398e+01    0.2557888   0.08715806 -37.15 0.0006088287    2.896    0.655
        59 -10.6944      1.9094     61.2586   1.1214908883e+02   6.3110245385e+01    0.6302996    0.1206555 -66.60  0.002136544    4.262    0.765
        60  -9.8223     13.2629     59.9676   1.0716233420e+02   6.2806066350e+01    0.2631902    0.1735243 -70.92 0.0007689279    1.578    0.366
        61  -8.5162     42.2700     59.7656   9.5025465911e+01   6.0431610486e+01     0.242258    0.1955135  57.09  0.001411733    1.795    0.443
        62 -10.7634     25.4860    228.4100   1.2419871545e+02   2.3444231158e+01    0.3442246     0.301376  68.41  0.001505463    1.262    0.208
        63 -11.9567    202.8551     39.3572   4.5572616387e+01   3.0132453040e+01    0.7233614    0.6661602  64.00  0.003496233    1.142    0.124
        64  -9.6719    114.2966    243.2419   1.0855928192e+02   9.2611509080e+00    0.3468056    0.1282221 -50.44  0.001557511    3.287    0.696
        65 -11.0133    217.6662     26.2601   4.0516796799e+01   2.8279160006e+01    0.4699323    0.3705288  34.63  0.001379245    1.659    0.397
        66  -8.4860    136.2131     42.9959   5.8215549999e+01   4.6047888145e+01    0.2409716    0.2007411  53.83 0.0004099657    1.158    0.136
        67 -10.6861     83.1480    243.9224   1.1462989086e+02   1.3561998790e+01    0.3530168    0.3205922 -65.50  0.002606174    1.374    0.272
        68  -8.7019    121.3211    241.3256   1.0696330509e+02   8.5442343611e+00    0.1164575   0.09311119   4.39 0.0007047152    1.682    0.406
        69  -8.3936     52.9956    240.5103   1.1997868312e+02   1.8049464529e+01    0.1847336    0.1399568 -66.12 0.0005764988    1.541    0.351
