#   1 NUMBER                 Running object number                                     
#   2 MAG_AUTO               Kron-like elliptical aperture magnitude                    [mag]
#   3 X_IMAGE                Object position along x                                    [pixel]
#   4 Y_IMAGE                Object position along y                                    [pixel]
#   5 X_WORLD                Barycenter position along world x axis                     [deg]
#   6 Y_WORLD                Barycenter position along world y axis                     [deg]
#   7 A_WORLD                Profile RMS along major axis (world units)                 [deg]
#   8 B_WORLD                Profile RMS along minor axis (world units)                 [deg]
#   9 THETA_WORLD            Position angle (CCW/world-x)                               [deg]
#  10 FWHM_WORLD             FWHM assuming a gaussian core                              [deg]
#  11 ELONGATION             A_IMAGE/B_IMAGE                                           
#  12 ELLIPTICITY            1 - B_IMAGE/A_IMAGE                                       
         1 -11.0504    212.8373     45.1006   6.9766804446e+01   2.6634155760e+01    0.5941762    0.2918045 -53.08  0.002558089    2.126    0.530
         2 -10.5857    237.2516     31.5882   6.3766141043e+01   2.2727120342e+01     0.480221    0.3450896 -73.37  0.002792157    1.249    0.199
         3 -10.1986    165.2155     23.6901   7.1154958708e+01   4.1116846395e+01    0.4026994    0.2550875 -58.51   0.00198909    1.871    0.465
         4  -9.2851    142.1861     22.5819   7.4882397395e+01   4.6798909476e+01    0.2065683    0.1670399 -11.90  0.001195203    1.422    0.297
         5  -9.5539    209.7640     21.1439   6.4401075800e+01   3.0494376962e+01    0.3573233    0.2226454 -75.84  0.001832145    1.663    0.399
         6 -10.6553    247.4498     13.7279   5.9064420008e+01   2.2684442336e+01    0.5716448    0.3396825 -28.71   0.00312879    2.103    0.525
         7 -10.4830    240.0160     12.0568   5.9358674432e+01   2.4527356476e+01    0.6161735    0.2894626  62.96  0.003117585    2.039    0.510
         8 -10.4150    243.3948      7.2612   5.8095578450e+01   2.4329430722e+01    0.3485985    0.2752789 -52.59  0.001560249    1.260    0.206
         9 -10.0252    226.6657     13.6590   6.0919848942e+01   2.7378979007e+01    0.2479809    0.1948089  44.58  0.001119233    1.673    0.402
        10 -10.4586    220.7571      5.3643   5.9666503915e+01   2.9671339715e+01    0.3822232    0.2152009 -42.52  0.002096217    1.756    0.431
        11  -9.3510    172.5117      4.9527   6.4910527661e+01   4.1257515078e+01    0.1779368    0.1299601 -28.98  0.001035904    1.600    0.375
        12  -9.1805    192.7371      2.9673   6.1958035543e+01   3.6556491798e+01    0.1480719    0.1122608 -32.58 0.0006852227    1.535    0.349
        13  -8.8731    128.4685      3.5034   7.1394493904e+01   5.1795376370e+01    0.1290384    0.1065924  48.98   0.00010459    1.035    0.034
        14 -11.4521    207.9984    190.0410   1.0451643656e+02   1.5376612078e+00    0.5312203    0.3199595 -54.26  0.002393676    2.121    0.529
        15  -9.6215    226.6684    191.5117   1.0119987123e+02  -2.2153531576e+00    0.3935501    0.2114925 -27.63  0.001759495    2.086    0.521
        16 -11.0077    151.6878    193.3375   1.1693604506e+02   1.2009156464e+01    0.3910387    0.2381471 -42.93  0.001724988    1.838    0.456
        17 -10.0160    232.8069    188.7450   9.9500663445e+01  -2.8628338237e+00    0.4078963    0.2825631  60.38  0.002033899    2.036    0.509
        18  -9.5631    212.0020    186.7173   1.0306150059e+02   1.3627329957e+00    0.2047506    0.1805099  33.37  0.001165148    1.103    0.093
        19 -10.4169    194.0354    181.5097   1.0562175289e+02   5.8727271157e+00    0.3222607    0.2018074 -50.16  0.001180572    1.754    0.430
        20 -11.2845    179.3912    183.2141   1.0903172720e+02   8.5110202548e+00    0.3992991    0.2932442 -44.81  0.001987719    1.426    0.299
        21  -9.3964    161.3273    187.3094   1.1372090562e+02   1.1339291618e+01    0.1464506    0.1168224   4.69 0.0005182142    1.659    0.397
        22  -9.8576    242.3216    183.5050   9.6710213245e+01  -3.6900770660e+00    0.3904588    0.1999476 -34.18   0.00180986    1.879    0.468
        23  -9.5418    116.6912    192.3416   1.2448496204e+02   1.8834421966e+01    0.1499509    0.1031431  77.05 0.0006951844    1.691    0.409
        24 -10.1033    198.6820    184.9930   1.0537572629e+02   4.2829353091e+00    0.2725208    0.1833138  55.55  0.001285834    1.679    0.404
        25  -9.4229    220.8737    182.8724   1.0055995145e+02   3.4915749974e-01    0.2289487    0.1857901   4.58  0.001247788    1.300    0.231
        26  -9.3241    247.0884    181.7557   9.5508153217e+01  -4.2382986397e+00    0.2540772    0.1595809  36.55  0.001315529    1.631    0.387
        27  -9.5656    249.3300    196.5171   9.8051955023e+01  -6.9562304532e+00    0.3003004    0.1643694 -43.55  0.001478745    1.987    0.497
        28 -10.5846    170.6296    181.9503   1.1066082092e+02   1.0552400681e+01    0.4189364    0.1779111  56.66  0.001326398    3.463    0.711
        29 -10.3003    204.1235    177.5041   1.0274392857e+02   4.6014273356e+00    0.2481183    0.2020511  -8.74  0.001291689    1.368    0.269
        30 -12.0127    183.6500    169.9954   1.0541268227e+02   1.0283886473e+01     1.042614     0.263733 -51.22  0.002404974    6.420    0.844
        31  -9.4815    222.5406    170.6276   9.7696185241e+01   2.2145641422e+00    0.2772844    0.2320633  67.67  0.001110983    1.499    0.333
        32 -10.5729    208.2274    168.4890   1.0002447853e+02   5.4736153066e+00     0.362865    0.3048499  86.72  0.001871218    1.564    0.361
        33  -9.6179    198.5080    164.5033   1.0112920611e+02   8.2559396964e+00    0.1465451    0.1442999   8.15 0.0008105498    1.020    0.020
        34 -11.8262    166.7231    159.7648   1.0692387547e+02   1.6024680650e+01     0.594945    0.4594027  11.50  0.002732777    1.728    0.421
        35 -13.1128    174.3703    154.2339   1.0400429596e+02   1.5545873636e+01    0.8380882    0.7681973  53.16  0.004409597    1.083    0.076
        36  -9.8323    154.6331    160.3286   1.0979378804e+02   1.8482272249e+01    0.3405164    0.1963934 -41.20  0.001400075    1.864    0.463
        37 -10.0001    231.3977    157.6690   9.3268846449e+01   2.8193057881e+00    0.4351177    0.2753104  60.88  0.001973663    2.089    0.521
        38  -9.9968    216.0583    157.2003   9.6041075014e+01   6.0046056855e+00    0.3511962    0.2903147 -38.65  0.001559219    1.178    0.151
        39 -10.2352    221.1170    156.9102   9.5011564153e+01   5.0208933511e+00    0.3535939    0.2956484 -56.22  0.001790357    1.317    0.241
        40 -10.2165    200.6549    155.6649   9.8750444722e+01   9.5440795958e+00    0.3201483    0.2339854 -33.18  0.001530431    1.406    0.289
        41  -9.4785    126.5135    156.4646   1.1565040358e+02   2.5122601262e+01    0.1506263    0.1445536  86.96 0.0003492108    1.027    0.026
        42 -11.3805    185.6239    154.3117   1.0157923149e+02   1.3069992691e+01    0.3092839     0.281655 -37.07  0.001256192    1.109    0.098
        43  -9.9087    140.6418    153.1185   1.1153311076e+02   2.3030822080e+01    0.4392492    0.2422895 -24.02  0.001287969    4.379    0.772
        44 -11.5428    212.9891    149.8460   9.4999690461e+01   8.0500943523e+00    0.4901368     0.471003   6.78  0.002759865    1.049    0.046
        45 -11.1750    196.8136    144.9910   9.7118945442e+01   1.2511920280e+01    0.3685088    0.3516167 -58.38  0.001993394    1.064    0.060
        46 -12.5178    185.8984    143.9607   9.9161797192e+01   1.5149035918e+01    0.8177476    0.5132841 -54.30  0.003467476    1.749    0.428
        47 -11.9604    179.5968    141.4358   9.9930130457e+01   1.7089349776e+01    0.5909892    0.4707541 -53.14  0.002855099    1.283    0.221
        48  -9.8745    246.8913    146.6814   8.8169519465e+01   1.7615205683e+00    0.3497819    0.2692951  67.95  0.001852057    1.684    0.406
        49 -10.1997    158.2970    145.8867   1.0575558015e+02   2.0875128074e+01    0.2602664    0.2024055 -69.12  0.001203933    1.464    0.317
        50 -11.6836    170.0912    142.3999   1.0225675223e+02   1.9019060914e+01    0.5893126    0.3646176 -44.14  0.002503051    1.622    0.384
        51  -9.9906    165.0386    145.4756   1.0411166932e+02   1.9479765226e+01    0.2419422     0.153011  46.77  0.001025608    1.572    0.364
        52 -11.0547    205.9708    143.2922   9.4884795046e+01   1.0837384833e+01    0.3020316    0.2243304 -49.07  0.001449818    1.358    0.264
        53 -10.2966    193.4918    149.4999   9.8835833698e+01   1.2331796008e+01    0.3402668    0.2358144  28.16  0.001293418    1.727    0.421
        54  -9.7740    239.7644    139.1858   8.7733565624e+01   4.4931112086e+00    0.5129161    0.2657965  51.87  0.002228526    2.141    0.533
        55  -9.9146    148.9444    136.6964   1.0582747929e+02   2.4961910974e+01    0.3729124    0.2422325  85.02  0.001348048    2.714    0.631
        56  -9.7409    224.6849    135.3038   8.9508740246e+01   8.3285842932e+00    0.5076201    0.3118119  84.46  0.001756764    3.668    0.727
        57  -9.9478    218.6024    133.6025   9.0230732711e+01   9.9593078869e+00     0.338059    0.3047092 -67.36  0.001827262    1.180    0.152
        58  -8.6199    156.3897    135.1824   1.0370025438e+02   2.3652885655e+01    0.2247061    0.1470114 -56.56 0.0007313585    1.646    0.392
        59 -10.1807    199.5217    128.5090   9.2698305107e+01   1.5211097194e+01    0.4555263    0.1852837 -40.94  0.001594972    2.403    0.584
        60 -10.4842    169.7695    132.1203   9.9886323709e+01   2.1294087062e+01    0.4035284    0.2173628 -46.55  0.001579078    1.858    0.462
        61  -8.7971    230.8245    137.3929   8.8885126529e+01   6.6474237484e+00    0.2014474    0.1347699  37.04 0.0009441656    1.684    0.406
        62  -9.0139    242.2023    149.4129   8.9560060999e+01   2.1839349287e+00    0.1897115    0.1371789  61.49 0.0009525052    1.721    0.419
        63 -10.8095    207.4247    126.9836   9.0787168639e+01   1.3716734067e+01    0.4977505     0.368039  28.67  0.002315127    1.642    0.391
        64 -10.6481    191.7420    128.0371   9.4161037486e+01   1.7089891420e+01    0.2190938    0.2071344 -45.09  0.001020126    1.044    0.042
        65 -10.1912    225.9430    124.4734   8.6793084526e+01   1.0085028415e+01    0.6480906    0.3089591  39.60   0.00245868    2.612    0.617
        66 -10.9845    188.8468    122.3363   9.3368162334e+01   1.8916369485e+01    0.3715102    0.3519171  13.07  0.001952049    1.152    0.132
        67 -10.0599    222.4807    122.4828   8.6941467595e+01   1.1215003067e+01    0.4194829    0.3044066 -36.01  0.001907605    1.339    0.253
        68 -10.6034    244.2690    119.3871   8.2572473546e+01   7.1237340042e+00    0.5197667    0.4549077 -77.12  0.002958538    1.251    0.200
        69 -10.7246    199.7341    120.1262   9.0630586315e+01   1.6824187899e+01    0.4167536    0.3180896 -19.14  0.001513913    1.587    0.370
        70  -9.3503    212.1175    120.5185   8.8359537898e+01   1.3905739862e+01    0.2516427    0.2026227 -66.03 0.0006421058    1.359    0.264
        71  -9.7971    232.5174    118.1725   8.4210202269e+01   9.8239730824e+00    0.4519414    0.2676461  77.30  0.001751174    2.848    0.649
        72 -11.2674    180.0891    112.7249   9.2798373177e+01   2.2925315674e+01    0.4191715    0.2779382  74.06  0.001701677    2.013    0.503
        73 -10.5801    148.9969    113.9645   1.0018242073e+02   2.9934073966e+01    0.3193989    0.2617615 -77.48   0.00151241    1.417    0.294
        74  -9.2568    227.7363    114.3988   8.4140281586e+01   1.1557917967e+01    0.2092261    0.1877191 -73.03 0.0007081737    1.148    0.129
        75  -9.3547    218.8154    113.9871   8.5587730992e+01   1.3626776711e+01    0.2537902    0.1604656 -62.13  0.001071368    1.946    0.486
        76 -12.8429    213.0092    100.0741   8.3252899372e+01   1.7548438323e+01     1.247115    0.9518779 -16.97  0.003540143    1.653    0.395
        77  -9.6710    222.5222    107.5153   8.3404869730e+01   1.3988242159e+01    0.2611377    0.2229858   1.16  0.001349161    1.468    0.319
        78 -10.8517    170.9431    107.0641   9.3312634308e+01   2.6247403334e+01    0.4871558    0.3377385 -56.58   0.00214077    1.566    0.361
        79 -10.5576    242.3567    108.6332   8.0447068159e+01   9.4300988911e+00    0.3796468    0.2523836  45.41   0.00148485    1.708    0.415
        80  -9.9711    243.4568    103.1591   7.9039586687e+01   1.0156765058e+01     0.592823    0.1923055 -47.96  0.001970844    3.174    0.685
        81 -11.3746    185.5451    106.4941   9.0069987778e+01   2.2864808238e+01    0.6051613    0.4043123 -65.96  0.002351459    1.894    0.472
        82 -10.6077    165.2870    105.7660   9.4228076301e+01   2.7856019748e+01      0.43687    0.2807901 -28.69  0.001804085    1.853    0.460
        83 -10.9977    232.3792    103.6378   8.0866319002e+01   1.2482126698e+01    0.4736684    0.3822458 -67.47  0.001343147    1.286    0.223
        84  -9.2315    250.0053    102.7455   7.7979811552e+01   8.8469535725e+00    0.2888472    0.1800576 -13.28  0.001179291    2.795    0.642
        85  -9.3940    222.5725    103.1613   8.2360016221e+01   1.4772709787e+01    0.2720908    0.2163753  59.65  0.001399784    1.314    0.239
        86 -10.2854    206.9094     98.6295   8.3978037194e+01   1.9253441388e+01    0.3157286    0.2892133  20.47 0.0008491475    1.277    0.217
        87  -9.0675    194.0509    100.0099   8.6721186007e+01   2.2072445994e+01    0.2446767    0.1933604  14.86  0.001127725    1.712    0.416
        88  -9.8784    161.0528    100.0665   9.3667020325e+01   3.0010423345e+01    0.4417556    0.1900276  39.87  0.001449689    2.827    0.646
        89 -10.1255    186.4036     98.6438   8.7872928255e+01   2.4180850535e+01    0.4422622    0.3135329   3.44  0.001774032    2.345    0.574
        90 -10.7701    178.2389     94.0334   8.8322144553e+01   2.7044954408e+01    0.3878409    0.3242368  65.38  0.001930191    1.207    0.172
        91 -10.5313    231.7777     91.6235   7.8156100857e+01   1.4734735036e+01     0.635747    0.2910706 -54.98  0.002372486    2.594    0.615
        92  -9.8680    223.8764    110.8796   8.3970813757e+01   1.3064086171e+01    0.2362248    0.1866286 -57.91 0.0006066379    1.270    0.212
        93  -9.9682    200.4487     93.5015   8.3863621142e+01   2.1745227035e+01    0.3143098    0.2945075  89.51  0.001080919    1.042    0.040
        94 -10.3131    203.0000     92.0032   8.3022476409e+01   2.1404191487e+01     0.457806     0.260311 -43.45  0.001875918    1.701    0.412
        95 -10.3951    165.1565     92.1558   9.0603876001e+01   3.0579089568e+01    0.3439389    0.2119384 -43.15  0.001464507    1.627    0.386
        96  -9.9277    183.5396     91.6864   8.6625507645e+01   2.6193962102e+01    0.3166132    0.2363729  28.55  0.001436342    1.693    0.409
        97 -10.5756    188.5814     89.0027   8.4932419388e+01   2.5457501108e+01    0.4500198     0.288812 -88.22   0.00175096    2.392    0.582
        98  -9.3565    192.2602     87.9900   8.3968564917e+01   2.4742249488e+01    0.2465759    0.1942032  24.75 0.0006884844    1.634    0.388
        99  -9.3386    242.9874     89.3043   7.5968558671e+01   1.2643127724e+01    0.2052027    0.1934663   4.89  0.000772316    1.307    0.235
       100  -9.9213    246.0370     85.5269   7.4690267883e+01   1.2614688853e+01    0.2952634    0.2236812 -38.33  0.001316927    1.278    0.218
       101 -10.3332    209.8747     86.6600   8.0484786873e+01   2.0710307464e+01    0.4787763     0.415795 -25.34  0.002539027    1.295    0.228
       102 -10.0150    205.1767     84.9072   8.0850082677e+01   2.2150343798e+01    0.4866606    0.3649397   7.45  0.002194966    2.062    0.515
       103 -10.5649    188.2755     83.1013   8.3440574188e+01   2.6600972172e+01    0.5562264    0.3430745  81.40   0.00219319    2.292    0.564
       104  -8.7185    142.5014     84.4805   9.3692995411e+01   3.7411189844e+01    0.1520211    0.1468946  20.83 0.0008096752    1.059    0.055
       105  -9.5091    232.5810     82.3980   7.5880540963e+01   1.6131623781e+01    0.3101551    0.2095819 -61.70  0.001084238    1.526    0.345
       106 -10.1593    177.7959     82.8869   8.5424088987e+01   2.9221089394e+01    0.3250015    0.2262709  34.21  0.001120219    1.742    0.426
       107 -11.1556    182.2364     75.9662   8.2686102759e+01   2.9347834488e+01    0.8117102    0.3809054 -29.11  0.002931763    2.665    0.625
       108 -10.2672    234.5226     75.4341   7.3985335724e+01   1.6847267950e+01    0.4486148     0.285824 -72.19  0.001482481    1.858    0.462
       109  -9.9052    239.6980     80.1900   7.4357642385e+01   1.4896846147e+01    0.3568191    0.2701243 -76.13  0.001900512    1.377    0.274
       110 -10.5462    240.4587     75.4746   7.3180046955e+01   1.5501517000e+01    0.5510886    0.3596884 -36.47  0.002461983    1.520    0.342
       111  -9.3394    222.0252     75.6850   7.5856132327e+01   1.9702386470e+01     0.295166    0.1798411 -54.88   0.00135055    1.652    0.395
       112  -9.6510    196.9765     78.2429   8.0581543910e+01   2.5313596537e+01    0.4045077    0.2140045 -43.00  0.001679134    1.849    0.459
       113  -9.6308    228.9978     78.2371   7.5429070826e+01   1.7650672940e+01    0.3282445    0.1964561  61.94  0.001534676    1.719    0.418
       114 -10.0024    211.7901     71.2326   7.6340476984e+01   2.2882502281e+01    0.3250923    0.2792342   7.34  0.001717212    1.558    0.358
       115 -10.5466    207.8006     70.5950   7.6812690457e+01   2.3954691369e+01    0.6829916    0.2869529 -57.09  0.002194087    3.527    0.716
       116  -9.6573    189.0550     74.2103   8.0946079994e+01   2.7959963312e+01    0.3199302    0.2224058 -16.25  0.001412964    1.970    0.492
       117  -9.0211    215.7170     73.9558   7.6399729863e+01   2.1488003690e+01    0.2109302    0.1824115 -51.43  0.001151543    1.115    0.103
       118 -10.5182    243.2705     66.3877   7.0764848180e+01   1.6326359421e+01    0.4782042     0.371749  82.68  0.002707908    1.285    0.222
       119  -9.9440    238.7507     66.6015   7.1391608163e+01   1.7307497642e+01    0.2939486    0.2327223  69.94  0.001162181    1.283    0.220
       120  -9.9238    220.4252     65.1387   7.3555366613e+01   2.1796040217e+01    0.3477457    0.3063514 -55.48  0.001986379    1.096    0.087
       121 -10.2266    217.5756     60.2441   7.2782600335e+01   2.3244410852e+01      0.40891    0.2358215 -55.24  0.001861511    1.771    0.435
       122 -10.8962    212.8032     60.8554   7.3623645116e+01   2.4299651733e+01    0.4510548    0.3373548   2.67  0.002144692    2.136    0.532
       123  -9.6241    202.0000     62.0123   7.5566426933e+01   2.6757458559e+01     0.394721   0.08159348 -34.95  0.001051252    4.934    0.797
       124  -8.6884    137.6889     63.6662   8.8673078199e+01   4.2228326904e+01    0.1517627    0.1130649  16.53 0.0003750976    1.678    0.404
       125  -9.8581    167.6290     80.3961   8.6831325612e+01   3.2167860614e+01    0.4254116    0.2715575 -34.05  0.001867671    1.663    0.399
       126  -9.9324    121.4989     58.5104   9.1094969791e+01   4.6700101683e+01    0.2715006    0.1199202  40.40  0.001037488    2.376    0.579
       127  -9.4208    242.6344     56.6920   6.8683827909e+01   1.7958850139e+01     0.229623    0.1513534  58.62 0.0007455752    1.612    0.380
       128 -10.6152    227.0073     55.3435   7.0329792949e+01   2.1752869858e+01    0.6084952    0.3677044  46.36  0.002873262    2.025    0.506
       129  -9.2818    206.7326     56.9792   7.3563864596e+01   2.6375384834e+01    0.2713227    0.2359878 -45.54  0.001010184    1.184    0.156
       130 -10.1178    203.0608     54.3201   7.3446971827e+01   2.7679045526e+01    0.3696302     0.338605  82.86  0.001942378    1.051    0.048
       131  -8.4225    155.4845     56.4974   8.2531145911e+01   3.9141674146e+01    0.1467625    0.1372057  47.50 0.0008099478    1.052    0.049
       132  -8.6111    250.5272     52.5271   6.6865490374e+01   1.6829126073e+01    0.1373168    0.1095228 -68.38 0.0001248161    1.079    0.074
       133  -9.9144    213.0323     52.0824   7.1439912242e+01   2.5576333409e+01    0.4139003     0.195333  66.58  0.001739647    2.090    0.521
       134 -10.1985    197.7622     48.3546   7.2726568971e+01   2.9864673448e+01    0.3462749    0.2239228 -78.75  0.001596915    1.841    0.457
       135 -10.3937    167.4932     48.0136   7.7701943587e+01   3.7447007478e+01     0.310088    0.2673407 -83.41  0.001706159    1.208    0.172
       136  -8.6472    124.3528     49.3152   8.7401708048e+01   4.7493446317e+01    0.1501484    0.1032309  21.98 0.0007046201    1.735    0.424
       137 -10.3356    223.4831     45.9918   6.8596378704e+01   2.3955763279e+01    0.5028383    0.3553009  17.99  0.002350263    2.568    0.611
       138  -9.0488    220.6492    233.7012   1.1014748621e+02  -7.7617136450e+00    0.1317965   0.08672197  11.68 0.0007036368    1.690    0.408
       139  -9.1990    190.5201     45.9845   7.3223826096e+01   3.2000555366e+01    0.2122917    0.1406054 -35.04  0.001037834    1.608    0.378
       140  -9.5740    234.8071     44.5668   6.6902023171e+01   2.1512663404e+01    0.2468655    0.2172716  20.73  0.001460679    1.627    0.385
       141 -11.0484    163.1869     43.9064   7.7320717448e+01   3.9087535017e+01    0.2749498    0.2362737 -66.94  0.001526722    1.244    0.196
       142 -10.1854    168.6786     36.1593   7.4117385330e+01   3.8760315764e+01    0.2947993     0.148816 -29.37  0.001279936    2.222    0.550
       143  -9.4026    217.3784     42.7736   6.8612311560e+01   2.5866341677e+01    0.1780329    0.1330819 -24.17 0.0009397983    1.661    0.398
       144  -9.6932    246.5694     27.6766   6.2006576732e+01   2.1144024309e+01     0.259192    0.2106711   6.18  0.001512046    2.075    0.518
       145  -9.0061    246.8131     32.1677   6.2923920256e+01   2.0501022518e+01    0.2211578    0.1977843  31.38   0.00140282    1.628    0.386
       146  -8.8509    219.9937    227.5151   1.0919930733e+02  -6.7534279454e+00    0.1890315   0.09686406  21.74 0.0008102693    2.553    0.608
       147 -10.1461    243.6831     35.9742   6.4046997515e+01   2.0687709505e+01    0.3353353    0.2670662 -62.73  0.001448378    1.093    0.085
       148  -9.2064    229.1806     38.0488   6.6082575243e+01   2.3723549907e+01    0.1922855    0.1772212  59.53 0.0008894807    1.298    0.229
       149  -8.9130    250.4827     47.4776   6.5789892194e+01   1.7573224327e+01    0.1333548    0.1107655 -70.16 0.0004204047    1.003    0.003
       150  -9.9979    213.2500     35.4257   6.7381714644e+01   2.7860377473e+01    0.1958125    0.1198432  82.79 0.0009518137    1.640    0.390
       151  -9.4309    176.1687     34.5001   7.2410331218e+01   3.7114923680e+01    0.2499563    0.1715645   9.86  0.001161602    2.266    0.559
       152  -8.6551    208.2907     30.3314   6.6775974191e+01   2.9721919272e+01    0.1292302     0.102062  37.47 0.0007019672    1.627    0.385
       153  -9.6877    247.3173     36.6596   6.3821508432e+01   1.9785240855e+01    0.2830248    0.1901622 -79.62 0.0008443748    1.406    0.289
       154  -9.3658    182.6427     26.1430   6.9161066986e+01   3.6536075909e+01    0.1770936    0.1334841 -12.99 0.0007665066    1.725    0.420
       155 -10.3180    203.1739    217.7450   1.1068938018e+02  -2.3177267577e+00    0.4026178    0.2893604 -61.84  0.002106959    2.026    0.506
       156  -9.2000    183.2958    217.3313   1.1455239279e+02   1.3793771810e+00    0.1356024    0.1027409   6.09 0.0004491433    1.638    0.390
       157  -9.7826    195.3158    215.6362   1.1185866477e+02  -5.4347583420e-01    0.3014979    0.1902646 -26.76  0.001487268    1.926    0.481
       158  -8.6703    243.6538    214.3043   1.0245840663e+02  -8.6971905801e+00    0.1130929    0.1036442  78.62 0.0005684812    1.692    0.409
       159 -10.3639    235.2289    211.2740   1.0342248681e+02  -6.8686261708e+00    0.6391265    0.3104531 -17.75  0.002465544    3.451    0.710
       160 -10.1476    205.6199    205.1996   1.0791619896e+02  -6.6737549208e-01     0.319962    0.2185834 -38.28  0.001678308    1.547    0.353
       161  -8.9561    120.6448     16.6781   7.7372539705e+01   5.2352144767e+01    0.1427101   0.08483846  32.13 0.0001219546    1.760    0.432
       162  -9.8508    193.1403     15.1698   6.4925854526e+01   3.5203982446e+01    0.1937733    0.1401932 -76.84  0.001082624    1.363    0.266
       163  -9.8708    130.9173    203.6574   1.2318723890e+02   1.3822109230e+01    0.3189603    0.1714183  32.97  0.001354212    2.187    0.543
       164  -9.6732    194.0145     21.0233   6.6284896122e+01   3.4334192190e+01    0.2143109     0.182986  87.49  0.001299079    1.023    0.022
       165 -10.0428    226.2093     22.5465   6.2924576452e+01   2.6426508636e+01    0.3089428    0.2111491  54.65  0.001251517    1.625    0.385
       166  -9.1926    238.9171     21.3303   6.1398576774e+01   2.3659311373e+01    0.2314484    0.1451568 -53.10  0.001118045    1.435    0.303
       167  -9.6884    184.4917    202.9880   1.1175362806e+02   3.7180848533e+00    0.1879076     0.125505 -72.52 0.0008100974    2.505    0.601
       168  -8.9367    230.8060    198.3917   1.0177909362e+02  -4.0913082658e+00    0.2010123     0.165127 -16.30  0.001182784    1.165    0.142
       169 -10.5649    213.1628    197.6288   1.0499265640e+02  -7.6951211767e-01    0.5039209    0.4014341  75.74   0.00264805    1.864    0.464
