#   1 NUMBER                 Running object number                                     
#   2 MAG_AUTO               Kron-like elliptical aperture magnitude                    [mag]
#   3 X_IMAGE                Object position along x                                    [pixel]
#   4 Y_IMAGE                Object position along y                                    [pixel]
#   5 X_WORLD                Barycenter position along world x axis                     [deg]
#   6 Y_WORLD                Barycenter position along world y axis                     [deg]
#   7 A_WORLD                Profile RMS along major axis (world units)                 [deg]
#   8 B_WORLD                Profile RMS along minor axis (world units)                 [deg]
#   9 THETA_WORLD            Position angle (CCW/world-x)                               [deg]
#  10 FWHM_WORLD             FWHM assuming a gaussian core                              [deg]
#  11 ELONGATION             A_IMAGE/B_IMAGE                                           
#  12 ELLIPTICITY            1 - B_IMAGE/A_IMAGE                                       
         1 -12.2726     52.3033     91.0930   1.2196936503e+02   5.1051987973e+01     2.275917    0.8377598 -45.46  0.009006691    2.856    0.650
         2 -11.9094     52.2100     36.7289   1.0747420893e+02   6.3104498856e+01     1.703201     1.341616 -14.53   0.01018463    1.236    0.191
         3 -11.6943     98.2606     59.9275   9.8115222572e+01   5.1249841894e+01     2.296132      1.31432  -2.33   0.00714562    4.328    0.769
         4 -12.4424     84.6730     51.7831   9.9992519650e+01   5.5307619392e+01     2.892151     1.896657  17.77   0.01358149    1.844    0.458
         5 -11.9700    130.1291     20.6048   7.3702605685e+01   5.0562017844e+01     1.567405    0.6564707  52.03   0.00514283    2.141    0.533
         6 -12.7123     74.4166     31.0205   9.5841768901e+01   6.0965449822e+01     2.486837    0.9444901  43.38  0.007967712    2.904    0.656
         7 -12.2533    112.9895     21.5813   7.8580076324e+01   5.4597305086e+01    0.8286875    0.6281899 -33.48  0.002225214    1.394    0.283
         8 -12.5381    117.1720     15.4880   7.4810815978e+01   5.4372190158e+01    0.3357798    0.3192194  63.53 0.0002620821    1.223    0.182
         9 -11.2983    127.9921     14.5339   7.1719848735e+01   5.1811665530e+01     1.049052    0.2597611  48.59  0.002599959    3.320    0.699
        10 -11.3445    123.7292     10.0335   7.0828112742e+01   5.3374235737e+01    0.5416367    0.3226264  63.63  0.001401326    1.751    0.429
        11 -11.3044     72.2190     17.5159   9.0624163829e+01   6.3600661532e+01     1.143518    0.3618344  43.68  0.003853397    3.282    0.695
        12 -13.5669     99.9276      6.2041   7.5379326941e+01   5.9486178801e+01    0.7380091    0.4857393 -25.03 0.0008129563    1.527    0.345
        13 -12.0849    135.0052      4.5226   6.6066799961e+01   5.1040998791e+01     1.262215    0.7216411  65.48  0.005612342    1.727    0.421
        14 -12.8604    104.5536     76.5665   1.0135921296e+02   4.6676583411e+01     2.774716     1.443083 -36.08   0.01129773    2.034    0.508
        15 -12.3149    122.8776     66.1363   9.2577849538e+01   4.5053211034e+01      1.93151     1.009003 -44.90  0.007715847    2.017    0.504
        16 -11.5699     91.3644     19.3201   8.4319132674e+01   5.9672670308e+01     1.397672    0.5455712 -16.31  0.003743567    5.559    0.820
        17  -9.9795     54.3617     18.4205   9.8853878042e+01   6.6278848930e+01    0.5141391    0.3281595   2.24  0.001715456    1.845    0.458
        18 -10.2090     77.9126      7.5236   8.3400333750e+01   6.3980960380e+01     0.765522    0.4966973 -10.48  0.003933909    1.520    0.342
        19 -11.3151     27.0869      4.3435   1.0628315041e+02   7.1988967624e+01    0.9726712    0.4986936  22.91  0.005319317    2.129    0.530
        20 -12.2446     19.1500     13.5577   1.1508021516e+02   7.0929004330e+01      1.06472    0.7749025   6.24  0.007058513    1.497    0.332
        21 -11.9312      9.4272     26.0164   1.2453593420e+02   6.8938256088e+01     0.944088    0.5862888 -19.19  0.005876028    1.705    0.413
        22 -11.4483     50.5086     10.0557   9.6589539385e+01   6.8228862276e+01    0.4960632    0.3579405  -8.69  0.001130042    1.277    0.217
        23 -10.9008     68.3874      4.8866   8.5763347181e+01   6.6113771511e+01    0.7787655    0.3925109  28.70  0.003525467    2.147    0.534
        24 -12.0998     57.7122      3.6272   8.9724140928e+01   6.8115950711e+01     0.786638    0.4471521  42.62  0.004066521    1.922    0.480
        25 -12.0544     41.3301     17.6327   1.0484273136e+02   6.8085108389e+01     0.991068    0.5760399 -41.62  0.005411061    1.464    0.317
        26 -12.0159     24.5270     34.3904   1.1946916881e+02   6.6264109562e+01    0.8531816    0.3025342 -68.89   0.00249354    4.024    0.751
        27 -12.1817     29.5054     26.0518   1.1427621565e+02   6.7620593436e+01     1.290608    0.2970602 -50.98  0.004923458    3.044    0.671
        28 -11.8275      3.4817     16.9650   1.2513696271e+02   7.1093359746e+01    0.4965818    0.1697459 -49.36  0.001757103    1.960    0.490
        29 -13.1238      4.0775     10.6147   1.2279182527e+02   7.2372505641e+01     1.117798     0.473408 -49.78   0.00426631    1.639    0.390
        30  -9.7324    186.8748     22.0358   6.3538755864e+01   3.5476491464e+01    0.4256853    0.3424447  -6.99  0.001736969    1.310    0.237
        31 -10.1369    184.0906     15.7975   6.1927053074e+01   3.6869543419e+01    0.5644726    0.4043733  18.44  0.002217931    1.577    0.366
        32 -12.4216    116.8200      6.4877   7.0950316717e+01   5.5457261018e+01     1.733721    0.4051995  46.43  0.002902086    3.553    0.719
        33 -10.4827    167.5571     25.5060   6.7813978326e+01   4.0224565806e+01    0.8212706    0.4970307  41.49  0.003603111    1.634    0.388
        34 -10.9114    159.2433     16.6386   6.6154321784e+01   4.3428476799e+01     1.076588     0.628861  72.65  0.004583913    1.876    0.467
        35 -11.1536    147.5403     26.3725   7.2017169439e+01   4.5397728133e+01    0.8944838    0.5246161  14.31   0.00352874    2.268    0.559
        36 -10.3634    169.9433     13.8345   6.3377049740e+01   4.0852512348e+01    0.3084093    0.2554479 -35.96 0.0003038915    1.276    0.216
        37 -11.9194    164.3861      7.0425   6.1866203389e+01   4.3000121123e+01    0.9592276    0.6995628 -20.80  0.003203645    1.437    0.304
        38 -11.2945    150.0033     16.3770   6.7766762811e+01   4.5911804280e+01      0.97835    0.4929645  28.04  0.003057077    2.507    0.601
        39 -10.7775    243.5669     12.2539   5.4351858675e+01   2.2293428948e+01    0.9398844      0.43798  43.53   0.00408434    2.618    0.618
        40  -9.2411    232.5647     18.9195   5.7100712469e+01   2.4213738352e+01    0.5812196    0.4139753 -22.30  0.002203421    1.371    0.271
        41 -10.8058    232.9918     11.1140   5.4987537848e+01   2.4878140005e+01    0.4603842    0.2938428 -38.26 0.0007185364    1.464    0.317
        42 -10.6592    245.2875     19.6612   5.6082889498e+01   2.1171291458e+01      0.55523    0.3112691  77.40  0.002720151    1.993    0.498
        43 -10.1615    239.4517     17.0529   5.5949304514e+01   2.2776810897e+01    0.5732724    0.1884124 -38.41  0.002161588    2.635    0.620
        44 -10.9534    245.9550      3.6840   5.2006343940e+01   2.2546506391e+01    0.5260466    0.3731188  89.35   0.00303015    1.474    0.322
        45  -9.8186    177.9376     20.3175   6.4325812479e+01   3.8037551228e+01    0.4484733    0.2905344   6.05  0.001989176    1.860    0.462
        46 -10.5603    222.2100      2.6997   5.3699953625e+01   2.8267852275e+01    0.6030884    0.3844768  70.44  0.003126137    1.537    0.349
        47 -11.2091    211.4691     16.5983   5.8698211988e+01   2.9647433834e+01    0.6973781    0.5029967   1.23    0.0033655    1.582    0.368
        48  -9.3424    225.3994      9.1636   5.5167435376e+01   2.6895683066e+01    0.3871419    0.1893943  69.06  0.001586599    2.015    0.504
        49  -9.7519    218.2842     13.9836   5.7207205405e+01   2.8191132654e+01    0.3165199    0.2872095  77.28  0.001599708    1.103    0.094
        50 -10.2535    222.0760     11.9148   5.6242974480e+01   2.7450725618e+01    0.5927644    0.3284698 -65.23  0.002482517    2.218    0.549
        51 -10.9806    202.4476     19.5951   6.0663618084e+01   3.1654637494e+01    0.4520095     0.368846  62.90   0.00121748    1.201    0.167
        52 -12.9251     18.0719     41.0583   1.2428417630e+02   6.5234420215e+01    0.9094821    0.7163971  88.17  0.005934238    1.526    0.345
        53 -10.0929    189.8856      8.4238   5.8796914449e+01   3.6045778010e+01     1.018826     0.150258  55.69  0.002859287    4.293    0.767
        54  -8.7499    197.1837      2.1530   5.6006162175e+01   3.4685070982e+01     0.325861    0.2824064 -16.99  0.001861596    1.211    0.174
        55 -10.6950    200.3142      6.6452   5.7019092719e+01   3.3470173008e+01    0.6731403    0.3634417 -16.97  0.003004773    1.972    0.493
        56 -10.4335    204.4848      6.8841   5.6631963464e+01   3.2367594228e+01    0.3432009     0.301639  -3.83  0.000558021    1.211    0.174
        57 -10.4747    210.9667      4.2252   5.5185570471e+01   3.0947276339e+01    0.3246112    0.2742532  48.69 0.0008266704    1.206    0.171
        58 -11.0508    207.5026      3.0115   5.5181983496e+01   3.1938404559e+01    0.4937237    0.3062108 -29.60  0.002055854    1.589    0.371
        59  -9.8017    174.1026      8.8895   6.1060597368e+01   4.0216129588e+01    0.3701327    0.2308102 -43.18  0.001373659    1.738    0.425
        60  -9.9418    181.4755      4.2457   5.8515922681e+01   3.8661464839e+01    0.4448759     0.274277  37.38  0.001845476    1.709    0.415
        61 -10.4499    175.7208      4.0497   5.9204127473e+01   4.0220492177e+01     1.006563    0.4763174 -84.85  0.003400719    3.451    0.710
        62  -8.7905     44.9292      5.0000   9.6726622829e+01   6.9809487590e+01    0.2673164    0.1259856  24.46 0.0007112346    2.448    0.591
        63  -9.1671     41.8308      3.3388   9.7445777595e+01   7.0483317510e+01    0.3196605    0.1404856 -36.42  0.001329707    1.974    0.493
        64  -9.9389    242.0760      3.3120   5.2209904921e+01   2.3469031142e+01    0.3065256    0.1690937 -29.39  0.000885717    1.660    0.398
        65  -9.5071    230.3117      2.7093   5.3001911106e+01   2.6294982389e+01    0.2785003     0.190594  35.37  0.001305404    1.708    0.414
        66  -7.9451    189.3165      1.3371   5.6633307872e+01   3.6825754126e+01    0.1530142   0.09687094  36.57 0.0007048207    1.699    0.411
        67 -11.7630    147.9426     10.7584   6.6027833851e+01   4.7041579836e+01    0.4168296    0.3698456 -49.34 0.0003660686    1.277    0.217
        68 -11.9054     93.2618      8.1744   7.8386442719e+01   6.0739492180e+01    0.6922716    0.3337337  37.34  0.002962225    2.017    0.504
        69 -11.5787     35.6739     91.6293   1.2745587522e+02   5.2498000523e+01    0.8837385    0.6857938 -22.59  0.005525818    1.559    0.359
        70 -12.1654     27.6293     83.9416   1.2889842320e+02   5.4896459575e+01     1.630651     1.131681 -79.32  0.008191624    1.312    0.238
        71 -11.4634     58.5541     69.5758   1.1504227985e+02   5.5277249762e+01    0.6370243    0.5414143 -76.16  0.002409113    1.291    0.225
        72 -11.1826     55.8807     61.3307   1.1384329290e+02   5.7433971615e+01     1.043616    0.4421263  34.57  0.004552077    2.571    0.611
        73 -10.8293     51.3875     71.3971   1.1810949902e+02   5.5673324670e+01     0.344153    0.2524592  37.42 0.0005676679    1.540    0.351
        74 -12.2209     41.7103     67.3238   1.2074993209e+02   5.7565022900e+01     1.650705    0.9055225  39.31  0.008473798    2.114    0.527
        75 -11.4083     34.9911     58.4077   1.2128547854e+02   6.0175241390e+01    0.7686973     0.354371 -39.02   0.00288752    2.194    0.544
        76 -11.9952     18.3700    104.4674   1.3441043820e+02   5.0846910015e+01    0.7670298    0.4899079  15.61  0.004739911    1.983    0.496
        77 -11.1967     16.3028     98.4010   1.3436868559e+02   5.2347780994e+01     0.475682      0.24523 -47.40 0.0009131164    1.990    0.498
        78 -11.7808     42.7045     49.7542   1.1585141913e+02   6.1401149662e+01    0.7379899    0.4120255  33.35  0.003836878    2.049    0.512
        79 -11.0043     31.2420     43.1602   1.1892096080e+02   6.3863459228e+01    0.5399264    0.3566494  23.62  0.002330341    1.755    0.430
        80  -9.9730    103.9115    116.3851   1.1156145716e+02   3.8214376768e+01    0.7764627    0.4010633  60.60  0.002808457    3.271    0.694
        81  -9.9122     97.5184    114.7295   1.1299504299e+02   3.9621462093e+01    0.2836557    0.2613345  27.87  0.001086482    1.123    0.110
        82  -8.7575     18.0027    116.4857   1.3569210239e+02   4.8187793589e+01    0.2389678   0.08471207 -47.59  0.001030145    3.396    0.706
        83  -9.3985     13.3136    117.1583   1.3700291199e+02   4.8350214453e+01    0.1878784    0.1566775  45.87  0.000968215    1.320    0.242
        84 -10.2211     22.0997    138.0873   1.3648151429e+02   4.3195456925e+01    0.2065143    0.1745984   2.94  0.001324617    1.612    0.380
        85 -10.1214    132.6490    111.7738   1.0277674706e+02   3.3925771064e+01    0.4351971    0.4191767 -17.58  0.002133277    1.052    0.049
        86  -9.6904    133.5859    103.2658   1.0041266958e+02   3.5459144849e+01    0.4621891    0.2435022 -43.20  0.001471353    1.936    0.484
        87  -9.8478     41.8868    118.1974   1.2933364784e+02   4.5876552208e+01    0.2484033    0.1539113  69.57 0.0009275799    1.769    0.435
        88 -10.4770     60.6996     53.6354   1.0969138422e+02   5.8520479287e+01    0.5887643    0.2777942 -55.64  0.002127428    2.089    0.521
        89  -8.7252     16.0391    110.5751   1.3567853628e+02   4.9630855819e+01     0.332763    0.1584366 -37.01  0.001636043    2.971    0.663
        90  -9.5104    105.3115    109.5248   1.0967676917e+02   3.9466424719e+01    0.2769107    0.2546641  -0.81  0.001577965    1.166    0.143
        91  -9.6246     35.3788    108.9696   1.3000702849e+02   4.8547137690e+01    0.3613455    0.2211078  12.04  0.001999271    2.185    0.542
        92  -8.8220    120.5037    109.4837   1.0545944984e+02   3.6743369839e+01     0.145051    0.1400626  10.52 0.0008103824    1.019    0.019
        93  -9.0809    233.3578    247.6736   1.0675613885e+02  -3.3783027464e+00   0.09578843    0.0739436  42.28  0.000704425    1.779    0.438
        94  -9.0049    105.8757    102.8195   1.0796256650e+02   4.0823613463e+01    0.2113632    0.1878492 -14.52 0.0006653269    1.212    0.175
        95  -9.6802     75.5196    102.0100   1.1680650295e+02   4.5736328337e+01     0.295063    0.2294612 -65.06 0.0009305521    1.246    0.197
        96  -8.7819    141.1205    102.1055   9.8148838215e+01   3.4127991417e+01    0.2062059    0.1891309 -89.33  0.001080879    1.318    0.242
        97  -9.2309     81.4768    102.1984   1.1503798025e+02   4.4859562378e+01    0.2461069    0.1935162  36.93 0.0009834098    1.326    0.246
        98 -10.9017      5.3828     99.1912   1.3765364025e+02   5.2785618182e+01    0.5571521    0.3976263  66.54  0.003816572    1.388    0.279
        99  -9.2584      2.8497     75.1001   1.3605004664e+02   5.8309708316e+01    0.2253036    0.1707754   3.43  0.001573667    1.699    0.412
       100 -10.9616      5.1349     80.7645   1.3592188469e+02   5.6933785757e+01    0.5420149    0.1540691 -62.14  0.002300385    2.445    0.591
       101 -10.9392     13.7884     88.7285   1.3404960339e+02   5.4689940984e+01    0.4351455    0.3011247  28.14  0.002285886    1.713    0.416
       102 -10.5745      3.1874     88.8065   1.3735824570e+02   5.5212474858e+01    0.4068355    0.2132746 -47.61  0.002369065    1.901    0.474
       103 -10.5264      9.0300     85.9305   1.3523812397e+02   5.5579783212e+01    0.2343389    0.1741853 -77.25 0.0004005987    1.081    0.075
       104 -10.2145    116.7089     99.5387   1.0406548629e+02   3.9551819678e+01    0.5153908    0.3518324  -0.68  0.002179649    2.262    0.558
       105  -9.9480    114.6530     95.7522   1.0367577184e+02   4.0739903077e+01    0.3380689    0.2992438  47.02  0.001555772    1.168    0.144
       106 -10.3021     87.2706     99.1668   1.1261779921e+02   4.4682240120e+01    0.5086242    0.3304128 -34.25  0.001902998    1.773    0.436
       107  -9.4697     91.3270     96.6704   1.1080760016e+02   4.4607238418e+01    0.3141788    0.2268771  67.62  0.001524653    1.828    0.453
       108 -11.3718      5.4264    118.2406   1.3914888340e+02   4.8593002923e+01     1.287415     0.217216 -66.73  0.005100064    3.719    0.731
       109  -9.7636    158.9797     96.9980   9.2350113105e+01   3.1202098204e+01    0.4271381    0.2724954  36.12  0.001870789    1.567    0.362
       110  -8.7441    188.4131     94.2384   8.5068458376e+01   2.4918364764e+01    0.2069259    0.1405123 -40.24 0.0005111347    1.562    0.360
       111  -9.1512      7.9411     93.9150   1.3640890424e+02   5.3834628953e+01     0.258859    0.1084257  49.25  0.001302461    2.677    0.626
       112 -11.6384    119.5586     86.5326   9.9764626748e+01   4.1707616053e+01    0.9449612     0.749446 -14.40  0.003950231    1.416    0.294
       113  -9.9473    142.0190    243.5369   1.2179705537e+02   9.9316102201e+00    0.2309716    0.1512033  20.55  0.001250885    1.745    0.427
       114  -9.1266    210.8708    240.8847   1.0954300066e+02   3.6476613152e-01    0.1397015    0.1121281  32.41 0.0009487052    1.335    0.251
       115  -9.1699    113.5156    239.4880   1.2642925275e+02   1.4371064073e+01    0.1090137   0.08040923  44.94  0.000810357    1.007    0.007
       116 -11.4964    107.7452     29.7596   8.3594639751e+01   5.4631721382e+01    0.9055441    0.4947352  53.82  0.001789193    1.973    0.493
       117  -9.5816     13.6978    237.6174   1.4308223462e+02   2.5764769159e+01    0.2350327    0.1263197 -61.00  0.001739014    2.601    0.616
       118  -8.9999     12.4038    232.3713   1.4312082574e+02   2.6675752883e+01    0.2266215   0.07892498  56.10  0.001480871    1.990    0.497
       119  -8.3323    226.9867    231.5379   1.0551554992e+02  -1.0165179443e+00    0.1615635   0.06876213  23.51 0.0005976125    2.331    0.571
       120  -8.5049    109.5327    224.9735   1.2581071274e+02   1.6995838047e+01    0.1328702   0.09146668 -28.05 0.0008094045    2.524    0.604
       121  -8.7112     52.3044    224.3527   1.3611763570e+02   2.4080732037e+01   0.08475003   0.07863589 -27.70 0.0007040834    1.708    0.414
       122 -10.9877     67.1442     21.9778   9.4828713440e+01   6.3732958503e+01    0.3508248    0.2626212  28.37  0.001105389    1.356    0.262
       123  -8.7358      3.1916    213.5957   1.4403246992e+02   3.0428557025e+01    0.1126262   0.08244692  31.13 0.0005004571    1.647    0.393
       124  -8.2701    244.4759    204.5211   9.8309409749e+01  -8.8275462788e-01    0.1231131   0.08499838  15.48 -2.218811e-05    1.076    0.070
       125 -10.5019     88.1906     89.8734   1.1013120501e+02   4.6614541004e+01    0.5409718    0.2954998 -42.67   0.00173934    1.829    0.453
       126  -8.5488     92.3381     88.7072   1.0853695625e+02   4.6207033353e+01    0.2744542    0.1994836 -85.80 0.0007157125    2.008    0.502
       127  -8.7685    194.4912     89.9080   8.2666858337e+01   2.4197336027e+01    0.2311634    0.1461661 -28.95  0.001023914    1.563    0.360
       128  -9.4912     74.4189     88.9407   1.1430670384e+02   4.8856732119e+01    0.2952559    0.2370493  10.32  0.001638904    1.454    0.312
       129 -10.3117     75.9883     82.8443   1.1232627760e+02   5.0013746110e+01    0.3083212    0.2311516 -71.38 0.0006121593    1.500    0.334
       130  -9.7459    153.0611     87.4144   9.1095976616e+01   3.4307116631e+01    0.3351293    0.2573214  39.58 0.0008249128    1.262    0.208
       131  -9.1636    145.8457     86.5939   9.2662216901e+01   3.6093955479e+01    0.3432811    0.2669973 -52.66  0.001632747    1.484    0.326
       132  -9.3399    238.5181     85.9743   7.4013938214e+01   1.4821449591e+01    0.2118401    0.1145557  -0.65 0.0008102484    2.674    0.626
       133  -8.9196    186.3276     84.0830   8.2679069522e+01   2.7053918707e+01    0.2196826     0.199442 -12.95  0.001153105    1.074    0.069
       134  -9.8775    217.3375     79.9086   7.5791610622e+01   2.0366959554e+01    0.7150668    0.3077179 -17.96   0.00245963    2.960    0.662
       135  -9.6291    160.1834     81.7952   8.7744198924e+01   3.3666774055e+01    0.3901914    0.3230886  67.31  0.001241722    1.445    0.308
       136 -10.5670    152.0305     66.8823   8.5106122853e+01   3.8207249941e+01    0.6431355    0.2999441  40.88 0.0005304533    2.205    0.546
       137 -10.0302    150.5824     73.6885   8.7603771377e+01   3.7367219886e+01    0.6703312     0.408321 -51.11    0.0027188    2.041    0.510
       138 -10.6805    134.5946     80.5585   9.3832286255e+01   3.9741791591e+01    0.6549754    0.4384784 -30.82  0.002814372    1.541    0.351
       139 -11.1621    139.9787     68.1747   8.8549942235e+01   4.0835029053e+01    0.8076474    0.5328323  53.79  0.003559201    1.611    0.379
       140 -10.0095    132.3926     68.3273   9.0623565175e+01   4.2541635292e+01    0.5134708    0.3181137  60.11  0.001806705    2.031    0.508
       141 -10.1803     17.7081     81.8552   1.3190945565e+02   5.6029525643e+01    0.2137435     0.195834 -22.88   0.00080214    1.298    0.229
       142  -9.0640    188.4993     80.0724   8.1101095538e+01   2.7171391210e+01    0.2343451    0.1483933 -29.18  0.000542811    1.565    0.361
       143  -9.9646     90.3093     78.0888   1.0634239389e+02   4.8863514493e+01    0.5423769    0.2329104  37.82  0.002129933    2.429    0.588
       144 -10.0216    144.2709     77.1354   9.0251368116e+01   3.8213919245e+01    0.3774507    0.2864737 -24.52  0.001787321    1.352    0.260
       145  -8.8392    233.7748    201.0135   9.9527429095e+01   1.1064566197e+00    0.1457871   0.09039893 -21.89 0.0008835609    1.688    0.407
       146  -9.1101     37.1969     75.6433   1.2414993458e+02   5.6058338711e+01    0.2552225    0.1168577 -44.68  0.001192089    2.099    0.524
       147  -9.1000    192.9561     74.2949   7.8573332513e+01   2.6985737060e+01    0.2658909    0.2002387 -38.19  0.000598543    1.374    0.272
       148 -10.9229     22.0524     96.2925   1.3238667643e+02   5.2454299617e+01    0.3944497    0.2909977 -42.88  0.002327492    1.458    0.314
       149 -10.4276    138.7368     75.8771   9.1303984626e+01   3.9707528705e+01    0.6682083     0.194429 -35.14  0.001900297    3.770    0.735
       150  -9.4357    215.1894     71.6615   7.3901431368e+01   2.2024028326e+01    0.3289903    0.2247264  -4.45  0.001190143    1.626    0.385
       151  -8.2582    181.0162     73.7922   8.0783591411e+01   2.9982254590e+01    0.1946986    0.1220538  52.01 0.0003586864    1.588    0.370
       152  -9.7026      5.9186     71.3154   1.3454661314e+02   5.9035408725e+01    0.2662397    0.1727934  13.82  0.001705084    1.945    0.486
       153  -7.5826      7.9503     49.9615   1.3055648655e+02   6.3763063218e+01     0.462363    0.2870901  62.21  0.002691794    2.122    0.529
       154  -9.2579     21.5197     63.5371   1.2763593922e+02   5.9987035027e+01    0.2181734    0.1369901 -56.50 0.0008919332    1.278    0.218
       155 -10.4279     10.8360     63.2603   1.3163648716e+02   6.0637173149e+01    0.5614206     0.223469 -78.82  0.002592325    2.416    0.586
       156 -11.6164     16.2662     61.3755   1.2926073847e+02   6.0786372990e+01     0.615072    0.3215119   9.31  0.003354246    2.439    0.590
       157  -9.5763    166.7921     69.5856   8.2539824740e+01   3.4155408690e+01    0.4525377     0.300669  79.64  0.001249806    2.463    0.594
       158 -11.2384    164.6150     63.2139   8.1024601203e+01   3.5726741328e+01    0.8119519    0.5918851   8.42   0.00365266    1.605    0.377
       159 -10.2945    165.3573     56.0348   7.8553266053e+01   3.6664389268e+01    0.5516185      0.39374  -6.69  0.002171515    1.581    0.367
       160  -9.2412      2.9687     57.0779   1.3370168108e+02   6.2364057764e+01    0.6346425    0.2895769  87.62  0.003072597    2.568    0.611
       161 -10.5186    250.2919     66.7647   6.7518474240e+01   1.4750757039e+01    0.5904368    0.1856972 -22.76  0.002001264    3.304    0.697
       162  -8.1075    189.6395     65.2684   7.6552786376e+01   2.9156595186e+01    0.1508567    0.1214634 -74.26  0.000541539    1.645    0.392
       163 -11.0198     67.1654     62.2058   1.0982793749e+02   5.5815777389e+01    0.3568647    0.2742527 -37.09   0.00090159    1.196    0.164
       164  -9.3485    185.8621     61.0414   7.5992960059e+01   3.0725350505e+01    0.2229479    0.2024082 -56.74 0.0002746641    1.254    0.203
       165 -10.0845    178.8189     59.0651   7.6747580835e+01   3.2795897598e+01     1.046473    0.4966102 -10.43  0.003193993    3.665    0.727
       166 -11.0147    174.2591     56.7632   7.6934278950e+01   3.4295462843e+01    0.9235063    0.4590497 -12.06  0.001734652    2.981    0.665
       167 -10.1783    178.5098     50.9557   7.4251844251e+01   3.4051912323e+01    0.3354101    0.2416645 -10.39 0.0008387867    1.496    0.331
       168 -10.3094    221.3853     57.9877   6.9163747007e+01   2.2387575977e+01    0.5193458    0.3730848  36.43  0.001838326    1.448    0.309
       169  -9.4059    149.1066     58.9279   8.3216504796e+01   4.0254441224e+01    0.3978814    0.2040131 -42.36   0.00152509    2.106    0.525
       170 -10.0824    201.2360     57.8274   7.2283306363e+01   2.7326434711e+01    0.5827299    0.3630019  14.44  0.002398683    2.129    0.530
       171  -9.2256    158.5348     58.6802   8.0923087278e+01   3.7965912924e+01    0.3486198    0.1980112  32.40  0.001178113    2.033    0.508
       172 -11.4874    139.9252     51.6970   8.3022157556e+01   4.3674767982e+01     1.136839    0.3892034  45.50  0.003364587    2.823    0.646
       173  -9.9134    158.7894     50.3292   7.8090172099e+01   3.9195723515e+01    0.6997457    0.4846229  27.48  0.003119585    1.569    0.362
       174  -8.8084    152.5532     56.4867   8.1578760069e+01   3.9803772868e+01    0.3287936    0.2547716 -13.45 0.0006753643    1.345    0.257
       175 -10.4109    150.2673     51.8313   8.0541063506e+01   4.1110289366e+01    0.5373977    0.3655539 -11.38  0.001923401    1.668    0.400
       176 -11.2242      5.8316    185.4100   1.4260346667e+02   3.5096116671e+01    0.5250992     0.110284  52.35  0.002527541    3.308    0.698
       177 -10.2539    192.9237     53.9096   7.2538510029e+01   2.9954922070e+01    0.2818136     0.241072 -50.16  0.000365331    1.290    0.225
       178 -10.1992    186.6015     53.1541   7.3434078819e+01   3.1668764177e+01    0.4054248    0.2431121  26.19  0.001628942    2.071    0.517
       179  -9.1388    188.6529     49.1570   7.1829511406e+01   3.1693975473e+01    0.3469998     0.197201 -37.07  0.001289511    1.771    0.435
       180 -10.5674    115.4841     50.6871   8.9413662493e+01   4.9490237655e+01    0.5655177    0.4152106  11.62  0.002500897    1.561    0.360
       181 -10.5396    118.5697     42.0372   8.5275081275e+01   5.0273822646e+01    0.5693356    0.3611951 -40.12  0.002335275    1.651    0.394
       182  -9.4102      1.6256    178.0091   1.4311040623e+02   3.6767282399e+01     0.201517   0.09653466  85.29  0.001031684    1.735    0.424
       183  -9.4455    171.2249     49.0269   7.5050929633e+01   3.6201692581e+01    0.3079237    0.1873281 -30.83 0.0007040857    1.640    0.390
       184 -10.3184     12.1191    184.2225   1.4137037761e+02   3.4820571248e+01    0.2887319    0.1118153 -62.25  0.001633459    2.808    0.644
       185  -8.7087    125.5242     28.0078   7.7843841443e+01   5.0741775438e+01    0.2140837    0.1434889 -29.17 0.0003503855    1.505    0.336
       186  -9.5501    129.9735     46.1375   8.3627966644e+01   4.6961012565e+01    0.3193848    0.2159059 -21.03 0.0006371799    1.539    0.350
       187 -10.1984    135.0798     33.4477   7.7552977594e+01   4.7637298690e+01     0.657095    0.3648517  31.62  0.001343465    2.048    0.512
       188  -9.9489    130.2563     40.2466   8.1364083056e+01   4.7820287892e+01    0.3483791    0.3028458  -0.76 0.0008450029    1.119    0.106
       189 -10.1992    124.7879     37.3199   8.1712336872e+01   4.9572947737e+01    0.3667252    0.3246645   9.90  0.001213919    1.063    0.059
       190  -9.8178    125.5350     32.7527   7.9728467641e+01   5.0071720961e+01    0.3493656    0.2522661  -7.36 0.0009185926    1.477    0.323
       191 -10.1485    135.9450     39.7413   7.9710829769e+01   4.6512245479e+01    0.5820287    0.3718585 -23.82   0.00115756    1.601    0.375
       192  -9.5077    143.9668     42.9940   7.8934513578e+01   4.4036528055e+01    0.2830968    0.2492785  57.09 0.0004187136    1.198    0.165
       193 -10.5007    139.9673     41.9248   7.9516093585e+01   4.5192458844e+01    0.4549586    0.3829015  -2.31   0.00170615    1.194    0.162
       194  -9.5262    142.5016     38.5358   7.7663567305e+01   4.5057517763e+01    0.3213187    0.2723388  47.98 0.0009801554    1.154    0.134
       195  -9.9579    146.0371     35.2432   7.5634339134e+01   4.4624779174e+01    0.3629805    0.2273654  50.34 0.0008582054    1.506    0.336
       196 -10.0780    149.5172     34.4804   7.4578984481e+01   4.3836163077e+01    0.3928816    0.3046481 -61.32  0.001562246    1.644    0.392
       197  -8.7536    125.5101     47.1787   8.5230487616e+01   4.7836429245e+01    0.2291833    0.1478546 -30.97  0.001016208    1.541    0.351
       198 -10.5487     18.9417    184.4005   1.4007189619e+02   3.4225405547e+01    0.2350399    0.1609239  37.10  0.001760168    1.491    0.329
       199  -8.7360     38.3116    179.3445   1.3591664219e+02   3.3413217176e+01   0.09960636   0.07997056 -46.11 0.0006372148    1.705    0.414
       200  -8.4579     80.2914    176.3463   1.2672298818e+02   2.9231548838e+01    0.1100972   0.09242763 -26.69 0.0003782766    1.662    0.398
       201  -8.9592     63.0931    167.8883   1.2963878614e+02   3.3004453577e+01    0.1862375    0.1386675  67.38 0.0006989101    1.217    0.178
       202  -9.1424     27.0848    167.5056   1.3746024814e+02   3.6748191581e+01    0.2157619    0.1296963 -79.68  0.001421115    1.496    0.331
       203  -9.3892      8.9760    167.6851   1.4122432167e+02   3.8180652752e+01    0.2099512    0.1554966  44.45  0.001011329    1.344    0.256
       204 -10.1485     14.0994    165.3154   1.4005234071e+02   3.8251192530e+01    0.2221072    0.1681117  57.82  0.001243017    1.166    0.142
       205 -10.1595      2.6620    161.0588   1.4220696293e+02   3.9919778042e+01     0.300539    0.1645292 -82.91  0.001841901    1.526    0.345
       206 -10.6234     38.1887     28.2698   1.1079665692e+02   6.6369005597e+01    0.5366676    0.3937167 -34.23  0.002095603    1.129    0.114
       207 -10.7213     17.2373    158.3746   1.3899231207e+02   3.9381043409e+01    0.3555213    0.2444399 -40.53  0.002381806    2.086    0.521
       208 -12.1890     19.1552    148.0062   1.3790059420e+02   4.1342976242e+01    0.6038969     0.543197 -78.59  0.003973547    1.229    0.187
       209  -9.3313     22.8627    134.1630   1.3597852157e+02   4.3975321055e+01    0.2108781    0.1641448 -73.62 0.0009058128    1.181    0.154
       210 -11.2134     24.9004    128.7688   1.3500136729e+02   4.4984184353e+01     0.530098    0.3980853   5.54  0.002301081    1.823    0.452
       211  -9.5096     10.2427    157.0314   1.4041883849e+02   4.0178809945e+01    0.3657873   0.08577255 -66.98  0.001649241    3.453    0.710
       212 -10.2339    232.3984     43.4961   6.3718907141e+01   2.1565137626e+01    0.3970294    0.2482877  12.49  0.001405362    2.098    0.523
       213  -9.4371    228.5397     44.4700   6.4467624699e+01   2.2361342052e+01    0.2918245    0.2247237 -45.41  0.001552722    1.326    0.246
       214  -9.8156    222.5571     45.8050   6.5619988398e+01   2.3633795474e+01    0.3161889    0.2365125  54.65  0.001085036    1.363    0.266
       215  -9.3527    214.7677     42.3342   6.5705642019e+01   2.5959551247e+01    0.3069603      0.21019   3.25  0.001308043    1.717    0.418
       216  -9.5156    208.0568     45.5410   6.7598565591e+01   2.7235589901e+01    0.4973538    0.2631145  76.60  0.001814162    2.600    0.615
       217  -8.8543    152.6976     45.8931   7.7930007558e+01   4.1404989039e+01    0.2168613    0.1940786 -18.46 0.0004930398    1.121    0.108
       218  -9.9998    105.7103     44.4517   9.0112965510e+01   5.2672622176e+01    0.4377171    0.3597847  26.57  0.002297565    1.189    0.159
       219  -9.3226    156.8104     44.1994   7.6430428074e+01   4.0603844036e+01    0.2183531    0.1704329  25.38 0.0003811073    1.310    0.237
       220 -10.5987     13.3197     56.5823   1.2956407400e+02   6.2026434272e+01    0.2991756    0.2153481  33.41  0.001444635    1.699    0.411
       221  -8.7307    166.1654     43.3808   7.4192116435e+01   3.8305805164e+01    0.2411587     0.151128  57.76 0.0005730352    1.580    0.367
       222 -10.3293    162.0006     39.9300   7.3862703476e+01   3.9862942673e+01    0.5426514    0.2954315 -24.12  0.000896577    1.897    0.473
       223 -11.2033     68.6987     74.7818   1.1275996131e+02   5.2828054290e+01     1.026178    0.5127389 -40.69  0.004497912    2.034    0.508
       224  -9.2329    196.9595     41.9761   6.8237425960e+01   3.0499388614e+01    0.2184804     0.214985 -20.84  0.000343292    1.051    0.049
       225  -9.4638    190.6612     41.2999   6.9045406679e+01   3.2209101564e+01    0.4172385    0.2404218  -6.63  0.001668966    2.176    0.541
       226  -9.7079    192.6178     36.5182   6.7241787253e+01   3.2298258937e+01    0.4099037    0.3163601 -85.65  0.001994844    1.572    0.364
       227 -10.0420    194.2238     31.3207   6.5380864681e+01   3.2501002320e+01    0.5638872    0.3332072  27.00  0.002347468    2.097    0.523
       228  -9.3196     77.2026     41.5061   9.8983983725e+01   5.8566576293e+01    0.2428706    0.2236474  78.13   0.00116078    1.486    0.327
       229  -9.6990     33.2046    155.8686   1.3528761715e+02   3.8541369378e+01    0.1446836    0.1195803 -65.25 0.0006123484    1.320    0.243
       230 -10.3693     34.4185    150.3531   1.3456081295e+02   3.9571485933e+01    0.2607883    0.1967156  47.77  0.001057535    1.281    0.219
       231 -10.4651    178.1491     30.9748   6.7825903727e+01   3.6766902658e+01    0.4247923    0.3857975  58.42  0.002289867    1.093    0.085
       232 -10.3194    179.9968     37.9529   6.9792756775e+01   3.5415819521e+01    0.5228815    0.3530491 -49.22  0.001598668    1.696    0.410
       233 -10.1748    182.1900     34.7530   6.8378281686e+01   3.5241392143e+01    0.3522989    0.2486052   2.83 0.0003886795    1.629    0.386
       234 -10.9211    183.5244     27.3178   6.5751293543e+01   3.5774523174e+01    0.4161003    0.3486342  11.18  0.000889986    1.252    0.201
       235 -10.1267    179.2009     26.6085   6.6210474597e+01   3.7001486969e+01    0.5252946    0.2237195  53.21  0.001997207    2.129    0.530
       236 -11.1081     38.8682    146.0341   1.3312891896e+02   4.0067190999e+01    0.4555455    0.2924727 -82.07   0.00211667    1.406    0.289
       237  -9.8426    217.9440     35.0202   6.3196943463e+01   2.6036474520e+01    0.6615784     0.315024  73.97   0.00259429    2.564    0.610
       238  -9.8471    199.0793     31.4890   6.4721262230e+01   3.1221132280e+01    0.3421663     0.237779  59.19 0.0009563588    1.408    0.290
       239 -11.5078    203.3832     37.1235   6.5799016555e+01   2.9451248456e+01    0.6587719    0.4316297  41.51  0.003084439    1.570    0.363
       240 -10.3830    210.5304     32.9667   6.3575877384e+01   2.8124349029e+01    0.4231729    0.2801793 -19.90 0.0009372303    1.522    0.343
       241  -8.5965    173.3201     38.7020   7.1242476636e+01   3.7069601773e+01     0.240963    0.1873017 -47.65 0.0006240238    1.428    0.300
       242 -10.3923    246.5291     33.1206   5.9397269758e+01   1.9482248149e+01    0.4867791    0.2157871  52.16  0.001109294    2.342    0.573
       243 -11.1347    236.9067     32.6201   6.0289073790e+01   2.1743562345e+01    0.6018131    0.4025732  44.13  0.003106482    1.607    0.378
       244  -9.3311    242.5176     31.4860   5.9392027526e+01   2.0569956426e+01    0.2502331    0.1762215 -24.88 0.0006970769    1.327    0.246
       245  -9.5262    155.2486     33.2502   7.2910974554e+01   4.2514329507e+01    0.3272223     0.225777  20.75 0.0007632716    1.628    0.386
       246 -10.6466    226.6989     28.7206   6.0379039123e+01   2.4597085345e+01    0.5866362    0.2988674 -40.58   0.00158328    1.897    0.473
       247  -8.0930      8.2687    151.3138   1.4053546193e+02   4.1468269848e+01   0.09872162   0.07079656 -59.85 0.0002851215    1.550    0.355
       248  -9.8805     66.8481    148.5157   1.2660876600e+02   3.6538755256e+01    0.2596717    0.2138551  55.04   0.00112482    1.133    0.117
       249  -9.7970      1.4896    143.6088   1.4162504890e+02   4.3483425222e+01    0.5741438   0.08158534 -75.01  0.002145115    4.651    0.785
       250 -10.4420    159.1682     24.6672   6.9057539381e+01   4.2549768178e+01    0.4103083    0.2650713  50.36 0.0005779488    1.435    0.303
       251  -9.9519    153.9072     24.3154   6.9949691022e+01   4.3980882337e+01    0.4791352    0.2754487 -24.76  0.002060596    1.775    0.437
       252  -9.7155      5.1719    147.0244   1.4098515404e+02   4.2549546705e+01    0.2131611    0.1585887 -54.46   0.00157209    1.593    0.372
       253 -10.3890      6.6604    142.9104   1.4042422819e+02   4.3293585095e+01    0.3902556      0.21132  56.89  0.002121123    1.656    0.396
       254 -10.1736     11.7051    125.0965   1.3804826664e+02   4.6724646584e+01    0.3041222    0.2241199  50.52  0.001223147    1.368    0.269
       255  -9.0457    193.2463     24.6884   6.3458414998e+01   3.3508359978e+01    0.3546049    0.1836736  13.89  0.001087057    3.121    0.680
       256  -9.8136     50.6484     25.3362   1.0367513970e+02   6.5522996858e+01    0.6090652    0.2078939  28.38  0.002325166    3.521    0.716
       257 -10.3958      3.7850    135.1667   1.4064108297e+02   4.5085141675e+01    0.3753737    0.2424277  62.71  0.002495168    1.377    0.274
       258  -9.4834    241.0806     23.3465   5.7426575651e+01   2.1761109228e+01    0.3006895    0.2070596 -49.28  0.001216475    1.441    0.306
       259  -9.9440      9.0707    134.8656   1.3937467714e+02   4.4811726346e+01    0.2646976     0.190496  10.85  0.000455852    1.892    0.471
       260 -10.7692     15.4118    132.2280   1.3765940211e+02   4.4940530925e+01    0.3302025    0.2461819  86.65  0.001352745    1.099    0.090
       261 -10.5571     12.3125    129.9822   1.3825609779e+02   4.5633939514e+01    0.3185016    0.2428234 -67.75  0.001329695    1.265    0.209
       262  -8.9845     61.0438    147.2034   1.2787225778e+02   3.7500945149e+01    0.1720764     0.162149 -34.53 0.0006100573    1.307    0.235
       263  -9.8113     28.1677    120.7816   1.3337848914e+02   4.6483995022e+01    0.3389491    0.1395914 -82.56 0.0008291337    2.421    0.587
       264  -9.2482     31.9233    141.1653   1.3436154087e+02   4.1730808675e+01    0.1771686    0.1299416  68.66  0.001184642    1.228    0.186
       265  -9.2138     98.2883     22.4937   8.3444920131e+01   5.7763135307e+01    0.2495131    0.2085434  10.64 0.0007098077    1.096    0.088
       266  -8.8454     80.5357    139.9640   1.2202407247e+02   3.6613935575e+01    0.1799269   0.09715227 -40.67 0.0008085503    2.457    0.593
       267  -9.7629    215.9607     21.1372   5.9487970810e+01   2.8050716202e+01    0.3694924    0.2334776  67.60  0.001160594    1.590    0.371
       268 -10.0703     54.4563    137.9120   1.2841504001e+02   4.0234630441e+01    0.2729656    0.1502182 -64.41  0.001476072    1.689    0.408
       269  -9.5927     48.3181    138.1605   1.3000055602e+02   4.0827399640e+01    0.3923296    0.1614691  50.55    0.0018238    2.503    0.600
       270 -10.8206     72.3055    129.0507   1.2253107684e+02   4.0075416259e+01    0.3463049    0.2788853 -62.31   0.00158478    1.206    0.171
       271  -9.8930     74.9544    125.0398   1.2117827633e+02   4.0621253193e+01    0.2923915    0.2052393  48.62  0.001025315    1.433    0.302
       272 -10.6526     55.9767    127.6639   1.2671823714e+02   4.2322601458e+01    0.5533693    0.2403592 -58.09  0.002140719    2.109    0.526
       273  -9.9846    197.4700     16.8223   6.0452905573e+01   3.3233695614e+01     0.519523    0.2296294  76.29  0.001932226    2.635    0.620
       274  -9.1876    178.8325     14.9539   6.2407316517e+01   3.8357795285e+01    0.2310409     0.179732  35.37 0.0004141759    1.295    0.228
       275  -8.4482     95.5087    130.4978   1.1657866532e+02   3.6499841690e+01    0.1323688    0.1278515  70.27 0.0008106006    1.012    0.012
       276  -8.3807    192.2459     12.6851   5.9838322195e+01   3.5016855239e+01    0.1432102     0.102811 -53.25 0.0003306807    1.516    0.340
       277 -10.7243     47.6176    126.0155   1.2874915981e+02   4.3568755583e+01    0.3658151    0.3051814  88.04  0.002424276    1.082    0.076
       278 -10.3353     47.4700    120.9993   1.2814832408e+02   4.4705535080e+01    0.3654953    0.2626974   9.96 0.0001410163    1.843    0.457
       279 -10.1427     38.5717    127.2334   1.3129979974e+02   4.4165754948e+01    0.2287395    0.1520717 -47.89 0.0008564276    1.673    0.402
       280 -10.7211     67.3025    122.9775   1.2295282395e+02   4.2053230952e+01    0.6040269    0.2973785 -39.45  0.002570612    2.834    0.647
       281 -10.0082     65.5780    114.7253   1.2210771802e+02   4.4123056032e+01    0.5452412    0.1963757  46.74  0.002103857    3.156    0.683
       282 -10.6410     67.4771    107.8115   1.2034881642e+02   4.5461874455e+01    0.6583777    0.3392119 -34.31  0.002718481    2.897    0.655
       283  -9.8935     73.8498    107.9550   1.1848195052e+02   4.4610007015e+01    0.2994643    0.2157545  36.78   0.00077802    1.449    0.310
       284  -9.7925     17.5191    122.5063   1.3635204177e+02   4.6896575167e+01    0.3708422    0.2353401  66.20  0.002221099    1.508    0.337
       285  -9.0106     19.9763    119.6990   1.3545899501e+02   4.7340324366e+01    0.2141985    0.1484879 -53.02 0.0007222045    1.506    0.336
       286 -11.0238     18.7437     26.0729   1.1976803534e+02   6.8413066563e+01    0.2415202    0.1689243 -22.05 0.0002058374    1.406    0.289
       287 -10.4307    169.1553     37.2696   7.1544698266e+01   3.8348891423e+01    0.4134101    0.3148226 -39.31  0.001422694    1.387    0.279
       288  -9.6372     92.1901    120.3810   1.1560564860e+02   3.9210991513e+01    0.3182692     0.136475 -43.07  0.001227468    2.749    0.636
       289  -9.2802     45.5011    132.0444   1.3002926770e+02   4.2446212590e+01    0.2080252    0.1766968 -10.52  0.001371016    1.570    0.363
       290 -10.7801     28.0131    101.9834   1.3128938136e+02   5.0729901394e+01    0.8309626    0.4976106 -48.23   0.00476281    1.688    0.408
       291 -11.6585     26.6656     52.0864   1.2319353388e+02   6.2234928232e+01    0.5889406    0.2406835 -39.30  0.002678839    2.434    0.589
       292 -12.1988     81.6200     78.1503   1.0923069014e+02   5.0231229707e+01     1.690205     0.477674 -53.96  0.005344465    3.597    0.722
       293  -9.0560    150.6766    249.3570   1.2089170720e+02   8.0080767234e+00    0.1071054   0.06856655  56.58 6.763035e-05    1.769    0.435
