#   1 NUMBER                 Running object number                                     
#   2 MAG_AUTO               Kron-like elliptical aperture magnitude                    [mag]
#   3 X_IMAGE                Object position along x                                    [pixel]
#   4 Y_IMAGE                Object position along y                                    [pixel]
#   5 X_WORLD                Barycenter position along world x axis                     [deg]
#   6 Y_WORLD                Barycenter position along world y axis                     [deg]
#   7 A_WORLD                Profile RMS along major axis (world units)                 [deg]
#   8 B_WORLD                Profile RMS along minor axis (world units)                 [deg]
#   9 THETA_WORLD            Position angle (CCW/world-x)                               [deg]
#  10 FWHM_WORLD             FWHM assuming a gaussian core                              [deg]
#  11 ELONGATION             A_IMAGE/B_IMAGE                                           
#  12 ELLIPTICITY            1 - B_IMAGE/A_IMAGE                                       
         1 -12.1459    113.5772     80.0451   1.0179331165e+02   4.5011008585e+01     2.105747     1.276559 -62.07  0.008460521    2.252    0.556
         2 -16.2100     79.2644     19.7908   8.9941257262e+01   6.2053717958e+01     2.241569     2.018901 -28.54   0.01435793    1.250    0.200
         3  99.0000    193.0487     62.0478   7.8366119017e+01   2.8850204244e+01     2.711602     2.436064 -59.54   0.01456379    1.089    0.082
         4 -16.7575    185.7698      8.7359   6.3960545294e+01   3.7623537699e+01     3.460464     1.321024  76.45   0.01307105    2.639    0.621
         5 -14.0286    145.9180     48.5742   8.3185460416e+01   4.3066904190e+01     3.978292     2.479559 -74.16   0.01532995    2.643    0.622
         6 -15.5723    241.7938     47.1922   6.7818017715e+01   1.9048581215e+01     1.570929     1.186921 -67.59  0.008778233    1.280    0.219
         7 -18.2587    236.1288     13.3395   6.0232175465e+01   2.4591159104e+01     3.026843     1.758931 -71.07   0.01545059    1.702    0.412
         8 -16.9214    125.4264     14.6818   7.5423290283e+01   5.2496349643e+01     4.446685     2.643637  75.62   0.02043478    1.971    0.493
         9 -14.9840      8.2964     28.4853   1.2453697384e+02   6.9726839261e+01    0.9613925     0.761586 -48.08  0.006063896    1.155    0.134
        10 -15.5762      8.9170      7.4089   1.1566167243e+02   7.3337265945e+01     1.337644    0.9103512 -19.88  0.009598359    1.206    0.171
        11 -15.9703     26.5984     15.3494   1.0990758766e+02   7.0494419589e+01     1.339966    0.8557276 -23.52  0.007854144    1.343    0.256
        12 -15.4440     36.6961      4.2571   9.9275770776e+01   7.0888358363e+01    0.9159428    0.6208979  46.70  0.004616951    2.058    0.514
        13 -14.4575     93.2824    175.7641   1.2823800667e+02   2.7163782966e+01    0.4945386    0.3371866  49.62  0.002669938    1.355    0.262
        14 -14.7426     94.1618    157.4566   1.2520304710e+02   3.1117932313e+01    0.7829714    0.5189951 -51.99  0.003956131    1.584    0.369
        15 -14.6027     82.6012    160.0104   1.2843153309e+02   3.2362913891e+01     0.481923    0.3523949  84.31  0.002615489    1.380    0.275
        16 -14.7053    131.3125    154.6875   1.1569462874e+02   2.5014279258e+01     1.280904     0.829827  82.77  0.005234518    2.424    0.587
        17 -14.3361    187.5758    156.7331   1.0361321607e+02   1.2982906713e+01    0.7949233    0.6094644  35.41  0.004075389    1.277    0.217
        18 -12.1307    229.1556    156.0900   9.5531536978e+01   4.6722965281e+00    0.2210996    0.1778174   4.66 0.0006559379    1.261    0.207
        19 -12.5572    248.5937    151.5212   9.1254316127e+01   1.7268599662e+00    0.4242605    0.2417669  51.00  0.002077189    2.019    0.505
        20 -13.8674    186.2559    144.8220   1.0125930118e+02   1.5494030724e+01    0.6773593    0.6056013  32.40  0.003659571    1.099    0.090
        21 -11.8213    187.1293    135.4385   9.8912399936e+01   1.7085868055e+01    0.6070718    0.5644718 -37.53  0.002054208    1.086    0.079
        22 -13.1949    161.3896    142.7713   1.0617345891e+02   2.1306820303e+01     0.537217    0.4737837  -0.33    0.0027873    1.311    0.237
        23 -14.5834    171.0302    143.6273   1.0422745141e+02   1.9039241335e+01    0.8111727    0.7137893  48.03  0.004172891    1.109    0.098
        24 -14.5753    237.9373    142.3575   9.1020285336e+01   5.1541714065e+00     1.332489    0.6241104  47.48  0.005780355    2.235    0.553
        25 -11.6495    246.5989    134.5458   8.7867960277e+01   4.7009142134e+00    0.7910465    0.5609366 -22.37  0.004236907    1.347    0.258
        26  99.0000    236.2929    124.1283   8.7158647356e+01   8.4187724734e+00    0.9545949    0.5656527  62.45  0.004294402    2.187    0.543
        27 -11.1821    226.9250    122.6541   8.8373477332e+01   1.0629231249e+01    0.3977995    0.3656823  50.63  0.002275403    1.171    0.146
        28 -14.3028    218.3924    138.5383   9.3572720852e+01   9.7409229096e+00    0.8365654    0.6682386 -21.51  0.004149905    1.245    0.197
        29 -12.8194    226.9694    134.3214   9.1082139956e+01   8.6667279722e+00    0.7130152    0.3756195 -53.32  0.002421848    2.644    0.622
        30 -13.5522    206.7311    133.9269   9.4671601560e+01   1.3039994446e+01    0.8891217    0.5849668  66.89  0.003900368    2.047    0.512
        31 -15.6486     86.3239    129.7502   1.2221570973e+02   3.8850567931e+01    0.9325567    0.9186647 -85.76   0.00562559    1.132    0.117
        32 -13.1626    236.8404    131.1791   8.8690077864e+01   7.1634232259e+00    0.7493054    0.3456101 -47.27  0.002465045    2.503    0.601
        33 -15.8278     21.5036    127.9029   1.3966284173e+02   4.7127617265e+01     1.321233    0.7531867 -70.89  0.002922043    1.408    0.290
        34 -11.8850    157.4375    130.3695   1.0419751764e+02   2.4741473064e+01    0.3049136    0.2779948 -86.64  0.001434363    1.178    0.151
        35 -12.4469    211.9122    117.8783   8.9860871315e+01   1.4744466028e+01    0.7089368    0.3934442  70.26  0.002589813    2.974    0.664
        36 -12.5058    218.9276    127.9952   9.1028137145e+01   1.1436708835e+01    0.4432238    0.3807483  27.11  0.002412729    1.204    0.170
        37 -12.2879    216.4915    123.9643   9.0507144497e+01   1.2662901537e+01    0.4115592     0.291197  32.49  0.001832176    1.566    0.362
        38 -12.2052    210.4094    124.4143   9.1721807001e+01   1.3924974354e+01    0.4869119    0.1487561  51.77  0.001528753    3.437    0.709
        39 -14.9065    130.2057    117.6287   1.0772062537e+02   3.3430161912e+01     1.363922     1.008271 -72.44  0.006222397    1.631    0.387
        40 -15.0775    115.3413    106.2486   1.0876572965e+02   3.9036051424e+01     2.343008     1.024046 -55.18  0.008253071    2.565    0.610
        41 -10.7465    134.7317     96.0745   1.0080564717e+02   3.7081266664e+01     1.182203    0.7502065  34.36  0.004955305    1.829    0.453
        42 -13.3588    116.2718     69.2351   9.7579723950e+01   4.6560496425e+01    0.9494539    0.4265743  43.35   0.00359004    2.291    0.563
        43 -13.9338    196.3581    247.7117   1.1784182638e+02  -2.7894434239e+00    0.5027496    0.3446946  59.04  0.003051294    1.997    0.499
        44 -14.1848    108.2806     83.1331   1.0426706481e+02   4.5466913171e+01    0.9300378    0.7985577 -81.91   0.00450819    1.376    0.273
        45 -11.6653    192.6895    120.0616   9.4057086289e+01   1.8735415019e+01    0.3445278     0.222072  68.15  0.001004132    2.032    0.508
        46 -11.9624    182.0663    117.0959   9.5479380400e+01   2.1769924986e+01    0.5521472    0.2058912 -40.39   0.00184527    2.653    0.623
        47 -15.9874     91.2209    109.3155   1.1638236785e+02   4.2837331565e+01      1.58203     1.433009  42.86  0.007962883    1.176    0.150
        48 -13.9963     41.8626     90.0670   1.2745159072e+02   5.4081177789e+01     1.095438    0.6645449 -35.71  0.005688876    1.853    0.460
        49 -15.6499     58.5291    100.6476   1.2432660965e+02   4.9722384712e+01     2.525463     1.644014  73.87   0.01208939    2.153    0.536
        50 -14.3443     31.9071     86.0284   1.2996800185e+02   5.5956280729e+01    0.8129294    0.6391643  58.12  0.005106941    1.516    0.340
        51 -14.2755     22.5628     85.0371   1.3295961152e+02   5.6949462303e+01    0.7412771    0.6196493  67.03  0.004034676    1.388    0.280
        52 -12.0402    141.3626    109.1065   1.0269980571e+02   3.2840736843e+01    0.4277099    0.2371525  48.40  0.001514629    1.809    0.447
        53 -11.4342    203.5043    101.5039   8.7270363266e+01   1.9590877203e+01     0.272239    0.2399364  77.02 0.0009103926    1.235    0.190
        54 -12.4948    204.9067    105.7560   8.8106892353e+01   1.8504128211e+01    0.4516582    0.3167062 -54.94    0.0016226    1.576    0.365
        55  -9.9514    209.0252    104.2178   8.6971505021e+01   1.7811379124e+01    0.3680378     0.296178  11.31 0.0006482836    1.510    0.338
        56 -12.9685    249.9077     90.8843   7.7308414911e+01   1.0846792714e+01    0.9459075    0.2172049 -33.87  0.002883531    3.853    0.740
        57 -12.4745    241.4319     91.7774   7.8696202916e+01   1.2527468285e+01    0.5259258    0.3520627 -56.65  0.002575471    1.640    0.390
        58 -12.0447    239.8730     86.7434   7.7698309897e+01   1.3658780463e+01    0.6232198    0.3493597  85.42  0.002362985    3.231    0.691
        59 -11.5346    250.2820    104.5102   8.0449921445e+01   8.6615851844e+00    0.4890137    0.1740451 -32.89  0.001823042    2.583    0.613
        60 -13.6270    244.9764    100.3097   8.0226007691e+01   1.0423992000e+01    0.7635751    0.5885159  70.81  0.003294634    1.540    0.351
        61 -11.9593    228.3881    102.0759   8.3170566337e+01   1.3746543889e+01    0.4494684    0.2511495 -52.04  0.001515489    2.030    0.507
        62 -11.2652    215.9726    103.4574   8.5565503135e+01   1.6331114927e+01    0.2199275    0.1472411  54.14  0.001019635    1.562    0.360
        63 -12.2197    171.2426    100.3754   9.3379840224e+01   2.7590863225e+01    0.3847813    0.3337799  85.44  0.001903692    1.283    0.221
        64 -13.1443    199.8721     95.2658   8.6302442193e+01   2.1566549485e+01    0.6534553     0.468127 -37.62  0.002755598    1.356    0.263
        65 -10.6070    205.4055     94.2746   8.5047716754e+01   2.0406387736e+01    0.2285322    0.1461046  37.46 0.0006049545    1.835    0.455
        66 -12.0863    162.4934     97.4978   9.4514870621e+01   3.0270709997e+01    0.1555796    0.1543389 -85.88  0.000810651    1.006    0.006
        67 -11.5823    226.9493     96.1881   8.1944289182e+01   1.5041856306e+01    0.2293973     0.193073 -67.24 0.0009835879    1.299    0.230
        68 -11.9212    218.1913     93.7121   8.2727329114e+01   1.7470864453e+01    0.4753954    0.2819489  53.14  0.002119038    1.752    0.429
        69 -12.7832    175.5236     90.3512   8.9701145929e+01   2.8439973521e+01    0.5704044    0.4225028  23.38  0.001163787    1.726    0.421
        70 -12.2857    169.2127     89.4084   9.0763518527e+01   3.0178751412e+01      0.56033    0.3465555 -45.66  0.002353441    1.634    0.388
        71 -13.5787     64.5531     83.6079   1.1825358951e+02   5.2829230783e+01    0.8431154    0.5636849  39.40  0.004423601    1.661    0.398
        72  -7.1865    226.5416     88.4836   8.0082022244e+01   1.6394356697e+01    0.3644795    0.1854438  33.87  0.001301499    3.174    0.685
        73 -12.4086    218.7615     84.6261   8.0308045607e+01   1.8842764812e+01    0.4184134    0.2347232  55.64    0.0013793    1.845    0.458
        74  99.0000    225.8868     83.1671   7.8840149961e+01   1.7403510904e+01    0.7092164    0.3893977  66.96  0.003015659    2.126    0.530
        75 -13.6269    249.1942     80.9011   7.5038825066e+01   1.2519645392e+01    0.8823736    0.4948034 -54.40  0.004021878    1.941    0.485
        76 -12.6309    242.8402     81.7816   7.6087417406e+01   1.3771780023e+01    0.3727424    0.2368487 -47.26   0.00109474    1.479    0.324
        77 -10.1717    239.4249     78.0308   7.5635124630e+01   1.5107749796e+01    0.5883732    0.3264921  44.67  0.002145746    2.141    0.533
        78 -12.9179    240.0003     73.2709   7.4393985825e+01   1.5702335209e+01    0.3875248    0.3154497  74.30  0.001749733    1.325    0.246
        79 -11.6052    242.7846     70.7530   7.3421523467e+01   1.5453485180e+01     0.476717    0.2662367 -56.10  0.001907231    1.959    0.489
        80 -12.9090    236.8258     69.5409   7.3891577246e+01   1.6986739909e+01    0.6267955    0.4199356  87.61  0.002981239    1.833    0.454
        81 -12.9618    193.4413    211.3376   1.1281650859e+02   2.6576441012e+00    0.2708369    0.1455986  43.20  0.001366315    1.632    0.387
        82 -14.9904     99.1497    188.7065   1.2873071422e+02   2.3451043435e+01     0.521117    0.4929421  76.39   0.00337396    1.176    0.150
        83 -15.3857    107.7796    194.2161   1.2761187417e+02   2.0902425556e+01     1.242569    0.7562503 -46.79  0.006303177    2.046    0.511
        84 -14.7020    228.9631    191.7409   1.0276461448e+02  -6.9140202965e-01     1.006756     0.618362  46.21  0.005080784    1.699    0.411
        85 -11.2695    213.2244     80.9990   8.0244704110e+01   2.0763300779e+01    0.2146756    0.1907125 -44.92 0.0008585722    1.071    0.066
        86 -13.6908     76.7709     77.7022   1.1249605201e+02   5.2316953042e+01    0.7846118    0.4350758  47.82   0.00353558    2.113    0.527
        87 -14.3617     66.3240     71.5854   1.1424629375e+02   5.5198301220e+01     1.180182     0.746857  47.30  0.005922955    1.885    0.469
        88 -13.4808     76.8290    101.4560   1.1880750282e+02   4.6985892440e+01     1.600441     0.822701 -52.60  0.006701405    1.763    0.433
        89 -11.9010    202.2583     75.7357   8.0635425717e+01   2.4320993871e+01    0.3601203    0.3029717  31.24  0.001834483    1.363    0.266
        90 -11.8202     55.3611     76.0096   1.1938130357e+02   5.5713882623e+01    0.2592722    0.2112255 -21.47  0.001529443    1.321    0.243
        91 -14.4894    213.7502    192.3155   1.0563536256e+02   1.9057032265e+00    0.5427537    0.4755265 -87.41  0.003236118    1.728    0.421
        92 -12.3957    139.0268     71.3931   9.2281255229e+01   4.0935237898e+01    0.4592959    0.3930056 -59.62  0.001612881    1.259    0.206
        93 -11.4869    140.6814     66.2862   9.0241515803e+01   4.1454690252e+01    0.2743205     0.204456  45.27 0.0006248711    1.337    0.252
        94 -12.9185    124.6363     93.5650   1.0274891980e+02   3.9843363784e+01    0.6021285    0.4826162 -87.57  0.002858866    1.566    0.361
        95 -11.0883    184.4583    109.1709   9.2947503965e+01   2.2723449936e+01    0.2115793     0.142912 -51.73 0.0003491247    1.584    0.369
        96 -11.8243    250.4774     64.1405   7.0900777539e+01   1.4714373428e+01    0.6005115    0.1198525 -34.36  0.001824214    4.002    0.750
        97 -12.0019    222.4904     63.4931   7.4287136538e+01   2.1274481024e+01    0.3803087    0.2309592 -23.49  0.001698252    1.861    0.463
        98 -11.1932    224.3274     60.6935   7.3313707418e+01   2.1249337978e+01    0.2187024    0.1885816 -67.32 0.0005471889    1.117    0.105
        99 -13.9428    214.3383    185.3616   1.0420672471e+02   2.8581935031e+00    0.5898592     0.454599 -37.66  0.003403967    1.414    0.293
       100 -13.0407     35.1213     53.9369   1.2069763268e+02   6.2630587287e+01    0.5714868    0.2660542 -58.96  0.002739762    2.082    0.520
       101 -12.9663     33.6227     47.9763   1.1944105683e+02   6.3972896141e+01    0.5610418    0.2275628 -43.68   0.00265746    2.047    0.511
       102 -12.0993     65.1016     56.8453   1.0995385818e+02   5.8383499710e+01    0.3335426    0.1878576 -47.85  0.001282894    1.658    0.397
       103 -12.8623     75.3466     54.4015   1.0539471782e+02   5.7252398179e+01    0.4159014    0.3647745 -20.99  0.001912129    1.046    0.044
       104 -12.7589    182.1882    196.8814   1.1252482550e+02   6.9686821138e+00    0.2037797    0.1815908  56.30  0.001114187    1.217    0.179
       105 -13.6849    185.5817    182.6179   1.0924758433e+02   8.7427849889e+00    0.3348899    0.2634707  49.93    0.0018455    1.266    0.210
       106 -11.5073    223.8658    178.2066   1.0105573753e+02   2.2104332635e+00    0.1826188    0.1700423  17.22 0.0002681711    1.131    0.116
       107 -12.2963    176.4968    177.0086   1.1002981240e+02   1.1514842459e+01    0.2085937    0.1414054 -43.99  0.001035322    1.601    0.375
