#   1 NUMBER                 Running object number                                     
#   2 MAG_AUTO               Kron-like elliptical aperture magnitude                    [mag]
#   3 X_IMAGE                Object position along x                                    [pixel]
#   4 Y_IMAGE                Object position along y                                    [pixel]
#   5 X_WORLD                Barycenter position along world x axis                     [deg]
#   6 Y_WORLD                Barycenter position along world y axis                     [deg]
#   7 A_WORLD                Profile RMS along major axis (world units)                 [deg]
#   8 B_WORLD                Profile RMS along minor axis (world units)                 [deg]
#   9 THETA_WORLD            Position angle (CCW/world-x)                               [deg]
#  10 FWHM_WORLD             FWHM assuming a gaussian core                              [deg]
#  11 ELONGATION             A_IMAGE/B_IMAGE                                           
#  12 ELLIPTICITY            1 - B_IMAGE/A_IMAGE                                       
         1 -12.2625      8.8204     61.5909   1.2881603537e+02   6.2221434764e+01    0.5979795    0.4368751 -32.66  0.004265205    1.197    0.165
         2 -12.2459     74.0703     50.4148   1.0165444434e+02   5.7182740218e+01     1.010462    0.6798096 -45.17  0.005579414    1.607    0.378
         3 -12.4322     60.6111     45.2399   1.0448205352e+02   6.0031402124e+01    0.9170611     0.417641 -38.73  0.004460174    2.036    0.509
         4 -12.6274    112.9085     24.6510   8.1180858490e+01   5.3351355616e+01    0.8809049     0.395112  52.05  0.004025951    1.950    0.487
         5 -11.7967     22.6881     11.2577   1.0630109441e+02   6.9443346714e+01    0.4976881     0.275924  -1.57   0.00304609    1.915    0.478
         6 -12.6805     18.4031     22.3904   1.1276725272e+02   6.8304172870e+01    0.7908474    0.7167867  73.66  0.005880667    2.182    0.542
         7 -10.8671     14.4644      9.5055   1.0930077918e+02   7.0444115364e+01    0.2481804     0.212253   7.59  0.001407525    1.438    0.305
         8 -11.3779    178.2180     21.2674   6.7928481503e+01   3.8351088448e+01     0.535758     0.344978  20.73  0.002518252    2.498    0.600
         9 -10.6347     60.5428     25.2766   9.6985983257e+01   6.2924782647e+01    0.4316992    0.2048772 -34.54  0.002252779    2.058    0.514
        10  -9.9521     87.1290      7.5192   8.1478440292e+01   6.0304260173e+01      0.55734    0.2899462  49.57  0.003028649    1.672    0.402
        11 -11.4749     90.7082     19.9500   8.5268295809e+01   5.8384136953e+01    0.4918744    0.3849726 -15.44  0.002618194    1.303    0.232
        12  -9.7055     32.1793     12.2047   1.0257877885e+02   6.8308485382e+01    0.2076165    0.1627284  38.78  0.000412591    1.789    0.441
        13 -11.0991     47.1182     18.6357   9.9266830286e+01   6.5663385345e+01     0.336938    0.2559531  -3.93  0.001477704    1.072    0.068
        14 -12.0844     49.2190     12.9248   9.6046464263e+01   6.6062182998e+01     0.552386    0.2911989  39.91  0.003232233    1.903    0.475
        15 -11.0766     42.5663     14.1544   9.9156953774e+01   6.6809331593e+01    0.3547165    0.1746167  32.70  0.001556228    1.937    0.484
        16 -11.8212     35.5980     18.7745   1.0393547413e+02   6.7076070342e+01    0.5369175    0.2851881 -25.08  0.003107003    1.699    0.411
        17 -12.0472     69.6114     17.9850   9.0938769057e+01   6.2375909178e+01    0.6535527    0.3475345  52.54  0.003397842    2.267    0.559
        18 -11.9615    239.8302      7.6954   5.8051278136e+01   2.5291949873e+01    0.4059347    0.2044079 -65.76 0.0001904662    1.887    0.470
        19 -12.1882    244.2640     14.4961   5.9062133297e+01   2.3515298672e+01     0.330302     0.294246  29.69  0.001872509    1.733    0.423
        20 -12.4196    245.8045      6.7765   5.7388312078e+01   2.4082795758e+01     1.048356    0.4604475 -84.63   0.00481998    2.493    0.599
        21 -12.5966    238.4296     15.6906   5.9814275586e+01   2.4668933274e+01    0.4242306     0.356195 -29.59  0.001933711    1.549    0.355
        22 -11.1668    234.0015     16.2788   6.0338442671e+01   2.5597195324e+01    0.2617033    0.1912701 -55.43 0.0005462554    1.252    0.201
        23 -11.0243    165.3274     17.0685   6.8671304348e+01   4.1965136167e+01    0.3342655    0.2247281  40.07  0.000708286    1.649    0.394
        24 -11.6815    133.4684     15.2377   7.3572922255e+01   4.9743648378e+01    0.9005653    0.2785192  59.43   0.00348056    2.666    0.625
        25 -11.1615    125.7418     11.2616   7.3794867178e+01   5.1884172514e+01    0.5005293      0.29814  80.11  0.002431282    2.172    0.540
        26 -11.3805     16.7667     13.3802   1.0988210568e+02   6.9722747334e+01    0.3689834    0.1690591 -34.72  0.001288179    1.786    0.440
        27 -12.0840    104.9033     13.0613   7.9002073098e+01   5.6243359147e+01    0.4230035    0.3339559   1.22  0.001793033    1.327    0.246
        28 -11.6547    211.4688      9.7986   6.1090609606e+01   3.1567516285e+01      0.43454    0.3356825  15.09  0.001867768    2.072    0.517
        29 -11.2784    192.1730      8.0477   6.2754874428e+01   3.6365671748e+01    0.4076951    0.2866871  -6.59  0.001782432    2.109    0.526
        30 -11.4987     86.0772     14.3318   8.4426614421e+01   5.9851984600e+01    0.5004234    0.2941238  -6.78  0.002130701    1.952    0.488
        31 -10.2794    168.9169     10.1084   6.6226725271e+01   4.1798549816e+01    0.2986318    0.1910449  45.45   0.00159667    1.632    0.387
        32 -10.7274     66.3690     10.5663   8.8960436673e+01   6.3708524136e+01    0.2595419    0.1692241  35.63 0.0008413663    1.344    0.256
        33  -9.6438      4.1413     10.5466   1.1464321991e+02   7.1125226773e+01    0.2769338    0.1234192 -15.28  0.001510579    2.633    0.620
        34  -9.8711    150.8241      7.9813   6.8306777823e+01   4.6353206598e+01    0.2280176     0.170159  76.59  0.000700377    1.249    0.199
        35 -10.5655     62.9073      6.3917   8.8347427558e+01   6.4688624824e+01    0.2767187     0.162306  -0.41  0.001206329    1.824    0.452
        36 -10.0174      1.2672      7.3577   1.1472748364e+02   7.1767793934e+01    0.1510161   0.07054569 -41.92 0.0001623237    1.787    0.440
        37 -10.9546     77.3198      5.0609   8.3270817482e+01   6.2344584477e+01    0.4498115     0.235198 -19.85  0.002504996    1.999    0.500
        38 -10.5316    199.5279      6.0529   6.1460665263e+01   3.4803118549e+01    0.3017113    0.1526915  75.14   0.00149573    1.714    0.417
        39 -10.1106    162.9699      5.5906   6.5815339288e+01   4.3663025242e+01    0.2556883    0.1838566  11.18 0.0008713328    1.905    0.475
        40 -10.0866    162.5581      1.2974   6.4685028535e+01   4.4143424866e+01    0.2298854    0.1085339  74.19 4.704519e-05    1.937    0.484
        41 -10.6118     42.5929      3.2703   9.4333219298e+01   6.8021059765e+01     0.410819    0.2085172   3.03  0.002137213    2.550    0.608
        42 -10.7171     71.5547      3.8142   8.4485549408e+01   6.3476361408e+01    0.3021671    0.2210318  11.71  0.002022143    1.220    0.181
        43 -10.9702    218.6193      3.2487   5.8945077789e+01   3.0596049032e+01    0.3116065    0.2364111  88.14 0.0009008111    1.078    0.072
        44 -11.5639    223.5021      2.0030   5.8243721970e+01   2.9602445155e+01    0.6889175    0.2544897  86.67  0.002709721    3.163    0.684
        45  -9.5829    174.9400      4.2911   6.3872391140e+01   4.0896291906e+01    0.1872579    0.1458245  73.64 0.0007873172    1.077    0.071
        46 -12.1697    133.8110      2.6153   6.9491789874e+01   5.0797333281e+01    0.3310606    0.2206004  52.73 0.0005632134    1.260    0.206
        47 -10.7938    205.4060      2.1741   5.9953691703e+01   3.3799303973e+01    0.4105551    0.1830552  87.37  0.001306376    2.366    0.577
        48 -10.2412    142.0867      3.7717   6.8452668532e+01   4.8784162508e+01    0.2937803    0.1788641  59.49  0.001612159    1.358    0.264
        49 -11.3942    112.9009      1.9151   7.3241433888e+01   5.5516302561e+01    0.5962991    0.2022227  66.90  0.002148607    3.457    0.711
        50 -10.9921    105.4217      1.8413   7.4824758830e+01   5.7112725976e+01    0.4557461    0.2049341  68.12  0.001448037    2.649    0.622
        51  -9.5673    193.9652      1.4364   6.0951322517e+01   3.6590891921e+01    0.1903471     0.106162  74.44  0.000395576    1.510    0.338
        52 -11.0452      2.7886      1.8133   1.1157354595e+02   7.2394847561e+01    0.3430377    0.1504606  12.23    0.0020623    2.465    0.594
        53 -10.7215     10.6530    127.1072   1.3987830470e+02   4.8096010683e+01    0.4161262    0.1230009 -55.34  0.001721647    2.574    0.611
        54 -10.0309     78.6669    128.4280   1.2159679850e+02   4.0319947309e+01     0.274986    0.1564652 -54.72 0.0007165964    1.587    0.370
        55  -9.4972      1.7746    125.0074   1.4189802862e+02   4.9166493227e+01    0.2731306    0.1298649 -80.22  0.001450178    1.847    0.459
        56  -9.7538      4.1323    121.7938   1.4089244876e+02   4.9734993045e+01    0.2226088    0.1572505  62.13  0.001463568    1.622    0.383
        57 -11.1251     55.9814    123.1819   1.2689333127e+02   4.4662683158e+01    0.4365951    0.3400254  15.04   0.00184901    1.631    0.387
        58  -9.8889     18.6612    124.6401   1.3743835174e+02   4.8053044667e+01    0.2362328    0.1067724 -58.43  0.000713589    1.722    0.419
        59 -11.6454    104.8952    121.0682   1.1269734844e+02   3.7639464133e+01    0.5047308    0.4862713 -70.78  0.002049736    1.020    0.020
        60 -10.4613     45.7122    120.6555   1.2932405762e+02   4.6440972827e+01    0.2475195    0.2109369 -88.59  0.001139279    1.203    0.169
        61 -10.7691     34.5199    119.3692   1.3225907915e+02   4.7883166111e+01    0.2416231    0.1929009 -50.75 0.0007954288    1.174    0.148
        62  -9.3759    148.6282    119.6756   1.0102128666e+02   2.8886371706e+01    0.1641802    0.1279264   5.32 5.114304e-05    1.814    0.449
        63  -9.5359     81.2131    117.8078   1.1857046353e+02   4.2427142434e+01    0.1919421    0.1591318 -32.70 0.0003511136    1.299    0.230
        64  -9.9888    114.0168    115.9672   1.0896209884e+02   3.7068951680e+01    0.2231011    0.2154129 -60.17 0.0003440289    1.007    0.007
        65  -9.7686     88.0079    114.6058   1.1588215047e+02   4.2082363468e+01    0.2730663    0.1716566  52.23 0.0007462712    1.838    0.456
        66 -10.7221     67.2168    112.2811   1.2139023207e+02   4.5748073449e+01     0.500978    0.2729765 -61.05  0.002305013    1.753    0.430
        67  -9.5598     37.4897    115.4840   1.3072961668e+02   4.8490056709e+01    0.1302376    0.1065645 -57.94 0.0002711009    1.049    0.047
        68 -12.5350     36.6033     87.7934   1.2535073323e+02   5.4737389645e+01     1.469854     1.088356 -33.72  0.005846696    1.294    0.227
        69 -11.7161     45.0134     85.9718   1.2215710637e+02   5.4275278808e+01    0.7503897    0.4872763  62.18  0.003775729    2.500    0.600
        70 -11.9563      9.7748     97.7354   1.3578753120e+02   5.4695606751e+01     0.774085    0.4634457  44.97  0.004643767    2.141    0.533
        71 -12.1882      7.3035     88.8001   1.3499669463e+02   5.6767338555e+01    0.4700822    0.3962594 -54.13 0.0009641916    1.099    0.090
        72 -11.9885     25.6973    113.4832   1.3376441984e+02   5.0022215256e+01    0.7619693    0.3613397   9.86  0.003446189    3.516    0.716
        73 -12.9137     26.7644    106.5729   1.3225231622e+02   5.1492124773e+01     1.155466     0.675012 -15.96  0.005882674    2.603    0.616
        74 -12.2879     18.8011    106.2765   1.3454691520e+02   5.2191607777e+01    0.3032677    0.2002848 -52.89 0.0002762762    1.251    0.200
        75 -13.1050     19.4738     95.8087   1.3248348357e+02   5.4449191011e+01    0.4380347     0.386169  34.64 0.0005658935    1.406    0.289
        76 -12.2079     18.4501     90.4781   1.3178548183e+02   5.5677117763e+01    0.5462874    0.2415556 -46.76 0.0006220294    1.864    0.463
        77 -10.0723      7.4995    114.5398   1.3902395309e+02   5.1137692353e+01    0.2160762    0.1673337 -70.72 0.0007412662    1.036    0.035
        78 -11.5694      2.5615    112.0832   1.4003567291e+02   5.1990486296e+01    0.3576808    0.2328143 -65.92 0.0009740506    1.155    0.134
        79 -10.5344      5.5336    108.5235   1.3870989082e+02   5.2596400417e+01    0.2006973    0.1668113 -87.82 0.0007956659    1.224    0.183
        80 -11.6922      3.3827    104.9219   1.3879204566e+02   5.3516620842e+01    0.3419201    0.2987415 -29.75  0.001024609    1.347    0.257
        81 -10.6539    108.0065    112.6527   1.0976918169e+02   3.8979173837e+01    0.2849733     0.216488 -80.86  0.001334462    1.662    0.398
        82  -9.8957     48.9344    112.1456   1.2675521699e+02   4.8052845619e+01    0.2010953    0.1717156 -89.96  0.001231184    1.268    0.211
        83 -11.1724     79.5030    108.5626   1.1690665522e+02   4.4815897966e+01    0.5503206    0.3897745  48.91  0.002800464    1.587    0.370
        84 -10.4785    170.5607    110.0696   9.3481746378e+01   2.5826877177e+01    0.4064811    0.2983759 -40.99  0.001863542    1.369    0.270
        85  -9.6982    126.7094    113.9920   1.0508168307e+02   3.4930411798e+01    0.2138093    0.1943311 -51.11 0.0003791169    1.077    0.071
        86  -9.9833    175.1582    107.1315   9.1724712033e+01   2.5328077403e+01     0.236776    0.2192583  -0.20 0.0005839526    1.244    0.196
        87  -9.9724    157.8813    105.6281   9.5175931789e+01   2.9742493773e+01    0.2521625    0.2201667 -29.31  0.000575067    1.234    0.190
        88  -9.9531    143.4688    106.1157   9.8748013248e+01   3.2972024429e+01    0.2628396    0.2223405  81.27  0.001278108    1.331    0.249
        89 -11.3359     86.6736    104.9825   1.1391236759e+02   4.4484005144e+01    0.5007905    0.3449756  24.09  0.002432479    1.747    0.428
        90 -10.5817     48.0660    103.1360   1.2513804314e+02   5.0195471701e+01    0.2402787    0.1874554 -39.49 0.0003431142    1.229    0.186
        91 -10.2686     52.1348     97.5522   1.2262878828e+02   5.0976717756e+01    0.5767645    0.1080935 -50.33  0.001810798    3.954    0.747
        92  -9.5861     82.0608    102.7474   1.1471442275e+02   4.5723867239e+01    0.1888596     0.180772 -34.51 0.0004436553    1.051    0.048
        93  -9.2019     57.3285    102.6371   1.2218788176e+02   4.9223955464e+01     0.135873    0.1014119  83.42 0.0007039536    1.800    0.444
        94 -10.6019     67.5235     99.4959   1.1831074030e+02   4.8593573705e+01    0.3980332    0.2906334  57.09  0.002107218    1.720    0.419
        95 -10.5542     68.4360     95.6045   1.1705830496e+02   4.9321479704e+01    0.3262304    0.2763073  -3.64  0.001159168    1.326    0.246
        96  -9.5514    210.5060     98.0380   8.2566830135e+01   1.8627470713e+01    0.2333867    0.1426633 -41.39  0.001025603    1.569    0.363
        97 -10.4085     57.3706     97.7396   1.2103473179e+02   5.0307698754e+01    0.2254053    0.1983204 -77.95 0.0007141614    1.253    0.202
        98  -9.4949     78.1071     97.1589   1.1447696322e+02   4.7568491168e+01    0.1828846    0.1615946 -81.74 0.0003609713    1.301    0.232
        99  -9.3277    140.4761     96.4627   9.6858746667e+01   3.5654038137e+01     0.151967    0.1510265  19.02 0.0001344735    1.036    0.035
       100 -10.0367     42.4784     94.4709   1.2497321463e+02   5.2712123288e+01    0.2300753    0.1962395 -50.41 0.0006854062    1.017    0.016
       101 -10.7474    125.1618     93.5833   9.9979384279e+01   3.9622608336e+01    0.5574883    0.2674913  41.85  0.001612674    2.168    0.539
       102  -9.8532     92.9526     85.6327   1.0680696080e+02   4.7558193706e+01    0.2340948    0.2001592  33.46 0.0003973198    1.217    0.178
       103 -11.7656     81.7612     93.0280   1.1226903503e+02   4.7890102478e+01    0.5178719    0.3960551  66.80  0.001195997    1.748    0.428
       104 -11.1859     89.3651     90.0030   1.0912788361e+02   4.7278068589e+01    0.4186932    0.2721978 -42.54  0.001108398    1.452    0.311
       105 -11.7029     79.8029     82.7723   1.1002501876e+02   5.0338245605e+01    0.8503574    0.5591818 -67.97  0.003940208    2.174    0.540
       106 -11.6908     66.7108     81.6182   1.1388608144e+02   5.2518633848e+01    0.8042755    0.4566782 -45.79  0.003992029    1.575    0.365
       107 -11.3972     72.2279     77.8982   1.1103333890e+02   5.2478180617e+01    0.7112741    0.5216337 -49.57  0.003938009    1.323    0.244
       108 -10.3409    117.2523     93.0318   1.0195216577e+02   4.1394549051e+01    0.3382498    0.2057135  36.46  0.001463402    1.784    0.439
       109 -10.8133    102.8081     90.4189   1.0527315608e+02   4.4780099538e+01    0.5290266    0.4408909 -33.30  0.002109275    1.183    0.155
       110  -9.6746    152.4227     92.2768   9.2820380310e+01   3.3721857330e+01     0.220894    0.1444369 -51.78 0.0009479679    1.613    0.380
       111  -9.0022    212.3264     87.2960   7.9622248416e+01   2.0142750583e+01    0.1436366     0.118642  20.87 0.0004105654    1.628    0.386
       112 -11.0922    113.3784     84.2251   1.0048069632e+02   4.3960733482e+01    0.6021681    0.2998565 -32.90  0.002249415    2.342    0.573
       113 -11.2397    107.0710     79.1602   1.0075172718e+02   4.6206958894e+01    0.6743029    0.4808896 -88.81  0.002010083    2.463    0.594
       114 -11.0121    143.5393     83.5180   9.2448934784e+01   3.7493922003e+01    0.3957488    0.3081438 -28.86  0.001302543    1.393    0.282
       115  -9.7812    119.2994     85.3356   9.9180744166e+01   4.2520317282e+01    0.1515054    0.1174113  -0.60 0.0007033629    1.656    0.396
       116 -10.1913    165.9053     83.1812   8.7287105839e+01   3.2210571331e+01     0.338741    0.2565872 -49.98  0.001621893    1.343    0.255
       117  -9.7369    127.2256     83.4130   9.6508636728e+01   4.1198005798e+01     0.213378     0.143451  58.36 0.0007297205    1.640    0.390
       118 -11.5853     53.0326     76.8953   1.1711492820e+02   5.5247812911e+01    0.6379802    0.3423978 -53.96  0.003188906    1.752    0.429
       119 -11.1780     58.4392     78.1493   1.1564496540e+02   5.4326393818e+01    0.2740532    0.2357898  30.82 0.0008873935    1.305    0.234
       120  -9.2946    121.5983     79.1767   9.6739581919e+01   4.3222051075e+01    0.1993322    0.1399891 -28.79 0.0005375824    1.544    0.352
       121 -10.5628     13.6931     54.2950   1.2512032986e+02   6.3298418901e+01    0.2213677    0.1449174 -34.85 0.0001909183    1.244    0.196
       122 -11.9693     14.0069     74.4730   1.2993680847e+02   5.9334529467e+01    0.4123924    0.2988539 -53.39  0.001511306    1.093    0.085
       123 -10.9761     14.1000     66.6745   1.2811619548e+02   6.0893184138e+01    0.2935433    0.2413484 -73.92 0.0008923874    1.419    0.295
       124 -11.9611      2.0798     70.8008   1.3326845195e+02   6.0778560207e+01      0.54478    0.1460815 -60.95  0.002074071    2.650    0.623
       125  -9.7831    218.6665    249.3104   1.1240979532e+02  -9.7571694504e+00    0.1115753   0.09291091  59.72 0.0007043311    1.676    0.403
       126 -10.6566     93.7620     76.2361   1.0377969667e+02   4.9272981279e+01    0.4987815    0.3074656  32.44  0.001853513    1.750    0.429
       127 -10.2317    142.5055    249.5197   1.2680012195e+02   2.9644502537e+00    0.1283897    0.1053255  50.47 3.107415e-05    1.009    0.009
       128 -11.8520     85.7470     73.6157   1.0544345203e+02   5.1170982267e+01    0.6026359    0.5444847  47.79  0.003202408    1.253    0.202
       129 -11.8676     78.8479     67.1024   1.0560929759e+02   5.3528267606e+01    0.7127593    0.4987312  49.56  0.003785746    1.712    0.416
       130 -11.2260     40.9866     70.2395   1.1943987374e+02   5.7918331577e+01    0.3596232    0.2499578 -53.98  0.001613465    1.352    0.261
       131  -9.1115     46.6113     72.2968   1.1804300244e+02   5.6909060124e+01     0.118791   0.09827399  74.45 0.0007013375    1.782    0.439
       132 -10.4238     38.5063     73.5085   1.2118938165e+02   5.7517818763e+01    0.2214692    0.1655397 -38.47 0.0007309009    1.126    0.112
       133  -9.5939    162.0333     70.4859   8.4542269855e+01   3.5411727454e+01    0.2380188    0.1446459  57.84  0.001034822    1.604    0.376
       134 -11.7953    122.4629     68.3315   9.3203899051e+01   4.5007777808e+01    0.5751177    0.3586477  45.78  0.002458504    1.566    0.362
       135  -9.5222    208.8286     68.1344   7.5449627847e+01   2.4254641903e+01    0.1870078    0.1744331  31.97 0.0004242781    1.306    0.234
       136 -10.0268    172.0566     67.5463   8.1692554424e+01   3.3435994460e+01    0.3079566    0.2000771 -54.49  0.001383854    1.678    0.404
       137 -11.2737    219.6785     66.2790   7.3378061049e+01   2.1948999246e+01       0.5569    0.3075407  64.16  0.002525488    1.808    0.447
       138 -11.0956     58.3951     62.1526   1.1092356742e+02   5.7424523209e+01    0.5211317    0.3026976 -58.66    0.0022319    2.271    0.560
       139 -11.6229    186.8391     70.4910   7.9728803798e+01   2.9273603483e+01    0.6735026    0.5146882 -20.36  0.003285448    1.620    0.383
       140 -11.1912     32.6707     71.9690   1.2282842897e+02   5.8381011486e+01    0.4451967     0.237776  26.57  0.002446465    2.149    0.535
       141 -10.2602     20.9422     65.0825   1.2524957743e+02   6.0720180478e+01    0.1791666     0.137349 -38.43 0.0008190278    1.054    0.051
       142 -10.1917    204.4135     63.8877   7.5074733603e+01   2.6016760924e+01     0.257924     0.204996  30.41 0.0001235047    1.666    0.400
       143  -9.5642    167.6292     63.0682   8.1303936890e+01   3.5265962155e+01    0.1955253    0.1839212 -57.04  0.000635708    1.090    0.083
       144 -10.2103     98.5504     62.2710   9.7944495703e+01   5.0931288985e+01    0.2676765    0.2140615  20.30  0.001257463    1.287    0.223
       145 -11.2099     91.8798     62.0840   9.9890964699e+01   5.2199640843e+01    0.3733979    0.3307668  60.36  0.001175672    1.370    0.270
       146 -10.7771     91.6315     58.0595   9.8640405647e+01   5.2930896304e+01    0.3678984     0.282416  49.65  0.001295755    1.443    0.307
       147 -10.7499     87.5174     56.5400   9.9403901580e+01   5.3921216727e+01    0.3864981    0.2032242 -37.89  0.001312149    1.857    0.462
       148 -10.9355    113.4919     61.2443   9.3364013770e+01   4.8125754819e+01    0.6164129    0.2548528 -34.83  0.002370264    2.542    0.607
       149 -11.1413    122.5444     58.5577   9.0106273852e+01   4.6629799484e+01    0.4462799    0.3522256  57.88  0.002017111    1.315    0.239
       150 -10.6206    117.4398     56.1992   9.0675780479e+01   4.8111434764e+01    0.3838432    0.2023064  53.13  0.001199223    1.921    0.479
       151 -10.3759    159.6440     61.6000   8.2488092503e+01   3.7468051270e+01    0.3955561    0.2476516  42.91  0.001777637    1.680    0.405
       152  -9.6084     34.9758     57.0611   1.1783131413e+02   6.1035787354e+01    0.1707667     0.118926 -25.46  0.001064651    1.300    0.231
       153 -11.5572     40.3648     55.9762   1.1549110823e+02   6.0687389534e+01    0.5708951    0.4167656  79.08  0.002943938    3.074    0.675
       154 -11.6487     51.2053     61.4053   1.1322781718e+02   5.8467247246e+01    0.4805515    0.3098894 -52.73 0.0009231208    1.609    0.379
       155 -11.0648     46.4879     58.5102   1.1402805659e+02   5.9552878622e+01    0.3506713    0.2125058 -50.91  0.001211043    1.624    0.384
       156  -9.3654     26.1958     60.0273   1.2196702087e+02   6.1275359122e+01    0.8686696     0.417405  49.62  0.003652676    4.568    0.781
       157 -10.9741     25.3609     55.3314   1.2094795330e+02   6.2224755227e+01    0.6297686    0.3127393   7.46  0.002867718    2.681    0.627
       158 -10.5979     29.3289     52.6876   1.1864726685e+02   6.2363607969e+01    0.4155539    0.1682302  33.06  0.002073188    2.842    0.648
       159  -9.4740    146.7361     60.6171   8.4956947946e+01   4.0748313075e+01    0.2004956    0.1367169  64.78 0.0004893516    1.533    0.348
       160  -9.5616    228.2926     59.2915   7.0550234023e+01   2.1021541680e+01    0.1261801    0.1101872  30.01 0.0001903293    1.551    0.355
       161 -11.0599    136.9910     55.9860   8.5760357838e+01   4.3773025679e+01    0.7291612    0.3853408  33.49  0.002860628    2.484    0.597
       162 -11.2049    145.8433     46.2008   8.0780743256e+01   4.3132866768e+01    0.4656663    0.3109896 -27.69  0.001649606    1.661    0.398
       163 -10.0657    157.4735     56.5272   8.1456984027e+01   3.8796354218e+01    0.2827191    0.2285797  44.89  0.000486025    1.237    0.192
       164 -10.9404    156.9677     53.4673   8.0663185563e+01   3.9385351340e+01    0.6253719    0.3775852 -64.83  0.002590591    2.364    0.577
       165  -9.7780      2.0771     56.1370   1.3001244611e+02   6.3645139821e+01    0.1717899    0.1114194 -37.69 0.0005433388    1.240    0.193
       166  -9.8135     67.1202     54.8836   1.0553380210e+02   5.7501202650e+01    0.1815905    0.1725659 -27.39 0.0006322882    1.221    0.181
       167 -10.0088    177.8723    247.8613   1.1981741925e+02  -2.8312874559e+00    0.1970673    0.1555891  22.41 0.0008483274    1.283    0.221
       168 -10.7996     60.7010     36.5648   1.0128859955e+02   6.1346863363e+01    0.2977721    0.1900914 -27.88   0.00110577    1.446    0.308
       169 -11.1562    240.0301     50.3928   6.7098765909e+01   1.9668400976e+01    0.3082242    0.2674084 -64.37 0.0008675768    1.086    0.079
       170 -11.5179    245.3144     50.8993   6.6611082370e+01   1.8411046924e+01    0.3548206     0.232003 -79.22  0.001877839    1.550    0.355
       171 -11.1137    112.9275     50.1916   8.9899601689e+01   4.9997001969e+01    0.7002256    0.3363054  32.35  0.002710622    2.719    0.632
       172 -12.6330    117.3316     42.9044   8.6320713345e+01   5.0111170835e+01    0.9944417    0.5983844  67.85  0.004247904    2.209    0.547
       173 -13.0012    120.1170     38.9618   8.4308596639e+01   5.0038606514e+01    0.8101133    0.6576712  86.51  0.002240994    1.590    0.371
       174  -8.8705     55.2852     51.2701   1.0848279481e+02   5.9757440904e+01    0.1227264   0.08492662 -11.63  0.000477327    1.500    0.333
       175 -11.1486     33.6663     44.0922   1.1421497265e+02   6.3457304522e+01    0.4711018     0.251358  25.18  0.002043966    2.018    0.505
       176 -10.6701     30.5983     40.3864   1.1417670498e+02   6.4377733104e+01    0.5676587    0.1283183  31.59   0.00222506    4.596    0.782
       177 -11.8353     46.0691     48.8342   1.1105040596e+02   6.1310461520e+01    0.4467689    0.3246802 -20.17  0.001272713    1.234    0.190
       178 -11.8513     41.7663     45.4598   1.1153608841e+02   6.2372037726e+01    0.3065726     0.242112  12.69 0.0003046281    1.277    0.217
       179 -10.5395    173.7025     48.3430   7.6044040031e+01   3.6004558280e+01    0.4341939    0.2358165  67.59  0.001834775    1.843    0.457
       180  -9.7074      3.2405     49.0005   1.2776884867e+02   6.4914899505e+01    0.1769553     0.141735  -8.52  0.001362181    1.328    0.247
       181 -10.2657    202.3980     46.7949   7.1081007038e+01   2.9104905408e+01    0.3328327    0.2580786 -25.52   0.00177898    1.554    0.357
       182 -10.1291     52.1886     47.5994   1.0835902026e+02   6.0773024048e+01     0.274207    0.1621806 -25.42  0.001493818    1.667    0.400
       183 -10.4151     27.2603     47.5184   1.1784918148e+02   6.3469918857e+01    0.3488196    0.1787952  -4.87  0.001031082    2.818    0.645
       184 -10.7853     20.8302     47.0477   1.2024248497e+02   6.4093315032e+01    0.2879562    0.1990425 -44.39  0.001062177    1.216    0.178
       185  -9.1751    132.3055     45.3150   8.3488225994e+01   4.6432477274e+01    0.1441316    0.1035636  24.10 0.0002213335    1.623    0.384
       186  -9.5688    139.1177     43.7364   8.1460641059e+01   4.5069705821e+01    0.2787679     0.154318  52.10  0.001269813    1.645    0.392
       187 -11.4271     95.8001     41.6488   9.1752009526e+01   5.4691341543e+01    0.8128716    0.3439145  54.37   0.00326389    2.826    0.646
       188  -9.7813      3.1815     44.5888   1.2660234890e+02   6.5718067822e+01      0.18865   0.09963584   5.12 0.0007399792    2.198    0.545
       189  -9.7817    161.5818     43.4850   7.6854650229e+01   3.9688192739e+01    0.3190333    0.1332354  61.60  0.001232866    2.259    0.557
       190 -11.2979    156.1319     41.8427   7.7402373955e+01   4.1247311924e+01    0.3668054    0.3043322  54.27 0.0008697864    1.122    0.109
       191  -9.9321     18.0681     42.0961   1.1981244792e+02   6.5174312260e+01    0.2288262    0.1275339  -4.33  0.001333962    2.091    0.522
       192 -11.1756     81.3902     39.2433   9.5282833194e+01   5.7667256953e+01     0.477291    0.3552513  50.04  0.001957844    1.541    0.351
       193 -10.9892     77.8322     34.1972   9.4560208509e+01   5.8980550656e+01    0.4030639    0.2159232  32.26  0.001026706    1.865    0.464
       194 -11.4213     82.4393     31.5433   9.2103902642e+01   5.8530951838e+01    0.3637967    0.3544671  74.03  0.002314868    1.386    0.278
       195 -10.9630    231.3253     39.2027   6.5605318996e+01   2.3256183851e+01    0.3509761    0.2160663 -57.22  0.001830555    1.507    0.336
       196 -11.1826      4.5422     36.2976   1.2362308657e+02   6.7090485919e+01    0.3422837    0.1972139 -27.81 0.0009021484    1.464    0.317
       197  -9.9734      6.2216     30.8692   1.2117223247e+02   6.7894711017e+01    0.2700054    0.1344386 -15.45  0.001577786    2.189    0.543
       198  -9.2878    218.6628     38.6826   6.6966633163e+01   2.6301900678e+01    0.1314868    0.1028278  39.11 0.0007048678    1.702    0.412
       199 -10.5396    176.6021     36.9056   7.2401734915e+01   3.6851190778e+01    0.3115683     0.254643 -46.76  0.001552138    1.285    0.222
       200 -10.5532    172.5034     33.0499   7.2000215185e+01   3.8360044472e+01     0.270825    0.1849137  87.02  0.001193823    1.580    0.367
       201 -10.0789    133.7386     37.5985   8.0697617550e+01   4.7142928997e+01    0.3391773    0.2272951 -87.07  0.001539828    2.299    0.565
       202 -10.9299     22.0924     36.3155   1.1625215166e+02   6.5820289887e+01    0.3812097    0.2127689  39.80  0.002212835    2.577    0.612
       203  -9.4838    206.9865     37.0419   6.8043008229e+01   2.9336280425e+01     0.169125    0.1483004 -76.65  0.001002567    1.050    0.047
       204 -10.3575    153.3917     36.2485   7.6262812740e+01   4.2648776477e+01    0.2567978    0.2214175  87.97 0.0006692765    1.203    0.169
       205 -11.3936    105.7808     32.8016   8.5844307906e+01   5.3884345781e+01      0.52276     0.306265  11.16  0.001585791    2.540    0.606
       206 -10.0676    198.8104    244.6189   1.1534943930e+02  -5.8804547151e+00    0.1851108    0.1026568  46.64 0.0009542854    1.714    0.417
       207 -10.1659     67.5170     32.4573   9.7341532683e+01   6.0903726001e+01    0.3344522    0.1963922 -25.09  0.001537609    1.660    0.398
       208  -9.6516    160.9728     33.4848   7.4066146109e+01   4.1147377177e+01    0.2229026     0.126684  63.98  0.001036756    1.609    0.378
       209 -11.1906    240.8871     31.4991   6.2911132067e+01   2.2119102989e+01    0.2883078    0.2643186 -72.70  0.001432489    1.211    0.174
       210 -10.9017     56.6177     30.8389   1.0058948086e+02   6.2748494795e+01    0.3644158    0.1913796  37.96  0.001819285    1.935    0.483
       211 -11.9296     48.2349     30.3070   1.0352560868e+02   6.3953016887e+01    0.6367165    0.2653174  29.88  0.002888759    2.518    0.603
       212 -11.7191     26.0830     27.7155   1.1147997959e+02   6.6813207601e+01    0.4611458    0.3482949  23.89  0.002999163    1.497    0.332
       213 -11.5758    127.5416    242.4775   1.2876686376e+02   6.7468263270e+00    0.3908035    0.2395559 -65.84  0.002121013    1.923    0.480
       214 -10.4194    150.4070    237.7668   1.2366945916e+02   3.6181176481e+00    0.1659297    0.1252343 -38.21 0.0009507804    1.667    0.400
       215 -10.3204    143.3304    235.6700   1.2476895466e+02   5.2391408819e+00    0.1368826   0.09295961  69.40 0.0006521759    1.716    0.417
       216 -10.4853    198.0973     28.7871   6.7165283428e+01   3.2574202786e+01    0.3671205    0.2300695  52.34  0.001652837    1.655    0.396
       217 -10.1052    199.6946     24.9990   6.6023236517e+01   3.2649242654e+01    0.2430031     0.176694  65.73 0.0004589539    1.265    0.209
       218 -11.5200    182.8187     25.0563   6.8281412413e+01   3.6782309850e+01    0.6111912    0.2483334  53.65  0.002248402    2.291    0.564
       219 -10.5704    175.8488     29.6904   7.0550597171e+01   3.7947857600e+01    0.2880547    0.2128396 -20.89  0.001337485    1.655    0.396
       220  -9.3690     15.4809    233.5085   1.4838266553e+02   2.4447688980e+01     0.110749   0.08042543  80.46 0.0008093449    1.070    0.065
       221 -10.2863    127.6571     29.2887   7.9343470783e+01   4.9562179402e+01    0.2636215      0.17892  47.44 0.0005693237    1.319    0.242
       222 -11.8532    124.8414     26.3504   7.8995350440e+01   5.0537590181e+01    0.5473545    0.3784445  32.22   0.00211638    1.483    0.325
       223 -10.9384    105.9487     20.1274   8.1291030276e+01   5.5314718239e+01    0.3164144    0.2112316 -16.25  0.001030507    1.638    0.389
       224  -8.9445    210.6682     29.7199   6.5819971795e+01   2.9403099823e+01    0.1295568   0.09782581  45.76 0.0007002197    1.607    0.378
       225 -10.3379    189.5073     27.5119   6.7989891970e+01   3.4840468237e+01    0.2926233    0.2276228  13.42  0.001374485    1.859    0.462
       226  -9.6109    159.8447     29.1957   7.3019183229e+01   4.1945982290e+01    0.2040208    0.1752727  89.78 0.0005954826    1.171    0.146
       227 -11.2234    164.3749     27.5203   7.1773432773e+01   4.1034880831e+01    0.3180847    0.2429845  88.63  0.001432329    1.351    0.260
       228 -10.0829    246.6754    230.6864   1.0420493674e+02  -1.1545895632e+01    0.1269897   0.08176176   5.52 0.0002765592    1.663    0.399
       229 -10.5383    153.3989     25.8001   7.3149243041e+01   4.3908654639e+01    0.4162177    0.3058719  23.89   0.00222509    1.671    0.402
       230  -9.5806    156.6100     25.1652   7.2401321388e+01   4.3202743141e+01    0.1819438    0.1701684  56.18 0.0002329157    1.083    0.077
       231 -10.5557     70.9102     32.0815   9.6043836175e+01   6.0415569807e+01    0.2549519    0.2094102 -14.14  0.001019161    1.127    0.113
       232 -11.1961    250.3463     23.8926   6.0441507672e+01   2.1017775596e+01    0.3554024    0.1503299 -39.50  0.001706633    2.184    0.542
       233 -11.7336    246.5957     21.0864   6.0202106873e+01   2.2193345720e+01     0.310818     0.210582 -83.52 0.0008977091    1.284    0.221
       234 -10.9324    214.9117     23.5322   6.3878244443e+01   2.9160586918e+01    0.3753407    0.3008778 -42.52  0.001888259    1.344    0.256
       235 -10.8781    138.0082     21.4968   7.4685259857e+01   4.8047854248e+01    0.4306494    0.1534955  47.70  0.001695575    2.537    0.606
       236 -10.3692    142.2914     19.5940   7.3278504763e+01   4.7242325068e+01    0.3237067    0.1696094  55.94  0.001421364    1.625    0.385
       237  -9.6956    143.3357     24.6998   7.4662495673e+01   4.6443381645e+01    0.1352171    0.1007212 -77.35 0.0005772281    1.658    0.397
       238  -9.8402     80.7731     19.3633   8.7951094235e+01   6.0293957648e+01    0.2704787    0.1486743  44.82  0.001177522    1.662    0.398
       239  -9.1607    190.2323    229.9846   1.1462874361e+02  -2.1393657397e+00    0.1522213    0.1107319 -41.35 0.0004819756    1.555    0.357
       240  -9.3807      9.4296    227.4384   1.4902098636e+02   2.6279309529e+01    0.1113531   0.07765038  79.77 5.998039e-05    1.008    0.007
       241  -9.5712    234.6567    222.6677   1.0493249435e+02  -8.5520420679e+00    0.1345311   0.08800395   5.64 0.0005243605    1.756    0.430
       242  -9.4375    152.5051    207.5021   1.1854834379e+02   8.9028585111e+00    0.1425598    0.1279728  57.01 0.0008104891    1.030    0.029
       243 -10.0626      4.5451    204.7690   1.4843574161e+02   3.1378059391e+01    0.2156574   0.08005705 -72.18  0.001135867    2.125    0.529
       244  -9.6804    233.6119    196.8428   1.0027333975e+02  -4.3758623299e+00    0.1825233    0.1208026 -45.15 0.0007075661    1.657    0.396
       245 -10.5673     38.7522     22.0093   1.0397241398e+02   6.6275598721e+01    0.2583088     0.134695 -28.42 0.0007919839    1.714    0.416
       246  -9.1889    169.0152    191.7639   1.1221045450e+02   8.8372866075e+00    0.1940993    0.1163623  43.93 0.0003879412    1.572    0.364
       247  -9.3344    223.4911     22.4587   6.2711596991e+01   2.7268633920e+01    0.1325426    0.1085312 -82.17 0.0001815574    1.008    0.008
       248 -10.5857     66.2376     22.0132   9.3693480016e+01   6.2453112564e+01    0.2400717    0.1782798  13.68 0.0003711764    1.197    0.164
       249 -12.2576      5.1173    184.9482   1.4691332892e+02   3.5554308643e+01    0.6581037    0.3731956  74.31  0.004058504    1.541    0.351
       250 -10.0822     39.5305    173.4877   1.3862195417e+02   3.4701555372e+01    0.1281507    0.1033889 -84.92 4.632713e-05    1.030    0.029
       251 -10.0187     34.6114    170.2186   1.3934545378e+02   3.6000844776e+01    0.1826836   0.09484591 -63.28 0.0009517652    1.653    0.395
       252 -11.7384      9.6289    165.9023   1.4437948785e+02   3.9379152809e+01     0.504329     0.256298 -59.99  0.002871093    1.766    0.434
       253 -11.5490     13.7127    157.7455   1.4268241452e+02   4.0877527628e+01    0.4380824    0.1715858 -76.75  0.001361649    2.144    0.534
       254  -9.4417    198.2182    167.7590   1.0119427364e+02   7.6710644398e+00    0.2004537    0.1709951  -1.78 0.0005656189    1.322    0.243
       255  -9.4986      1.7734     20.4541   1.1957378389e+02   6.9828303647e+01    0.1403678   0.08059496  -7.35  0.000945908    1.699    0.411
       256  -9.9564    220.9560     19.0175   6.2204315966e+01   2.8279321036e+01    0.1936912    0.1624303 -87.78 0.0004683943    1.048    0.046
       257 -10.0433     18.9651    165.3160   1.4229132327e+02   3.8688831105e+01    0.1689016    0.1386554  87.63  0.000693061    1.093    0.085
       258 -10.0834    170.9263     17.7848   6.8036943770e+01   4.0521991359e+01    0.1932263     0.164028  78.58  0.000436114    1.042    0.040
       259 -10.0466    205.0995    163.3661   9.8856420273e+01   7.1036680473e+00     0.240801    0.2012769 -26.46 0.0006192032    1.229    0.186
       260  -9.0810    188.3676    164.2989   1.0249494633e+02   1.0437666509e+01    0.1562687    0.1193076   8.28 0.0005468219    1.732    0.423
       261 -10.2787    186.2663     15.1563   6.5249721447e+01   3.7053030221e+01    0.2419674    0.1871352  60.60 0.0005877392    1.228    0.185
       262  -9.9378    145.9424     16.4984   7.1669890449e+01   4.6695948518e+01    0.2769034    0.1073005  59.08  0.001164684    2.126    0.530
       263  -9.9677     81.0425    160.3901   1.2696186837e+02   3.2287076413e+01    0.3640411    0.1440252  32.98  0.001339747    3.105    0.678
       264 -10.8622    104.5084    152.9935   1.1973684762e+02   3.0154751731e+01    0.5246648    0.2976228 -67.01  0.002191486    1.941    0.485
       265 -10.3468     71.7243    151.4368   1.2778402668e+02   3.5824243561e+01     0.319568    0.1899058  54.69  0.001516558    1.841    0.457
       266 -10.3495     31.3565    153.9577   1.3815701698e+02   4.0120444384e+01    0.3268009    0.2036185  57.84  0.001848853    1.707    0.414
       267 -10.8335     30.4984    149.0056   1.3773325652e+02   4.1362090049e+01     0.269065    0.1699784  76.99 0.0006460155    1.685    0.406
       268 -12.0276     22.9309    149.3159   1.3959957847e+02   4.2003770919e+01    0.4978355    0.2919756 -32.79  0.002549348    2.661    0.624
       269 -11.2278     16.1378    148.2610   1.4109242643e+02   4.2839702013e+01    0.3169182    0.1939348  42.89  0.001347255    1.835    0.455
       270 -12.3045      5.1929    147.3436   1.4355174128e+02   4.3911210676e+01    0.5616124    0.3051784 -61.17  0.003343466    1.531    0.347
       271 -11.2954      2.2296    141.5199   1.4363816618e+02   4.5434218421e+01    0.3278315     0.279974 -82.93   0.00227895    1.149    0.130
       272 -11.4522      3.8862    136.5374   1.4270510409e+02   4.6440629273e+01     0.224241    0.1768068 -72.11 0.0004645776    1.080    0.074
       273 -11.3364     62.3719    149.9677   1.2991812569e+02   3.7467796503e+01    0.4509174    0.3524156  88.25  0.001919045    1.247    0.198
       274 -10.8987     48.0783    151.5200   1.3375164913e+02   3.8880432493e+01    0.3400428    0.1912468  30.06  0.001713168    2.165    0.538
       275 -11.2539     47.2019    146.3897   1.3321066614e+02   4.0201227646e+01    0.5341293    0.2778608 -67.59  0.002085749    1.654    0.395
       276  -9.6177     85.3254    149.6868   1.2399391144e+02   3.4191545563e+01    0.1497398    0.1055084  78.15 0.0004137528    1.664    0.399
       277  -9.8825     41.8592    148.1705   1.3481670927e+02   4.0379344831e+01    0.2514243    0.1898224  36.43  0.001181697    1.551    0.355
       278  -9.3923     74.3035    145.3229   1.2604839320e+02   3.6922504205e+01    0.1392742    0.1047913 -35.01  0.000342544    1.636    0.389
       279 -10.6982     33.2178    144.3012   1.3643406802e+02   4.2194566938e+01    0.2589803    0.1999685 -80.82 0.0007324786    1.095    0.087
       280  -9.6140    133.5351    140.7910   1.0983443169e+02   2.7399006256e+01    0.3046808    0.1478895 -44.63  0.001133917    2.110    0.526
       281 -11.9389     29.8779    132.9872   1.3568155855e+02   4.5161169122e+01     0.568659     0.309264 -79.38 0.0004805377    1.788    0.441
       282  -9.7734     26.2340    139.9948   1.3760179669e+02   4.3866276005e+01    0.2055722    0.1448139 -74.41  0.000663961    1.151    0.131
       283 -12.0406     22.7165    135.6757   1.3791208265e+02   4.5180040446e+01    0.5351812    0.3782343  63.43   0.00330563    1.554    0.356
       284 -10.7775     81.9219    134.8216   1.2201756849e+02   3.8297416264e+01    0.3916026    0.2809393  12.73  0.001651255    2.015    0.504
       285 -10.8794     71.2754    133.8927   1.2472102974e+02   4.0101688230e+01    0.5315489    0.3217517  15.31  0.002303412    2.666    0.625
       286 -10.6114     47.7234    134.3693   1.3116915362e+02   4.2994427579e+01    0.2589483    0.1862533 -59.22 0.0009720542    1.205    0.170
       287 -10.3315     14.0631    132.8694   1.3974479917e+02   4.6531513028e+01    0.2455804    0.1455226 -78.25 0.0005359277    1.416    0.294
       288 -10.5748     92.9443    128.8760   1.1776404266e+02   3.7925755111e+01    0.3546052    0.2836504  54.63  0.001559141    1.330    0.248
