#   1 NUMBER                 Running object number                                     
#   2 MAG_AUTO               Kron-like elliptical aperture magnitude                    [mag]
#   3 X_IMAGE                Object position along x                                    [pixel]
#   4 Y_IMAGE                Object position along y                                    [pixel]
#   5 X_WORLD                Barycenter position along world x axis                     [deg]
#   6 Y_WORLD                Barycenter position along world y axis                     [deg]
#   7 A_WORLD                Profile RMS along major axis (world units)                 [deg]
#   8 B_WORLD                Profile RMS along minor axis (world units)                 [deg]
#   9 THETA_WORLD            Position angle (CCW/world-x)                               [deg]
#  10 FWHM_WORLD             FWHM assuming a gaussian core                              [deg]
#  11 ELONGATION             A_IMAGE/B_IMAGE                                           
#  12 ELLIPTICITY            1 - B_IMAGE/A_IMAGE                                       
         1 -10.6086     19.8694     16.0225   5.1582855042e+01   7.0640592204e+01    0.2168021    0.1479642 -17.77 0.0004304555    1.195    0.163
         2 -11.2125     49.7280     14.0726   3.6439955312e+01   6.6829820109e+01    0.3137273    0.2372181  22.63  0.001042681    1.084    0.077
         3 -10.8904     45.4962     12.0057   3.7240915649e+01   6.7734249188e+01    0.2126888    0.1539002  33.64 0.0006095744    1.285    0.222
         4 -10.2222     35.0472     13.6730   4.2762139182e+01   6.9083845487e+01    0.2140464    0.1470573 -12.14 0.0005975598    1.287    0.223
         5 -12.0848    119.1220      8.8980   1.4426917898e+01   5.3111447286e+01    0.3782885    0.2341729  64.47 0.0002925365    1.388    0.279
         6 -11.6839    123.6499      6.3793   1.2768224184e+01   5.2259321030e+01    0.3512867    0.2368796  80.25  0.001073232    1.513    0.339
         7 -10.3659     78.9558     11.4957   2.4986891814e+01   6.1720059088e+01    0.2047695    0.1731174 -36.38 0.0008412537    1.492    0.330
         8 -11.8819     75.3323      8.7709   2.4929155287e+01   6.2692462607e+01      0.44043     0.239658  38.93   0.00239059    1.535    0.349
         9 -11.5511    104.5736      9.3736   1.7569999795e+01   5.6406003700e+01    0.3757055    0.2685294  33.51  0.002232552    1.340    0.253
        10 -11.9449     56.5155      9.0601   3.1424705802e+01   6.6203755014e+01    0.3688473    0.2562123  22.73   0.00113373    1.207    0.172
        11  -9.8926      6.3392     14.6446   5.8531473316e+01   7.2112915983e+01     0.204182    0.1704531 -61.60  0.001417365    2.143    0.533
        12  -9.7625     27.6482     11.0143   4.5093042734e+01   7.0388382784e+01    0.1682551    0.1258426 -10.53  0.001165186    1.144    0.126
        13 -10.4682     69.4950      9.3659   2.7021010822e+01   6.3783087256e+01    0.2525949    0.1353772  19.18  0.001257354    2.146    0.534
        14 -11.4894    178.1552      7.8613   5.6613501312e+00   3.9179821304e+01    0.2566132    0.1531351 -47.77  0.001105066    1.708    0.415
        15 -11.5156     97.7051      7.0518   1.8271473166e+01   5.8125674106e+01    0.3904729    0.2398027 -49.05   0.00205908    2.269    0.559
        16 -10.1563      3.4381      8.2287   5.7259026390e+01   7.3281305978e+01    0.2137857    0.1564394 -24.27 0.0006296933    1.195    0.163
        17  -9.7692      4.1736      4.0815   5.4747905868e+01   7.3791291767e+01    0.1759623    0.1087936 -12.07 0.0007481945    1.279    0.218
        18 -11.4118     85.5368      7.4827   2.1483287383e+01   6.0711485321e+01    0.2414882    0.2205033   7.73 0.0006814115    1.200    0.167
        19 -12.0429     88.6003      5.7679   1.9996663407e+01   6.0202479726e+01    0.4210884    0.2665491   3.65 0.0003560624    1.842    0.457
        20 -11.4687    130.7740      4.8020   1.1064054118e+01   5.0708247927e+01    0.3775672    0.2501076   4.90  0.001443899    2.021    0.505
        21 -11.8172    174.0372      3.8579   5.1086059683e+00   4.0514554414e+01    0.3251317    0.2612959 -53.05 0.0008521855    1.304    0.233
        22  -9.9289     32.3884      9.6993   4.2088394369e+01   6.9921865462e+01    0.1962743   0.09998214 -32.91 0.0008661666    2.016    0.504
        23  -9.9475    242.7681      4.9570   3.5966024889e+02   2.5331592274e+01    0.1409106   0.08313122 -40.28 0.0008818123    1.650    0.394
        24  -9.7361      8.0212      5.3115   5.3042624491e+01   7.3281036798e+01    0.1570962    0.1090899   3.66 0.0007410534    1.153    0.133
        25 -10.7727    185.4481      3.4839   3.8577189956e+00   3.7889478989e+01     0.218636    0.1026362  73.65 0.0008307428    1.795    0.443
        26  -9.7993     16.2378      4.6236   4.7924017100e+01   7.2528419474e+01    0.1565936   0.08478595  17.43 0.0007908628    1.644    0.392
        27 -10.7703    160.1577      3.3690   6.5549931372e+00   4.3837564768e+01    0.1886255    0.1024444  82.72 0.0009535028    1.729    0.422
        28 -11.6216    114.3588      1.9559   1.2972963111e+01   5.4757848049e+01    0.3822611    0.1842494  66.53 0.0009607441    1.790    0.441
        29 -10.2059     37.8008      1.9281   3.5611913785e+01   6.9969309315e+01      0.22987    0.1427062  38.19 0.0007914108    1.465    0.318
        30 -10.4921    178.9567      1.4330   4.0037369831e+00   3.9579893295e+01    0.1840997    0.1013403  74.45 0.0009971983    1.513    0.339
        31 -10.3525      4.3389     96.1515   8.2353263308e+01   5.6020325916e+01    0.2006799    0.1542365 -31.19 0.0004931089    1.301    0.231
        32  -9.1307    237.2343     95.7391   1.8764145322e+01   1.3989903804e+01    0.2099721    0.1035826 -29.55 0.0008790216    2.397    0.583
        33 -10.9848     15.3605     93.8707   7.7934216860e+01   5.5903352601e+01    0.2060715    0.1800076  32.07  0.001339032    1.378    0.274
        34  -9.7142    132.5281     92.6247   3.8023187905e+01   3.8014344958e+01    0.2450195    0.1464123  48.33 0.0005361458    1.656    0.396
        35 -10.6631     11.9724     85.7864   7.7627268860e+01   5.7985296898e+01     0.217965    0.1524438 -55.79 0.0003816831    1.167    0.143
        36 -11.1726      6.6560     85.2910   7.9576500467e+01   5.8404448299e+01    0.2580461    0.1820977 -18.99  0.001018054    1.485    0.327
        37 -10.1801    188.6694     82.0588   2.3008786983e+01   2.6784282923e+01    0.2544544    0.2007774  53.89  0.000193962    1.302    0.232
        38 -11.7093     54.7779     79.1090   5.9148390865e+01   5.5350774009e+01    0.2523061    0.2198834 -42.75 0.0003152979    1.147    0.128
        39 -10.4633      5.7117     80.0380   7.8921249892e+01   5.9640141598e+01    0.1825492    0.1312125 -54.18 0.0005102435    1.111    0.100
        40  -9.6337     31.5459     77.4879   6.7913104893e+01   5.8333912494e+01    0.1338713    0.1107169 -34.74 0.0001010878    1.014    0.014
        41 -11.7047      3.6505     75.3744   7.8803191250e+01   6.0781123895e+01    0.4068931     0.249715 -45.75  0.002307803    1.280    0.219
        42  -9.3912    128.4920     71.1468   3.2652954569e+01   4.2943251928e+01    0.2070369    0.1485675 -35.56 0.0004954666    1.455    0.313
        43 -12.0987     64.0702     69.5253   5.2591892978e+01   5.5982763401e+01     0.241934    0.2106263 -18.97 0.0002623064    1.040    0.038
        44 -10.7967      7.5897     68.5308   7.5665417328e+01   6.2062681661e+01    0.2156475    0.1719296 -45.37 0.0005924365    1.042    0.041
        45  -9.2212    151.5501     66.4895   2.5894187393e+01   3.8247923487e+01    0.1458224    0.1393668  67.23 8.994121e-05    1.005    0.005
        46  -9.8233     69.9930     66.0338   4.9202103377e+01   5.5713515571e+01    0.2137201    0.1861346  -3.41 0.0005303643    1.040    0.038
        47  -9.5335    204.1669     65.3855   1.6450141247e+01   2.5909128447e+01    0.1910739    0.1246385  79.85 0.0006629831    1.675    0.403
        48  -9.0591    192.2817     65.7269   1.8298295541e+01   2.8599077465e+01    0.1395362      0.10082 -72.35  0.000242529    1.499    0.333
        49 -10.8022      4.4546     64.1114   7.5977576143e+01   6.3172099092e+01     0.243093    0.1789005 -46.81 0.0006465043    1.071    0.067
        50 -11.8629      3.8775     58.3899   7.4832609366e+01   6.4394853511e+01    0.4368272    0.2284036 -46.33  0.002153176    1.445    0.308
        51  -9.8576     99.0967     61.8832   3.7885700777e+01   5.1009816853e+01    0.3338405    0.1914131 -59.53  0.001254766    3.128    0.680
        52 -10.7002     43.5285     62.4264   5.8491158902e+01   6.0183108455e+01     0.240442    0.2026933 -18.60 0.0005224636    1.003    0.003
        53  -9.5192     34.8533     60.8563   6.1692779308e+01   6.1471123981e+01    0.1543298    0.1460482   1.18 0.0003061877    1.254    0.203
        54 -10.0039    231.5084     60.4646   1.1852795928e+01   2.0670139889e+01    0.1307719    0.1095659 -66.03 -2.161449e-05    1.013    0.013
        55  -8.9062     56.7053     60.2630   5.2347245105e+01   5.8848065910e+01    0.1169427    0.1084741  62.80 0.0002154228    1.505    0.336
        56 -12.2408     23.7645     56.8340   6.5348181058e+01   6.3332660541e+01    0.4574197    0.4113249 -58.90  0.002727666    1.389    0.280
        57  -9.0836     84.3590     57.6872   4.1189705810e+01   5.4649727299e+01    0.1348517    0.1149788  84.24 0.0007042912    1.746    0.427
        58 -10.2917    228.4820     57.4798   1.1551246113e+01   2.1738325938e+01     0.130094    0.1108353 -67.33 6.547427e-05    1.011    0.011
        59  -9.6347    126.3213     64.0884   3.1000765099e+01   4.4633444990e+01    0.1899536    0.1815884 -36.11 0.0002698524    1.109    0.098
        60  -9.2325     77.5312     55.4807   4.2768352753e+01   5.6288482136e+01    0.1371063    0.1259864   8.62  0.000808231    1.082    0.076
        61  -9.9185     63.8065     51.3626   4.6350672606e+01   5.9335596069e+01    0.2224356    0.1489798 -29.46  0.001181449    1.445    0.308
        62  -9.7987     68.9413     51.5305   4.4455963207e+01   5.8455711642e+01    0.2047874    0.1253598  36.88 0.0009029549    1.575    0.365
        63 -11.5995     94.0224     48.5645   3.4790535272e+01   5.4177425147e+01    0.2437225    0.1945745 -24.62 0.0001402526    1.300    0.231
        64 -10.9907     52.0416     46.2477   4.9162140322e+01   6.1993584809e+01    0.4027823    0.2366793  22.58   0.00179785    1.705    0.414
        65 -10.2762     39.0226     43.8234   5.3897960153e+01   6.4141828815e+01    0.2704268    0.1992803  28.62  0.001255569    1.437    0.304
        66  -9.9729     32.8520     43.9923   5.6786643390e+01   6.4832521602e+01    0.2079904    0.1629742  11.97 0.0007861488    1.230    0.187
        67  -8.8680     20.6939     44.7034   6.2809460295e+01   6.5910190900e+01    0.1283983   0.07500727 -22.67  0.000244303    1.587    0.370
        68 -10.3427    118.9438     42.5288   2.5813511190e+01   4.9540115957e+01    0.2854069    0.2015011 -29.18 0.0008098809    1.548    0.354
        69  -9.0393     71.6347     42.3203   3.9966411260e+01   5.9432018774e+01    0.1246273    0.1096492  83.93 0.0007039389    1.783    0.439
        70 -10.0586    185.8941     41.3717   1.3104435362e+01   3.3584611568e+01    0.1855736    0.1543468  71.79 0.0004342647    1.123    0.109
        71 -10.3962    158.9875     39.2274   1.6634625210e+01   4.0355340893e+01    0.2079102    0.1969989 -68.46 0.0003055249    1.110    0.099
        72  -9.0357      1.2286     39.6574   7.0839640019e+01   6.8218376997e+01    0.0976909    0.0856438 -68.92 0.0003134211    1.543    0.352
        73  -9.2634     96.1151     38.1367   3.0358800425e+01   5.5198660300e+01    0.1690434    0.1557342  62.38 0.0003459481    1.252    0.201
        74  -9.1764     13.2587     37.6507   6.4013847410e+01   6.7796564190e+01   0.09931871   0.09317999 -68.12 0.0002607327    1.603    0.376
        75 -11.2423     39.8888     35.8655   5.0371736906e+01   6.5337958364e+01    0.4123671    0.1983053  35.82  0.002067315    2.138    0.532
        76  -9.5594    119.4524     35.0360   2.3172723005e+01   5.0372733561e+01    0.1856093     0.137081 -25.06 0.0004197177    1.509    0.337
        77  -9.6215    173.9818     34.3017   1.2953917263e+01   3.7327549877e+01    0.1902269     0.153599  74.79 0.0004319263    1.108    0.098
        78  -9.8759     26.0806     32.9453   5.5754062075e+01   6.7427076096e+01    0.3707471    0.1482908 -23.24  0.001393356    3.871    0.742
        79 -10.1713    153.4966     32.2350   1.5559428825e+01   4.2544116778e+01    0.2713199    0.2013231  43.38 0.0006572749    1.409    0.290
        80 -10.0592      7.4862     32.6044   6.5193776285e+01   6.9110525146e+01    0.2021062    0.1469692 -10.74 0.0005899739    1.175    0.149
        81 -10.4923      3.5045     31.0722   6.6768593642e+01   6.9641945151e+01    0.1881334    0.1586469   8.46 0.0003255904    1.377    0.274
        82  -9.8063     49.6176     32.5809   4.4712246617e+01   6.4477389633e+01    0.3388251    0.1112085  41.96  0.001339504    3.230    0.690
        83 -10.2216     17.6782     31.4293   5.9402808659e+01   6.8497809345e+01    0.1924539    0.1506613 -24.77 0.0003227998    1.117    0.105
        84  -9.8909     92.4526     31.0388   2.8773769613e+01   5.6864777264e+01    0.1952977    0.1585848  39.49 0.0003211118    1.080    0.074
        85  -9.9005    104.5846     29.5471   2.4892690804e+01   5.4407975540e+01    0.2851625    0.1882575 -44.76  0.001478157    1.855    0.461
        86  -9.4214     64.4602     29.7543   3.7563439483e+01   6.2454091803e+01    0.1668376    0.1129556 -10.89 0.0004848032    1.517    0.341
        87  -9.3107     59.2372     29.5800   3.9498790991e+01   6.3371156540e+01    0.1783965    0.1041559  29.07  0.000747335    1.579    0.367
        88  -9.7159    160.8357     27.1380   1.2948494120e+01   4.1344168311e+01    0.2007155    0.1638343 -89.54 0.0006916628    1.174    0.148
        89 -10.6655    120.7049     26.1126   1.9888838906e+01   5.1100916401e+01      0.39904    0.1633171  48.04  0.001684009    2.135    0.532
        90 -10.3451     46.9642     26.7977   4.3377610573e+01   6.5685229150e+01     0.194125    0.1523555  -8.72 0.0003436063    1.121    0.108
        91  -9.6538     60.7285     25.9666   3.7380001541e+01   6.3585963096e+01    0.1770891     0.141911  -4.59 0.0008413593    1.154    0.133
        92 -10.1578    111.2745     24.6784   2.1513663745e+01   5.3435732127e+01    0.2030835    0.1541971  68.98 0.0005459073    1.366    0.268
        93 -10.8903     85.1251     20.3912   2.6782780823e+01   5.9588391205e+01    0.2881542    0.1865388 -60.88   0.00134662    2.929    0.659
        94  -9.4312     83.2318     25.3559   2.9335030073e+01   5.9433959937e+01    0.1770292     0.114297  55.97 0.0002725701    1.611    0.379
        95  -9.2729    239.2556     24.4096   3.6467130776e+00   2.3845380362e+01    0.1560366    0.0955977 -86.64 0.0003411568    1.510    0.338
        96 -10.0138    129.0282     24.2006   1.7546229037e+01   4.9339463574e+01    0.2039999    0.1583652  42.93 0.0004115451    1.226    0.184
        97 -11.8100     96.8976     22.1306   2.4164359288e+01   5.6911653410e+01    0.3595431      0.24933  63.99 0.0003837588    1.526    0.345
        98  -9.7803     72.9361     22.5040   3.1501175485e+01   6.1782133184e+01    0.1838412    0.1534752  18.24 0.0004940209    1.040    0.039
        99 -10.9425     38.3095     22.7968   4.5489250299e+01   6.7462636202e+01    0.2160141    0.1657154   5.63 0.0002647479    1.047    0.045
       100  -9.3819    196.2824     22.3506   7.1954499573e+00   3.3453752527e+01    0.1193735   0.09450577  39.48 0.0006027116    1.652    0.395
       101 -10.1092    142.1532     22.3892   1.4574333696e+01   4.6380981645e+01    0.1915133    0.1160345  76.67 0.0006582963    1.674    0.403
       102  -9.5463     66.5081     20.5573   3.2908418870e+01   6.3204055616e+01    0.1276245    0.1047362  22.15 6.259244e-05    1.019    0.019
       103 -10.1031    109.7701     19.2381   1.9941098037e+01   5.4334199663e+01    0.1877588    0.1339815  33.73 0.0006954391    1.365    0.268
       104  -9.4683     48.5404     19.5449   3.9462402767e+01   6.6381566065e+01    0.1243259   0.09862357  10.70 8.769638e-05    1.006    0.006
       105 -10.2406     23.9590     17.2069   4.9977751468e+01   7.0024238564e+01    0.3044704    0.1530398 -48.27  0.001518941    2.987    0.665
       106 -11.4858      3.3098    221.4073   9.4598141242e+01   2.6573691267e+01    0.3675952    0.1706527  68.48  0.001993143    1.920    0.479
       107 -10.5260      6.5043     19.4082   6.0530682233e+01   7.1371040017e+01    0.4171496    0.1146675  22.46  0.001846326    3.569    0.720
       108 -10.6645     14.1322     17.7604   5.5514659103e+01   7.0968528691e+01    0.3589153    0.1726146  19.64  0.001571279    1.985    0.496
       109  -9.4355    147.4436     18.2180   1.2467158137e+01   4.5526353766e+01    0.1658251    0.1196088 -46.39 0.0003865126    1.532    0.347
       110 -10.3140     66.0000     16.1574   3.1179020184e+01   6.3776329615e+01    0.1995758    0.1600894   2.67 0.0003057712    1.176    0.150
       111  -9.3200    206.8479     15.7950   4.6429117133e+00   3.1776080013e+01    0.1682839    0.1167955 -74.73 0.0002840204    1.278    0.217
       112 -11.1695     84.9142     15.8542   2.5027514765e+01   6.0088842199e+01    0.3763606    0.1471898  51.20  0.001680456    2.110    0.526
       113 -10.7172    183.1266     14.9117   6.8523764546e+00   3.7317909010e+01    0.2025915      0.14782 -77.77 0.0005734597    1.277    0.217
       114  -9.6421    238.6803    220.6789   4.3979483826e+01  -7.3235082325e+00    0.1313469   0.08138166  -4.31 0.0004879481    1.669    0.401
       115 -11.3253     18.5683    198.5634   8.9908667244e+01   3.0217406319e+01    0.2225433    0.1462889  87.79  0.001086094    1.314    0.239
       116 -10.5179    127.5446     14.1568   1.4589156718e+01   5.0675533930e+01    0.3160974    0.1483086  54.99  0.000857154    1.740    0.425
       117 -10.4006    110.7229     14.0066   1.7881829452e+01   5.4608757343e+01    0.3185395    0.1111727  60.72  0.001289863    2.436    0.590
       118  -9.8998     94.5594     14.5446   2.1891098699e+01   5.8165766367e+01    0.1274321      0.10981  44.10 6.621732e-05    1.060    0.057
       119 -11.6962      4.0722    197.9685   9.3037105939e+01   3.1660536010e+01    0.3696908    0.2568153 -20.27  0.002159852    2.417    0.586
       120 -10.5037    242.8120    189.7867   3.7460794734e+01  -3.0853476435e+00    0.2281628    0.1258676  -5.28 0.0009582334    2.863    0.651
       121 -10.1071    244.3890    180.1996   3.5315297455e+01  -1.7470034090e+00    0.1866598    0.1084689 -44.42 0.0009456814    1.729    0.422
       122 -11.4966      8.5444    178.6956   9.0628506854e+01   3.5768034736e+01     0.270025     0.172736  51.85  0.001450632    1.532    0.347
       123 -10.0489    224.3773    173.1953   3.7455709551e+01   2.6496563074e+00      0.19611    0.1189268 -45.43 0.0007716574    1.664    0.399
       124  -9.0170     21.2952    174.7086   8.7183170152e+01   3.5622334706e+01    0.1315408    0.0837497  68.25 0.0003890467    1.555    0.357
       125  -9.1380      3.7262    156.9805   8.9963920596e+01   4.1352386572e+01    0.1633029   0.09113072 -75.65 0.0005944081    1.454    0.312
       126  -9.9550     25.5630    146.2482   8.2847447509e+01   4.2290668756e+01    0.2227345    0.1819615  25.02 0.0006279122    1.432    0.302
       127  -9.3489     75.1182    144.1490   6.7837252865e+01   3.6956013791e+01    0.1860553    0.1630385  75.59            0    1.223    0.183
       128 -11.4319      6.3448    141.7511   8.7762435489e+01   4.4891680218e+01    0.4440773    0.1748781 -89.61  0.001716212    3.112    0.679
       129 -10.2706      2.0040    141.3067   8.8924019014e+01   4.5278348172e+01    0.1712613    0.1440443 -82.91 0.0004828928    1.059    0.056
       130  -9.2898     28.5611    138.4433   8.0908379239e+01   4.3983223492e+01    0.1351565    0.1156561 -66.86 5.244715e-05    1.022    0.021
       131 -10.4383     11.0559    133.5177   8.5463631549e+01   4.6599236064e+01    0.2125688     0.148094 -73.62  0.001205804    1.198    0.165
       132 -10.6509     17.6132    132.0967   8.3320854453e+01   4.6477709857e+01    0.2401144    0.1934215  35.57 0.0008833261    1.430    0.301
       133 -10.8782     58.0549    130.0150   7.0332470122e+01   4.2908220568e+01    0.2087888    0.1908592 -54.49  0.001182421    1.014    0.014
       134 -11.5142      6.2522    120.1718   8.5232996654e+01   5.0175748996e+01    0.4022118    0.1338334 -60.41  0.001344221    2.179    0.541
       135  -9.1733    103.0299    119.9520   5.3925487335e+01   3.8208790962e+01    0.1767787    0.1731561 -19.58 0.0009328956    1.010    0.010
       136 -10.6356     13.2971    117.4057   8.2604890565e+01   5.0405100863e+01    0.2248676    0.1917792 -71.49 0.0003310938    1.071    0.067
       137  -8.8652     91.7157    116.2632   5.6473015185e+01   4.1159181601e+01    0.1447759    0.1209952  76.29 0.0002162037    1.487    0.328
       138  -9.9796     19.0904    107.9879   7.9168545338e+01   5.2288933498e+01    0.2007977    0.1677038 -46.78  0.001249844    1.087    0.080
       139 -11.3913      1.9537    105.2611   8.4581221752e+01   5.3995557436e+01    0.4541982    0.1306374 -62.52  0.001906455    2.388    0.581
       140 -10.8103     12.9323    105.8391   8.0927514372e+01   5.3228471566e+01    0.2298895    0.1726653 -79.34 0.0006427988    1.313    0.238
       141  -8.7936     49.3137    101.3017   6.7088803144e+01   5.1030033332e+01    0.1466882   0.09740499 -28.40 0.0003299849    1.613    0.380
       142  -9.4977     26.9362    100.7745   7.5056269875e+01   5.3407164928e+01    0.1630645    0.1107999  14.24 0.0008817905    1.686    0.407
       143 -10.8636     39.1486     96.2614   6.9610791471e+01   5.3338286625e+01    0.3976664    0.1814576 -67.24  0.001587489    2.559    0.609
       144 -10.1779     64.4179     96.0454   6.0342044495e+01   5.0279626253e+01    0.2531858    0.2079561  35.22 0.0007687599    1.312    0.238
