#   1 NUMBER                 Running object number                                     
#   2 MAG_AUTO               Kron-like elliptical aperture magnitude                    [mag]
#   3 X_IMAGE                Object position along x                                    [pixel]
#   4 Y_IMAGE                Object position along y                                    [pixel]
#   5 X_WORLD                Barycenter position along world x axis                     [deg]
#   6 Y_WORLD                Barycenter position along world y axis                     [deg]
#   7 A_WORLD                Profile RMS along major axis (world units)                 [deg]
#   8 B_WORLD                Profile RMS along minor axis (world units)                 [deg]
#   9 THETA_WORLD            Position angle (CCW/world-x)                               [deg]
#  10 FWHM_WORLD             FWHM assuming a gaussian core                              [deg]
#  11 ELONGATION             A_IMAGE/B_IMAGE                                           
#  12 ELLIPTICITY            1 - B_IMAGE/A_IMAGE                                       
         1 -14.4415     68.3282    144.2318   1.0123970164e+02   3.7251370178e+01     5.227778     2.289052  65.32  0.005733581    4.466    0.776
         2 -13.9594    223.6097     21.6200   3.6465556571e+01   2.7378081175e+01     1.011948    0.8953863   6.08  0.002665748    1.423    0.297
         3 -13.6126    199.0174     42.8347   4.4442096615e+01   3.0353851618e+01     1.352749    0.9381765  21.73  0.002858346    2.085    0.520
         4 -14.2021    207.7353     36.8461   4.1845942310e+01   2.9117810689e+01     1.721278     1.413791  -5.00  0.006617851    1.449    0.310
         5 -11.9361    248.2615      2.4368   3.0424083730e+01   2.4270919979e+01    0.4704247    0.3008777  62.46   0.00233095    1.915    0.478
         6 -11.8455    243.9953      2.0000   3.0520495052e+01   2.5154731004e+01    0.3697057    0.1643555  79.11  0.001607948    2.427    0.588
         7 -10.4396      2.2521      3.1831   9.5088981856e+01   7.8260118766e+01    0.3566904    0.0715953 -55.37  0.001313988    3.661    0.727
         8 -11.1084     50.0376      3.2521   6.1118985618e+01   7.1457877874e+01    0.3660938    0.2180743  69.66  0.001365375    2.690    0.628
         9  -9.6916     16.9551      2.2258   8.1266070183e+01   7.7005511059e+01    0.1526162   0.09613437  28.58 0.0004883669    1.645    0.392
        10 -10.5730     59.3648    220.5606   1.1140295033e+02   2.1845983101e+01    0.2919375    0.1884983  23.73  0.001439378    1.667    0.400
        11 -12.9313     64.5393    174.3614   1.0610970247e+02   3.0687897569e+01     1.084355    0.5511643 -32.10  0.003404638    4.733    0.789
        12 -15.3945      3.5586    181.3492   1.2168535486e+02   3.5338044100e+01     8.581551    0.4029464 -80.62  0.001294914   12.154    0.918
        13 -15.9008      8.7350    239.9196   1.2243807423e+02   2.3468063489e+01     3.145985     2.446197  62.77   0.02581417    1.137    0.120
        14 -13.2073     34.3031    203.9313   1.1575288763e+02   2.7800416657e+01     0.399396    0.3633246 -39.63  0.001341693    1.516    0.340
        15 -16.1860     42.1030    193.7030   1.1331801586e+02   2.9096524121e+01     12.57843     1.559601  44.26   0.04199917    4.324    0.769
        16 -10.5387    109.5870    201.0404   9.8531888929e+01   1.9027549065e+01    0.2426165     0.201932 -85.81  0.000694729    1.421    0.296
        17  -9.5091     99.3353    180.8740   9.8279667402e+01   2.4479369369e+01    0.1724546    0.1682315  81.28 0.0006077933    1.107    0.096
        18  -9.6679    144.0989    179.1129   8.7687488251e+01   1.7836561705e+01    0.2118675    0.1713193   8.52  0.001226407    1.310    0.237
        19  -9.0296    149.4317    177.2031   8.6205649454e+01   1.7318877217e+01    0.1598292    0.1300948 -61.02 0.0003370455    1.504    0.335
        20  -9.4823    197.0470    176.2004   7.6518610357e+01   9.8464409364e+00    0.1880303    0.1506623  62.49   0.00088325    1.951    0.487
        21 -11.9456     39.7055    173.3540   1.1235005094e+02   3.3811637622e+01    0.4487483    0.3095456  52.70   0.00195659    1.257    0.204
        22 -11.2740    192.6097    193.7901   8.0410337362e+01   7.9113993299e+00    0.5284702    0.3203819 -62.80  0.002170826    4.622    0.784
        23 -13.5640     64.0650    158.1787   1.0434185759e+02   3.4472271426e+01    0.5114172    0.3918568 -46.43  0.001566532    1.523    0.343
        24 -12.1464     76.9324    162.1142   1.0139012347e+02   3.1818956273e+01    0.4951974    0.3980259  35.30 0.0004980924    1.236    0.191
        25 -12.6297     83.9546    155.7958   9.8607243138e+01   3.2267328109e+01    0.9806838    0.6074139 -51.39  0.001702664    1.721    0.419
        26 -13.5368     58.3564    242.3761   1.1304108785e+02   1.8115237268e+01    0.5878558    0.3676009  45.44  0.000741768    1.192    0.161
        27  -9.3468    230.3222    166.6554   6.9060843333e+01   6.2081852165e+00    0.1092704   0.09479912 -53.11 0.0007050105    1.732    0.423
        28 -15.0838     46.8519    249.7482   1.1565429517e+02   1.8131227597e+01     4.773197     1.199632  24.70   0.01315582    9.357    0.893
        29  -9.8881    174.8202    148.9804   7.5494140704e+01   1.8038515425e+01    0.2469194    0.1961505 -58.65 0.0008111683    1.576    0.365
        30 -10.2884    134.1295    146.7827   8.4065493968e+01   2.5890996295e+01     0.702049    0.1811361 -51.55  0.002031505    4.410    0.773
        31 -10.0512    133.0000    140.4732   8.3046006727e+01   2.7419643807e+01    0.5785192    0.1715328 -52.96  0.001716139    4.062    0.754
        32 -11.4850     22.7615    146.8056   1.1476681793e+02   4.1750262060e+01    0.4067166    0.2115251  61.23  0.001575992    1.826    0.452
        33 -11.2900     55.0041    146.6344   1.0542899096e+02   3.8395873149e+01    0.3760624     0.312371 -64.09  0.002182704    1.230    0.187
        34 -10.4248     31.4064    143.6284   1.1198153482e+02   4.1732624263e+01     0.305535    0.2485141 -47.87  0.001820638    1.439    0.305
        35 -10.8180     99.5657    140.5000   9.1759161053e+01   3.3364109003e+01    0.5872549    0.3605079 -22.40  0.002246505    2.986    0.665
        36 -12.4631     86.3711    140.4065   9.5435389288e+01   3.5525088442e+01    0.2926505    0.2599745 -49.06 0.0005467194    1.201    0.168
        37  -9.9427     26.5227    135.0694   1.1261803981e+02   4.4326286351e+01    0.2372412    0.1717288  45.45 -7.356113e-05    1.344    0.256
        38 -10.9904    107.5721    130.7524   8.7612901416e+01   3.4235509814e+01    0.5795811    0.3751505  37.04  0.002675271    1.559    0.359
        39 -13.7516     18.1570    218.4673   1.1989989049e+02   2.6511524943e+01    0.8309896    0.3275718  47.96  0.003145221    1.822    0.451
        40 -10.7855    135.7179    128.0141   7.9651566914e+01   2.9536595530e+01    0.4235331    0.1719107 -50.14  0.001514807    2.577    0.612
        41  -9.5107    160.5065    127.4749   7.3778138210e+01   2.4740027792e+01    0.2686648    0.1328046 -51.89  0.001037944    2.375    0.579
        42 -11.2013     96.7368    126.8996   8.9868465294e+01   3.7048315206e+01    0.3322446    0.2788294 -13.16   0.00140016    1.491    0.329
        43  -9.5886    116.1548    124.6041   8.3926112583e+01   3.4059465863e+01    0.2116712    0.1422814  27.07 0.0006525779    1.741    0.426
        44 -11.5309     66.9790    126.6279   9.8817193662e+01   4.1802372468e+01    0.5149862    0.2947205 -72.42  0.002280978    1.813    0.448
        45  -9.7685    106.5800    119.2960   8.5372527400e+01   3.7075437856e+01    0.2324845    0.1974512  41.23 0.0003593708    1.190    0.160
        46  -9.2842     72.9960    172.6873   1.0376217836e+02   2.9961419464e+01    0.1794895    0.1509755  49.06 0.0002418271    1.079    0.073
        47  -9.3238    168.0944    113.0871   6.8699318066e+01   2.5932080106e+01     0.235724    0.1831682 -76.81  0.001130351    1.772    0.436
        48 -10.0542    205.2912    110.4102   6.1178718471e+01   1.8867256548e+01    0.2902935    0.2172973  34.66  0.001076329    1.470    0.320
        49  -9.2532    146.4959    172.0039   8.5946831025e+01   1.8758004601e+01    0.1758691    0.1222891 -78.64 0.0008096982    2.470    0.595
        50  -9.5332    134.5110    105.5298   7.4419555747e+01   3.4550134515e+01    0.2858039    0.1405026 -54.23  0.001037805    2.366    0.577
        51 -12.0266    244.7370     98.7586   5.2867231958e+01   1.3331618999e+01    0.3370578    0.2097391  -5.38  0.001714627    2.092    0.522
        52  -8.8268    120.6838     97.7017   7.5924755615e+01   3.9163904179e+01    0.1535177    0.1237149  -1.29 0.0004289134    1.611    0.379
        53 -10.6311     53.1608     91.1103   9.6530593653e+01   5.2754674332e+01    0.3357759    0.2064146 -61.43  0.001446235    1.490    0.329
        54 -10.0347     41.6083     91.8712   1.0118722692e+02   5.3970317545e+01    0.2152434    0.1947503  -7.09 0.0004430417    1.287    0.223
        55  -9.3122     71.9947     83.0585   8.7322843099e+01   5.1948986685e+01    0.2332742    0.1767112  76.84 0.0005893936    1.666    0.400
        56  -9.2564    160.3940     82.2171   6.1984746570e+01   3.3338100017e+01    0.2137441    0.1337149 -45.96 0.0005524371    1.563    0.360
        57 -10.7031    244.2776     77.3503   4.8065215609e+01   1.6312551232e+01    0.1529366    0.1231093 -89.37 0.0002666947    1.586    0.369
        58  -9.2605     89.9434     65.1560   7.5139362531e+01   5.2693719972e+01    0.2435964    0.1743959  76.46 0.0008206344    2.008    0.502
        59  -9.8420     47.0341     61.9357   9.1237610250e+01   6.0812143405e+01    0.2051282    0.1956317 -59.19 0.0003982884    1.059    0.056
        60 -10.8493     13.5569     60.1026   1.0712847677e+02   6.4597197126e+01    0.2557426    0.2036764 -63.82 0.0004178359    1.067    0.063
        61  -9.4155    173.5099    244.4864   9.1238470744e+01   3.6535010599e+00    0.1390277   0.09609031 -19.60 0.0007648141    1.610    0.379
        62 -12.4873    216.1509     29.1018   3.8991970335e+01   2.8162501019e+01     0.504283    0.3948116  44.39  0.001095508    1.585    0.369
        63 -10.1993    171.6399    240.3480   9.1058364914e+01   4.4072570832e+00    0.2606224    0.1847359 -63.91  0.001242392    2.631    0.620
        64 -11.2124    204.5098    199.8346   7.9277527591e+01   5.3788402012e+00    0.2957696    0.1186281  29.76  0.001387892    2.459    0.593
        65  -9.5584    137.7845     35.9986   5.1433509944e+01   4.6464670628e+01    0.3589031    0.1978079 -71.95  0.001285819    2.936    0.659
        66  -9.8868    136.6378     42.9026   5.4171061026e+01   4.5754389246e+01    0.2609226    0.2127018  81.08 0.0003728055    1.304    0.233
        67  -9.7751    189.4942     15.0297   3.7480316948e+01   3.5907046925e+01    0.2031783    0.1246946 -28.31 0.0006469988    1.562    0.360
        68 -14.8666      9.2544    207.5086   1.2135087820e+02   2.9432772656e+01      1.18083    0.9605783  -4.64  0.008415141    1.852    0.460
        69 -10.0673    208.3936    196.1693   7.7992123716e+01   5.3339631963e+00    0.1552759    0.1055574 -40.19 0.0009521472    1.715    0.417
        70 -10.9937    183.7396    213.1164   8.5105069024e+01   6.4313125584e+00    0.2395405     0.133832  12.54  0.001251443    2.128    0.530
        71  -9.9064    150.3271    221.3074   9.2625234313e+01   9.8615635514e+00    0.1193766   0.08264844   4.78 0.0003760875    1.654    0.395
