#   1 NUMBER                 Running object number                                     
#   2 MAG_AUTO               Kron-like elliptical aperture magnitude                    [mag]
#   3 X_IMAGE                Object position along x                                    [pixel]
#   4 Y_IMAGE                Object position along y                                    [pixel]
#   5 X_WORLD                Barycenter position along world x axis                     [deg]
#   6 Y_WORLD                Barycenter position along world y axis                     [deg]
#   7 A_WORLD                Profile RMS along major axis (world units)                 [deg]
#   8 B_WORLD                Profile RMS along minor axis (world units)                 [deg]
#   9 THETA_WORLD            Position angle (CCW/world-x)                               [deg]
#  10 FWHM_WORLD             FWHM assuming a gaussian core                              [deg]
#  11 ELONGATION             A_IMAGE/B_IMAGE                                           
#  12 ELLIPTICITY            1 - B_IMAGE/A_IMAGE                                       
         1 -14.9720    248.3465     98.2816   2.9884805341e+01   9.7405504071e+00     2.608772    0.9236826 -28.38  0.008820189    3.290    0.696
         2 -14.1025    226.5779     54.6261   2.2371726659e+01   2.1270039266e+01     1.187776     0.804041 -48.90  0.006028994    1.420    0.296
         3 -14.9659    236.8444     77.7792   2.6662560676e+01   1.5440380024e+01      3.32894     1.354283 -24.74   0.01137461    3.311    0.698
         4 -14.7137    142.8553     54.0033   3.7095312341e+01   4.2207304084e+01     1.385018    0.8704036  59.36  0.006180714    1.649    0.393
         5 -14.7253     54.2855     57.0522   6.5226299180e+01   5.8493827023e+01    0.9627457     0.454567 -47.54  0.004559098    1.876    0.467
         6 -15.1373     74.5241     14.1545   4.1192407496e+01   6.2264245775e+01     1.215651     0.527721  29.11  0.004788227    2.727    0.633
         7 -14.1986     82.1254     13.3654   3.8356936970e+01   6.0953625041e+01    0.5662506    0.3673191  -0.52  0.002107654    1.609    0.378
         8 -13.6971     88.1267     11.6702   3.5786572554e+01   5.9974170143e+01     1.110085    0.7160054  82.31  0.004647668    3.720    0.731
         9 -13.6314     62.7083     17.0518   4.6695800903e+01   6.3903666778e+01    0.3089763     0.279834  13.81  0.001531625    1.261    0.207
        10 -12.3049    115.3160     12.4546   2.8908040193e+01   5.4076123519e+01     0.223722    0.1587733 -45.57   0.00114335    1.750    0.429
        11 -13.2173    122.7807      9.6715   2.6190033002e+01   5.2620254893e+01    0.4098769     0.298301 -88.87  0.001643638    1.863    0.463
        12 -12.7357     73.0024      3.5780   3.6940153146e+01   6.3689727268e+01    0.5178995    0.2163403 -17.50  0.002331391    2.621    0.618
        13 -12.6952    111.8804      4.4540   2.6619808075e+01   5.5607357561e+01    0.3945327    0.1945272  26.89  0.001719838    2.381    0.580
        14 -12.3485    105.0945      4.3008   2.8153859019e+01   5.7134382697e+01    0.3807817    0.1279742  41.35  0.001063486    2.736    0.635
        15 -13.0419     92.0263      3.1576   3.1044188684e+01   6.0023758793e+01    0.4314686    0.2748494  62.80  0.002309597    1.795    0.443
        16 -11.4797    151.6890      9.9569   2.0820753936e+01   4.5551507944e+01    0.2655836    0.1899257  78.08 0.0007664845    1.427    0.299
        17 -10.8175    100.2757      2.6430   2.8669479936e+01   5.8328959786e+01    0.1201569   0.09919494 -55.43 0.0003836119    1.652    0.395
        18 -11.7446    138.4776      5.2492   2.1532211867e+01   4.9255111318e+01    0.2595226    0.1677131  61.72 0.0007092683    1.366    0.268
        19 -12.5673    248.1437    145.1026   4.0564739361e+01   2.3490520461e+00    0.4668022    0.3653915  88.99  0.002387275    2.208    0.547
        20 -14.1111    194.8913    112.4421   4.2602382596e+01   1.9235349234e+01    0.6698045    0.4781398 -15.37    0.0030029    1.683    0.406
        21 -11.6153    216.9959    112.0736   3.8306498009e+01   1.4252227558e+01    0.3676169    0.2807345  84.63  0.001738492    1.813    0.449
        22 -13.1134    201.2458     98.0664   3.7666939853e+01   2.0350611228e+01    0.7082886    0.2409446 -42.83  0.002285348    2.946    0.661
        23 -14.6217    200.5092    107.9903   4.0362435525e+01   1.8745058635e+01     1.670915    0.5294142  58.54  0.004385522    4.864    0.794
        24 -12.5314     42.6587     99.3647   7.9967715800e+01   5.0698573333e+01    0.2601867    0.2063679 -44.37  0.001602815    1.186    0.157
        25 -12.1949    114.1764     96.9000   5.7775164789e+01   4.0530952570e+01    0.2347803    0.2143808 -81.33  0.001241955    1.242    0.195
        26 -13.4979    185.2230    114.8888   4.5212072529e+01   2.1020739957e+01    0.4632635    0.4283961 -21.85  0.002181659    1.079    0.074
        27 -14.4415     33.3592     89.2510   8.0884631293e+01   5.3857578958e+01      0.80388    0.4755975  30.73  0.004493911    1.978    0.495
        28 -10.9168    112.3299     89.3146   5.6163628004e+01   4.2497434950e+01    0.1548573    0.1176009  -2.44 0.0007045032    1.677    0.404
        29 -13.6618    201.8637     71.5797   3.0529420960e+01   2.4691665650e+01     1.022985    0.8797807 -62.63  0.005394973    1.209    0.173
        30 -13.6281    212.1305     86.4945   3.2709623252e+01   1.9758130417e+01    0.5769454    0.4327421  50.44  0.002863671    1.369    0.269
        31 -14.1735    212.6708     80.7840   3.1140442122e+01   2.0573830228e+01    0.6981726    0.5679423   4.38  0.003527395    1.497    0.332
        32 -14.4673    204.1327     81.0790   3.2675915511e+01   2.2581456868e+01      1.33195    0.6032302  37.80  0.004484384    3.141    0.682
        33 -12.3037     39.9760     81.6684   7.7058229505e+01   5.4927518813e+01     0.410817    0.2447866 -23.63  0.002087984    2.109    0.526
        34 -11.7936    175.6326     79.2319   3.7587423280e+01   2.9915839533e+01    0.4333551     0.299368 -83.54   0.00176415    2.202    0.546
        35 -11.9280    164.0177     71.8307   3.7884783051e+01   3.4077565287e+01    0.3793179    0.2255531  52.57  0.001603221    1.641    0.391
        36 -10.7293    188.0063     82.9748   3.6162353136e+01   2.6206053252e+01    0.1859552    0.1815847  55.65 0.0006117072    1.026    0.025
        37 -12.8480    158.3642     60.7631   3.5758834784e+01   3.7324974217e+01    0.6258988    0.4453138  77.91  0.002805631    1.768    0.434
        38 -14.3325    150.0829     66.1190   3.9263768555e+01   3.8474722628e+01     1.262723    0.5718186  54.89  0.004686479    2.222    0.550
        39 -13.9739    136.9328     65.0796   4.2096530043e+01   4.1790279408e+01    0.8947405    0.7431729  83.23   0.00413089    1.510    0.338
        40 -13.6690    143.8537     61.4658   3.9260302850e+01   4.0761713174e+01     1.236202    0.3010316  48.34  0.003504431    3.798    0.737
        41 -12.3187     51.5110    140.9597   8.4533505600e+01   4.0110053667e+01    0.4061042    0.1319212 -61.23  0.001635492    2.558    0.609
        42 -11.2843      9.1230     62.9437   8.3753364092e+01   6.1289655022e+01    0.3504779   0.07259198 -53.59  0.001463182    2.802    0.643
        43 -12.0222     43.8090     62.8160   7.0849553651e+01   5.8544880868e+01    0.1992245     0.150653 -31.93 0.0007369485    1.171    0.146
        44 -10.5915    169.2614     60.6052   3.3445584330e+01   3.4620798137e+01    0.2156425    0.1350271  47.28 0.0006629303    1.567    0.362
        45 -14.8121     34.2861     53.4118   7.1718401587e+01   6.1380672004e+01     1.024285    0.4231974 -55.42  0.004767616    2.224    0.550
        46 -13.6344     41.0121     44.7275   6.6287534958e+01   6.2371762096e+01    0.4139808    0.3388805 -78.39  0.002387049    1.923    0.480
        47 -14.0154     39.2655     49.5113   6.8558098865e+01   6.1652711106e+01    0.7553627    0.3045041 -55.26  0.003311267    2.574    0.612
        48 -11.7205    161.6947     50.4491   3.1875663909e+01   3.8085861360e+01    0.2532698    0.1861086   3.55  0.001169629    1.736    0.424
        49 -11.2941    188.9910     69.3322   3.2189204124e+01   2.8253674490e+01    0.2210636    0.1982477  65.42  0.001161235    1.115    0.103
        50 -14.7844     65.4122     42.0660   5.5900206395e+01   5.9717996172e+01    0.6515458    0.4731568   7.23  0.003715703    1.424    0.298
        51 -11.9032    208.8369     44.6375   2.2229608749e+01   2.6975378954e+01    0.5498963     0.125323  62.67  0.001611988    4.136    0.758
        52 -12.1192      3.2719    139.8694   9.6216794659e+01   4.4724586360e+01    0.2900622    0.1864634 -76.50  0.001917596    1.197    0.165
        53 -11.5881    218.3359     38.1985   1.9298124541e+01   2.5502748913e+01    0.2742131    0.2037468 -88.58 0.0004017215    1.388    0.279
        54 -12.3252    200.4098     32.7144   2.0210043708e+01   3.0646840244e+01    0.3526635    0.2258463 -52.61  0.001707915    1.626    0.385
        55 -13.8798     77.5794     29.7241   4.6729564711e+01   5.9684716548e+01    0.4850531    0.3091193 -31.00  0.002613604    1.513    0.339
        56 -12.2986    179.6166     25.7802   2.1253547932e+01   3.6773811947e+01    0.3464641    0.2885204  25.37  0.001904794    1.377    0.274
        57 -12.5264    158.2614     24.0798   2.4227898839e+01   4.2417389197e+01    0.3327505    0.2394972 -30.40  0.001719143    1.492    0.330
        58 -11.3037    130.6241     24.2229   2.9750963990e+01   4.9230061178e+01    0.1960053    0.1320776  -6.52 0.0009528584    1.724    0.420
        59 -15.0025    223.5842    130.6977   4.1578878640e+01   9.5940869620e+00     1.092368      0.81262  60.27    0.0054656    1.604    0.377
        60 -14.3998    238.5181    129.2775   3.8635557695e+01   6.7545494097e+00    0.8460562    0.6314704  60.17  0.004405251    1.633    0.388
        61 -11.6737    122.1219    127.1068   6.3266399301e+01   3.2320113235e+01    0.2369069     0.213999  -6.09  0.001238895    1.253    0.202
        62 -11.4973     28.1676    126.3922   8.8550576301e+01   4.5837999418e+01    0.1609705    0.1055723  46.56 0.0009489884    1.691    0.409
        63 -10.4110    178.3614     14.2746   1.8089612506e+01   3.8363909694e+01    0.1457926   0.09315341  42.80 0.0003659855    1.660    0.398
        64 -12.3980    142.1135    123.8300   5.7397418443e+01   2.8934988987e+01    0.4165307     0.175292 -52.44  0.001393309    2.759    0.638
        65 -12.5359    245.6222    121.3201   3.5641155493e+01   6.6200552668e+00    0.5373071    0.2317714 -41.52  0.002184129    2.210    0.548
        66 -12.2766    250.2255     68.6946   2.2714167634e+01   1.3859314238e+01    0.8322145     0.200801 -32.77  0.002603466    3.899    0.744
        67 -13.7176    238.2916     55.6253   2.1110205587e+01   1.8402946739e+01     1.030606    0.9357261 -23.27  0.006201045    1.203    0.169
        68 -11.4345    246.4590    183.5266   4.8903070590e+01  -3.1178745909e+00    0.1326342    0.1088034   3.04 7.669783e-05    1.028    0.028
        69 -14.6827    223.8421     65.1356   2.5392666974e+01   2.0373977206e+01     1.369247    0.9433223  81.69  0.006636403    1.699    0.412
        70 -12.0203    250.0408    151.4779   4.1633082973e+01   1.0114619127e+00    0.2188088    0.1666757 -26.47 0.0008126373    1.193    0.162
        71 -15.0100    240.1250     91.4839   2.9489676433e+01   1.2565514362e+01     1.756557    0.5392846 -34.10  0.005962957    3.024    0.669
