#   1 NUMBER                 Running object number                                     
#   2 MAG_AUTO               Kron-like elliptical aperture magnitude                    [mag]
#   3 X_IMAGE                Object position along x                                    [pixel]
#   4 Y_IMAGE                Object position along y                                    [pixel]
#   5 X_WORLD                Barycenter position along world x axis                     [deg]
#   6 Y_WORLD                Barycenter position along world y axis                     [deg]
#   7 A_WORLD                Profile RMS along major axis (world units)                 [deg]
#   8 B_WORLD                Profile RMS along minor axis (world units)                 [deg]
#   9 THETA_WORLD            Position angle (CCW/world-x)                               [deg]
#  10 FWHM_WORLD             FWHM assuming a gaussian core                              [deg]
#  11 ELONGATION             A_IMAGE/B_IMAGE                                           
#  12 ELLIPTICITY            1 - B_IMAGE/A_IMAGE                                       
         1 -13.5407     66.1619    142.5660   1.3256194080e+02   3.8262836142e+01     2.575382     1.187565 -88.34  0.003158853    5.399    0.815
         2 -14.4809    196.0042     15.9054   6.8750423910e+01   3.3606798749e+01     2.859489     1.628422  28.89   0.01225283    2.416    0.586
         3 -10.6108     21.2533      8.9949   1.1169459734e+02   7.0509461960e+01    0.1554324   0.07823388 -38.78  0.000899601    1.611    0.379
         4  -9.8914    186.3661    239.2200   1.2256595770e+02   1.4472210262e+00    0.1332699    0.1110826 -53.47  0.000424731    1.648    0.393
         5 -11.6153    140.8445    250.0772   1.3162854072e+02   7.2005478163e+00    0.5323804    0.1198828  42.59  0.002113046    3.450    0.710
         6 -11.5736    125.0197    250.0321   1.3426015536e+02   9.5936515120e+00    0.4659188    0.1318577  42.22  0.002092836    2.801    0.643
         7 -12.0720    111.4047    249.6364   1.3647419377e+02   1.1648550827e+01    0.5562409    0.2288383  37.48   0.00264418    2.419    0.587
         8 -11.4738     99.0630    250.2994   1.3855684671e+02   1.3305523169e+01    0.3524058    0.2073273  58.71  0.001981256    1.394    0.283
         9 -11.7728    102.0512    247.4361   1.3781110356e+02   1.3313888674e+01    0.3312848    0.1874761  51.91  0.001340895    1.359    0.264
        10 -10.9644     88.8078    248.8462   1.4009742751e+02   1.4938039686e+01    0.2442105    0.1732056  70.82  0.001161224    1.224    0.183
        11 -11.4989     81.4392    248.5747   1.4126374678e+02   1.5968616440e+01    0.3243465    0.2193833  64.94   0.00117335    1.173    0.147
        12 -10.1575     85.2448    246.9857   1.4052118392e+02   1.5705301343e+01    0.2161925    0.1217163 -80.02 0.0007857815    2.036    0.509
        13 -11.7250     82.5689    243.3483   1.4065814128e+02   1.6632135300e+01    0.3072496    0.2167574  66.31  0.001750517    1.136    0.120
        14 -10.4127     74.1884    250.0696   1.4253528517e+02   1.6686629781e+01    0.1861704    0.1165921  52.34 0.0006334431    1.223    0.182
        15 -11.4115     66.5659    242.9670   1.4322534428e+02   1.8776238817e+01    0.2491662     0.188013 -86.42 0.0004897707    1.327    0.246
        16 -11.1571     67.1598    250.1554   1.4364926730e+02   1.7568504466e+01    0.2465301    0.1967702 -81.90  0.001286445    1.402    0.287
        17  -9.9528     63.2627    250.6190   1.4429040847e+02   1.7982660218e+01      0.18606   0.09354852  51.77 0.0006013527    1.483    0.326
        18 -11.7111     46.6341    248.6320   1.4672747885e+02   2.0286126581e+01    0.4019682     0.265406  72.43  0.002659162    1.154    0.133
        19 -14.8987      5.7846     16.3315   1.2239546288e+02   7.0610634117e+01     20.46079    0.4243177 -52.84   0.03322805   22.532    0.956
        20 -14.6050     32.5243    245.6890   1.4869902229e+02   2.2338032014e+01     9.308186     2.221335  33.63   0.02267539   16.616    0.940
        21 -15.2019     55.8351    218.8644   1.4317224263e+02   2.4184115229e+01     4.375036     1.219304  45.08    0.0186434    2.781    0.640
        22 -10.4686     35.4147    230.2958   1.4736823319e+02   2.4563239538e+01    0.2556297    0.1542072  72.40 0.0007814576    1.291    0.225
        23 -10.0350     37.4048    226.2638   1.4679480399e+02   2.5034422758e+01    0.1981697    0.1148636 -88.69 0.0007622826    1.515    0.340
        24  -9.9066    229.1562    229.0394   1.1382881193e+02  -4.1695257609e+00    0.2342874     0.152486 -55.04   0.00124916    3.243    0.692
        25 -11.0705    173.8307    222.3348   1.2235614642e+02   5.7476017359e+00    0.2845851    0.1918955  51.66   0.00126738    1.412    0.292
        26  -8.9655    152.6876    212.9415   1.2485310124e+02   1.0741842712e+01    0.1583928    0.1447447  50.30 0.0002907858    1.087    0.080
        27 -10.7506    145.2999    245.0286   1.3030919779e+02   7.2062529911e+00    0.1571073     0.132976  51.53  0.001175101    1.098    0.089
        28 -10.5701     32.9062    205.8340   1.4618011137e+02   2.9188935319e+01    0.2297909    0.1533318  74.06 0.0009568281    1.167    0.143
        29 -10.5055    193.3034    195.4076   1.1445653595e+02   6.2373034347e+00    0.6647849    0.3274098 -59.82  0.002053591    6.523    0.847
        30 -11.8005     70.5890    196.6942   1.3846450000e+02   2.6404981410e+01    0.4357029    0.3230346  43.78  0.001801377    1.391    0.281
        31 -11.6775     76.0688    189.4823   1.3661005117e+02   2.7065136252e+01    0.2531556    0.2121258 -55.86 0.0006329596    1.447    0.309
        32  -9.1572     93.9202    179.2039   1.3168287943e+02   2.6521297352e+01    0.2701692    0.1166547  56.85  0.001055792    2.698    0.629
        33 -11.1079     84.5368    177.1737   1.3337272206e+02   2.8329314781e+01    0.2323003    0.2005199 -83.73 0.0004118288    1.102    0.093
        34 -13.3766     72.2225    174.8727   1.3566083129e+02   3.0531539381e+01    0.4410125    0.2641717 -45.04  0.001720272    2.244    0.554
        35 -11.2569    118.5552    174.8741   1.2584981253e+02   2.3393767511e+01     1.090218    0.1188679  43.01  0.002525443    7.616    0.869
        36 -10.2915     33.0198    174.7435   1.4368463796e+02   3.5242726301e+01    0.1586469    0.1251412  74.35 0.0006283352    1.088    0.081
        37 -11.8083     50.4477    129.9323   1.3447381495e+02   4.3004445134e+01    0.3251219    0.2589716 -80.88 0.0006183574    1.097    0.089
        38 -12.4285     90.4612    167.8608   1.3081258421e+02   2.9365279639e+01     1.399026    0.5181583  52.02  0.005521779    2.974    0.664
        39 -10.2846    163.1487    249.1529   1.2778578986e+02   3.8744101000e+00    0.1742254    0.1321861  33.62  0.001239432    1.186    0.157
        40 -13.9001     11.4995    206.9542   1.4990647781e+02   3.1132806628e+01     1.229769    0.8778161  28.89  0.009325212    2.027    0.507
        41 -10.0452    102.4421    151.3764   1.2546846519e+02   3.0944995537e+01    0.2613006    0.2513261 -73.89 0.0007422129    1.111    0.100
        42  -9.4855    105.1846    147.2186   1.2408242168e+02   3.1375433912e+01    0.3262021    0.2135187 -31.78  0.001420221    2.184    0.542
        43 -11.9983     91.4128    151.0367   1.2796529840e+02   3.2787174974e+01    0.2579984    0.2420538 -26.65 0.0005096382    1.323    0.244
        44 -12.0093     46.3011    148.1868   1.3800840550e+02   3.9432909981e+01    0.4747862    0.2157688 -67.07  0.002400843    1.889    0.471
        45  -9.9677    112.2900    136.7989   1.2037580717e+02   3.2378720053e+01    0.3237932    0.2538987  -6.96  0.001036271    1.862    0.463
        46 -10.6327    100.0700    134.0047   1.2278367812e+02   3.5100102709e+01    0.2797049    0.2334499 -26.63 0.0005575839    1.477    0.323
        47 -12.9174     47.9565    230.9437   1.4538447905e+02   2.3028673847e+01    0.3494959    0.2756398  89.38 0.0009667267    1.245    0.197
        48  -9.3397    108.8607    123.8279   1.1845950381e+02   3.5798675265e+01    0.1971047    0.1855545 -26.15 0.0003373137    1.167    0.143
        49  -8.5514    192.2405    143.9902   1.0434215798e+02   1.4795364519e+01    0.1776779    0.1211051 -35.87 0.0003220596    1.491    0.330
        50 -11.0576    168.3417    113.4253   1.0188923992e+02   2.5636052976e+01    0.4076765    0.3302881 -78.06  0.001105221    1.589    0.371
        51 -15.6274      7.8724    239.9265   1.5207910103e+02   2.5790046126e+01     8.053107    0.7641324 -70.40   0.03275416    6.363    0.843
