#   1 NUMBER                 Running object number                                     
#   2 MAG_AUTO               Kron-like elliptical aperture magnitude                    [mag]
#   3 X_IMAGE                Object position along x                                    [pixel]
#   4 Y_IMAGE                Object position along y                                    [pixel]
#   5 X_WORLD                Barycenter position along world x axis                     [deg]
#   6 Y_WORLD                Barycenter position along world y axis                     [deg]
#   7 A_WORLD                Profile RMS along major axis (world units)                 [deg]
#   8 B_WORLD                Profile RMS along minor axis (world units)                 [deg]
#   9 THETA_WORLD            Position angle (CCW/world-x)                               [deg]
#  10 FWHM_WORLD             FWHM assuming a gaussian core                              [deg]
#  11 ELONGATION             A_IMAGE/B_IMAGE                                           
#  12 ELLIPTICITY            1 - B_IMAGE/A_IMAGE                                       
         1 -15.2024     12.3548    147.3715   1.4229689998e+02   4.3158357206e+01     9.626485     3.290018 -85.47   0.03400548    4.284    0.767
         2 -13.3817    196.9311     29.8101   6.8117714422e+01   3.2563594915e+01     1.353523     1.289717  23.90  0.007160683    1.301    0.232
         3 -13.4999    213.2975      9.5277   6.1321272300e+01   3.0970856761e+01     1.110852    0.8723266  47.94  0.006801074    1.538    0.350
         4 -11.9075      3.0773      3.9018   1.1306610097e+02   7.1832877043e+01    0.3746984    0.2748421 -20.63  0.003060641    1.120    0.107
         5 -11.4646    106.3939    246.6105   1.3385746520e+02   9.6651430026e+00    0.4113806    0.2393094  71.67   0.00217003    1.937    0.484
         6 -12.0905    239.2213    247.5639   1.0911123705e+02  -1.2521598726e+01    0.3918815    0.3445546  48.18  0.002751922    1.577    0.366
         7 -12.3911    140.3806    249.7603   1.2785944415e+02   3.4776795347e+00    0.6040971    0.4374876  36.35  0.003660608    1.337    0.252
         8  -9.7250    111.9031    250.5426   1.3327413141e+02   8.0752588425e+00     0.191806    0.1016891  44.93 0.0007778127    1.572    0.364
         9  -9.4362     66.7918    250.1548   1.4132086528e+02   1.4971950118e+01    0.1798593    0.1202678  67.63  0.000461937    1.173    0.148
        10 -10.3234     46.4096    248.8896   1.4468513053e+02   1.7930630952e+01    0.3110108    0.1488674  84.12  0.001290415    2.120    0.528
        11 -12.1763     29.4783    248.1932   1.4741151694e+02   2.0133455950e+01    0.5732509    0.4237849 -78.92  0.003640181    1.408    0.290
        12 -11.7087     35.5611    244.9652   1.4620738351e+02   2.0012967160e+01    0.5295734    0.3509081 -73.42   0.00370397    1.523    0.343
        13 -11.6654      5.5552    249.2184   1.5119811685e+02   2.2582441445e+01    0.7011548    0.2152836  45.08  0.003947002    2.575    0.612
        14  -9.9414     22.7654    245.6143   1.4832680313e+02   2.1386600974e+01    0.1508878   0.07324226  54.40 0.0004835487    1.627    0.385
        15 -12.1398     11.8489    240.7906   1.4977776847e+02   2.3484382156e+01    0.3839633    0.2699178 -89.86  0.002949032    1.196    0.164
        16 -11.3779      4.9533    240.9677   1.5086621988e+02   2.4165625224e+01    0.3948202    0.1677275  54.87  0.001369452    1.836    0.455
        17 -12.1030     11.1330    233.7156   1.4948568463e+02   2.4904824568e+01    0.3443209    0.3047715 -73.44   0.00221942    1.620    0.383
        18 -10.5175     18.7790    242.0107   1.4874665765e+02   2.2507086309e+01    0.1814965    0.1211821  62.30 0.0004545664    1.204    0.169
        19 -10.4609    183.4593    238.6934   1.1802711064e+02  -2.1869980482e+00    0.2318733     0.141061  25.88 0.0008979021    1.797    0.443
        20 -14.3619    104.2990    229.7020   1.3230253744e+02   1.3186784257e+01     5.112957    0.3072751  45.72   0.01122029    8.890    0.888
        21 -11.4213    198.5024    246.7231   1.1642220223e+02  -5.9627601871e+00    0.3848417     0.231334 -38.79   0.00216199    1.945    0.486
        22 -13.7483     37.0039    225.5785   1.4454111233e+02   2.3616977559e+01    0.6797297    0.4762009  74.84  0.002339745    1.089    0.082
        23 -11.5670    155.0880    248.9800   1.2497163759e+02   1.0931037678e+00    0.4556439    0.2008616  52.98  0.002031162    2.317    0.568
        24 -10.8198    249.1391    249.1726   1.0763467285e+02  -1.4161311702e+01    0.3850284    0.2238729   9.55  0.002185909    1.876    0.467
        25 -10.6993     50.2166    235.2635   1.4297699811e+02   2.0043265854e+01    0.2607349    0.2165905 -82.57  0.001167276    1.317    0.241
        26  -9.2557     55.1467    229.8951   1.4163767891e+02   2.0458855474e+01    0.1982937    0.1237257  69.90 0.0007533312    1.349    0.259
        27 -10.5572      4.7438    228.0437   1.5019342119e+02   2.6648481517e+01    0.1569155    0.1413368  54.91  0.001301292    1.592    0.372
        28 -12.4965      9.7654    207.0093   1.4802384340e+02   3.0371950563e+01     0.636685    0.4438189  33.79   0.00300832    1.893    0.472
        29  -8.1196    221.4983    213.5063   1.0639744815e+02  -4.8752343008e+00    0.1314037    0.1164979  15.50 0.0008104402    1.033    0.032
        30  -8.7322    152.5002    212.9925   1.2012675316e+02   7.9338861961e+00     0.182187    0.1389162 -55.01 0.0003314842    1.456    0.313
        31 -11.6067     59.1790    198.7507   1.3777005310e+02   2.6472732033e+01    0.3346627    0.2244401 -74.01 0.0005033996    1.338    0.253
        32 -11.6880     12.0938    195.2507   1.4674570972e+02   3.2613059975e+01    0.2392714    0.1664101  72.77  0.000349467    1.189    0.159
        33 -11.9428     65.6731    190.2006   1.3539931027e+02   2.7493407965e+01    0.2818678    0.2315737 -65.86 0.0004758787    1.270    0.213
        34  -9.6345    191.9642    193.2111   1.0837220412e+02   4.0746020615e+00    0.4810767    0.2536344 -65.72  0.001475467    4.900    0.796
        35 -13.1951     62.7084    175.4307   1.3415268966e+02   3.1278822585e+01    0.5224056    0.2802412 -46.42  0.001879163    2.330    0.571
        36 -10.8135     76.0931    177.3987   1.3137421283e+02   2.8930753518e+01    0.2405603    0.2107941  89.08 0.0003585455    1.034    0.033
        37 -10.0749     96.3827    173.2345   1.2601329656e+02   2.6703515943e+01    0.2534109    0.2246017  83.07 0.0004000421    1.023    0.022
        38 -11.7874     83.9015    168.2230   1.2815271073e+02   2.9891460320e+01    0.6410716    0.6091285  27.54   0.00388724    1.301    0.231
        39 -12.2192     22.4569    126.8144   1.3720550288e+02   4.7012493340e+01    0.8117247    0.2867978  49.73  0.003256423    4.008    0.751
        40 -10.0835     96.6845    152.4451   1.2225451994e+02   3.1551895708e+01    0.3071854     0.277287 -44.95 0.0008921215    1.216    0.178
        41 -11.9792     85.2098    151.5146   1.2497976162e+02   3.3648891915e+01    0.3065556    0.2445663 -48.65 0.0005195806    1.304    0.233
        42  -8.9300     99.8106    148.1974   1.2063955655e+02   3.2024414677e+01     0.188331    0.1693196 -32.67 0.0002636567    1.288    0.224
        43 -12.2050     67.4753    143.6295   1.2811640236e+02   3.8137992099e+01    0.6655142    0.4402588  67.74  0.002953361    1.794    0.443
        44  -9.7644    108.7640    137.5515   1.1611852315e+02   3.2937908211e+01     0.429768    0.2715589 -26.61  0.001554411    2.473    0.596
        45 -12.4931     46.7828    215.1509   1.4186913041e+02   2.4557274422e+01    0.6763796    0.5546511 -65.10  0.004208581    1.460    0.315
        46 -10.4470     95.9117    134.6078   1.1886897878e+02   3.5916208817e+01    0.2606833    0.2128508 -46.91 0.0004206823    1.219    0.180
        47  -9.1695     76.9847    129.9627   1.2300874758e+02   4.0030556948e+01    0.3087446    0.1731327  60.99  0.001278072    2.513    0.602
        48 -10.0843     83.7430    126.1419   1.2035578459e+02   3.9901924943e+01    0.3325233    0.2301252  74.91  0.001547378    1.949    0.487
        49  -8.8056    106.2695    123.9758   1.1370792695e+02   3.6564174494e+01    0.1958378    0.1777471 -55.82 0.0002663938    1.051    0.049
        50 -12.7867     31.9129    232.3854   1.4593939162e+02   2.2866967671e+01     0.291742    0.2410892 -77.50 0.0007475507    1.417    0.294
        51 -10.3517    167.9706    113.0851   9.5533459286e+01   2.5721398781e+01    0.3251235    0.2721535 -78.48 0.0005686866    1.351    0.260
        52  -8.9422    202.9956    111.5210   8.7891508305e+01   1.7741481716e+01     0.206805    0.1299264  29.19 0.0005693989    2.303    0.566
        53  -9.2646     44.0803     98.1933   1.2588391857e+02   5.1469161460e+01    0.1931597     0.183629  70.42  0.000550708    1.237    0.192
        54  -9.2782     40.6829     96.2755   1.2652146027e+02   5.2236972280e+01    0.1846409    0.1675586 -81.97 0.0005045612    1.228    0.186
        55 -10.7006    242.5842     91.7096   7.6571900858e+01   1.2322163716e+01    0.2457661    0.1719598 -87.13  0.001200801    1.754    0.430
        56  -9.9141    158.2904     76.9994   8.7886273786e+01   3.5050379042e+01    0.2140021    0.2019272 -44.77 0.0005200821    1.085    0.079
        57  -9.4575     47.8174     70.1142   1.1767350899e+02   5.6938444837e+01    0.2562529    0.1644686  47.47  0.001213077    2.133    0.531
        58  -8.6352     31.6558     62.3061   1.2121103385e+02   6.0081673007e+01    0.1074884    0.0935372  81.41 0.0007042396    1.691    0.409
        59 -12.6347      7.8171     52.4765   1.2743512234e+02   6.3711387754e+01    0.5749133    0.4321154  12.22 0.0009695444    1.557    0.358
        60 -11.1977      2.4009     45.5968   1.2771766513e+02   6.5278013476e+01    0.3534108     0.183697 -64.60  0.002060703    2.089    0.521
        61 -11.7643    100.8254    246.7991   1.3490847441e+02   1.0517332027e+01    0.3818249    0.3290928 -60.82  0.002609461    1.467    0.318
        62  -9.9166     81.4581    249.1477   1.3865619128e+02   1.3049616460e+01    0.2467164    0.1154161  65.76  0.001200698    2.283    0.562
        63 -11.3791      2.9059     38.4493   1.2551166421e+02   6.6517000856e+01    0.2867098    0.1562227 -54.03  0.001841536    1.571    0.363
        64 -11.2834      3.3110     22.0860   1.2007264208e+02   6.9192200177e+01     0.250882    0.1451621 -12.82  0.001709698    1.621    0.383
