#   1 NUMBER                 Running object number                                     
#   2 MAG_AUTO               Kron-like elliptical aperture magnitude                    [mag]
#   3 X_IMAGE                Object position along x                                    [pixel]
#   4 Y_IMAGE                Object position along y                                    [pixel]
#   5 X_WORLD                Barycenter position along world x axis                     [deg]
#   6 Y_WORLD                Barycenter position along world y axis                     [deg]
#   7 A_WORLD                Profile RMS along major axis (world units)                 [deg]
#   8 B_WORLD                Profile RMS along minor axis (world units)                 [deg]
#   9 THETA_WORLD            Position angle (CCW/world-x)                               [deg]
#  10 FWHM_WORLD             FWHM assuming a gaussian core                              [deg]
#  11 ELONGATION             A_IMAGE/B_IMAGE                                           
#  12 ELLIPTICITY            1 - B_IMAGE/A_IMAGE                                       
         1 -12.0154     17.6718     23.4226   1.0406127974e+02   6.7949405356e+01    0.2931121    0.2611324  25.34  0.002258549    1.622    0.383
         2 -11.8001      7.2729     18.0839   1.0673715402e+02   6.9624647365e+01    0.2195707     0.164066 -10.31 0.0003974631    1.053    0.050
         3 -11.8206    190.4216     20.2459   5.9483150209e+01   3.5273610278e+01     0.265885    0.2314301  32.22  0.000339301    1.590    0.371
         4 -10.6918     43.5312     16.5725   9.0549910582e+01   6.5681172014e+01    0.2960907    0.2266205  70.17  0.001694471    3.110    0.678
         5 -11.6463    218.9754     15.7568   5.5613504346e+01   2.9522358825e+01    0.2810667    0.2027883   7.67  0.001516799    3.118    0.679
         6 -11.0754    115.6638     15.6818   6.9762052075e+01   5.2567243561e+01    0.3794645    0.1917291  44.27  0.001841708    1.789    0.441
         7 -11.7880     80.1581     15.0698   7.7999147795e+01   5.9785063809e+01    0.2760456    0.2435833  22.37 0.0008977102    1.102    0.092
         8 -11.7445     25.5894     12.9292   9.6295322513e+01   6.8414099058e+01    0.2819893    0.1748819  32.51 0.0004776227    1.610    0.379
         9  -9.9619     66.6310     12.1814   8.0868355256e+01   6.2485880924e+01    0.1560993   0.09935776  -5.60 0.0009474466    1.691    0.409
        10 -10.2099      7.7364     10.6384   1.0345799321e+02   7.0546657202e+01    0.1546927     0.108457  29.68 0.0005840553    1.746    0.427
        11  -9.8111      5.0000      8.0234   1.0366673117e+02   7.1112705177e+01    0.4404121    0.1762101 -21.76   0.00215762    2.826    0.646
        12 -11.2713     44.9913      7.9338   8.6435480829e+01   6.6361022486e+01    0.4268659    0.2529737  58.66   0.00225727    3.145    0.682
        13 -10.8235     50.7993      8.6581   8.4658899939e+01   6.5412436692e+01     0.314423    0.1490825  51.41  0.001657722    2.467    0.595
        14  -9.5109     52.2220      5.9779   8.3067386591e+01   6.5436362179e+01    0.1310111   0.08382303 -18.26 0.0003920465    1.599    0.375
        15 -10.0856     13.7587     10.2018   1.0042542380e+02   7.0022909747e+01    0.1881447   0.09373561 -14.73  0.001093767    2.088    0.521
        16 -10.6203     18.5566      7.4316   9.7024014632e+01   6.9835823059e+01    0.3742107    0.1642157  14.83   0.00163933    2.870    0.652
        17 -12.4399    209.7296      5.7298   5.4451601604e+01   3.2595836083e+01    0.4705725    0.2289248 -69.17 0.0008379575    2.115    0.527
        18 -10.4276    105.4691      8.8018   6.9693234456e+01   5.5327571235e+01    0.2026814     0.112558 -30.15  0.001135083    2.083    0.520
        19 -10.8542     74.7153      8.6665   7.7156809076e+01   6.1366249554e+01    0.2336752    0.1721295  48.44  0.001203144    1.252    0.201
        20 -11.0743    185.3395      8.4422   5.7415230539e+01   3.7665273461e+01    0.3074668   0.08302879  64.71  0.001260337    2.852    0.649
        21 -11.8646    190.9655      5.5200   5.6184914957e+01   3.6706206921e+01    0.2403583    0.1944383  83.73  0.000341379    1.063    0.059
        22 -11.4150    194.4857      3.5363   5.5412164284e+01   3.6126701865e+01    0.2226562    0.1613801 -83.51 0.0006304499    1.156    0.135
        23 -10.0187    128.1631      8.3056   6.5209302267e+01   5.0506320487e+01     0.194987    0.1200049  51.24 0.0004997252    1.385    0.278
        24 -10.4527     87.2834      7.4679   7.3405623384e+01   5.9099415099e+01    0.1829756    0.1028949 -20.90 0.0009936695    2.026    0.506
        25 -11.5558     24.7683      6.9561   9.4074853696e+01   6.9172903055e+01    0.1987129    0.1473862 -20.65 0.0004721782    1.360    0.265
        26 -11.4976    177.2644      7.0683   5.8000644835e+01   3.9607666061e+01    0.2168039    0.1467728  79.92  0.000281229    1.230    0.187
        27  -9.8435     35.6943      4.3290   8.8422180443e+01   6.8031506825e+01    0.1587822    0.1413682   4.51  0.001266248    1.390    0.281
        28 -10.7491     39.6566      5.3171   8.7317857301e+01   6.7384052122e+01    0.2235509    0.1617243 -41.65  0.001052634    2.114    0.527
        29  -9.4052     38.2536      2.5967   8.6677686242e+01   6.7836212026e+01    0.1556015    0.1108764  22.75  0.001129816    1.103    0.094
        30 -10.4132     14.0187      4.7215   9.7902692268e+01   7.0624250680e+01    0.1503872    0.1281142 -11.62 0.0004275875    1.462    0.316
        31 -11.6682    161.0920      3.0837   5.8980041009e+01   4.3607353388e+01    0.3508804    0.2132702  82.76  0.001479208    1.502    0.334
        32 -10.6595    111.7851      4.9506   6.7189445587e+01   5.4315764962e+01    0.1593536    0.1367628  47.05 0.0003666843    1.067    0.063
        33 -10.8483    217.8777      2.2846   5.3086287584e+01   3.1224332193e+01    0.2029156    0.1616525 -49.68  0.001456755    1.389    0.280
        34 -11.7185    180.5720      2.4482   5.6587142719e+01   3.9305974694e+01    0.3505005    0.1913665  67.34  0.002011329    1.507    0.337
        35 -11.0416     73.9605      2.0827   7.4896590309e+01   6.2041530200e+01    0.2621892    0.1701198  41.61  0.001710831    1.225    0.184
        36 -10.7062     50.3512      1.9835   8.2050008761e+01   6.6078917103e+01    0.2000933    0.1226463  32.76 0.0003162542    1.306    0.234
        37 -10.1197    135.4832      1.5826   6.2120313781e+01   4.9446710157e+01      0.12118   0.09656325  63.49  7.64971e-05    1.028    0.027
        38 -10.0773      9.5687      1.3413   9.8478276334e+01   7.1451117451e+01    0.1744672   0.08024011  34.24  0.000675932    2.256    0.557
        39 -10.0646    173.0034    233.4890   1.0986653152e+02  -8.3229694736e-01    0.2032304    0.1238452  35.51 0.0004828711    1.524    0.344
        40 -10.6403    210.0121    246.8271   1.0466950257e+02  -8.9434027293e+00    0.2728686    0.1976918  44.29  0.001043424    1.585    0.369
        41 -10.6153    206.5449    246.2234   1.0523958729e+02  -8.3364933814e+00    0.2563804    0.1780987 -20.09  0.001484841    1.488    0.328
        42 -11.0758    128.7854    249.3575   1.2153253536e+02   3.5548204886e+00    0.3674353    0.2414193 -23.94  0.001750305    2.537    0.606
        43 -11.0467    141.0394    247.4901   1.1872666092e+02   1.8946728507e+00    0.2175713    0.1876457  86.33  0.001194046    1.350    0.259
        44 -10.8635    137.3956    246.3167   1.1931826506e+02   2.7176036847e+00    0.3259248    0.2281381 -34.93  0.001515289    1.791    0.442
        45 -10.9961    133.2186    244.8035   1.1997739010e+02   3.6981487204e+00    0.2618494    0.2019993  53.15 0.0005855119    1.225    0.184
        46 -12.1410    121.7660    241.0180   1.2186169607e+02   6.3377766103e+00    0.9141397    0.3558767  28.23  0.002936229    4.267    0.766
        47 -11.6327    111.5737    244.2939   1.2444411596e+02   7.3462177967e+00    0.5351349    0.2232231 -59.08  0.002295637    2.651    0.623
        48 -11.1677    115.0167    249.7960   1.2443702010e+02   5.7031387044e+00    0.4107752    0.2430571  36.13  0.001688988    1.596    0.373
        49 -11.3001    121.2015    247.8391   1.2290234881e+02   5.0838944658e+00    0.2900579    0.2534878  23.08  0.001585736    1.279    0.218
        50 -10.5713    117.7331    246.6067   1.2346092865e+02   5.8887926279e+00    0.2741352    0.1748395 -47.04 0.0006294054    1.850    0.459
        51 -11.6781     46.7104    218.2886   1.3510383845e+02   2.2604139624e+01    0.4861948     0.235175 -81.42  0.002250168    2.126    0.530
        52 -11.8024     38.9761    211.8228   1.3608687233e+02   2.5054198445e+01    0.2644851    0.2201465  85.81 0.0003598015    1.041    0.040
        53 -11.4949     45.3984    248.2631   1.3814788056e+02   1.6240577419e+01    0.4300988    0.3680093 -80.18  0.002215853    1.286    0.222
        54 -12.3667     20.0650    216.7444   1.4044249712e+02   2.6088262499e+01    0.3250281     0.222872 -60.37 0.0004231971    1.571    0.363
        55 -12.8497     30.8724    231.7917   1.3955705823e+02   2.1535397813e+01     1.126784     0.479138  56.43  0.005045906    2.184    0.542
        56 -12.2576     46.5018    230.1911   1.3631905004e+02   1.9959132022e+01    0.5685452    0.2964158 -88.51 0.0008750818    2.004    0.501
        57 -12.8914     39.1025    218.1181   1.3668043731e+02   2.3593381409e+01    0.5560721      0.37309 -65.26  0.002320834    1.454    0.312
        58 -12.7390     27.9980    219.1929   1.3905582925e+02   2.4659305701e+01    0.5414516     0.371851  18.44  0.002834525    2.229    0.551
        59 -12.9536     31.3009    212.4056   1.3776205328e+02   2.5825696366e+01    0.5246029    0.5119485  22.67  0.002368968    1.433    0.302
        60 -12.8335     21.1162    237.4105   1.4184744275e+02   2.1450067320e+01    0.5040805    0.3427103  58.01  0.001863406    1.268    0.211
        61 -11.8666     44.6225    236.9056   1.3731187156e+02   1.8737362081e+01    0.4686674    0.2785007  48.85  0.002683291    1.502    0.334
        62 -12.5934     39.6579    229.6237   1.3764050871e+02   2.0948006755e+01    0.8289239    0.3098131 -73.40  0.003367478    2.537    0.606
        63 -13.8533     14.0286    247.4111   1.4381601215e+02   2.0151354833e+01    0.7243696    0.5109254 -80.48  0.005026553    1.299    0.230
        64 -13.4157      4.5197    246.6715   1.4542518091e+02   2.1313383757e+01     1.041683    0.4350191 -76.76  0.005769984    2.028    0.507
        65 -13.5092      8.8686    214.4702   1.4247965718e+02   2.7751586813e+01    0.7039545    0.4649451  65.20  0.003171169    1.318    0.242
        66 -13.4567     24.9460    247.2602   1.4185638265e+02   1.8952014556e+01    0.7562432     0.542318 -68.62  0.005071888    1.497    0.332
        67 -13.9921     35.8926    244.3877   1.3962111417e+02   1.8241996225e+01    0.7672752    0.4533703 -76.30  0.002910786    1.549    0.354
        68 -13.7569     10.7998    231.8851   1.4336564729e+02   2.3745205584e+01    0.6534876     0.477998  31.81  0.002190533    1.770    0.435
        69 -13.3062      2.2713    228.3522   1.4469583709e+02   2.5362940622e+01     0.502268     0.339791 -65.43  0.002231111    1.562    0.360
        70 -13.2066     13.4288    224.2142   1.4232501649e+02   2.5131872156e+01    0.5552449    0.3696799  44.45  0.001617464    1.538    0.350
        71  -9.9879    156.0138    232.9374   1.1335631258e+02   2.1490884485e+00    0.1981742    0.1731526  52.37  0.001161608    1.163    0.140
        72 -10.8003    152.3703    230.7207   1.1377796986e+02   3.2054516518e+00    0.4199858    0.2373586 -68.69  0.001272532    2.846    0.649
        73 -11.5765    143.9194    232.3490   1.1585149616e+02   4.3351358269e+00    0.4161557    0.2205157  38.33  0.001243434    1.739    0.425
        74 -11.4262     58.5195    230.4706   1.3389339466e+02   1.8301976970e+01    0.3848622     0.228275  86.42  0.001681405    1.758    0.431
        75 -10.5422     55.6774    228.6979   1.3429767639e+02   1.9080272174e+01    0.1823056    0.1421927 -66.23 0.0004878253    1.347    0.258
        76 -10.6026     81.0901    231.7797   1.2931398620e+02   1.4762691949e+01    0.2058743    0.1712108  86.32 0.0003625407    1.115    0.103
        77 -10.6273     74.5183    231.5048   1.3067044255e+02   1.5802021883e+01    0.2325168    0.1804169 -68.31 0.0009186063    1.315    0.240
        78 -11.4916     74.0600    227.1502   1.3026486056e+02   1.6830717256e+01    0.4089419    0.2141795  64.94   0.00121305    2.192    0.544
        79 -11.6350    243.0343    229.3141   9.5469907994e+01  -1.0884556066e+01    0.2580893    0.1998929 -38.86 0.0003619623    1.389    0.280
        80 -10.1174     87.0875    230.9532   1.2793678467e+02   1.4027301153e+01    0.2041679    0.1527327  66.80            0    1.250    0.200
        81 -11.3875    107.1594    227.9187   1.2319201535e+02   1.1479605088e+01    0.3550031     0.249637  75.52  0.001208083    1.621    0.383
        82 -10.9073    111.4808    227.4876   1.2218497567e+02   1.0856671197e+01    0.2377019    0.2076047  68.15 0.0002181481    1.076    0.070
        83 -10.2632     96.5986    229.8289   1.2574757134e+02   1.2778674923e+01    0.3264789    0.2620648  79.56  0.001540499    1.222    0.182
        84 -10.6530     94.3524    226.6938   1.2582486843e+02   1.3821310241e+01    0.2243524    0.2060133  82.50 0.0007522562    1.079    0.073
        85 -10.3992    235.0474    229.5343   9.6954515457e+01  -9.8178813830e+00    0.3184878     0.115378  36.74  0.001109835    2.798    0.643
        86 -11.7494    173.8888    228.1223   1.0877603152e+02   1.8904941811e-02    0.2627138    0.2037759  35.92 0.0002652119    1.208    0.172
        87  -9.8142     63.9638    229.2891   1.3263829398e+02   1.7808117765e+01    0.1689149    0.1403391  54.70            0    1.164    0.141
        88 -10.1130    249.2135    227.1815   9.3994472885e+01  -1.1384129641e+01    0.1496438    0.1383237 -18.66 0.0006740841    1.310    0.237
        89  -9.3005    206.1885    224.9737   1.0163069455e+02  -4.7390532904e+00    0.1662978   0.09786795 -41.15 0.0008278893    1.702    0.412
        90  -9.3415    186.4329    225.4966   1.0571177821e+02  -1.6079976842e+00    0.1353781    0.1227437   5.90  0.000137775    1.026    0.025
        91 -11.3080     78.9465    223.0246   1.2871585902e+02   1.7026419795e+01    0.3829461    0.1825168 -62.91  0.001732836    2.076    0.518
        92  -9.4094    224.3650    224.6926   9.8070204273e+01  -7.4897684038e+00    0.1177064    0.1048858  77.29 0.0007037886    1.747    0.428
        93 -10.8869    177.4778    223.3385   1.0719555965e+02   3.1205265439e-01    0.3029249    0.2512613 -81.13  0.001172583    1.652    0.395
        94 -10.6496    121.6815    222.9150   1.1926174535e+02   1.0116427398e+01    0.3430817     0.256345 -64.76  0.001135206    1.429    0.300
        95 -10.4072     90.4348    223.9510   1.2632219343e+02   1.5048458412e+01    0.2064163    0.1294581 -66.22  0.001033568    1.621    0.383
        96 -10.0688     54.3323    222.0376   1.3388567271e+02   2.0754140508e+01    0.2503935     0.202395 -20.48   0.00142489    2.018    0.504
        97 -10.5966    158.7760    222.0279   1.1095825588e+02   3.8175630613e+00    0.2931979    0.1765335  47.23 0.0007668089    1.661    0.398
        98  -9.6781     84.8312    221.3347   1.2721409173e+02   1.6509395286e+01     0.177061    0.1241667  32.66 0.0004065593    1.576    0.366
        99 -10.4993    249.4016    220.0546   9.2678097766e+01  -1.0302278131e+01    0.2861185    0.1932142  57.88  0.000633094    2.787    0.641
       100  -9.7486     62.7952    219.8397   1.3183920740e+02   2.0096575946e+01    0.1775986    0.1302011  72.20 0.0003939359    1.250    0.200
       101 -10.8667    134.8357    218.7981   1.1568636271e+02   8.7116226732e+00    0.3470925    0.1871634  36.86  0.001527498    1.798    0.444
       102 -10.7364    106.7755    217.5150   1.2179071226e+02   1.3832716963e+01    0.3524577    0.1833325 -46.32  0.001511473    2.241    0.554
       103 -11.3590    173.0331    216.2151   1.0687576337e+02   2.4653851365e+00    0.3970184    0.2926564 -77.93  0.001917367    2.041    0.510
       104 -11.3860    100.4431    216.4262   1.2306103543e+02   1.5128763547e+01    0.4551812    0.2931331  88.94  0.002102635    1.971    0.493
       105 -10.0412     80.9087    210.4853   1.2666258784e+02   1.9606272431e+01    0.2450889     0.191553  49.40 0.0004772686    1.230    0.187
       106 -11.0712     88.0865    216.0396   1.2579047514e+02   1.7205852574e+01    0.4161034    0.2615585  86.42  0.001723103    1.937    0.484
       107 -11.1958     83.3687    215.5216   1.2677964001e+02   1.8059963944e+01    0.3334949    0.2844662  33.57  0.001266353    1.332    0.249
       108 -10.8374     86.0452    211.9451   1.2569338834e+02   1.8470546017e+01    0.3633085    0.2119755  78.55  0.001548337    2.312    0.567
       109 -12.0030     73.3968    216.4731   1.2912280747e+02   1.9345929641e+01    0.3759259    0.2552612  39.33 -5.793474e-05    1.497    0.332
       110  -9.9377     74.5721    212.5211   1.2836215244e+02   2.0087215320e+01    0.3408892    0.1654061  48.73   0.00151735    1.968    0.492
       111 -12.4147     67.3344    207.7682   1.2938888523e+02   2.2258072845e+01    0.4145836     0.243407  64.23  0.000724489    1.824    0.452
       112 -10.2142    217.0394    217.2437   9.8106866450e+01  -5.1029981100e+00    0.2283679    0.1778228  48.93  0.001301874    1.576    0.365
       113 -10.6417    142.4113    217.1486   1.1372706821e+02   7.7206856639e+00    0.2999044     0.178569  37.41  0.001382148    1.613    0.380
       114 -11.5058    146.2644    215.3364   1.1256428069e+02   7.4161437284e+00    0.6673215    0.4211913  85.60  0.002543299    3.169    0.684
       115 -10.5531    125.2454    216.4700   1.1746324755e+02   1.0899455155e+01    0.2505324    0.2180404  -1.87   0.00111504    1.429    0.300
       116 -10.7325    197.4058    215.7302   1.0170971718e+02  -1.6419303491e+00    0.1950674     0.122113 -31.89 0.0009508545    1.658    0.397
       117 -10.2954    156.4053    215.1554   1.1029124286e+02   5.6369877002e+00    0.3981011    0.2229786 -73.32  0.001380315    3.750    0.733
       118  -9.9028     60.1674    214.8275   1.3183601417e+02   2.1613753394e+01    0.1638063    0.1572961 -53.55 0.0009053136    1.331    0.249
       119 -11.0559    118.0273    212.8229   1.1852242864e+02   1.2965834659e+01    0.4074592    0.2724332  21.12  0.001865774    1.972    0.493
       120 -11.3549    111.8709    213.3577   1.2001023042e+02   1.3906061461e+01    0.3076458    0.2895374  -3.06 0.0005740692    1.279    0.218
       121  -9.4100    164.4190    213.4126   1.0823143661e+02   4.5587895345e+00    0.1389036    0.1327045  37.99 4.124357e-05    1.046    0.044
       122 -10.1257    230.8624    212.1953   9.4562305424e+01  -6.3597016764e+00    0.1831482    0.1380865  -8.68 0.0005188827    1.314    0.239
       123 -10.3802    219.6502    212.2557   9.6680142434e+01  -4.6392889233e+00    0.3373728    0.1787583  43.34  0.001418848    2.079    0.519
       124 -12.1121    128.9909    208.6860   1.1534088656e+02   1.1958614489e+01    0.4323837    0.3972453  84.50  0.002445114    1.103    0.093
       125  -9.8341     13.7532    211.0164   1.4123993741e+02   2.8040448395e+01    0.1726529    0.1330398 -74.89  0.000480817    1.227    0.185
       126 -10.0522     19.4065    210.5700   1.4005607166e+02   2.7557674797e+01    0.1898579    0.1343462 -50.65 9.673277e-05    1.762    0.432
       127 -12.0205     14.7958    205.6462   1.4058281480e+02   2.9159696227e+01      0.42043    0.2078263  68.67  0.001426653    2.054    0.513
       128 -12.4061     19.2791    201.4177   1.3927462114e+02   2.9680544298e+01    0.3369302    0.2377137 -67.27  0.001259276    1.324    0.245
       129 -10.6657    214.3132    210.0973   9.7303302794e+01  -3.4015826959e+00    0.1893527    0.1588454 -27.97 0.0004060667    1.115    0.103
       130  -9.6824    183.5579    209.9990   1.0351069662e+02   1.8353454123e+00    0.1947812    0.1358844 -44.42 3.163348e-05    1.455    0.313
       131 -11.6787     96.1360    207.9277   1.2280615715e+02   1.7789501009e+01    0.4788724    0.3491918 -64.70  0.001478379    1.363    0.266
       132 -10.3930    238.0427    208.1696   9.2500260073e+01  -6.7491423066e+00    0.2037021    0.1580313  -6.80 0.0009393085    1.249    0.199
       133 -11.0273     52.8771    206.9898   1.3253995455e+02   2.4429112391e+01    0.2587312    0.2176521 -89.96 0.0004808764    1.036    0.034
       134 -10.1733     50.9969    202.9895   1.3249652250e+02   2.5622749901e+01     0.196107    0.1533426 -43.36 0.0004876595    1.625    0.385
       135 -10.7907     53.0422    199.5947   1.3162894362e+02   2.6167429746e+01    0.4419363    0.2431424  84.35  0.001973772    2.169    0.539
       136 -11.4750    183.5330    203.6752   1.0232883180e+02   3.0945606324e+00    0.3100145    0.2503561 -35.60 0.0003778118    1.232    0.188
       137 -10.6578    152.3013    206.8744   1.0973605289e+02   8.1239153362e+00    0.2688537    0.1881529  50.32  0.001092434    1.461    0.315
       138  -9.5877    117.2276    207.3901   1.1783694808e+02   1.4334080698e+01    0.2034891    0.1262153  49.95 0.0004331507    1.583    0.368
       139 -10.7503      4.3805    206.1147   1.4273436027e+02   3.0060018543e+01    0.1944009    0.1548903 -60.62 0.0007375811    1.447    0.309
       140  -9.7712      1.2785    204.3367   1.4321964696e+02   3.0745577943e+01     0.166077    0.0966474 -66.47 0.0007860889    1.541    0.351
       141 -11.2466     38.0598    205.8240   1.3567114900e+02   2.6562628609e+01    0.3913433     0.193873  45.39 0.0009257349    1.940    0.484
       142 -11.4625     39.2492    201.9854   1.3500480729e+02   2.7325586043e+01     0.270001    0.2490508 -13.61 0.0008461708    1.534    0.348
       143 -10.7748    111.5886    203.5864   1.1853317210e+02   1.6193008243e+01    0.3223493     0.249466 -42.87 0.0009694537    1.457    0.314
       144 -10.3171    180.5963    207.1850   1.0361213296e+02   2.9184134147e+00    0.2111271    0.1920852  27.10 0.0003933993    1.071    0.066
       145 -11.2860    195.3964    203.5267   9.9830793899e+01   1.0188235347e+00    0.2524377     0.236414 -82.58 0.0002482995    1.308    0.236
       146 -11.0184    122.1006    203.2831   1.1602562427e+02   1.4412087391e+01    0.3267818    0.2780558  55.95  0.001756968    1.136    0.120
       147 -10.8081    121.4196    199.1263   1.1547764874e+02   1.5492280031e+01    0.2567724    0.2097484  41.32 0.0003499275    1.211    0.174
       148 -10.4455    160.5301    202.3532   1.0707251379e+02   7.5746535476e+00      0.25837    0.2182279  41.00 0.0009178895    1.159    0.137
       149 -10.1767     58.6029    211.2733   1.3176766903e+02   2.2655294518e+01    0.2091375    0.1840259  51.05 0.0007147787    1.222    0.182
       150 -10.6272     72.0032    202.7474   1.2766581524e+02   2.2773580362e+01    0.2788781    0.1284854  54.22  0.001131536    2.359    0.576
       151 -10.3988     30.9701    202.5419   1.3687553701e+02   2.8156368333e+01    0.2400482    0.1481676  84.25 0.0004983632    1.517    0.341
       152 -11.7731     24.0477    194.4637   1.3758151730e+02   3.0817633453e+01    0.7772813    0.3451903  84.66  0.003202439    2.831    0.647
       153 -12.0614    240.3174    200.6866   9.0680789314e+01  -5.8092278384e+00    0.4728185    0.2154678  43.74   0.00196535    2.564    0.610
       154 -11.8980    239.3136    197.6618   9.0282146514e+01  -5.1326468509e+00    0.2939996    0.2276836  59.54  0.001074428    1.880    0.468
       155 -11.4749    208.2073    199.4000   9.6456397761e+01  -4.0686775646e-01    0.3152345    0.2437183 -34.07  0.001730845    1.222    0.182
       156 -10.7216    190.9290    200.9792   1.0026374963e+02   2.3076851043e+00    0.2082034    0.1977293 -15.08  0.001218391    1.032    0.031
       157 -11.1167     95.9885    200.2655   1.2168160698e+02   1.9619052449e+01    0.2826005    0.2013513 -64.04 0.0004877241    1.382    0.276
       158 -10.1462    169.9308    198.3856   1.0424815518e+02   6.6705899121e+00    0.4032082    0.2304808 -61.05  0.001647135    2.284    0.562
       159 -11.0405     90.2944    200.0387   1.2299434536e+02   2.0601913039e+01    0.4232495    0.2024445  36.75  0.001066982    2.133    0.531
       160 -10.1859     44.9666    200.0569   1.3351565052e+02   2.7087341868e+01     0.204471    0.1782985 -86.16  0.001278754    1.089    0.082
       161 -11.7011      4.6244    199.9869   1.4220755163e+02   3.1432039949e+01    0.2594829    0.1634662  35.41 0.0005001233    1.828    0.453
       162 -10.3124     16.5803    191.0563   1.3889121294e+02   3.2381285215e+01    0.2119012    0.1590229  54.64 0.0004762758    1.351    0.260
       163 -12.0866     13.4615    197.2077   1.4013018043e+02   3.1242629744e+01    0.2690945    0.2024274  81.18 0.0002115687    1.108    0.098
       164 -10.2407     13.4224    193.4835   1.3980398824e+02   3.2116261974e+01    0.1920018    0.1256804 -70.80 7.622317e-05    1.298    0.229
       165 -12.7049    217.9793    194.7200   9.3645304825e+01  -1.1816793045e+00    0.5437641    0.3702745  54.72  0.002728606    1.926    0.481
       166 -12.5532    229.4274    195.1054   9.1575410044e+01  -3.1317857495e+00    0.3704763    0.2664578  -9.05 0.0008203603    1.568    0.362
       167 -11.0094    227.3439    189.6924   9.0901668747e+01  -1.8056455983e+00    0.2588324    0.1898725 -49.90 0.0007816363    1.433    0.302
       168  -9.7710    161.9880    198.0318   1.0593665869e+02   8.2282755017e+00     0.170825    0.1680326 -23.46 0.0003273422    1.026    0.025
       169  -9.7634    132.5126    198.4675   1.1275902517e+02   1.3626998334e+01    0.1455983    0.1429704  48.32 4.356876e-06    1.051    0.049
       170 -11.4238    108.6835    196.9635   1.1813269159e+02   1.8251617839e+01    0.5936376    0.3601733  56.33  0.002625147    1.784    0.439
       171 -11.1777     62.6700    196.1019   1.2895589910e+02   2.5709566292e+01    0.2551967    0.2427156 -39.80 0.0002731209    1.312    0.238
       172 -11.4059     57.0713    195.2848   1.3016053847e+02   2.6672709383e+01    0.3151176    0.2060908  83.76 0.0003292932    1.595    0.373
       173 -11.9504     52.5432    192.7504   1.3089766608e+02   2.7885878292e+01    0.3283538     0.250292  57.38 0.0002317431    1.281    0.219
       174 -10.3296    139.9016    194.7948   1.1036822145e+02   1.3091883428e+01    0.2456694    0.2102131 -54.47 0.0006351181    1.186    0.157
       175 -10.0609     82.4478    196.0281   1.2425906601e+02   2.2810029237e+01    0.2074323    0.1328804 -64.39 0.0003764282    1.497    0.332
       176  -9.8949     95.2681    195.0253   1.2103170644e+02   2.0992630523e+01    0.1961913     0.180502 -84.78 0.0003812403    1.039    0.037
       177 -10.5896     71.1713    194.3596   1.2670757638e+02   2.4919034904e+01    0.2338358    0.1785341 -59.47  0.000585395    1.297    0.229
       178 -10.5248    204.7568    200.8601   9.7424178861e+01  -9.2853322917e-02    0.2099425      0.19592  -5.99 0.0006060087    1.032    0.031
       179 -10.8714    163.3839    192.8290   1.0462708245e+02   9.0889704389e+00    0.2954308    0.2411113  -0.40 0.0008000178    1.474    0.321
       180  -9.8156    148.1671    192.5759   1.0803602622e+02   1.2034913987e+01    0.2173965    0.1424718  26.70 0.0009451422    1.787    0.440
       181 -12.6077     66.6771    190.9144   1.2729795976e+02   2.6409370199e+01     0.345739    0.3056809 -49.03 0.0005863141    1.296    0.228
       182 -10.8198     34.6240    191.4161   1.3488707367e+02   3.0389917284e+01    0.2792502    0.1902245  61.33  0.001431631    1.434    0.303
       183 -11.2851    120.9268    189.6888   1.1393294545e+02   1.7794217206e+01    0.4982022    0.3580779 -18.62  0.002183607    2.106    0.525
       184 -11.2937     81.0567    189.6601   1.2363374742e+02   2.4577239523e+01    0.4858847    0.2764466  41.89  0.001180211    1.752    0.429
       185 -11.5855    189.4541    196.1817   9.9640541249e+01   3.5312747513e+00    0.4315532    0.2723753  29.00 0.0005533191    1.733    0.423
       186  -9.6636     40.4973    191.5022   1.3354861813e+02   2.9686726551e+01    0.1338802    0.1129899 -84.95 0.0008103942    1.038    0.036
       187 -10.7599    248.0311    190.4835   8.7388042975e+01  -5.2031182238e+00    0.1770715    0.1269717  33.63 0.0004374503    1.555    0.357
       188 -10.0092    137.2939    197.5989   1.1148845261e+02   1.2941585065e+01    0.2121155    0.1427113  53.88 0.0004490082    1.566    0.362
       189 -10.3059    104.9329    189.0194   1.1769664353e+02   2.0804498254e+01    0.2780891    0.1953799 -68.41  0.001112123    1.458    0.314
       190 -11.2248    103.6864    183.9784   1.1712845425e+02   2.2245038699e+01    0.3824399    0.3089604 -53.16  0.001350026    1.247    0.198
       191 -10.1671      3.5723    188.0226   1.4143947241e+02   3.4289243449e+01    0.1662795    0.1372796  89.85 0.0001849923    1.091    0.083
       192 -10.5453    205.2883    187.0845   9.4606234599e+01   2.4868718496e+00    0.2143556    0.1872293   8.35 0.0001728202    1.184    0.155
       193 -12.1863     91.8380    188.9816   1.2089291260e+02   2.3023593519e+01    0.3123276    0.2530477 -77.02 0.0006811355    1.198    0.166
       194 -10.1327     60.5344    187.5026   1.2830228213e+02   2.8104368879e+01    0.1420105    0.1211913  87.71 0.0008092445    1.046    0.044
       195 -11.6424      9.1634    186.1356   1.4005829551e+02   3.4238536725e+01    0.3725304      0.20287 -66.44  0.001038708    1.533    0.348
       196 -11.5812     15.7370    183.1205   1.3830352622e+02   3.4345957928e+01    0.3695323    0.2392966 -42.89  0.001345798    1.959    0.490
       197  -9.8965    220.9538    186.2921   9.1418146554e+01  -1.0055371503e-01    0.1841457    0.1709988  10.57 0.0004425111    1.114    0.103
       198  -9.4384     48.9627    187.0000   1.3101208170e+02   2.9747163806e+01      0.20204   0.07687247  32.59 0.0007936915    2.882    0.653
       199 -12.0073    230.1079    181.1083   8.8698300510e+01  -6.7384681150e-01    0.4867375    0.2950259 -60.60  0.002170327    2.376    0.579
       200 -10.6766    190.3008    183.5669   9.6948799104e+01   5.9513892252e+00     0.401109    0.1202685 -40.46  0.001219774    3.552    0.718
       201 -10.3170    225.8588    183.8298   9.0015286351e+01  -4.6872942199e-01    0.2095011    0.1743927  -4.88  0.001196914    1.253    0.202
       202 -10.9778    177.6083    183.7778   9.9692815644e+01   8.3210040100e+00    0.2947547     0.265204 -72.39  0.000592849    1.243    0.196
       203 -10.7373    173.9289    183.0000   1.0033739059e+02   9.1969114843e+00    0.3428954     0.210791  41.26 0.0008199133    1.650    0.394
       204 -12.3206     59.4997    181.6295   1.2773036725e+02   2.9695321272e+01    0.4691117    0.3966523  56.04  0.001417749    1.202    0.168
       205 -10.1471     87.7155    182.4516   1.2084110550e+02   2.5298740978e+01    0.2454256    0.2062546  63.71  0.000902411    1.176    0.150
       206 -11.1233     46.8177    182.2943   1.3091892726e+02   3.1169686528e+01    0.3493595    0.2412645   0.21  0.001394266    2.451    0.592
       207 -12.4580     47.7608    177.0787   1.2999381219e+02   3.2341369542e+01    0.3175628    0.2601023  39.66 0.0004550132    1.362    0.266
       208 -10.2573     36.1480    173.0925   1.3233332498e+02   3.4686306939e+01    0.2255463    0.1877035 -23.20 0.0008455908    1.613    0.380
       209 -11.9498     29.4194    180.7374   1.3488559514e+02   3.3546062032e+01    0.4782994    0.2755839 -74.69  0.001670321    1.485    0.327
       210 -11.0888     31.9990    176.4590   1.3376507787e+02   3.4313334432e+01    0.3151906    0.2246004  80.59  0.001134629    1.354    0.262
       211 -10.3160      4.2567    182.1866   1.4077799740e+02   3.5595865156e+01    0.2930597    0.1284714 -73.65  0.001141905    1.802    0.445
       212  -9.7638    122.9667    183.0000   1.1220685411e+02   1.9009994031e+01    0.2477146   0.08572447  39.23 0.0004429608    2.897    0.655
       213 -12.7022     81.3335    175.5461   1.2129985969e+02   2.8028242709e+01    0.7957086    0.6115538  63.63  0.003453545    1.352    0.261
       214 -10.6886    147.1048    177.6793   1.0536371502e+02   1.5635936975e+01    0.3450339     0.171888 -50.85   0.00112001    2.004    0.501
       215 -10.5192    104.0683    178.2381   1.1600784926e+02   2.3583923212e+01    0.2487253    0.2106316 -69.22 0.0005795711    1.146    0.127
       216 -10.7287    109.1193    176.7345   1.1446199038e+02   2.3057365405e+01    0.2762784     0.203445 -50.85 0.0004664034    1.354    0.262
       217 -11.6104     72.9773    177.4371   1.2373117649e+02   2.8828239444e+01    0.5180082    0.2872038  29.31   0.00202019    2.139    0.533
       218 -10.3843      6.2312    176.0211   1.3976253469e+02   3.6884031157e+01    0.2780489    0.1178657 -63.29  0.001367238    1.900    0.474
       219 -11.3246    136.1942    175.8546   1.0760224950e+02   1.8193617990e+01    0.3393732    0.2503773 -16.99  0.001288801    1.913    0.477
       220 -11.1268    135.0867    171.8461   1.0706116153e+02   1.9358093988e+01    0.2775208    0.2295106  63.22 0.0003475613    1.289    0.224
       221 -10.5442    191.5544    173.9989   9.4716151235e+01   7.7036621737e+00    0.3369803    0.1921412  36.04  0.001441141    1.919    0.479
       222 -10.3196    156.2129    173.8202   1.0244388810e+02   1.4718587066e+01     0.217186     0.206763  79.66 0.0002502954    1.088    0.081
       223 -10.4276    159.5324    173.5157   1.0161561502e+02   1.4125721240e+01     0.316303    0.2222474  30.07 0.0007371643    1.592    0.372
       224 -10.3644     98.0000    172.6597   1.1652852425e+02   2.6013929815e+01     0.373042    0.1756674 -57.20  0.001449184    2.042    0.510
       225 -10.0809    100.5450    170.4538   1.1546622349e+02   2.6121293129e+01    0.2775337    0.2155055  40.66 0.0006333527    1.332    0.249
       226  -9.8675     60.1793    173.9693   1.2643616008e+02   3.1509710082e+01    0.1909867    0.1630286 -73.89  0.001083528    1.049    0.047
       227  -9.7158      2.5285    173.5776   1.4037178849e+02   3.7766158456e+01    0.1233302   0.09676869 -80.01 0.0001933956    1.040    0.038
       228 -10.3010    199.9056    171.4825   9.2485441701e+01   6.6249833975e+00    0.2081947    0.1855279 -36.12 0.0003162047    1.055    0.052
       229 -10.3957    174.5985    172.1635   9.7949410126e+01   1.1421413735e+01    0.2150137    0.1389365 -35.89 0.0002061063    1.634    0.388
       230 -11.1298     66.7624    169.4576   1.2404257044e+02   3.1726800650e+01    0.5446196    0.3256453  81.72  0.002280315    2.303    0.566
       231 -11.0165     62.3311    170.0271   1.2527875876e+02   3.2202588274e+01    0.3841392    0.2096287  60.04  0.001185484    2.270    0.560
       232 -10.4376     31.9537    169.9688   1.3297078191e+02   3.5910166296e+01    0.3074453    0.1538958 -63.13  0.001480362    1.674    0.402
       233 -11.3125     48.6200    167.1831   1.2837856278e+02   3.4696339618e+01    0.4597924    0.2092159 -52.04  0.001853528    2.093    0.522
       234 -11.1965    114.5982    168.5174   1.1149717268e+02   2.4071352165e+01     0.334754    0.2617188  41.17  0.001076423    1.310    0.237
       235  -9.7804     14.6748    169.5503   1.3712914716e+02   3.7698911399e+01    0.1826805    0.1308647  19.22 0.0007950426    1.854    0.461
       236 -10.8028      2.3527    169.0240   1.3997603671e+02   3.8856912051e+01    0.2313869    0.1674153  28.72  0.001472203    1.730    0.422
       237 -10.4899     22.4905    175.0630   1.3587931567e+02   3.5632570745e+01    0.3257319    0.1072009 -69.81  0.001306844    2.514    0.602
       238 -10.9200     73.8713    166.0734   1.2162260505e+02   3.1541855947e+01    0.4199624    0.1669734 -55.36 0.0008579984    2.267    0.559
       239 -10.2268     75.6161    162.2195   1.2048744153e+02   3.2248102535e+01    0.2846771    0.1641645 -56.83 0.0004837065    1.592    0.372
       240 -11.6571     81.2703    166.3298   1.1972375212e+02   3.0345293534e+01    0.3766547    0.2554672  30.78  0.001215634    1.669    0.401
       241  -9.5323     37.4392    165.5826   1.3101385929e+02   3.6398155895e+01    0.1353723    0.1139232 -84.29 0.0001230587    1.051    0.048
       242 -11.7885     23.9375    164.1379   1.3423317443e+02   3.8152004259e+01    0.3203526    0.2128807  29.26 0.0008399733    1.799    0.444
       243 -10.0430    203.0279    164.3349   9.0357979351e+01   7.4938054272e+00    0.1971606     0.191312 -22.90 0.0005491447    1.048    0.046
       244  -9.6760    105.0665    165.8328   1.1341435734e+02   2.6468339136e+01    0.1922535    0.1744868 -21.77 0.0009968389    1.278    0.218
       245 -12.0149    141.1141    161.1320   1.0334493659e+02   2.0697362303e+01    0.2879604    0.2761575  25.32 0.0003015099    1.107    0.097
       246 -10.0493    140.2937    157.2781   1.0270867639e+02   2.1772579078e+01    0.2186371    0.1840655  81.73            0    1.352    0.260
       247 -11.7122     34.6982    158.3234   1.3071044493e+02   3.8491574006e+01    0.4222523    0.2555748  61.40 0.0007871775    1.925    0.481
       248  -9.9307     18.6963    160.6256   1.3511376349e+02   3.9498061509e+01     0.154788    0.1149983  47.72 0.0009246684    1.487    0.328
       249  -9.8981    223.8769    158.8980   8.5291300518e+01   4.6586194529e+00    0.1912451    0.1598011 -63.37 0.0004260741    1.312    0.238
       250 -10.0701    148.9414    159.1362   1.0102473859e+02   1.9571832195e+01    0.2282881    0.2017614  87.52 0.0002813411    1.240    0.193
       251 -10.4239    114.4760    158.3837   1.0946758727e+02   2.6577036216e+01    0.2531661    0.2244715  56.17 0.0005103204    1.149    0.130
       252 -10.8702     46.3720    158.9500   1.2773011251e+02   3.7021915135e+01    0.2313798    0.2012298  49.90 0.0003890573    1.255    0.203
       253 -11.5373     52.4204    157.8663   1.2594908416e+02   3.6553259148e+01    0.2323113    0.2171717 -69.80 0.0003137665    1.092    0.084
       254  -9.3594     11.4051    158.2561   1.3665507217e+02   4.0702165807e+01    0.1242514   0.08354064 -41.08 0.0006953641    1.720    0.419
       255 -10.6498    163.3334    156.3080   9.7043058335e+01   1.7245112500e+01    0.4084325     0.285133   5.85  0.001628184    2.354    0.575
       256 -11.8810    107.4215    158.1242   1.1125520476e+02   2.7948204739e+01    0.2899581    0.2751432  68.19 8.582023e-05    1.063    0.059
       257 -10.0034     71.0514    154.7114   1.2036439623e+02   3.4812707540e+01    0.1865725    0.1824201 -70.73  0.000255193    1.100    0.091
       258 -10.2541    113.4442    154.2658   1.0886867432e+02   2.7779379004e+01    0.2212822     0.147401 -65.63 0.0009478363    1.628    0.386
       259 -11.0333    249.1639    151.0878   7.9453074143e+01   1.6826133175e+00    0.2211826     0.186052 -51.43 0.0002668323    1.127    0.113
       260  -9.9019     65.6600    151.9632   1.2134219370e+02   3.6273854063e+01     0.203144    0.1638724 -66.11 0.0001938295    1.126    0.112
       261 -10.8880    225.3610    149.3093   8.3020762585e+01   6.2515213146e+00    0.3085494    0.2153114  11.86   0.00118805    2.255    0.556
       262 -10.7712     79.3734    149.6781   1.1712449712e+02   3.4815416411e+01    0.3745447    0.2269604  59.04 0.0009684506    2.073    0.518
       263  -9.9461     51.5526    149.4631   1.2479575724e+02   3.8759582191e+01    0.1409168    0.1232843 -67.87 6.266671e-05    1.007    0.007
       264  -9.8198    174.3918    147.8224   9.2673664561e+01   1.6816384847e+01    0.2168544    0.1419841 -35.71 0.0002120739    1.620    0.383
       265  -9.1132     64.3686    148.2446   1.2102047564e+02   3.7383583500e+01    0.1393408    0.1084587 -22.63  0.000370787    1.617    0.382
       266  -9.8873      4.4522    144.6251   1.3681619430e+02   4.4501266794e+01    0.2634358   0.09620856 -68.71  0.001042202    2.100    0.524
       267  -9.9457     84.9293    143.7582   1.1438272716e+02   3.5402045705e+01     0.194884    0.1858284  87.67  0.001077008    1.065    0.061
       268 -10.1162    242.0615    142.4751   7.8826905841e+01   4.5043614922e+00    0.1783975    0.1378948  51.89 0.0003216979    1.508    0.337
       269 -10.2868    109.0544    140.3239   1.0697710664e+02   3.2000384892e+01    0.2095507    0.2020582  50.77 0.0004321895    1.075    0.070
       270  -9.8009     72.5098    140.4752   1.1722040255e+02   3.8146693809e+01    0.1472295    0.1339742 -53.89 0.0002363502    1.046    0.044
       271 -10.5614     66.0025    138.9967   1.1878920132e+02   3.9451813336e+01    0.2096038    0.1903771 -60.77            0    1.007    0.007
       272 -11.4943    132.2346    140.5768   1.0094879232e+02   2.7360366315e+01    0.2768827    0.2568432 -57.20  0.000339277    1.048    0.046
       273 -10.4254     49.3997    137.0409   1.2320991626e+02   4.2095190050e+01    0.4602946    0.1623778 -42.15   0.00151598    3.631    0.725
       274 -10.5549     33.9908    137.8968   1.2778530981e+02   4.3589258837e+01    0.3170464    0.2152681  25.29  0.001730418    1.749    0.428
       275 -10.4985     98.4677    136.9677   1.0912545483e+02   3.4755495610e+01    0.2578754    0.2129806  74.70  0.001274887    1.395    0.283
       276 -10.1901     95.4737    135.4710   1.0962547226e+02   3.5648201743e+01     0.267151    0.2032392 -20.58 0.0008167047    1.666    0.400
       277  -9.7916      7.0000    136.9106   1.3516658890e+02   4.6150880647e+01     0.214755   0.05826489 -69.05 0.0008004776    2.929    0.659
       278  -9.4814    121.8769    135.8170   1.0251015998e+02   3.0584121388e+01     0.208139     0.179763 -85.77 0.0003501148    1.282    0.220
       279 -11.2963     28.5550    132.4253   1.2844372131e+02   4.5446707312e+01     0.237932    0.1928683 -62.74 7.280544e-05    1.033    0.032
       280 -10.9700     26.3386    129.7588   1.2864708693e+02   4.6292421162e+01    0.1996224    0.1799689 -58.71 0.0003017211    1.085    0.078
       281 -10.5579     61.9342    131.0283   1.1836884897e+02   4.1965306074e+01    0.2120313    0.1871831 -50.85 0.0002870653    1.047    0.045
       282 -11.0248     35.3410    128.4829   1.2577747546e+02   4.5732121935e+01    0.6820136    0.2152783 -41.24   0.00214899    4.369    0.771
       283  -9.4548    126.5656    128.4740   9.9521567165e+01   3.1343372431e+01    0.1550959    0.1499485 -43.04 0.0001162878    1.041    0.040
       284 -10.9159     91.6799    127.2128   1.0880699907e+02   3.8291590880e+01    0.2888623    0.2552784   4.91 0.0004642287    1.285    0.222
       285  -9.6317     30.2029    125.8155   1.2683281413e+02   4.6875884791e+01    0.1781844    0.1340283 -40.65 0.0003379224    1.304    0.233
       286  -9.8634     21.1349    126.6582   1.2966114759e+02   4.7487908184e+01     0.243389    0.1027951  33.95  0.001115234    2.659    0.624
       287 -11.2848     57.1086    124.6637   1.1849253005e+02   4.4140343845e+01    0.2922969    0.2411438   5.84  0.000817419    1.424    0.298
       288 -10.4461     83.5722    120.7785   1.0965709463e+02   4.1177626684e+01    0.4156986    0.2526745 -74.99  0.001637418    2.501    0.600
       289 -10.2510      3.7594    124.8820   1.3443018881e+02   4.9198656786e+01    0.1878856    0.1283069 -54.63 0.0002670239    1.217    0.178
       290  -9.9633     40.9523    134.0220   1.2511665564e+02   4.3800635555e+01    0.2083456    0.1525269  78.33 0.0004871376    1.640    0.390
       291 -10.5607     18.8340    114.6586   1.2831821876e+02   5.0489079972e+01    0.2057435    0.1400001 -48.45 0.0004547261    1.253    0.202
       292 -10.0416     21.7272    121.3205   1.2859381374e+02   4.8699036786e+01    0.2141051    0.1151665 -68.59  0.000374483    1.663    0.399
       293 -10.9401     19.7559    118.4067   1.2869001347e+02   4.9544411363e+01    0.3413363     0.172094  32.81  0.001616306    2.288    0.563
       294 -10.2208      5.4355    121.2367   1.3341873427e+02   4.9935824400e+01    0.1699932    0.1022433 -77.98 0.0003100145    1.558    0.358
       295  -9.6654    116.4578    120.0042   1.0010647179e+02   3.5333113226e+01    0.2152628    0.1484769 -48.07 6.884721e-05    1.413    0.292
       296 -10.0507    100.9953    119.5396   1.0428584606e+02   3.8421100127e+01    0.2208951    0.1935785 -51.10 -3.696239e-05    1.102    0.092
       297 -10.6448     55.1010    117.9673   1.1767634523e+02   4.5986961076e+01    0.3006842    0.2198233 -82.13 0.0005681507    1.681    0.405
       298 -10.2974     93.4206    118.7194   1.0626350327e+02   3.9979360113e+01    0.3607231      0.26628  58.37  0.001719532    1.602    0.376
       299 -11.0996      2.6608    113.6048   1.3308908043e+02   5.1865182071e+01    0.5309301    0.1113741 -50.19  0.002017148    3.283    0.695
       300  -9.6837    138.5575    115.5837   9.3250766445e+01   3.1686565244e+01    0.1515849    0.1496905 -74.63 7.347301e-05    1.017    0.017
       301 -10.4382    107.3273    113.9965   1.0109562330e+02   3.8482579369e+01    0.3173595    0.1855389  41.41   0.00135076    1.759    0.431
       302  -9.4103     60.6915    114.3332   1.1512264790e+02   4.6105317469e+01    0.1388973    0.1091063  81.85 0.0004456565    1.671    0.402
       303 -10.9612    120.5834    112.2480   9.7013910937e+01   3.6223280086e+01    0.2615509    0.2554789  48.25 0.0002408575    1.041    0.039
       304 -11.2587     38.0855    110.9065   1.2152644081e+02   4.9593760052e+01    0.4848167    0.2405815 -67.88 0.0006530438    2.193    0.544
       305 -10.9971     29.4785    112.4595   1.2457771847e+02   5.0081279815e+01    0.3441818    0.2399662  31.45  0.001973679    1.662    0.398
       306 -11.1259    149.9189    111.2462   8.9411898604e+01   3.0106915699e+01    0.2542836    0.2159541 -43.32 0.0002488681    1.176    0.150
       307 -11.6476     74.5724    111.9517   1.1024638937e+02   4.4652009301e+01    0.2570106    0.2199066  34.56 0.0001568763    1.251    0.200
       308 -10.5997     86.1444    110.0223   1.0623879488e+02   4.3219484114e+01    0.2986198    0.2318355  71.38  0.001314819    1.709    0.415
       309 -10.8253     20.4436    109.5034   1.2687565740e+02   5.1544432803e+01    0.2576526      0.16554 -42.37  0.001090858    1.401    0.286
       310 -11.3213      2.9425    106.3417   1.3184377364e+02   5.3489459530e+01    0.5336248    0.1542027 -69.26   0.00171422    3.249    0.692
       311 -11.6363    161.1048    102.7960   8.4739680202e+01   2.9306418389e+01    0.2397273    0.2330408 -43.25 0.0002489006    1.086    0.079
       312 -10.7441     75.6739    102.8291   1.0760372280e+02   4.6524238378e+01    0.2993776     0.238016  20.26  0.001599886    1.362    0.266
       313 -11.0657     70.9917    101.5841   1.0875818931e+02   4.7516719932e+01     0.423117    0.2860141   1.88  0.001969766    2.027    0.507
       314 -11.3626     43.4716    102.1959   1.1785782470e+02   5.0989554477e+01    0.3881359    0.2292404 -52.74 0.0008876303    1.468    0.319
       315 -12.5635     53.2577    100.0564   1.1411751252e+02   5.0303126968e+01    0.6410299    0.4468396 -10.13  0.002083562    1.756    0.431
       316  -9.8558     18.7948    103.5695   1.2627370370e+02   5.3018790131e+01    0.1653814    0.1125345  38.52 0.0009566841    1.789    0.441
       317 -10.9943      9.1614    101.6970   1.2905421343e+02   5.4133963816e+01    0.4026918    0.1588229 -58.96 0.0005099135    1.911    0.477
       318 -10.6019    135.2541    101.3892   9.0369196539e+01   3.5396372159e+01    0.3227938    0.2342913 -27.84 0.0005569051    1.597    0.374
       319  -9.9134     85.3353    100.3026   1.0394351018e+02   4.5492333062e+01    0.2430498    0.1807072  45.71 0.0008193656    1.456    0.313
       320 -10.9627     86.5171     97.0182   1.0269262059e+02   4.5988211697e+01    0.3957019    0.2652853  24.81  0.001478518    1.690    0.408
       321 -10.2294     82.9720     93.2272   1.0274171204e+02   4.7384587771e+01    0.1917606    0.1767569  17.04            0    1.096    0.088
       322 -12.9126    106.4249     97.6248   9.6993409580e+01   4.2186420942e+01    0.3292715    0.2753313  36.53  0.001507424    1.211    0.175
       323 -10.7276     36.5254     98.0690   1.1922085842e+02   5.2645977559e+01    0.3510825     0.117001 -58.22  0.001354253    2.723    0.633
       324  -9.6308     16.4462     99.5193   1.2625082030e+02   5.4101450257e+01    0.1259439    0.1023132 -51.12 0.0008078482    1.014    0.014
       325  -9.9326      4.2793     98.8202   1.3012271345e+02   5.5078946830e+01    0.1902996     0.139047 -84.41  0.001181743    1.539    0.350
       326 -10.3399     80.6877     95.6870   1.0413113691e+02   4.7252495103e+01    0.2778445    0.2134221  43.15 0.0007150446    1.401    0.286
       327 -10.9988     62.7816     96.1121   1.0998400139e+02   4.9895812861e+01    0.2164894    0.2124223  38.10 0.0003174447    1.169    0.145
       328  -9.8250     47.3548     94.8311   1.1479261098e+02   5.2160898872e+01    0.1928236    0.1035183 -44.11 0.0003930307    1.644    0.392
       329 -11.4298     23.9957     91.5090   1.2200296511e+02   5.5245195043e+01    0.3717783    0.2161962 -30.78  0.001883024    1.744    0.427
       330 -10.6097    106.3293     91.4796   9.5307198060e+01   4.3452556408e+01    0.3127618    0.2535441  78.47  0.001250473    1.610    0.379
       331  -9.1973    102.2989     92.2640   9.6678062602e+01   4.4081682536e+01    0.1419038    0.1124979   1.83 0.0006918357    1.514    0.340
       332 -10.1378     29.1669    103.1377   1.2278715342e+02   5.2232966743e+01    0.1912487     0.146505 -41.54 0.0003469978    1.144    0.126
       333 -10.6134    113.9948     90.9469   9.3030309122e+01   4.2014847468e+01    0.2215306    0.2163473  33.13 0.0003822187    1.025    0.024
       334 -10.9855      7.4652     90.2313   1.2743091956e+02   5.6745742141e+01    0.4651885    0.2686606  48.53  0.002501121    2.527    0.604
       335 -11.9608      9.3117     85.8413   1.2588755862e+02   5.7558448528e+01     0.223224    0.1863142 -36.13 0.0002661232    1.095    0.086
       336 -10.5663     88.0306     89.2764   1.0006967135e+02   4.7317675009e+01    0.2725742    0.1936671 -19.17  0.001320767    1.661    0.398
       337 -11.4308     77.9436     88.1459   1.0289805098e+02   4.9257889960e+01    0.2633213    0.2009399 -39.02 0.0003308033    1.244    0.196
       338 -11.1425     28.1600     85.8278   1.1922008155e+02   5.6082919581e+01     0.381925    0.3201572 -43.18   0.00250122    1.055    0.052
       339 -10.2413    154.6262     86.0008   8.1780123420e+01   3.4003756630e+01    0.3070822    0.2273384 -16.90  0.001433988    1.813    0.448
       340 -10.8431     63.4820     86.9305   1.0727512095e+02   5.1718905395e+01    0.2486759    0.2099662  -1.44  0.000554373    1.198    0.165
       341 -10.7389     48.1999     85.6343   1.1212809470e+02   5.3999355503e+01    0.4570128    0.2170622 -34.69  0.001668562    2.248    0.555
       342 -10.6021     53.5121     82.5079   1.0943290609e+02   5.3971338707e+01    0.3727885     0.222879  31.54    0.0016235    1.775    0.437
       343 -10.6942     43.1154     80.1834   1.1244128042e+02   5.5704507626e+01    0.5813249    0.2678578  48.07   0.00230934    3.701    0.730
       344 -10.3862     98.3215     84.0518   9.5480132403e+01   4.6456316122e+01    0.2221794    0.1879991  19.96 0.0003991067    1.217    0.178
       345 -10.4407    132.5997     82.6358   8.5895936239e+01   3.9611081091e+01    0.3094105    0.2044567  52.53  0.001210565    1.491    0.329
       346 -10.0418     20.1228     81.9164   1.2115336388e+02   5.7587135316e+01    0.1698478    0.1544083 -52.49 0.0004160535    1.198    0.165
       347  -9.9430     77.1256     81.0439   1.0110835489e+02   5.0794277891e+01    0.2151594    0.1728777 -12.72 0.0008187031    1.286    0.223
       348 -10.2213     74.0074     79.4862   1.0165817077e+02   5.1598683795e+01    0.3033297    0.1532982 -29.55   0.00124293    2.440    0.590
       349 -10.1630     68.0735     78.9211   1.0344769623e+02   5.2631706234e+01    0.2045592    0.1773711 -13.09 0.0005044879    1.077    0.072
       350 -10.1956    109.8340     77.6910   9.0348803189e+01   4.5367725867e+01    0.2963096    0.1199923  40.27  0.001086554    2.581    0.613
       351 -10.1447     96.6466     77.6174   9.4071939527e+01   4.7980606739e+01    0.2727344     0.118492  31.22 0.0009455114    3.167    0.684
       352 -11.9159     52.1228     74.8701   1.0773875861e+02   5.5651363761e+01    0.4219617    0.3312439  -4.55  0.002524299    1.272    0.214
       353  -9.3753      3.6898     76.6723   1.2592589271e+02   5.9805469484e+01    0.1276322   0.06595129 -36.89 0.0007040531    1.662    0.398
       354  -9.9709    131.2151     75.2407   8.4143170800e+01   4.1233506432e+01    0.1888156    0.1638024  83.83 0.0003306025    1.289    0.224
       355  -9.3123    141.2209     73.9799   8.1464309826e+01   3.9200793008e+01    0.1788673    0.1184893 -39.92            0    1.567    0.362
       356  -9.7858     80.9559     74.3049   9.7865579647e+01   5.1419589901e+01    0.1860518    0.1662673  26.96 0.0005851685    1.121    0.108
       357  -9.6340     69.1809     74.0673   1.0162758519e+02   5.3380781753e+01    0.1698153    0.1567001 -58.96 0.0005763854    1.315    0.240
       358 -11.1637     59.1574     73.7967   1.0495757621e+02   5.4908465893e+01    0.2337745     0.228446  55.28 0.0007151064    1.300    0.231
       359 -10.4375    152.2977     73.0170   7.8803857044e+01   3.6820245453e+01    0.2403383    0.1947924  61.06 0.0008006301    1.184    0.155
       360  -9.8899     35.9776     71.9989   1.1275840825e+02   5.8099159824e+01    0.2135718    0.1574882  18.66 0.0008301425    1.428    0.300
       361  -9.4322    187.6115     70.1812   7.1551114775e+01   2.9072558175e+01    0.1651589    0.1340617 -33.20 0.0002251394    1.406    0.289
       362 -10.4391     87.7470     69.1838   9.4170261501e+01   5.1136482638e+01    0.2408364    0.2028557   8.42  0.000579551    1.188    0.158
       363 -11.0151     53.1230     69.6590   1.0583129501e+02   5.6502150508e+01    0.2246598    0.1887449 -36.11 0.0002913394    1.151    0.131
       364 -10.8887     45.1610     68.9401   1.0848880652e+02   5.7641562731e+01    0.2928823    0.1844532 -17.61 0.0009641138    1.754    0.430
       365 -11.0157     47.9024     63.1053   1.0569859905e+02   5.8365343944e+01    0.2704429    0.1569738 -40.34 0.0003415429    1.569    0.363
       366 -11.4372     22.2745     67.6053   1.1669731912e+02   6.0256591061e+01    0.2586561     0.206228 -63.67  0.001032268    1.510    0.338
       367 -10.4114     16.8595     66.6489   1.1852119220e+02   6.0885607781e+01     0.290287     0.169456  40.65  0.000544771    2.360    0.576
       368 -10.0543    112.1629     65.4988   8.6074570074e+01   4.6979396416e+01    0.2272192    0.1861233   5.02 0.0005846749    1.386    0.278
       369  -9.6446     75.4548     66.5221   9.7218567201e+01   5.3731084498e+01    0.1338687    0.1198033  -2.78 0.0001031377    1.009    0.009
       370 -10.8038      1.3693     66.0250   1.2435339187e+02   6.2052825374e+01    0.1677553   0.09088846 -56.96 0.0004126813    1.561    0.360
       371  -9.6898     52.3127     65.6180   1.0488006510e+02   5.7345591027e+01    0.1197841    0.1039396 -89.04 0.0007022964    1.809    0.447
       372  -9.5938    136.9993     63.6877   7.9512944850e+01   4.1844809483e+01    0.1904461    0.1705171  56.06 0.0004884429    1.052    0.049
       373 -10.5755      9.4865     62.8618   1.2039065428e+02   6.2148999566e+01    0.2319276     0.150594   4.08 0.0009518791    1.641    0.391
       374 -11.4206      6.0669     59.2957   1.2080440544e+02   6.3046296635e+01    0.2417288    0.1867052  -9.82 0.0007727546    1.255    0.203
       375 -11.4720     27.8171     55.5819   1.1101656529e+02   6.1950306200e+01    0.6222688    0.2154377 -34.59  0.002577099    3.061    0.673
       376 -10.0944     16.3090     61.7427   1.1739758824e+02   6.1855394786e+01    0.2319408    0.1024767 -60.55  0.001080271    2.679    0.627
       377 -11.9877     22.7784     57.3184   1.1355076034e+02   6.2117395070e+01    0.5082666    0.2868077  23.83  0.002967939    1.880    0.468
       378  -9.8774    169.3216     60.9496   7.2358817576e+01   3.4784801245e+01    0.1843402    0.1727629 -75.63 0.0002534205    1.073    0.068
       379 -11.1528     68.7657     60.8317   9.7610851980e+01   5.5783058497e+01    0.3929084    0.1980446  38.58  0.001567186    1.974    0.493
       380 -10.1198     38.9898     60.5079   1.0821499201e+02   5.9897412889e+01    0.1940252    0.1480088 -33.12 0.0006568903    1.151    0.131
       381 -10.3934     48.0240     58.7146   1.0425788500e+02   5.9116688514e+01    0.1755483    0.1454029   4.29 0.0004536204    1.116    0.104
       382  -9.9429     31.2703     59.0193   1.1072277432e+02   6.0996585173e+01    0.1660077    0.1324775 -33.51 0.0003673351    1.120    0.107
       383  -9.6967    110.8157     57.3885   8.3944308015e+01   4.8534509088e+01    0.1874864    0.1191407  41.04 0.0004464027    1.501    0.334
       384 -10.7114    103.3730     56.4806   8.5642139913e+01   5.0200290086e+01    0.4359075    0.2627329  39.28  0.002153478    1.595    0.373
       385 -10.1841    225.8899     55.8116   6.3017069627e+01   2.2771323511e+01     0.176795    0.1566615 -84.94  0.000303679    1.143    0.125
       386 -11.1199    132.6709     55.7687   7.8198643018e+01   4.4025328767e+01    0.2326715    0.2090008  69.45 0.0003033989    1.107    0.096
       387 -10.0188     79.0039     56.2926   9.2770861051e+01   5.4819147330e+01    0.1847093    0.1609674  17.07 0.0005433139    1.048    0.046
       388 -10.1994     58.8745     56.5769   9.9629697482e+01   5.7990267028e+01    0.1862266    0.1163315  30.90  0.001013373    1.574    0.365
       389 -10.9371     52.0311     55.5289   1.0174324214e+02   5.9124890395e+01    0.2284227    0.1692284 -41.43 0.0006746523    1.393    0.282
       390 -10.8065    120.3203     53.1081   8.0259184689e+01   4.7141667330e+01    0.4872618    0.2603516  25.59  0.001845724    3.215    0.689
       391 -12.1808     40.3783     52.8377   1.0522129891e+02   6.1054620176e+01    0.3595468    0.2701555   0.09  0.001456665    1.236    0.191
       392  -9.6404    150.5159     53.5106   7.3861082948e+01   4.0273510951e+01    0.1383491     0.125557  77.87  0.000239017    1.045    0.043
       393 -10.5025     60.9585     51.3102   9.7126646716e+01   5.8525395083e+01    0.2306921    0.1634186 -22.51   0.00052463    1.353    0.261
       394 -10.1694     65.8041     50.0394   9.5016798424e+01   5.7973961148e+01    0.2569493     0.167388 -46.97  0.001037929    1.838    0.456
       395  -9.8738      7.0330     52.0000   1.1839149466e+02   6.4310840373e+01    0.1617083   0.06064135  18.63 0.0007956474    2.896    0.655
       396  -9.7685    174.2230     50.5949   6.8915414622e+01   3.5163274130e+01    0.1780094    0.1167355  55.04 0.0001705627    1.471    0.320
       397  -9.7953    129.0781     49.8607   7.7267089645e+01   4.5673679154e+01    0.1830263    0.1508944  30.11 0.0004158776    1.285    0.222
       398 -11.4473     97.6529     49.0791   8.4844274439e+01   5.2425473767e+01     0.399361    0.3136826 -74.18  0.001464636    1.928    0.481
       399 -10.9732     16.6915     47.1189   1.1288144225e+02   6.4421043361e+01    0.5273133    0.1858042 -29.01  0.002101138    3.736    0.732
       400 -11.6375     12.3556     46.4636   1.1449728898e+02   6.4884443382e+01    0.3776162    0.1929121 -48.57 0.0003974292    1.746    0.427
       401  -9.4953     31.6449     48.2457   1.0712118087e+02   6.2800032962e+01    0.1022241   0.09107229  41.30 0.0006936535    1.592    0.372
       402 -10.4645    122.7931     46.1376   7.7570957503e+01   4.7571315620e+01    0.2181553    0.2072679  41.30 0.0006103484    1.048    0.046
       403 -10.1153    114.3389     46.9726   7.9824603802e+01   4.9286462526e+01    0.1758463    0.1640202  -6.17 0.0002959621    1.136    0.120
       404 -11.4945     61.7607     44.8228   9.4601938266e+01   5.9381321661e+01    0.2919118     0.199567 -17.56 0.0003298883    1.461    0.315
       405 -12.7729     56.7783     41.1845   9.5069086929e+01   6.0658928165e+01    0.2659319    0.2194877  -2.02 0.0004708206    1.041    0.039
       406 -10.3329     21.5376     45.0061   1.1017113717e+02   6.4342379038e+01    0.1675277   0.09815652 -43.03 0.0006590686    1.535    0.348
       407  -9.4251    199.9931     43.7308   6.3582705565e+01   3.0189468525e+01    0.1597152    0.1030232  70.36 0.0002826194    1.421    0.296
       408 -10.7288    141.4809     42.4061   7.2531759115e+01   4.3868763793e+01    0.2242094     0.200175  64.16 0.0001392893    1.011    0.011
       409 -10.2765     80.8568     43.1487   8.7762707236e+01   5.6421231303e+01     0.174654     0.162515  16.00 0.0002616161    1.124    0.110
       410 -10.1951     70.1541     41.8097   9.0698545886e+01   5.8461027163e+01    0.1727296    0.1616164   6.21 0.0005093005    1.187    0.158
       411 -10.1173     86.8190     50.1958   8.8336911188e+01   5.4339109800e+01    0.1882503    0.1445457  10.60  0.001074578    1.356    0.263
       412 -10.7776     18.8842     41.0135   1.0994833557e+02   6.5231844903e+01    0.2759939    0.1330063  27.87  0.001562345    2.166    0.538
       413 -11.1581    103.6515     39.1007   7.9996212322e+01   5.2549417022e+01    0.2289345    0.2011688  60.51 0.0004030822    1.215    0.177
       414 -11.3481      9.8798     39.0975   1.1318765182e+02   6.6296324892e+01    0.2552703    0.1900468  -6.78  0.001253393    1.176    0.150
       415 -10.6303      4.4882     37.1026   1.1490822921e+02   6.7016169955e+01    0.2877074    0.1869686 -60.57  0.001813817    2.131    0.531
       416  -9.4317     41.3780     37.0163   9.9314182014e+01   6.3380515744e+01    0.2542281     0.176979 -58.65 0.0009728213    2.632    0.620
       417 -10.9414    193.9074     35.2820   6.2451099940e+01   3.2682672708e+01    0.2019299    0.1780226 -56.63 0.0003086859    1.214    0.176
       418  -9.8630    131.7127     36.3208   7.2724395444e+01   4.6841160842e+01    0.2138146    0.1171996  63.15 0.0002727085    1.738    0.425
       419 -11.0418    119.3892     33.9622   7.4623790759e+01   4.9844124384e+01    0.3159993    0.2371531 -72.82  0.001007151    1.801    0.445
       420 -10.6217     60.7245     34.1555   9.1124545188e+01   6.1011191467e+01    0.2339762    0.1593026 -20.91 0.0009745418    1.441    0.306
       421 -10.6321     55.8305     34.1880   9.2858284158e+01   6.1758827585e+01      0.22468    0.1779914  49.63   0.00109978    1.661    0.398
       422 -10.3612     29.3746     34.2863   1.0314484385e+02   6.5203184723e+01    0.1845597    0.1587147   9.78 0.0005824239    1.273    0.214
       423 -11.6604    139.7977     33.0310   7.0204387575e+01   4.5406244740e+01    0.4126551    0.2744203  58.59  0.001529149    1.314    0.239
       424 -11.7791    107.1851     30.5808   7.6361053663e+01   5.2834422649e+01    0.4095926    0.2831709 -12.86    0.0014894    1.713    0.416
       425 -10.1137     91.9348     33.6819   8.1298179498e+01   5.5554386962e+01    0.1776192    0.1431091  40.29 0.0002163418    1.105    0.095
       426 -11.3872     77.6064     33.2172   8.5285617219e+01   5.8289071908e+01    0.2827722    0.2153802  57.92 0.0009319831    1.602    0.376
       427  -9.3822     35.6997     34.7183   1.0071753225e+02   6.4411687119e+01    0.1177635   0.07545139  -4.81 0.0003375389    1.547    0.354
       428 -10.8564    206.5128     31.5115   6.0118339248e+01   3.0334989546e+01    0.2181486     0.173444  84.96 0.0006550347    1.083    0.077
       429  -9.3880      5.2942     32.2883   1.1292650339e+02   6.7720245286e+01    0.1124986   0.06309673 -21.44            0    1.548    0.354
       430 -10.8570    246.7020     30.9279   5.6055221611e+01   2.1942273806e+01    0.1945629    0.1625303 -84.07  0.000560118    1.185    0.156
       431 -10.3227     33.9117     30.3813   9.9813383198e+01   6.5231379761e+01    0.2388952    0.1725346  -7.56  0.001622551    1.170    0.145
       432 -10.1532     24.2167     30.8614   1.0404629223e+02   6.6250083227e+01    0.1818098    0.1345019  23.20  0.001229454    1.409    0.290
       433  -9.7387    163.5692     30.4708   6.5501890225e+01   4.0243224567e+01     0.129471    0.1120489  79.42 2.012423e-05    1.013    0.013
       434 -10.0062     19.4126     29.4980   1.0561427159e+02   6.6929954459e+01    0.1617955    0.1531308  81.64 0.0007780122    1.993    0.498
       435 -11.6015    101.9454    246.0726   1.2666994509e+02   8.5259721136e+00     0.597126    0.2663731  41.57  0.002720627    1.961    0.490
       436 -10.8753     72.7338     27.8166   8.4842434393e+01   5.9792388081e+01    0.4780523    0.1189451  44.08  0.001797563    3.440    0.709
       437  -9.5346     51.2962     28.7640   9.2459824435e+01   6.3128401291e+01   0.09843525    0.0894644  39.00 0.0001720459    1.469    0.319
       438 -10.8303     99.2591     26.9186   7.7097585968e+01   5.4869662049e+01    0.2981327     0.153498  47.91  0.001525216    1.657    0.396
       439 -10.2787     37.4268     27.0967   9.7129677590e+01   6.5236218707e+01    0.1707225    0.1474238  19.28  0.001060707    1.324    0.244
       440 -10.9426    242.9537     25.3347   5.5344842546e+01   2.3406218189e+01    0.1910497    0.1461172 -57.49 0.0005532738    1.224    0.183
       441 -11.9832      1.9031     25.4565   1.1207492868e+02   6.9002352632e+01    0.2300265    0.1302449 -44.35  0.001522337    1.642    0.391
       442 -10.8474      9.9852     23.0464   1.0740729772e+02   6.8710492220e+01    0.1776223    0.1321529 -16.40 0.0007188218    1.049    0.046
       443 -10.4076      5.9516     23.3489   1.0939725187e+02   6.9002211167e+01    0.2016222    0.1364931 -30.82  0.001066274    1.231    0.188
       444 -10.4228     91.0285    232.4872   1.2728463772e+02   1.3082537294e+01    0.3559167    0.1744043  46.70  0.001292853    1.838    0.456
       445 -11.0814    131.6653     23.3158   6.8938490850e+01   4.8311669000e+01    0.3572676    0.1979951 -34.70  0.001875764    2.026    0.506
       446  -9.9828     90.0170     24.7311   7.8744251310e+01   5.6938699638e+01     0.176538    0.1434269  39.51 0.0008126259    1.065    0.061
       447  -9.7111    153.4943     23.4179   6.5229181895e+01   4.3354484088e+01    0.1282637    0.1080746  69.81 0.0008048088    1.018    0.018
       448 -12.0248    117.9294     22.5885   7.1432930272e+01   5.1406711500e+01    0.3774055    0.1991079  49.23 0.0002467938    1.616    0.381
       449 -10.4526     66.1351     22.7845   8.5067676410e+01   6.1491707905e+01    0.1874118    0.1532092  -1.96 0.0005790733    1.160    0.138
       450  -9.6615     26.0549     23.0105   1.0023118870e+02   6.7123914128e+01    0.1355527    0.1030729  -4.19 0.0005515434    1.003    0.003
       451 -12.4791     83.6737    237.7398   1.2947017388e+02   1.3087652984e+01    0.3911912    0.2357815  46.72 0.0004589164    1.476    0.323
       452  -9.6133     78.8172     22.1921   8.0964014302e+01   5.9322724253e+01    0.1645475    0.1175697  23.79  0.001016051    1.294    0.227
       453 -11.3174     38.6626     21.2387   9.4324477058e+01   6.5808947861e+01    0.3573684    0.1945483  36.81  0.001672142    1.786    0.440
       454 -11.2652     34.4504     18.4012   9.4865293648e+01   6.6692820554e+01    0.2869145    0.2197869   0.25  0.001008505    1.032    0.031
       455 -10.9528    182.2789     18.9240   6.0145215457e+01   3.7258991037e+01    0.2250587    0.2152285  18.01 0.0009147484    1.407    0.289
       456 -10.6380    198.3119     18.4651   5.8213776226e+01   3.3710093124e+01    0.2102599    0.1200441 -59.62 0.0008666376    1.724    0.420
       457 -10.5491     92.7878     18.6184   7.5913502895e+01   5.7018619325e+01    0.2187405    0.1678973 -29.89  0.001151791    1.496    0.332
       458  -9.9462    157.9837     17.4974   6.3013801741e+01   4.2947352101e+01    0.1722247    0.1596007 -84.78  0.000344491    1.136    0.120
       459 -10.9922     85.6057    245.4548   1.2995322099e+02   1.1179206391e+01    0.2320516    0.1861231  71.67  0.000652377    1.115    0.103
       460 -10.9219    102.4931    234.8454   1.2513489959e+02   1.0759306602e+01    0.6606704    0.2571851 -65.06  0.002547804    3.090    0.676
       461  -9.4046     52.5119     20.5859   8.8849631126e+01   6.3918465143e+01    0.1169153   0.09261335  14.48 6.941289e-05    1.015    0.015
       462 -10.5459    131.9843     16.6694   6.6957452118e+01   4.8904361544e+01    0.3782135    0.1262844  45.43  0.001495242    3.046    0.672
       463 -10.3315    105.9778    235.2920   1.2444821150e+02   1.0102035076e+01    0.1902013    0.1811905 -85.43 0.0002036597    1.143    0.125
       464 -10.5289    112.4668     15.5319   7.0372652151e+01   5.3263906949e+01    0.2180717    0.1897706  31.52 0.0006140776    1.145    0.127
       465 -11.8597     91.5836    242.4863   1.2838263826e+02   1.0879376445e+01    0.5436354      0.49476   2.87   0.00185944    1.497    0.332
       466  -9.8977     61.1075     17.5548   8.4708954076e+01   6.2886559223e+01    0.1765207   0.09808416  41.35  0.001019908    1.573    0.364
       467  -9.5198     13.8341     15.3539   1.0256148042e+02   6.9383246428e+01    0.1510131   0.08153864  14.07 0.0009475289    1.737    0.424
       468 -11.4860    208.9316     14.0924   5.6216637492e+01   3.1867690646e+01    0.2290657    0.1430796  71.59  0.001385567    1.397    0.284
       469  -9.9491    185.6193     13.7869   5.8581778978e+01   3.7055074265e+01    0.1571709    0.1012334 -52.24 0.0002613903    1.568    0.362
       470 -10.3744    139.2037     14.1604   6.5015168688e+01   4.7529401654e+01    0.1809753    0.1454073  50.96 0.0003480522    1.166    0.142
       471 -12.5249     94.9447    238.9026   1.2724955667e+02   1.1103963067e+01    0.9831274    0.4050853  49.53  0.004159619    2.276    0.561
       472 -10.5457    179.9426     13.5270   5.9178545545e+01   3.8360480884e+01    0.1883109    0.1028462  70.96 0.0004210297    1.542    0.351
       473 -10.9749    148.4220     13.0025   6.3251909271e+01   4.5561684437e+01    0.2551083    0.1365969  53.95  0.001357324    1.630    0.386
       474  -8.5551     76.2447    246.2800   1.3193773652e+02   1.2401832337e+01    0.4154841    0.2135124  44.93  0.001844045    1.693    0.410
       475  -9.2875     62.4558     12.5111   8.2306470340e+01   6.3165313903e+01     0.114605   0.09459089  23.19 -2.204403e-06    1.065    0.061
       476 -12.6307     75.7878    241.2014   1.3148641241e+02   1.3529878492e+01    0.5045324    0.3257792  74.90  0.002160233    1.587    0.370
       477  -9.3693     68.6890    248.2718   1.3364635211e+02   1.3080980274e+01    0.1307458   0.07933007  65.14 0.0002913612    1.550    0.355
       478  -9.8810    246.5502     10.5566   5.2406942923e+01   2.4474815350e+01    0.1157174   0.08317764 -75.75 4.149952e-05    1.027    0.026
       479 -12.3092    146.8132    242.6735   1.1681399697e+02   1.8425859807e+00    0.5126834    0.4611201  13.74  0.001997772    1.175    0.149
       480 -10.8374    143.3238    238.4489   1.1691518624e+02   3.2375885136e+00    0.3296983    0.2313936  33.36 0.0009743907    1.352    0.260
       481 -10.9085    139.0141    237.4974   1.1768876283e+02   4.1514485739e+00    0.2676695    0.2411072  43.59  0.001626272    1.007    0.007
       482 -11.5105    200.3491    244.7789   1.0620965564e+02  -7.1727535937e+00     0.235365    0.2117696  -4.57 0.0004552296    1.095    0.087
       483 -11.1039    202.1834    240.4211   1.0511636360e+02  -6.7387018397e+00    0.4173621    0.2046678  36.94  0.002017048    1.915    0.478
       484 -10.4182    197.5324    240.5588   1.0605928815e+02  -6.0437533315e+00    0.1961843    0.1883001  36.41 0.0004902138    1.257    0.205
       485 -10.3499    162.9379    245.6676   1.1391248704e+02  -1.3801174606e+00    0.1913752    0.1576594  34.80  0.001145568    1.085    0.079
       486 -12.3535     63.4476    244.0830   1.3426895229e+02   1.4690239659e+01    0.3321352    0.3218532  41.92 0.0009451286    1.383    0.277
       487  -9.8578    187.2591    245.4392   1.0892026105e+02  -5.2558987752e+00    0.1753032    0.1130123  42.88 0.0007864686    1.542    0.351
       488 -10.6979    181.7437    242.4042   1.0953893268e+02  -3.8611662078e+00    0.2542613    0.2059751   5.76 0.0006802834    1.251    0.200
       489 -10.6381    184.6563    240.9653   1.0871149957e+02  -4.0794928792e+00    0.2601566      0.21009 -82.29  0.001452708    1.927    0.481
       490 -10.7189    129.9734    241.4784   1.2018950463e+02   4.8847948723e+00     0.200168    0.1827747 -67.04 0.0009479306    1.202    0.168
       491  -9.1175     55.4149    242.5324   1.3570670891e+02   1.6118865681e+01    0.1273499    0.1003129  73.38 0.0001907115    1.033    0.032
       492  -9.9945    190.9396    240.6755   1.0739550130e+02  -5.0301149031e+00    0.1916013    0.1529522  24.75 0.0009627914    1.134    0.118
       493 -11.5229    167.9844    238.9005   1.1179862249e+02  -9.8850879813e-01    0.2476379    0.2375313 -53.90 0.0003211375    1.193    0.162
       494 -11.1335    109.9463    238.4448   1.2402026504e+02   8.8006079027e+00    0.3041916    0.2044536 -56.70  0.001626547    1.615    0.381
       495  -9.4667     60.3692    239.1700   1.3439778343e+02   1.6158070464e+01    0.1093489   0.09036247  28.46 0.0002282099    1.557    0.358
       496 -10.2436    157.9016    238.0000   1.1376382292e+02   8.6452906731e-01    0.2274889   0.07069637  38.51 0.0008002181    2.927    0.658
       497 -10.9725    221.1513    235.1792   1.0054309788e+02  -8.7264655239e+00    0.2184454     0.172624 -36.42 0.0003790202    1.325    0.245
       498 -11.1050    219.4831    231.0521   1.0013374394e+02  -7.8119703414e+00    0.2733953    0.2192473 -37.22 0.0007887502    1.308    0.235
       499 -10.5092    187.6224    235.9423   1.0726993839e+02  -3.6816946253e+00     0.246219    0.1807193  38.24 0.0006370442    1.307    0.235
       500  -9.8470    132.6479    234.8034   1.1864981106e+02   5.7654918916e+00    0.1759997    0.1291732 -68.83 0.0004579149    1.579    0.367
       501 -10.9300    231.3490    233.7307   9.8378866815e+01  -9.9582820600e+00    0.2199193    0.1794611   1.63 0.0006815958    1.063    0.059
       502 -10.0977    197.0385    233.3731   1.0493115995e+02  -4.7441622561e+00    0.1895648    0.1675614 -20.20 0.0004364327    1.123    0.110
       503  -9.9813    178.6168    233.8755   1.0876629267e+02  -1.8383482820e+00    0.1693295      0.12835 -59.01 0.0005032109    1.638    0.389
       504  -9.6385    183.4260    233.4087   1.0769719900e+02  -2.5479020803e+00    0.1311852    0.1194375  21.00            0    1.043    0.041
