#   1 NUMBER                 Running object number                                     
#   2 MAG_AUTO               Kron-like elliptical aperture magnitude                    [mag]
#   3 X_IMAGE                Object position along x                                    [pixel]
#   4 Y_IMAGE                Object position along y                                    [pixel]
#   5 X_WORLD                Barycenter position along world x axis                     [deg]
#   6 Y_WORLD                Barycenter position along world y axis                     [deg]
#   7 A_WORLD                Profile RMS along major axis (world units)                 [deg]
#   8 B_WORLD                Profile RMS along minor axis (world units)                 [deg]
#   9 THETA_WORLD            Position angle (CCW/world-x)                               [deg]
#  10 FWHM_WORLD             FWHM assuming a gaussian core                              [deg]
#  11 ELONGATION             A_IMAGE/B_IMAGE                                           
#  12 ELLIPTICITY            1 - B_IMAGE/A_IMAGE                                       
         1 -12.7650    242.3202     87.6085   5.4850266983e+01   1.2933302798e+01     2.565814    0.8444151 -37.58  0.009380931    2.580    0.612
         2 -11.4252    198.2535     14.1563   4.1772754070e+01   3.3553708383e+01     2.306689     1.025098 -75.27  0.008070613    3.625    0.724
         3 -12.8701    229.7737     45.6906   4.6259276362e+01   2.2026385147e+01     1.367175     1.106614 -67.92  0.006125088    1.173    0.147
         4 -11.2328    221.7161     37.6782   4.5203681074e+01   2.4998645738e+01     1.007815    0.4157673 -52.41  0.003022211    2.629    0.620
         5 -10.7042    248.8726     25.0417   3.9484895641e+01   2.0406800742e+01    0.4026128     0.201749 -42.80 0.0008677114    1.693    0.409
         6 -10.3752    180.2412     23.4010   4.6620294484e+01   3.7080686260e+01    0.6638054     0.432433  70.74  0.002527495    1.448    0.309
         7  -8.9843    223.9009     16.3781   3.9716989517e+01   2.7089010001e+01    0.3474098    0.1425344 -45.98  0.001526071    2.207    0.547
         8  -9.2987    132.7964     16.4191   5.2292807246e+01   4.9882936888e+01    0.3084547    0.2125767  12.73            0    1.709    0.415
         9  -8.9120    182.5204     14.9505   4.3865263378e+01   3.7429147456e+01    0.2869076    0.1799991  -3.22 0.0009707717    2.243    0.554
        10  -9.2179    178.7345     14.2437   4.4148531330e+01   3.8466034338e+01    0.4509313    0.2206977 -48.59  0.001522544    2.208    0.547
        11  -8.2398    250.1656      7.4138   3.5532109323e+01   2.2169007047e+01    0.5249057    0.1459716 -43.82  0.001679858    2.728    0.633
        12 -10.1310    216.8810      8.2967   3.8401601964e+01   2.9634002221e+01     1.217948    0.1984863  64.78  0.003896759    4.341    0.770
        13 -10.2497    226.8445      7.5516   3.7356698338e+01   2.7370531092e+01    0.4975071     0.424262 -30.24  0.002090686    1.334    0.250
        14 -10.9455    238.7121      2.5406   3.5293111532e+01   2.5199920548e+01    0.8646625    0.2255911  62.44  0.003394471    3.488    0.713
        15 -10.6512    246.2099      1.5627   3.4554422124e+01   2.3652445089e+01    0.5718893    0.2389633  74.16  0.002796375    2.264    0.558
        16  -8.9940    120.3657      9.6634   5.2335871030e+01   5.3558559790e+01     0.285677    0.2486001  18.55  0.001079841    1.142    0.124
        17  -8.4604    107.0924     10.6226   5.5733689504e+01   5.6565893727e+01    0.2186582    0.1751389 -26.52 0.0006752789    1.367    0.268
        18  -8.5589    139.8247      5.9741   4.7297680545e+01   4.9129136160e+01    0.2825026    0.1666102 -31.84 0.0009773526    1.841    0.457
        19  -8.8669    172.3615      2.9901   4.1657217996e+01   4.1171167820e+01    0.3471633    0.1713209 -52.29  0.001226517    2.304    0.566
        20  -8.5963    201.0303    173.0141   8.2027495403e+01   6.5781218232e+00     0.214625     0.190946   6.98 0.0003284948    1.025    0.024
        21  -8.2074    119.5348    249.9871   1.1077831063e+02   7.4753948281e+00    0.1516763    0.1173762 -64.53 0.0008613862    1.577    0.366
        22 -10.1671    111.5657    248.4990   1.1210331441e+02   8.9122412116e+00    0.2104173    0.1887468  61.34 0.0001238239    1.160    0.138
        23  -7.3878    186.3378    170.6751   8.4576447517e+01   9.8560410054e+00    0.1426514    0.1188339  84.36 0.0007051317    1.722    0.419
        24  -9.2007    211.8506    197.8029   8.4812046149e+01   4.8966766665e-01    0.2208378    0.1952084  -5.97 0.0002845666    1.114    0.102
        25  -7.4567    222.2766    193.2900   8.1961123315e+01  -6.0209499447e-01    0.1331496   0.09185242   4.05 0.0002012251    1.519    0.342
        26  -8.1664    249.1761    168.5925   7.2124766552e+01  -1.3955406203e+00    0.1864404    0.1135836  26.69 0.0009494211    1.723    0.420
        27  -8.6151     65.9242    167.9322   1.1233205905e+02   3.1826316648e+01    0.1929103    0.1664134  87.55 0.0003066132    1.011    0.010
        28  -8.9958    212.0882    193.0258   8.3853075772e+01   1.1986983562e+00    0.1995713    0.1760801   9.58 0.0003708867    1.057    0.054
        29  -7.8866    159.0717    157.9614   8.7909569817e+01   1.7864712139e+01    0.2365577    0.1870857  82.47  0.001087955    1.715    0.417
        30 -10.9501    242.9926    145.1280   6.8122323053e+01   3.3752186708e+00     0.502713    0.4017015 -72.79  0.002645659    1.970    0.492
        31 -10.1906     67.6215    144.0495   1.0838079350e+02   3.7300992998e+01    0.6227562    0.3689063  60.09  0.002149398    1.970    0.492
        32  -8.8075    192.4733    144.0230   7.7394750493e+01   1.3671996686e+01    0.2295513    0.2008979  35.42 0.0005145845    1.143    0.125
        33  -8.1603    181.0299    143.9781   7.9826358885e+01   1.6120180323e+01    0.2486798    0.1967301 -84.70  0.001135882    1.831    0.454
        34  -7.7047    158.7883    144.6192   8.5014107994e+01   2.0739422444e+01    0.2054013    0.1444462  53.39 0.0002738857    1.520    0.342
        35 -12.9250    242.7260    115.8981   6.1493764899e+01   8.2373611232e+00     2.663821    0.7945194 -35.95  0.009112849    2.938    0.660
        36 -11.6105    243.4469     38.0352   4.2946337235e+01   1.9953978323e+01    0.7412559     0.468986  65.27  0.001618891    1.652    0.395
        37 -11.8362    235.4683     66.0063   5.0545659396e+01   1.7789546542e+01     1.271557    0.7390347 -52.69   0.00192988    1.722    0.419
        38  -7.9333    223.1257    128.8726   6.7849848641e+01   1.0012553771e+01    0.1976251    0.1633785   4.88 0.0004210724    1.289    0.224
        39  -9.0967    212.5773    127.8477   6.9542943576e+01   1.2413598002e+01    0.2795771    0.2460336  79.67 0.0005976304    1.425    0.298
        40  -8.3863    135.0019    242.0000   1.0694437217e+02   6.3702572932e+00    0.2098972   0.05782317  39.83 0.0008019662    2.939    0.660
        41  -9.4238    201.9116    125.8488   7.1111668922e+01   1.5095098714e+01     0.299266    0.2510913 -86.91 0.0008036335    1.574    0.365
        42  -8.7048    135.5468    124.8917   8.6027750738e+01   3.0012847379e+01    0.4481445    0.2238694 -63.56  0.001372295    3.494    0.714
        43 -10.0886    203.7699    119.1132   6.9078054191e+01   1.5943810006e+01    0.4990478    0.3236471 -63.18 0.0003587003    2.246    0.555
        44  -8.4859    147.1760    121.1432   8.2128041921e+01   2.8335747327e+01    0.2220255    0.2076147   0.87 0.0003195053    1.120    0.107
        45 -10.7042    187.0051    117.2847   7.1987853813e+01   2.0087256999e+01    0.5229169    0.3486299 -29.12  0.002285883    1.563    0.360
        46  -8.5864    208.9984    115.5051   6.7181881923e+01   1.5445182186e+01    0.2177678    0.1508936  49.21 0.0003996269    1.524    0.344
        47  -9.6453    168.0500    113.6228   7.5174744911e+01   2.5197419495e+01    0.3234075    0.2905816  71.03 0.0004358042    1.236    0.191
        48  -7.2540    156.3188    112.6600   7.7665789240e+01   2.8101724593e+01    0.1639106    0.1283784 -81.01 0.0007049491    1.712    0.416
        49  -9.6058    205.8283    109.6387   6.6294386307e+01   1.7230031479e+01    0.3748288    0.2983058  25.36   0.00184321    1.417    0.294
        50 -12.2776    133.6237     38.5238   6.0036565327e+01   4.7024226472e+01     2.175647    0.6404749  55.67  0.007054595    3.110    0.678
        51 -11.5102    182.3987     76.7466   6.1879043573e+01   2.8762993848e+01     1.096345    0.6445554 -47.75  0.001921134    1.772    0.436
        52 -11.5316    167.8939     57.3864   5.8968310100e+01   3.5634673558e+01      1.55581    0.8053846 -65.20   0.00476137    3.992    0.750
        53 -11.7499    156.7851     47.8104   5.8169565621e+01   3.9918044577e+01     1.713262    0.9135721  85.20  0.005350322    3.969    0.748
        54  -8.4654    139.9916    105.4965   7.9784971558e+01   3.3330716682e+01    0.2317936    0.1378184  23.32 0.0008105251    2.585    0.613
        55  -9.8381    199.6534     99.8989   6.4933321929e+01   2.0436079531e+01    0.4399628    0.4123884 -65.40   0.00212901    1.124    0.111
        56  -8.4398    114.3223    234.4134   1.1004972365e+02   1.0878272320e+01    0.2246434    0.1044642  37.23 0.0007688729    1.931    0.482
        57  -9.1304    152.3039     97.0029   7.4307221005e+01   3.2281752781e+01     0.383355    0.2867672   6.73  0.001009688    1.792    0.442
        58  -8.2521    148.8429     94.6296   7.4470589749e+01   3.3577133820e+01    0.3761408    0.2360256  66.49  0.001452142    2.161    0.537
        59  -7.8786     92.9243     96.1025   9.0568173027e+01   4.4949611124e+01    0.2012388    0.1878418 -70.18  0.001094721    1.148    0.129
        60  -8.2513    137.6526     94.7562   7.7343450774e+01   3.6135485727e+01    0.2751969    0.2064376  81.94  0.001169323    1.899    0.473
        61  -8.3900    163.0455     90.0000   6.9771060411e+01   3.1102356902e+01    0.3256985     0.204735  43.33  0.001293089    1.637    0.389
        62  -9.2130    166.5134     87.9807   6.8411364448e+01   3.0645121081e+01    0.3547281    0.3307294   7.16     0.001013    1.126    0.112
        63  -9.6580    146.3878     85.4783   7.2375368283e+01   3.5984776707e+01     0.504328    0.2939085 -50.64   0.00152444    1.909    0.476
        64 -10.3652    210.0207     59.2506   5.2336455763e+01   2.4769409188e+01    0.4340887    0.2986363  34.12  0.001265242    1.861    0.463
        65 -11.1141    216.9512     76.7020   5.5872268930e+01   2.0368881187e+01     1.120966    0.5355073 -64.00  0.002471043    4.652    0.785
        66 -10.9827    214.3905     68.7961   5.4204708017e+01   2.2241243545e+01     1.003828    0.4218233 -57.34   0.00277026    4.131    0.758
        67  -7.9500    201.6961     79.2955   5.9057880150e+01   2.3579367704e+01    0.3789457    0.2000997 -67.86  0.001146649    4.058    0.754
        68 -10.9023    163.7329     77.9170   6.6064578125e+01   3.3197865628e+01    0.4025054    0.2998693 -20.10  0.001146423    1.506    0.336
        69 -10.5317    203.4916     63.2588   5.4408980112e+01   2.5750543473e+01    0.3626588    0.3132497  59.43 0.0006721261    1.187    0.158
        70 -10.1830    108.8584     75.9048   7.9613622177e+01   4.6273565205e+01    0.2377258    0.2276464  -1.27            0    1.028    0.027
        71  -9.0001    205.0765     70.7626   5.6186790865e+01   2.4170985932e+01     0.350341    0.2560585 -31.72  0.001325645    1.355    0.262
        72 -10.1409    191.8234     70.8684   5.8465429592e+01   2.7414679118e+01    0.3581445    0.3333457 -12.20 0.0004142092    1.147    0.128
        73  -8.5948    151.4545     71.7773   6.6956976111e+01   3.7335208586e+01    0.3055756    0.1447347 -41.24  0.001128989    2.114    0.527
        74  -7.5552     73.2610     72.5912   9.0161135239e+01   5.3387564234e+01    0.1395788    0.1105582 -76.41 0.0005279902    1.741    0.426
        75  -8.5304    144.6471     70.4191   6.8141754852e+01   3.9239340413e+01    0.3009916    0.1200008 -48.05 0.0007084472    3.076    0.675
        76  -8.6005    224.0720    225.2686   8.7458956752e+01  -5.4395926325e+00    0.1883268    0.1534661  -3.01 0.0004343789    1.142    0.124
        77 -11.7163    184.9397     60.1812   5.6635687129e+01   3.0865460611e+01    0.5691559    0.4044195  23.66  0.002216221    1.865    0.464
        78  -9.1765    144.2126     59.2571   6.4639770338e+01   4.1276165461e+01    0.3400231    0.2787268 -82.21 0.0007760285    1.521    0.342
        79  -9.9497    245.9650     57.2862   4.7175397215e+01   1.6754205932e+01     0.609207    0.3150992  43.69  0.002326357    2.632    0.620
        80  -8.1912     72.9542     58.2736   8.5514977784e+01   5.6349223884e+01    0.1902863    0.1704155  -5.18  0.000415956    1.063    0.059
        81  -9.3659    191.6291     53.7490   5.3661890153e+01   3.0158422660e+01     0.823649    0.4769097 -76.85  0.002967869    2.748    0.636
        82  -9.7690    187.1517     43.0133   5.1301143554e+01   3.2834100018e+01    0.7713051    0.2647342 -47.19  0.002502911    3.368    0.703
        83  -7.5109     71.2585     53.6273   8.4472824557e+01   5.7506885427e+01    0.1304024    0.1084642 -65.95 0.0006973863    1.652    0.395
        84  -8.0026    212.1643     50.1503   4.9622531198e+01   2.5586720812e+01    0.2006468    0.1506285 -62.63 0.0004236798    1.348    0.258
        85  -8.1599    197.6676     44.4304   5.0119479571e+01   2.9978417529e+01    0.4335178    0.1389758 -51.05  0.001207124    4.633    0.784
        86  -8.3746    105.8899     53.5833   7.2857922732e+01   5.1065260078e+01    0.2788095    0.1806278 -50.07 0.0006208062    1.843    0.457
        87 -11.5598    186.5644     92.3149   6.5428953964e+01   2.4949051536e+01     2.392509    0.2441042 -40.98  0.004571635    7.892    0.873
        88 -11.0120    147.4927     30.4606   5.4294202510e+01   4.4623622113e+01    0.7890568    0.4320634 -53.65  0.003227579    2.404    0.584
        89  -7.8804    224.8987    218.8362   8.6193080167e+01  -4.7093961682e+00    0.2599995    0.1427678  56.25  0.001039842    4.056    0.753
        90  -8.1349    201.2569     33.2740   4.6564506554e+01   3.0563138371e+01    0.1839567    0.1434373 -62.87 0.0003389372    1.265    0.210
        91  -9.4752    134.7855     28.4163   5.6186950952e+01   4.8048273051e+01     0.236425    0.2061923  64.30  0.000779998    1.150    0.130
        92 -10.2006      2.2695    208.9503   1.2920596081e+02   2.9797007460e+01    0.4463231    0.1016472 -83.75  0.001744841    4.317    0.768
        93  -9.0542    222.6062    207.9829   8.4669729788e+01  -2.8327400579e+00    0.2655221    0.2258919 -67.83  0.001565969    2.044    0.511
        94  -9.7260    175.0553     19.6775   4.6251166651e+01   3.8825701455e+01    0.3413219    0.2571326  85.83  0.001771721    1.323    0.244
        95  -9.6669    131.0824     22.3952   5.4811214721e+01   4.9661725013e+01    0.3300767    0.2344592  76.85    0.0016442    1.620    0.383
        96  -9.1908    158.7106     21.9449   4.9461267930e+01   4.2764552665e+01      0.19354    0.1926042 -55.07  0.001167477    1.085    0.079
        97  -8.2090    166.0181     19.5113   4.7529218586e+01   4.1159768121e+01    0.2115208    0.1300071  68.42 0.0004499417    1.516    0.340
        98  -8.9055    124.0271    206.0118   1.0441497442e+02   1.4569279797e+01    0.1867678    0.1646085  50.96            0    1.012    0.012
        99  -8.6381    210.9016    202.4022   8.5856499802e+01  -5.7830566541e-02    0.1887351    0.1740518  -2.84 0.0004245724    1.186    0.157
       100 -10.2856    242.2963    200.7885   7.9747579670e+01  -4.9519269315e+00    0.2317502    0.1993275  -6.15 0.0003836679    1.172    0.147
       101 -13.2140     15.8771    187.4993   1.2538058281e+02   3.2997804109e+01     1.131435    0.9337226  83.19  0.002830752    1.130    0.115
       102 -11.1053     27.1079    180.4603   1.2251797548e+02   3.3455672299e+01    0.4031391     0.350336 -57.76  0.001224749    1.434    0.302
       103 -12.9250     34.9073    174.7690   1.2031176785e+02   3.3932450340e+01     1.482242     1.185121  -8.56  0.009227671    2.007    0.502
       104 -10.0463    180.1961    188.7663   8.9469489595e+01   7.7154601305e+00    0.2428142    0.2295949 -29.64 0.0004316196    1.164    0.141
       105  -7.9554    132.4314    188.4657   9.9848446624e+01   1.6624396718e+01    0.1389536    0.1292845  47.90 0.0001354973    1.024    0.023
       106  -9.0409     65.0090    183.2417   1.1445357830e+02   2.8443036971e+01    0.1986566    0.1633249 -82.54 0.0003345181    1.118    0.105
       107  -7.8019    241.9343    183.2127   7.6377908581e+01  -2.3808971719e+00    0.1644499   0.09968729  37.95 0.0003542932    1.664    0.399
       108  -8.8721    237.9396    175.6905   7.5557596906e+01  -5.7686710645e-01    0.3193845    0.2238657  63.24  0.001291207    2.510    0.602
       109  -7.5083    237.2950    199.3352   8.0363097413e+01  -3.9628873300e+00       0.1344   0.08623372   2.31 0.0007028042    1.645    0.392
