#   1 NUMBER                 Running object number                                     
#   2 MAG_AUTO               Kron-like elliptical aperture magnitude                    [mag]
#   3 X_IMAGE                Object position along x                                    [pixel]
#   4 Y_IMAGE                Object position along y                                    [pixel]
#   5 X_WORLD                Barycenter position along world x axis                     [deg]
#   6 Y_WORLD                Barycenter position along world y axis                     [deg]
#   7 A_WORLD                Profile RMS along major axis (world units)                 [deg]
#   8 B_WORLD                Profile RMS along minor axis (world units)                 [deg]
#   9 THETA_WORLD            Position angle (CCW/world-x)                               [deg]
#  10 FWHM_WORLD             FWHM assuming a gaussian core                              [deg]
#  11 ELONGATION             A_IMAGE/B_IMAGE                                           
#  12 ELLIPTICITY            1 - B_IMAGE/A_IMAGE                                       
         1  -8.7730    111.8792     34.6689   8.6397736473e+01   5.3273030616e+01     0.268229    0.1985079 -40.36 0.0007221925    1.446    0.308
         2  -9.1729     12.8655     30.2492   1.2289417032e+02   6.9098688550e+01    0.3099619    0.1484561 -60.47  0.001139243    2.113    0.527
         3  -9.0545     73.9370     19.6532   9.1704441528e+01   6.3061923397e+01     0.282244    0.1737854 -39.15 0.0006612514    1.774    0.436
         4  -7.7456     17.3749     14.1882   1.1415364075e+02   7.1558761254e+01     0.147869   0.09334319 -49.80 0.0003890148    1.638    0.389
         5  -8.6067     55.4940      9.9595   9.3990338763e+01   6.7435503456e+01    0.1997758    0.1843705 -35.14 0.0007963647    1.448    0.309
         6  -7.9976     47.5377     10.0175   9.7361786572e+01   6.8642635384e+01    0.1783663    0.1041363 -31.12  0.001020796    1.583    0.368
         7  -7.7492     27.7840      9.9763   1.0668858140e+02   7.1182892146e+01    0.1508434   0.07813578 -36.78 0.0006471488    1.655    0.396
         8  -8.1096     90.9278      9.0234   8.1467117981e+01   6.0940125260e+01    0.1922082    0.1552208 -59.04  0.000710039    1.706    0.414
         9  -8.9462    234.8552      7.4765   5.8949888958e+01   2.5533855572e+01    0.2363873    0.1851364 -25.80  0.001036975    1.460    0.315
        10  -7.8027    101.2622      7.9957   7.8258529331e+01   5.8801410230e+01      0.17981    0.1638319  20.95 0.0004851368    1.059    0.055
        11  -8.6140     33.4928      5.2461   1.0136216654e+02   7.1171261323e+01    0.2410958    0.1812729 -55.05  0.001480801    2.318    0.569
        12  -8.4245     79.1006      3.8986   8.2571230379e+01   6.3861657602e+01    0.2868602    0.1527829 -33.91  0.001460479    2.048    0.512
        13  -7.5626     44.6813      3.3496   9.5107442676e+01   6.9888177572e+01    0.1050615   0.09258119 -48.08 0.0003802526    1.736    0.424
        14  -7.6066    115.5024      2.4712   7.2697901086e+01   5.6017618218e+01    0.1312798    0.1202027  52.07 0.0001112518    1.070    0.065
        15  -7.7919     15.6737      2.7129   1.0943155857e+02   7.3475348595e+01    0.1141426   0.06727648 -13.91 0.0003432857    1.609    0.379
        16  -8.4033     62.2805      1.5221   8.7031237479e+01   6.7244132253e+01    0.1927173    0.1141685  51.01 0.0003398055    1.801    0.445
        17  -7.5392     39.4385      1.5128   9.6478522123e+01   7.0855799706e+01    0.1180864   0.09158731  -2.03 7.797255e-05    1.016    0.016
        18  -9.4433    248.6107    242.1961   1.0811767903e+02  -9.9390651111e+00    0.2548484    0.1944051 -29.94  0.001025129    1.651    0.394
        19  -8.5676    249.0166    249.2628   1.0914807541e+02  -1.0715968692e+01    0.2305258    0.1331017 -15.70  0.001493137    1.815    0.449
        20  -9.0128    211.2307    247.1089   1.1516179409e+02  -5.0134247146e+00     0.279274    0.1892997 -58.69  0.001615305    2.876    0.652
        21  -8.5000     94.1291    249.7354   1.3637987062e+02   1.2856963928e+01     0.242191    0.1252262  64.84  0.001307823    1.942    0.485
        22  -8.6421    201.9908    243.5111   1.1625239713e+02  -3.1519774349e+00    0.1823014    0.1656131 -61.14 0.0006860615    1.637    0.389
        23  -8.7996    169.1795    243.3848   1.2211549647e+02   2.1180338217e+00    0.2095061    0.1733356  60.03 0.0007085304    1.344    0.256
        24  -9.0200     77.8569    243.3324   1.3871325604e+02   1.6223928390e+01    0.2897106    0.1233086  65.12  0.001405641    2.630    0.620
        25  -9.6733    160.4917    240.7507   1.2335886933e+02   3.9082506999e+00    0.3713101    0.2458779 -84.78  0.001870627    2.886    0.653
        26  -9.0975    194.3091    239.7579   1.1707335090e+02  -1.4577245209e+00    0.2664661    0.1711606 -41.97   0.00116308    1.957    0.489
        27  -9.4258    183.2961    239.9729   1.1908819200e+02   2.9289914740e-01    0.3624922     0.315813  78.65  0.002116885    1.591    0.371
        28  -8.3454    153.4202    242.2263   1.2484648452e+02   4.8452421934e+00    0.1439492    0.1143382 -79.79  0.000940521    1.691    0.409
        29  -8.0413     88.1682    242.1823   1.3677814001e+02   1.4970401936e+01    0.1628599    0.1062107  68.22 0.0006779831    1.359    0.264
        30  -8.5496    146.9692    240.4467   1.2581415169e+02   6.1603102408e+00    0.2606433    0.1621155  70.69  0.001380798    2.319    0.569
        31  -8.5544    240.5271    240.0631   1.0911500091e+02  -8.5685685428e+00    0.1539426    0.1027196 -22.19  0.001029152    1.583    0.368
        32  -9.4283    135.8819    239.4605   1.2774957089e+02   8.1085095148e+00    0.2557599     0.161701  60.21  0.001496808    1.584    0.369
        33  -8.1669    209.0038    238.7236   1.1431050454e+02  -3.6609260614e+00     0.172654    0.1519459 -49.39 0.0006090148    1.630    0.387
        34  -8.7563    129.2449    238.7055   1.2889496006e+02   9.2938912416e+00    0.2683059    0.1615676  78.08  0.001380506    2.508    0.601
        35  -8.0384      2.3088    239.3390   1.5114431591e+02   2.5780529590e+01   0.08481072   0.06928283 -73.83 0.0007043612    1.685    0.407
        36  -9.1111    231.0579    237.1547   1.1025047298e+02  -6.8566196025e+00    0.2171029    0.2080853 -68.53 0.0009022288    1.744    0.427
        37  -8.6568     25.7598    237.4472   1.4728108423e+02   2.3713158753e+01    0.2565028    0.1010945  77.94  0.001376756    2.490    0.598
        38  -7.8755    189.6237    237.2348   1.1755152347e+02  -3.6802277320e-01     0.144981    0.1111472 -19.12 0.0006119413    1.560    0.359
        39  -9.7771    214.9404    233.3250   1.1243849867e+02  -3.9265970785e+00    0.4642239    0.3459276  87.35  0.002343126    3.617    0.724
        40  -8.8464    203.1450    234.7489   1.1474971509e+02  -2.2292363150e+00    0.2381576    0.1868777 -66.61  0.001202467    2.182    0.542
        41  -9.7661    175.5965    233.3219   1.1955885003e+02   2.4859639684e+00    0.4132479    0.3264791 -79.61  0.002016142    1.934    0.483
        42  -8.3899    170.4686    235.9416   1.2087499335e+02   2.9614197689e+00    0.2037622    0.1649119  88.00 0.0007840628    1.774    0.436
        43  -8.1045     58.0332    237.0000   1.4172999121e+02   1.9969565332e+01    0.1762116   0.05221732  39.46 0.0007964699    2.901    0.655
        44  -9.2480    247.9685    234.6966   1.0702613892e+02  -9.0518622292e+00    0.2057945    0.1587973   6.98 0.0009543679    1.085    0.079
        45  -9.4235    246.7529    228.7183   1.0624846517e+02  -8.2168223561e+00    0.4157092    0.2025777 -24.58  0.002043104    2.182    0.542
        46  -9.4318    108.8863    234.3735   1.3221946371e+02   1.3217376620e+01    0.4090633    0.2151123  58.73  0.001745122    1.798    0.444
        47  -8.3966     99.6102    234.4190   1.3395707114e+02   1.4624083064e+01    0.2438533    0.1226912  63.43    0.0011757    2.112    0.526
        48  -9.1214     79.0646    234.5947   1.3776559556e+02   1.7579714581e+01    0.2478484    0.1378231  73.05  0.001173837    1.841    0.457
        49  -9.0103      8.1578    235.1586   1.5005168025e+02   2.5947527164e+01    0.1518789   0.08129788  67.12 0.0007084869    1.323    0.244
        50  -8.1495    122.8307    234.0354   1.2956109621e+02   1.1082117834e+01    0.1929639    0.1227104  76.48 0.0009712492    1.994    0.498
        51  -8.9011     68.5204    232.6414   1.3952298131e+02   1.9376758359e+01    0.4080667    0.1557384  64.25  0.001784078    3.137    0.681
        52  -8.6505    194.8147    233.0708   1.1599694962e+02  -6.5754388159e-01    0.1802417    0.1490185  49.71  0.000814897    1.330    0.248
        53  -8.3345    144.9752    233.4715   1.2531330329e+02   7.5667517179e+00    0.3158146    0.1403271  59.04   0.00126728    3.325    0.699
        54  -8.5863    140.0141    230.0340   1.2581733102e+02   8.9399297744e+00    0.2806617    0.1695466  65.80 0.0009406488    2.059    0.514
        55  -8.3719    132.9346    233.0132   1.2753215122e+02   9.6191840717e+00    0.2024671    0.1276282  65.96  0.001121287    1.800    0.445
        56  -7.9343     37.5218    233.4975   1.4507307204e+02   2.3100701507e+01    0.1125371   0.07758062  68.01 -3.844877e-05    1.037    0.036
        57  -9.3109    236.0016    230.2652   1.0830768785e+02  -6.8033306340e+00     0.347671    0.1930368 -16.00  0.001711739    2.086    0.521
        58  -9.1715    186.5408    230.6202   1.1714350085e+02   1.0445981802e+00    0.3147405    0.2275884 -75.60  0.001344637    2.585    0.613
        59  -8.2825    157.7240    232.1162   1.2273177169e+02   5.6543111098e+00    0.1761545    0.1479053  81.88 0.0006899692    1.476    0.323
        60  -8.3624     92.4365    231.5211   1.3501118094e+02   1.6202036484e+01    0.2771958    0.1334753  65.90   0.00109266    2.396    0.583
        61  -8.8613      1.8020    230.9860   1.5090639276e+02   2.7305873929e+01    0.1955857   0.09243158  72.50 0.0007797793    1.572    0.364
        62  -9.2964    151.4837    228.9729   1.2349127098e+02   7.1918838151e+00    0.2918734    0.2018514  87.30  0.001583261    2.256    0.557
        63  -9.1697    148.7666    224.7403   1.2344081937e+02   8.3315403073e+00    0.3288937    0.2209831  69.59 0.0009754985    1.904    0.475
        64  -8.1112    229.8790    229.1339   1.0917008111e+02  -5.7405248998e+00    0.1628904     0.147242  25.32    0.0005912    1.318    0.242
        65  -8.7413    162.3901    227.8081   1.2125639068e+02   5.5291537606e+00    0.2847334    0.1833193  62.96  0.001122891    1.944    0.486
        66  -8.6709    128.1617    227.3837   1.2775874136e+02   1.1337151396e+01    0.2743741    0.1581482  62.95  0.001368004    1.937    0.484
        67  -8.5208    120.0763    227.7146   1.2935398559e+02   1.2594869355e+01     0.260936    0.1622653  74.96  0.001068386    2.023    0.506
        68  -8.3965    223.3778    226.7730   1.0991391464e+02  -4.4425030733e+00     0.234564    0.1525823  -6.28  0.001004144    1.749    0.428
        69  -9.3318    225.6785    221.6602   1.0866877152e+02  -4.1666652214e+00    0.2321879    0.2096521  15.34  0.001075665    1.222    0.182
        70  -7.9607     49.7013    227.1263   1.4251052862e+02   2.2814991732e+01    0.2072605    0.0785621  65.31 0.0009558536    2.802    0.643
        71  -8.3804    199.9480    226.1792   1.1400617879e+02  -5.7231804723e-01    0.1782796    0.1517744  43.18 0.0005377709    1.239    0.193
        72  -8.9105     94.2784    224.4808   1.3395913292e+02   1.7195506405e+01    0.3772159     0.175998  64.84  0.001646901    2.584    0.613
        73  -8.9124    216.5196    223.5379   1.1059586571e+02  -2.9382482486e+00    0.2608799    0.2300752 -86.40  0.001262194    1.909    0.476
        74  -8.8733    180.6724    224.4996   1.1731766887e+02   2.9126397290e+00     0.249478    0.2134317  67.84  0.001003268    1.454    0.312
        75  -8.8035    104.8411    223.9588   1.3186657863e+02   1.5673775361e+01    0.2993764    0.1808891  75.85  0.001544993    1.956    0.489
        76  -7.9342     38.7131    225.1401   1.4434467471e+02   2.4501651146e+01    0.2009437   0.07371689  65.58 0.0009465346    2.752    0.637
        77  -8.6309    173.1899    223.3095   1.1855315362e+02   4.3721629505e+00    0.2250107    0.1694553  64.21 0.0006243999    1.616    0.381
        78  -8.1273    113.9776    224.0145   1.3010086717e+02   1.4221354176e+01    0.1994786      0.12547  66.56 0.0006834779    1.651    0.394
        79  -8.1744     59.8295    223.5909   1.4039271827e+02   2.2195063871e+01    0.2361772    0.1072027  68.08  0.001066736    2.282    0.562
        80  -9.4420    192.5365    221.5855   1.1464826561e+02   1.3139011419e+00    0.2867385    0.2340681  79.84 0.0009899703    1.882    0.469
        81  -8.1707    140.2009    222.8477   1.2484754856e+02   1.0097896897e+01    0.1956745    0.1468181  62.26 0.0007646885    1.319    0.242
        82  -9.0895    239.0280    221.5317   1.0634346698e+02  -6.2308939213e+00    0.2134649    0.1641883 -15.62 0.0006979913    1.297    0.229
        83  -9.0349    160.0259    221.0404   1.2074452413e+02   6.9981389300e+00    0.4183938    0.2012455  56.67  0.001525048    2.627    0.619
        84  -8.4255    202.6552    220.4682   1.1260053114e+02  -2.3995805633e-01    0.2035371     0.155347 -38.04 0.0006721028    1.554    0.357
        85  -8.5699     82.6271    220.5457   1.3580733304e+02   1.9642562817e+01    0.2514746    0.1315874  68.41 0.0008268335    2.041    0.510
        86  -8.2970     27.5411    220.6020   1.4605023614e+02   2.6613369920e+01    0.2703224   0.09009312 -77.15  0.001362258    2.743    0.635
        87  -9.0071    120.2549    219.3652   1.2831427008e+02   1.4033242866e+01    0.3595703    0.1945371  66.27  0.001688245    2.366    0.577
        88  -9.0974    248.6074    218.0058   1.0412874463e+02  -7.2586158857e+00    0.3506685    0.2410466  66.52  0.001655007    4.015    0.751
        89  -8.7657    205.9964    225.5584   1.1280973446e+02  -1.4874653968e+00    0.2921321     0.177736 -40.24  0.001231063    1.970    0.492
        90  -8.2822    209.9419    218.9661   1.1102595480e+02  -1.2528081558e+00    0.1944228    0.1656149 -31.31 0.0006179643    1.382    0.276
        91  -9.1219    132.8950    216.2028   1.2539979183e+02   1.2483249637e+01    0.4563568    0.2612458  75.52  0.001965748    3.049    0.672
        92  -8.5137     62.2376    217.6779   1.3945462822e+02   2.3005880883e+01    0.3130594    0.1413039  64.07  0.001567832    2.197    0.545
        93  -8.9544     51.6193    217.5143   1.4144732337e+02   2.4397884420e+01    0.2561941    0.1415142  82.93 0.0009369426    1.715    0.417
        94  -8.8629    169.2297    216.1957   1.1823917713e+02   6.1673239266e+00    0.2740522    0.2146843 -80.32 0.0008318183    1.834    0.455
        95  -8.6473    143.0254    216.5798   1.2343924067e+02   1.0681363981e+01    0.2538252    0.1819162  76.88 0.0009787752    1.768    0.434
        96  -7.9416    111.8314    217.2558   1.2972519734e+02   1.5786256446e+01    0.2133669    0.1105928  68.55 0.0008456819    2.685    0.628
        97  -8.4479     18.5097    216.9990   1.4744372418e+02   2.8251760505e+01    0.1582697   0.08477367 -87.11 0.0007032072    1.562    0.360
        98  -8.9640    232.3911    214.6091   1.0629946128e+02  -4.3414108975e+00    0.2949547    0.2016454 -41.29  0.001256873    1.844    0.458
        99  -8.4532    185.6799    214.3632   1.1478622817e+02   3.5625316049e+00    0.2006387      0.15826 -56.00 0.0007880114    1.656    0.396
       100  -8.1781    154.3985    215.2385   1.2099822364e+02   8.9294284666e+00    0.1592402    0.1244603 -70.80 0.0006070673    1.621    0.383
       101  -8.9252     93.4875    214.0972   1.3301136188e+02   1.9255617647e+01    0.3734878    0.1732523  63.87  0.001286086    2.605    0.616
       102  -9.4442     73.3965    212.2549   1.3680297851e+02   2.2545789817e+01    0.5950773    0.2026751  59.83  0.002192857    3.874    0.742
       103  -8.3012    224.7321    212.3212   1.0724675780e+02  -2.8071893096e+00    0.1975925    0.1457447 -39.77  0.000679588    1.649    0.394
       104  -9.4879    214.0490    211.9468   1.0909841344e+02  -9.7974634284e-01    0.3457749    0.3246942  84.66  0.001826293    1.550    0.355
       105  -8.8539    161.8879    212.4622   1.1910430929e+02   8.0709248092e+00    0.2223143    0.1809419 -89.50  0.001019275    1.612    0.380
       106  -7.9388    106.4809    212.9735   1.3028161437e+02   1.7442056831e+01    0.1696112    0.1210569 -72.83  0.000716242    1.524    0.344
       107  -8.9468    204.3152    211.0984   1.1073947141e+02   8.0053381042e-01    0.2512268    0.2149202 -72.07 0.0009171535    1.776    0.437
       108  -9.4906    175.4933    210.1738   1.1607491243e+02   6.0195853187e+00    0.3939869    0.2761125  80.47  0.001533914    2.514    0.602
       109  -9.3254      6.8931    209.5800   1.4911271511e+02   3.0815091690e+01    0.4988522    0.1385222  73.43  0.001884225    4.777    0.791
       110  -8.3966    192.4724    210.6120   1.1287912843e+02   2.9368129989e+00    0.2160448     0.173118 -87.80  0.001010209    2.029    0.507
       111  -8.7431    148.0836    210.5500   1.2156503994e+02   1.0841819537e+01    0.2572046    0.1876854  79.86  0.001041607    1.803    0.445
       112  -8.7633    116.4378    210.6277   1.2797827222e+02   1.6263386636e+01    0.3203592    0.1778376  63.42  0.001082795    2.035    0.509
       113  -9.3080    236.8141    207.6554   1.0431157911e+02  -4.1574206444e+00    0.3943664    0.2262838 -34.88  0.001706607    1.869    0.465
       114  -8.5640     85.9987    209.9093   1.3405535777e+02   2.1191144657e+01    0.2713079    0.1407097  67.51 0.0009977744    2.156    0.536
       115  -8.1319     46.7538    210.1523   1.4179926784e+02   2.6434855873e+01    0.2176414   0.08378819  65.61 0.0009603833    2.882    0.653
       116  -7.8050     32.3130    210.6384   1.4456007397e+02   2.8012882753e+01    0.1254764   0.06160333  67.71 0.0007041536    1.753    0.430
       117  -8.3647    126.4419    208.6903   1.2568486955e+02   1.4942019439e+01    0.2222351    0.1683826  79.42 0.0007486168    1.458    0.314
       118  -9.4133    246.4204    207.3376   1.0261734607e+02  -5.6337155673e+00    0.2497744    0.1981101 -16.11 0.0006500345    1.232    0.188
       119  -8.0822    156.4801    208.0045   1.1949572411e+02   9.7883575401e+00    0.1742196    0.1329347 -56.76  0.000614872    1.554    0.356
       120  -8.3657    138.9219    208.1151   1.2306076473e+02   1.2886338232e+01    0.2056884    0.1614507  67.04 0.0007446198    1.306    0.235
       121  -9.1425     99.3718    206.0418   1.3089575902e+02   1.9903895644e+01    0.3609307    0.2071962  78.65  0.001420294    2.263    0.558
       122  -8.5316     56.9870    205.9021   1.3945662327e+02   2.6008282561e+01    0.3319491    0.1332883  63.46  0.001468857    2.755    0.637
       123  -9.3192    194.9446    203.4474   1.1118932735e+02   3.5894603481e+00    0.3743185    0.3129653 -57.37  0.001157695    1.566    0.361
       124  -9.1871    192.3756    197.3429   1.1061070079e+02   5.0131866182e+00    0.3029487    0.2594227 -71.82 0.0009906471    1.605    0.377
       125  -9.1226    183.8348    204.1650   1.1345607453e+02   5.4806315319e+00     0.312186    0.2147111  65.36 0.0009996969    2.042    0.510
       126  -8.6338    131.4547    204.4086   1.2405707826e+02   1.4872639250e+01    0.2988055    0.1777788  71.32  0.001209208    2.392    0.582
       127  -8.1449    109.1376    205.2406   1.2878366408e+02   1.8492017069e+01    0.1842516    0.1317474  70.21 0.0006017421    1.382    0.276
       128  -9.5544    163.9751    203.1343   1.1721929486e+02   9.2692593735e+00     0.452738      0.24827  57.48   0.00130876    2.187    0.543
       129  -9.4346    250.0817    202.0201   1.0104056668e+02  -5.5372495906e+00    0.3245806    0.1661048 -30.41  0.001299561    1.933    0.483
       130  -8.5597    210.9691    201.8338   1.0789113117e+02   9.8714970875e-01    0.2579393    0.1753931 -55.22 0.0008403667    2.199    0.545
       131  -9.6796    177.0278    201.2596   1.1430124890e+02   7.1950199035e+00    0.4029672    0.1985888 -44.10 0.0009580957    2.314    0.568
       132  -9.0578    140.6726    201.2397   1.2168296638e+02   1.3831249279e+01    0.3660696      0.24473  79.19  0.001246253    2.128    0.530
       133  -8.5071     80.1683    201.6375   1.3434752588e+02   2.3697711611e+01    0.3404041    0.1645361  72.57  0.001455583    2.836    0.647
       134  -8.2676     48.4393    202.3256   1.4084120442e+02   2.7802012970e+01    0.2814144    0.1146186  62.58  0.001228429    2.501    0.600
       135  -8.0371     41.4785    203.0141   1.4226480085e+02   2.8492510124e+01    0.1740504   0.07583157  78.36 0.0008091595    2.582    0.613
       136  -9.2502    243.0465    200.7844   1.0199930906e+02  -4.2672752232e+00    0.2830183    0.1666581 -33.26 0.0008598372    1.753    0.430
       137  -8.3078    221.8745    201.3028   1.0580436510e+02  -8.2552631769e-01    0.2167837    0.1694146 -55.54  0.001050492    1.889    0.471
       138  -7.4951     73.3239    202.6635   1.3586201423e+02   2.4468154522e+01     0.135132   0.07737749  68.51 0.0007051051    1.716    0.417
       139  -9.2014    236.9305    198.0516   1.0254621441e+02  -2.9105858360e+00    0.3833298    0.1946406 -33.02  0.001783074    2.010    0.502
       140  -9.4938    149.4501    198.4317   1.1942802093e+02   1.2758515073e+01      0.42693    0.2842269 -79.09  0.001269429    2.290    0.563
       141  -8.9456    123.9055    199.2838   1.2489550137e+02   1.7158943395e+01    0.3036273    0.2022038  80.36  0.001362017    1.925    0.481
       142  -9.4375    113.0733    198.6287   1.2708775547e+02   1.9135158237e+01    0.4453367    0.2469015  71.02  0.001618738    2.532    0.605
       143  -9.0562     88.6767    198.6453   1.3223548934e+02   2.3040531462e+01     0.366185    0.2058212  82.94  0.001526596    2.266    0.559
       144  -8.4912    202.3839    197.6422   1.0874570173e+02   3.1434910405e+00    0.2375813    0.2097018 -51.19  0.001118601    1.421    0.296
       145  -9.0453     61.5930    197.2807   1.3772822266e+02   2.7171067553e+01    0.3746329    0.1791019  67.06  0.001757054    2.255    0.557
       146  -9.6696     12.6986    197.2119   1.4739579621e+02   3.2711094098e+01    0.3362225    0.1169796  85.84  0.001542956    2.958    0.662
       147  -8.9701    185.3686    194.9202   1.1154981017e+02   6.7022138896e+00    0.2455996     0.230094 -60.55  0.000685044    1.286    0.223
       148  -8.2607    132.9998    196.0196   1.2249511027e+02   1.6187847762e+01      0.21372    0.1513033  76.06 0.0005896183    1.706    0.414
       149  -9.8215    245.8795    192.8299   1.0003758631e+02  -3.6795531707e+00    0.4133146     0.257804 -25.42  0.001629153    1.552    0.356
       150  -7.2994    209.3048    195.6508   1.0708054526e+02   2.2008267930e+00    0.1219129    0.1063767  84.79 0.0007041476    1.700    0.412
       151  -8.8711    160.9945    194.3988   1.1638023079e+02   1.1353245984e+01     0.302699    0.2269396  79.42  0.001119621    1.813    0.448
       152  -8.8745     44.0029    193.5847   1.4099408718e+02   3.0137847787e+01    0.3874863    0.1639409  66.80  0.001788129    2.574    0.611
       153  -8.1320    230.5786    194.0289   1.0290892777e+02  -1.2918102483e+00    0.1864431     0.118503 -30.61  0.001023973    1.603    0.376
       154  -8.7223     77.0106    193.8610   1.3414471615e+02   2.5756961585e+01    0.2177781    0.1596888 -89.20  0.000702506    1.274    0.215
       155  -8.4832    172.5011    192.2426   1.1365293651e+02   9.5717456234e+00    0.2734697    0.2100613  84.95  0.001051488    1.891    0.471
       156  -8.9610    224.3827    193.5108   1.0391701202e+02  -1.5039282554e-01    0.4193068    0.1975336 -40.09   0.00196081    2.326    0.570
       157  -8.3875    198.8646    192.0387   1.0839610219e+02   4.6633697306e+00    0.1927445    0.1785676  68.74 0.0005178427    1.340    0.254
       158  -8.1417    179.0080    191.9432   1.1228526467e+02   8.3951195490e+00    0.2045903    0.1642299  76.94 0.0005511515    1.670    0.401
       159  -9.1194    139.4951    190.6362   1.2027081849e+02   1.6048238192e+01    0.3650112     0.252511  89.25  0.001118666    2.033    0.508
       160  -7.5250    205.2633    191.6623   1.0710438303e+02   3.5449398657e+00    0.1201171    0.1071387 -87.35 0.0002926112    1.587    0.370
       161 -10.4424     92.0112    188.6702   1.3028524325e+02   2.4593616479e+01    0.9225808    0.2584679  50.66  0.003093582    3.776    0.735
       162  -8.0878     21.3548    191.6739   1.4538368569e+02   3.2999997305e+01    0.1267825   0.06209589  66.15 0.0007046242    1.770    0.435
       163  -8.7925    215.8618    195.5507   1.0584663417e+02   1.0478559523e+00    0.2929881    0.1756133 -52.77  0.001087046    2.518    0.603
       164  -8.5718    148.6535    189.4673   1.1812953614e+02   1.4573362724e+01    0.2625176    0.1970434 -89.36 0.0008486832    1.757    0.431
       165  -8.7571    237.1179    188.4261   1.0070029981e+02  -1.6217383189e+00    0.2520253    0.1691637 -26.32  0.001127029    1.463    0.316
       166  -9.1409    216.6158    187.4164   1.0417907020e+02   2.1290783038e+00    0.3362128    0.2172021 -34.62   0.00131334    1.618    0.382
       167  -9.2989    156.0206    187.5272   1.1624087697e+02   1.3549191027e+01    0.3442689    0.2228073 -60.27 0.0009680237    1.891    0.471
       168  -8.8200    129.2579    188.5442   1.2213981045e+02   1.8321559520e+01    0.3000703    0.2154895  87.53  0.001189123    1.730    0.422
       169  -9.8768    120.9678    186.8219   1.2367836326e+02   2.0147050231e+01    0.5550247    0.3002473 -77.24  0.002233134    2.963    0.663
       170  -8.8743     34.3783    188.2505   1.4251722090e+02   3.2353141312e+01    0.2905101    0.1347339  73.33  0.001010157    2.195    0.544
       171  -8.3647    242.7748    188.4056   9.9722738756e+01  -2.5715921083e+00    0.1728258    0.1061644  29.29 0.0009342557    1.540    0.351
       172  -8.8541    191.3443    187.2703   1.0897585722e+02   6.8489606960e+00    0.2749803    0.2323145 -79.30 0.0008433458    1.650    0.394
       173  -8.8879    164.8013    186.7180   1.1425850045e+02   1.2023029419e+01    0.3069498    0.1988779 -62.28 0.0008905233    2.042    0.510
       174  -9.0269     54.9557    187.2225   1.3812694271e+02   3.0148096607e+01    0.3886942    0.1761726  68.00  0.001533424    2.566    0.610
       175  -7.9065    230.5188    187.4825   1.0167673232e+02  -3.5200481249e-01    0.1282048    0.1143756  11.27 0.0001405292    1.086    0.079
       176  -9.2468    109.5027    185.9935   1.2607479771e+02   2.2302234814e+01    0.3882416    0.2453027  81.45  0.001169671    2.044    0.511
       177  -8.6531    249.4221    185.8109   9.8101484804e+01  -3.3187448302e+00    0.2089335    0.1969818 -44.35 0.0008369245    1.478    0.323
       178  -8.8734    182.9834    185.1183   1.1024008917e+02   8.8115029538e+00    0.3022502    0.2067254 -46.99 0.0008317051    1.649    0.394
       179  -9.4523    174.7354    184.0913   1.1172712898e+02   1.0583532685e+01    0.4468655    0.2920916  77.20  0.001843049    2.908    0.656
       180  -8.9661    210.2846    184.2117   1.0474351573e+02   3.7849276001e+00    0.2906663    0.1741925 -33.56 0.0008155029    1.753    0.430
       181  -8.6017    202.7940    184.8636   1.0629304703e+02   5.0806318369e+00    0.2235155    0.1868462 -60.63 0.0006424637    1.579    0.367
       182  -8.9412     66.7765    184.4341   1.3528529230e+02   2.9196516668e+01    0.3391895    0.1781806  69.34 0.0009980099    2.103    0.525
       183  -8.4599    224.1218    183.6893   1.0208814858e+02   1.3360905906e+00    0.2121988    0.1712782 -37.36 0.0005438902    1.375    0.273
       184  -8.0938    197.0435    183.7947   1.0720168580e+02   6.3429960324e+00    0.2307725    0.1782164 -56.71 0.0006755036    1.661    0.398
       185  -8.9435    241.3768    181.9863   9.8716982172e+01  -1.4441365656e+00    0.3286463    0.2477087 -72.57  0.001645124    2.787    0.641
       186  -8.8379     44.3402    182.3736   1.3992254684e+02   3.2482261488e+01    0.3331407    0.1693351  72.61  0.001158842    2.018    0.505
       187  -8.2540      2.2982    183.6252   1.4861495286e+02   3.6416414424e+01    0.1893047   0.08253085  40.56  0.001116305    2.161    0.537
       188  -9.2191    147.6138    180.7238   1.1684964513e+02   1.6454065609e+01    0.3600267     0.247419  75.97  0.001134412    2.009    0.502
       189  -7.8885     83.4039    182.2532   1.3135401677e+02   2.7284246690e+01    0.1808002    0.1142184 -84.00 0.0005981005    1.667    0.400
       190  -9.6370     25.5603    178.6419   1.4357983358e+02   3.5328095908e+01    0.6648608    0.2285625  79.51  0.002295765    4.818    0.792
       191  -8.7251    137.6749    179.3804   1.1879004643e+02   1.8607745515e+01    0.3040566    0.2104115 -81.50  0.001299844    1.943    0.485
       192  -9.3520    191.6102    178.4511   1.0724127388e+02   8.2901058997e+00    0.3046162    0.2369661  64.43 0.0006441833    1.594    0.373
       193  -9.1633     36.0592    177.0916   1.4121651178e+02   3.4564430171e+01    0.4617445    0.1809037  82.88  0.001793083    3.604    0.723
       194  -9.5062    248.4325    176.6089   9.6461709410e+01  -1.8899236559e+00    0.4009652    0.2670006 -48.99  0.002133132    2.051    0.512
       195  -8.5928    250.5148    172.8698   9.5368016818e+01  -1.7189137008e+00    0.2323819    0.1627664 -30.34 0.0006878348    1.366    0.268
       196  -8.4916    217.6417    177.2670   1.0200794408e+02   3.5055470888e+00    0.2267716    0.1565201 -43.99 0.0005998798    1.641    0.391
       197  -8.5810    205.0449    177.6054   1.0444856692e+02   5.8340519775e+00    0.2471531     0.189847 -52.92 0.0007286734    1.614    0.381
       198  -8.5897    129.3206    177.5901   1.2034090257e+02   2.0531532580e+01    0.3085856    0.2014194  88.85  0.001162604    2.250    0.556
       199  -8.2733     97.0896    177.9389   1.2768301565e+02   2.6076826641e+01    0.1997749    0.1701085 -16.01  0.001118836    1.752    0.429
       200  -9.1645     89.0178    177.1169   1.2940294886e+02   2.7541149787e+01    0.2926636    0.1906327  88.18 0.0007499986    1.702    0.412
       201  -8.5216    231.1769    176.8062   9.9467023811e+01   1.0956144052e+00    0.2292047    0.1650795 -39.45 0.0008014035    1.509    0.337
       202  -9.2731    183.1440    176.2794   1.0852344986e+02   1.0332059018e+01    0.2832405    0.2500502 -88.44 0.0005277773    1.423    0.297
       203  -9.3973    104.3577    174.7975   1.2555396132e+02   2.5553014861e+01    0.5128207    0.2598859  67.19  0.001733863    3.025    0.669
       204  -9.9668     57.3880    173.3309   1.3612021613e+02   3.2872235476e+01    0.7760446    0.3319293  78.53  0.002663018    4.345    0.770
       205  -8.7943     12.9909    176.8174   1.4605717635e+02   3.6915031633e+01    0.2571779    0.1097236  67.02  0.001113041    2.215    0.549
       206  -7.5836    211.5409    176.5077   1.0299507957e+02   4.7737743790e+00    0.1353141    0.1245383  16.69 0.0002571362    1.054    0.051
       207  -9.1978    158.9512    175.1382   1.1338084337e+02   1.5336261067e+01    0.3870438    0.2702191  79.47  0.001337534    2.143    0.533
       208  -8.6363     79.5141    158.4827   1.2895306877e+02   3.3178899163e+01     0.297784    0.1415542  28.46  0.001194162    2.915    0.657
       209 -10.6296     76.1036    171.2620   1.3157511401e+02   3.0782126913e+01     1.036854    0.4165238 -80.87  0.003256571    4.763    0.790
       210  -9.1017     74.4831    160.4949   1.3047266564e+02   3.3455245930e+01    0.2455132     0.188855 -10.70  0.001266174    2.223    0.550
       211  -8.4464    224.5166    174.2788   1.0015117914e+02   2.6931106013e+00    0.2357793    0.1253162 -40.61 0.0008303007    1.989    0.497
       212  -7.5514    241.3230    174.6481   9.7269748463e+01  -3.8735971476e-01    0.1216273    0.1055067 -68.01 6.526455e-05    1.754    0.430
       213  -9.4823    175.7050    172.3283   1.0928463636e+02   1.2530256454e+01    0.3464279    0.2535134 -41.10 0.0009484973    1.466    0.318
       214  -8.3965    142.9682    172.9695   1.1648142839e+02   1.8893788230e+01    0.2238542    0.1669874  75.35 0.0005503952    1.615    0.381
       215  -8.7899    134.7382    171.8831   1.1813104047e+02   2.0696495226e+01    0.2575162    0.1926182 -79.80 0.0008126294    1.599    0.375
       216  -9.5120    121.4597    170.5698   1.2093007858e+02   2.3452683800e+01    0.4024341    0.2645558  89.40  0.001118184    2.103    0.524
       217  -9.2681     45.0992    170.8940   1.3862907121e+02   3.4912871893e+01    0.4070018    0.1889893 -89.03  0.001444467    2.380    0.580
       218  -8.8458    230.3251    170.2899   9.8300267619e+01   2.2340132316e+00    0.2367521    0.1863737   6.36 0.0006074212    1.252    0.201
       219  -8.3825    205.9365    170.4815   1.0284577218e+02   6.8412604941e+00    0.2498912    0.1917048 -55.74 0.0008136184    1.650    0.394
       220  -8.6108    198.4484    170.4099   1.0428697688e+02   8.3276984568e+00    0.2686015    0.2289656  88.27  0.000797254    1.609    0.379
       221  -8.5933    237.1366    169.6685   9.6980213037e+01   1.0873876806e+00    0.2165193    0.1726082 -37.56   0.00063721    1.353    0.261
       222  -9.1770    167.4205    168.8647   1.1035297194e+02   1.4850996847e+01    0.3772826    0.2575746  74.31   0.00114245    2.201    0.546
       223  -8.5464    149.8545    169.6185   1.1432848788e+02   1.8222793453e+01     0.271844    0.1917292 -74.54  0.000904055    1.885    0.469
       224  -8.4301    244.6329    169.2014   9.5605552979e+01  -1.7817938157e-01    0.1936287    0.1563607 -38.45 0.0007101112    1.373    0.272
       225  -8.4877    218.9687    168.5380   9.9993336961e+01   4.6382580017e+00    0.2366731    0.1872393 -49.52   0.00062555    1.514    0.340
       226  -8.6767    111.9743    167.7732   1.2265767886e+02   2.5765206596e+01    0.3668796    0.2219581  76.25  0.001544715    2.372    0.578
       227  -8.4903     88.7933    168.6679   1.2824656824e+02   2.9445219439e+01    0.2624993    0.1600126  83.28 0.0009812274    2.038    0.509
       228  -8.9607    191.9547    166.3958   1.0475644207e+02   1.0329632470e+01    0.3397939    0.1958044 -43.22 0.0007080571    1.842    0.457
       229  -8.6887    185.1209    166.6924   1.0620483496e+02   1.1662251629e+01    0.2395454    0.1919883 -52.62 0.0006514366    1.411    0.291
       230 -10.1193     95.0140    162.9935   1.2589690846e+02   2.9721951402e+01    0.8371304    0.4232606  75.38  0.002727784    4.198    0.762
       231  -8.9107     20.6453    166.2597   1.4363978997e+02   3.8499251888e+01    0.3834936    0.1549985  66.77  0.001470957    2.707    0.631
       232  -8.2137     12.7207    167.3616   1.4544514167e+02   3.8973032945e+01    0.1920621   0.09826249  67.41  0.001059604    1.768    0.434
       233  -9.8994    136.6329    164.4417   1.1633371892e+02   2.1887149534e+01    0.6132067    0.2920064  58.05   0.00223432    2.740    0.635
       234  -7.8803    250.5351    165.0313   9.3770345260e+01  -6.0711041308e-01     0.194986    0.1170299 -30.43 0.0007401236    1.550    0.355
       235  -8.4958    233.8708    165.1148   9.6609023343e+01   2.3716220054e+00    0.1945798    0.1756273 -35.23 0.0005921457    1.243    0.196
       236  -8.6760    159.6631    164.4745   1.1116273335e+02   1.7281360960e+01    0.2743964    0.2131035 -83.07  0.000732573    1.685    0.407
       237  -9.4296     33.8171    163.4961   1.4044173556e+02   3.7811733859e+01    0.5657082    0.1831785  55.01  0.002263786    3.415    0.707
       238  -9.3679    246.0899    162.7427   9.4031685932e+01   5.0899322658e-01    0.2800851    0.1722559 -27.58 0.0007644123    1.532    0.347
       239  -8.3218    239.8934    164.1937   9.5377722504e+01   1.4079909519e+00     0.188165    0.1776879 -32.84  0.000582663    1.254    0.203
       240  -8.7123    212.9243    163.5706   1.0008505508e+02   6.6214575109e+00    0.2584282    0.1974533 -43.10 0.0006335616    1.415    0.293
       241  -8.6350     57.1584    163.9142   1.3506744980e+02   3.5020272692e+01    0.2912413    0.1860602  11.96  0.001386861    2.875    0.652
       242  -8.4860    204.8323    162.9096   1.0148951814e+02   8.3420124445e+00    0.2408821    0.1940634 -56.98 0.0006982313    1.526    0.345
       243  -9.2324      3.6825    162.3822   1.4703369478e+02   4.0800269203e+01    0.3991422    0.1400036  55.60  0.001965676    2.683    0.627
       244  -8.9730    151.6072    161.1407   1.1228652942e+02   1.9591153864e+01    0.3131381    0.2356459 -82.95 0.0009597049    1.747    0.428
       245  -9.0123    177.5047    160.5793   1.0652372617e+02   1.4363001055e+01    0.2820467    0.2485053  89.03 0.0007308772    1.361    0.265
       246  -8.6854     60.9009    160.5307   1.3375285357e+02   3.5311423465e+01    0.3468109    0.1771353  64.27  0.001486583    2.251    0.556
       247  -8.8406    227.3399    159.0471   9.6485699009e+01   4.5504977447e+00    0.3108675    0.2149835 -58.49  0.001039509    2.117    0.528
       248  -9.5826    250.2136    157.8330   9.2327311119e+01   4.9697130186e-01    0.3158109    0.1694728 -33.00 0.0008495232    1.728    0.421
       249  -8.2876    237.0503    158.9901   9.4773669722e+01   2.7214536827e+00    0.1999627    0.1661505 -63.07 0.0007788951    1.680    0.405
       250  -9.3064    167.8430    157.5324   1.0795343639e+02   1.6965221469e+01    0.3932193    0.2886662 -89.99  0.001145702    2.035    0.509
       251  -8.4625    128.2976    159.0434   1.1725212843e+02   2.4653905778e+01    0.2656669    0.1899907  68.86 0.0007071525    1.591    0.371
       252  -9.6785    105.9015    157.9137   1.2241510914e+02   2.9023609038e+01    0.4890577    0.3067859  75.96    0.0011366    2.132    0.531
       253  -8.5261    196.5849    157.9527   1.0205449998e+02   1.0888648496e+01    0.2447851    0.2224503 -81.59 0.0007493742    1.350    0.259
       254  -8.2677    188.1055    157.7528   1.0372315498e+02   1.2684296848e+01    0.2419177    0.1973405 -53.30 0.0006041905    1.375    0.273
       255  -8.4005    218.0125    156.5802   9.7649391877e+01   6.7752885912e+00    0.2645728    0.1855355 -49.69 0.0009708695    1.670    0.401
       256  -9.2175    157.5312    155.9502   1.0989715551e+02   1.9432302796e+01    0.3449908     0.255996 -73.96  0.001058579    1.743    0.426
       257  -9.3310    119.4663    155.2223   1.1863607815e+02   2.7168322838e+01    0.4319403    0.2738308 -83.45  0.001709464    2.274    0.560
       258  -8.1768    204.9521    155.5202   9.9887824001e+01   9.5952625944e+00    0.2094762    0.1894782 -27.31 0.0004616177    1.114    0.103
       259  -9.4657     81.5819    154.7067   1.2786255273e+02   3.3737900698e+01    0.4867595    0.2570428  67.20   0.00141288    2.567    0.610
       260  -9.4318     49.5974    155.3455   1.3582796992e+02   3.7910550012e+01     0.371698    0.2051769  69.16  0.001448463    1.982    0.496
       261  -9.6576    242.6408    150.0983   9.1927361097e+01   3.0445146979e+00    0.3778045    0.2875656  47.87   0.00212162    1.451    0.311
       262  -8.9058    237.2483    150.4195   9.2903944802e+01   4.0151942423e+00    0.1690297    0.1328009  55.62 0.0002906731    1.516    0.341
       263  -9.5577    242.9360    155.2816   9.2989074106e+01   2.1971773722e+00    0.2203266    0.1860911  51.71 0.0003985996    1.403    0.287
       264  -8.8203    144.7755    154.4153   1.1248305178e+02   2.2378356784e+01    0.3788651    0.2497608 -44.77  0.001187519    1.607    0.378
       265  -8.5254     94.9468    155.6762   1.2471244533e+02   3.1395549224e+01    0.2196927    0.1229664  16.14  0.000702587    4.579    0.782
       266  -9.6499     68.0069    153.8445   1.3110394252e+02   3.5902591778e+01    0.4598628    0.2380127  66.05  0.001459726    2.439    0.590
       267  -9.6010    132.7014    152.9983   1.1502855728e+02   2.5107850431e+01    0.4466635     0.301374  72.83  0.001197353    1.941    0.485
       268  -9.0951    133.4948    148.5113   1.1392571573e+02   2.5927382594e+01    0.3756945    0.2467802 -46.14  0.001733456    1.596    0.373
       269  -8.3499    151.6011    152.3381   1.1048189622e+02   2.1408011861e+01    0.2825622    0.1444637 -52.27   0.00112363    2.127    0.530
       270 -10.2998    148.9945    144.8815   1.0948398850e+02   2.3518086444e+01    0.6458086    0.4375477 -82.27   0.00162607    2.299    0.565
       271  -8.5340    151.2746    136.0027   1.0695622851e+02   2.4910536603e+01    0.3923177    0.2376811  34.33  0.001623804    1.880    0.468
       272  -9.2612     20.3425    152.8682   1.4254612874e+02   4.1509952738e+01    0.1958455    0.1357531  58.45 0.0006210831    1.377    0.274
       273  -9.6670     29.2278    150.7811   1.4023552876e+02   4.1154614982e+01    0.4232395     0.196966  68.82   0.00167381    2.472    0.595
       274  -9.3849    248.7367    149.4576   9.0789077309e+01   2.0111027528e+00    0.2965131    0.2016157 -32.85 0.0007401502    1.364    0.267
       275  -8.9349    189.3880    150.2946   1.0183897595e+02   1.3793994249e+01    0.3158577    0.2374308 -58.53 0.0008588246    1.596    0.374
       276  -8.0946    182.4296    151.2907   1.0349784835e+02   1.5089522646e+01    0.1952751    0.1415306 -53.44 0.0006183481    1.551    0.355
       277  -8.4544    162.5059    150.9617   1.0772856700e+02   1.9399495338e+01    0.2224865    0.1489843 -46.36 0.0007865136    1.556    0.357
       278  -8.6965     98.2123    150.7033   1.2303842304e+02   3.1990135686e+01    0.2972163     0.201845  88.25 0.0008486278    1.777    0.437
       279  -8.3119    212.9212    150.0788   9.7178342313e+01   8.8997521565e+00    0.2071235    0.1918237 -60.91 0.0003309432    1.268    0.211
       280  -9.8278     39.8770    148.0394   1.3732948939e+02   4.0696857094e+01    0.5136174    0.2439417  71.36  0.002126441    2.698    0.629
       281  -8.0737    228.6386    149.1782   9.4123207778e+01   5.8844894685e+00    0.1951372    0.1240833 -23.67 0.0004246887    1.626    0.385
       282  -8.4950    198.8703    149.0654   9.9659533154e+01   1.2006848809e+01     0.217539    0.1967826 -77.47 0.0005179223    1.335    0.251
       283 -10.0215     89.0910    146.1625   1.2454542246e+02   3.4549153636e+01    0.6947031    0.3811065  86.86  0.002529025    3.253    0.693
       284  -8.6036    233.6167    147.8079   9.2956048869e+01   5.1289803515e+00    0.2370627    0.1916801  -5.83 0.0006134649    1.235    0.190
       285  -8.6607    122.3371    147.7752   1.1648507646e+02   2.8282081102e+01    0.3111232    0.2272966  -8.45  0.000841491    2.337    0.572
       286  -9.8566    125.0352    143.0164   1.1484416839e+02   2.8820799444e+01     0.503856     0.341655 -86.83   0.00155859    2.090    0.521
       287 -10.8877     54.9128    143.3284   1.3290836847e+02   4.0068476263e+01     1.003267    0.5316863 -79.42  0.003220725    1.924    0.480
       288  -8.3399    223.2219    147.0977   9.4627496352e+01   7.3059942883e+00    0.2309004    0.2116374  61.48 0.0006145489    1.280    0.219
       289  -9.7928    139.1849    145.1197   1.1184965144e+02   2.5510337227e+01    0.5051592    0.3269113 -74.98   0.00117372    2.232    0.552
       290  -9.1238    139.5879    137.9223   1.1017663103e+02   2.6989638360e+01    0.4604891     0.293178   9.39  0.001558734    3.549    0.718
       291 -10.2870    106.5430    143.9384   1.1967368183e+02   3.2092823927e+01    0.7956245    0.4654454 -84.90    0.0024379    2.824    0.646
       292  -9.1799     13.5412    146.1821   1.4354425689e+02   4.3597735200e+01    0.3269797    0.1660568  65.02   0.00145264    1.967    0.492
       293  -9.1102    240.6387    145.0220   9.1156071593e+01   4.2118440717e+00    0.3581026    0.2435786   8.01  0.001573634    1.828    0.453
       294  -8.0629    206.7159    146.5735   9.7574988497e+01   1.0797303923e+01    0.1875177    0.1397382  56.89 0.0006069557    1.497    0.332
       295  -8.3228    175.6491    146.1645   1.0379829327e+02   1.7535269908e+01    0.2304972    0.1859608 -63.43 0.0006902785    1.440    0.306
       296  -8.9153    165.8035    144.1434   1.0549449705e+02   2.0071335366e+01    0.3458631    0.2519286  77.40 0.0007536093    1.880    0.468
       297 -11.0676     68.6520    140.1307   1.2883638952e+02   3.9029220275e+01    0.8566794    0.4401009 -65.02  0.003007383    1.792    0.442
       298  -8.8395    247.0388    144.0062   8.9883995233e+01   3.1549412808e+00    0.2073935    0.1778397 -16.59 0.0004720715    1.044    0.042
       299  -7.6678    194.3949    144.1562   9.9448247926e+01   1.3857916388e+01    0.2034149    0.1367107 -50.71 0.0004924605    1.658    0.397
       300  -9.4248      2.7208    141.9282   1.4575195576e+02   4.5371072116e+01     0.391025    0.1627208  81.37  0.001778765    2.442    0.591
       301  -8.6070    182.0646    141.6426   1.0140975629e+02   1.7015375553e+01     0.282035    0.2065101 -58.38 0.0007752925    1.602    0.376
       302  -8.1074    250.4817    140.9828   8.8673090261e+01   2.9721188794e+00    0.2012351     0.121113 -32.05 0.0004322485    1.511    0.338
       303  -8.6222    243.6551    139.8683   8.9524041389e+01   4.4382207353e+00    0.1977607    0.1137162 -41.73 0.0005574662    1.729    0.422
       304  -9.8249     23.1874    137.9893   1.4036608396e+02   4.4651048642e+01    0.5050824    0.2370413  72.25  0.002061675    2.551    0.608
       305  -8.0030    218.5981    138.8074   9.3596848468e+01   9.6518892504e+00    0.2010645    0.1292659 -45.64 0.0004938557    1.639    0.390
       306  -9.2819    187.8241    137.3128   9.9208728442e+01   1.6575132931e+01    0.4955242    0.1841477 -43.10  0.001696931    2.730    0.634
       307  -8.7182    172.3374    138.2911   1.0271998813e+02   1.9815350507e+01    0.3507088    0.2216744 -58.00 0.0009655968    1.930    0.482
       308  -8.2284    207.4942    138.1066   9.5499102067e+01   1.2130065489e+01     0.225447    0.2038934 -77.86 0.0006739559    1.326    0.246
       309  -8.6679    197.5162    137.6111   9.7320915260e+01   1.4385290585e+01    0.2826476    0.2339592 -61.93 0.0009311679    1.414    0.293
       310  -8.5596    162.6641    136.5250   1.0445623192e+02   2.2309910621e+01    0.2502093    0.1859268 -68.97 0.0007375035    1.676    0.403
       311 -10.2211     83.4360    132.7917   1.2359020690e+02   3.8588972388e+01    0.5974313    0.3083457 -70.36  0.001313461    2.201    0.546
       312  -8.9069     84.1129    123.1264   1.2148912686e+02   4.0768421665e+01    0.4730037    0.2657739 -35.38  0.001920977    2.542    0.607
       313  -9.5546     39.1240    136.3378   1.3605764663e+02   4.3505050877e+01    0.2894118    0.1732906  77.03 0.0006967173    1.799    0.444
       314  -8.5912    246.9986    130.3271   8.6860245420e+01   5.2814888499e+00    0.2338551    0.1706797 -39.62 0.0005785928    1.313    0.238
       315  -9.0116    248.2749    135.2468   8.7758346775e+01   4.2698449722e+00    0.3431589    0.1953819 -35.08 0.0008809234    1.600    0.375
       316  -9.0491    250.7301    130.1838   8.6246989099e+01   4.5812231276e+00    0.4479508    0.1197425 -35.14  0.001350486    3.329    0.700
       317  -7.7045    192.3233    136.6509   9.8136042474e+01   1.5705297130e+01    0.1536191    0.1203699 -79.20 0.0007049019    1.747    0.428
       318  -8.8764     77.9943    147.2489   1.2757171173e+02   3.6012563003e+01    0.2559114    0.1735993  84.95 0.0007069251    1.632    0.387
       319  -7.8551    237.3452    133.6617   8.9170836410e+01   6.6614946537e+00    0.1938545    0.1326232 -45.81 0.0006886658    1.534    0.348
       320  -9.9797    234.1357    130.9912   8.9096650673e+01   7.7431281409e+00    0.4366411    0.3204903  10.62  0.001675682    1.640    0.390
       321  -8.5477    179.5605    133.8384   1.0011932305e+02   1.9085541451e+01    0.2904467    0.2246218 -72.00 0.0007954926    1.660    0.397
       322 -10.2685    132.4253    130.8768   1.1033563394e+02   3.0031268824e+01    0.7238725    0.4767136 -72.43  0.002014815    2.035    0.509
       323  -9.2064    112.8635    133.4188   1.1589331720e+02   3.3345205638e+01    0.3700505    0.2641287  80.95  0.001002799    1.791    0.442
       324  -9.2730    143.2021    131.8301   1.0790892520e+02   2.7545436589e+01    0.3789601     0.267076 -73.92 0.0007389742    1.863    0.463
       325 -10.4899     98.2043    130.1095   1.1906796103e+02   3.6778131573e+01    0.7510864    0.2823738 -57.77  0.001848831    2.698    0.629
       326  -8.7673     99.0227    120.7958   1.1682750002e+02   3.8808447483e+01    0.2685198     0.214996   1.23 0.0009391518    1.748    0.428
       327  -9.6499    152.7837    128.3354   1.0479391395e+02   2.6201482700e+01    0.6706218    0.2911516 -47.98  0.001920315    2.379    0.580
       328 -10.0591     73.3776    128.4852   1.2553369424e+02   4.1123814533e+01    0.6491738    0.2933877 -60.26  0.002204398    2.021    0.505
       329  -9.8871     13.2496    129.6082   1.4201869586e+02   4.7390893340e+01    0.4704834    0.2187487  66.25   0.00202736    2.483    0.597
       330  -8.3920    192.8902    130.1564   9.6483102419e+01   1.6796141154e+01     0.233673    0.2050741 -73.50 0.0007757334    1.326    0.246
       331  -9.3478    168.3080    129.3804   1.0149654558e+02   2.2506387142e+01    0.3392555    0.2549866 -65.47 0.0007094592    1.599    0.374
       332  -7.6842      1.4973    130.4547   1.4509325063e+02   4.8024265559e+01    0.1171905   0.08817029 -87.88 0.0002875145    1.033    0.032
       333  -8.3839    211.4865    129.0465   9.2629037038e+01   1.2868638237e+01    0.2261705    0.1399205 -39.28 0.0006458677    1.574    0.365
       334 -10.5725     59.8018    124.9038   1.2867920334e+02   4.3823060582e+01    0.7825117    0.4214966  86.19   0.00282671    2.893    0.654
       335  -8.8237     58.4661    116.0273   1.2745550471e+02   4.6103342249e+01    0.3127746    0.2083707 -32.42  0.001561538    1.972    0.493
       336 -10.7034     44.9424    123.5779   1.3264419874e+02   4.5895230756e+01     1.086168    0.5187079  79.49  0.003917251    3.892    0.743
       337  -9.9272    117.9471    125.2538   1.1274302732e+02   3.4228706512e+01    0.5641052    0.3632355  75.90  0.001485326    2.373    0.579
       338  -7.9094    228.4752    125.5259   8.8785231612e+01   9.8195523487e+00    0.1428714     0.133249 -19.97 4.698299e-05    1.008    0.008
       339  -9.0043    179.3791    124.8140   9.7975626100e+01   2.0891971034e+01    0.3146543    0.2726599  79.99  0.001059283    1.317    0.241
       340 -10.2188     28.3113    122.1805   1.3709250213e+02   4.7872792403e+01    0.7583533     0.339081  80.20  0.002937031    3.569    0.720
       341  -8.2779    188.5004    123.9971   9.5875827297e+01   1.8956058633e+01    0.2294028    0.1489347 -40.79 0.0005661504    1.533    0.347
       342  -8.5457    135.4125    122.6835   1.0764451193e+02   3.1208911679e+01    0.3939109    0.1872922 -57.73  0.001368911    2.626    0.619
       343  -9.7296    130.7461    117.9165   1.0765358825e+02   3.3252070918e+01    0.6569876    0.3273946 -51.55  0.001763506    2.063    0.515
       344  -9.9959    133.7305    109.5164   1.0473674855e+02   3.4445475291e+01    0.7023907    0.3423215 -52.78  0.002135498    2.229    0.551
       345  -9.3916    158.6331    121.5957   1.0177395569e+02   2.6297398198e+01    0.3750101    0.2887217 -77.45  0.001068196    1.651    0.394
       346  -7.9054    203.1347    122.1507   9.2536950745e+01   1.5961604123e+01    0.2087544     0.175175 -62.21 0.0005993204    1.349    0.259
       347  -8.0516    195.1629    122.1388   9.4080406706e+01   1.7778952239e+01    0.2085806     0.177453 -65.91 0.0004516727    1.338    0.252
       348  -8.7658    171.9317    121.5230   9.8763527744e+01   2.3258290898e+01    0.3323955    0.2151368 -45.83 0.0008280001    1.566    0.362
       349  -9.6413     70.9377    119.7499   1.2454978341e+02   4.3549639321e+01    0.4282176    0.2558706 -83.14   0.00129435    2.151    0.535
       350 -10.1203    141.4378    117.2636   1.0479519539e+02   3.1077825546e+01    0.8264674    0.4142922 -51.85  0.002001925    2.127    0.530
       351  -9.7520      2.9792    117.5323   1.4349136793e+02   5.0851310866e+01    0.5044302    0.2144186  76.75  0.002298846    2.891    0.654
       352  -7.9609    166.3056    119.6791   9.9545584322e+01   2.4929463859e+01    0.1583375    0.1240502 -82.18 0.0003925014    1.636    0.389
       353  -8.3746    204.8083    130.6849   9.4273243333e+01   1.4043473815e+01     0.270777    0.1847884 -61.43 0.0007809087    1.950    0.487
       354  -9.9163    109.2521    114.2757   1.1247229576e+02   3.8423195209e+01    0.5760736    0.3639994 -78.34  0.001514013    2.416    0.586
       355  -8.9473    109.5416    107.7114   1.1075188712e+02   3.9856924334e+01    0.4187789    0.2615172  14.24  0.001518781    3.081    0.675
       356  -8.4873    185.5201    115.9851   9.4482555190e+01   2.1174489100e+01    0.2323636    0.1498931 -41.33 0.0005368921    1.537    0.349
       357  -8.0347    220.9129    130.0101   9.1147747804e+01   1.0666027582e+01    0.1731333    0.1632313  27.47 0.0009812452    1.082    0.076
       358  -9.1910    250.2515    114.3510   8.2730059105e+01   7.1346091018e+00     0.333133    0.1811089 -18.86  0.001406375    2.291    0.564
       359  -8.2832    192.8874    115.1693   9.2790942457e+01   1.9604537067e+01    0.2324411    0.2020849 -63.98 0.0004450876    1.257    0.205
       360 -10.0956     92.6709    112.3917   1.1669036481e+02   4.1874894441e+01    0.5357891    0.3330245 -72.99  0.001246761    2.022    0.505
       361  -9.2077     93.4748    105.0080   1.1467238026e+02   4.3441519048e+01    0.4665207    0.2993476   0.03  0.001707011    3.375    0.704
       362 -10.0506     78.8107    112.5723   1.2076337676e+02   4.4086045970e+01    0.5666009    0.3653252  86.52  0.001746277    2.263    0.558
       363  -8.7923     77.7219    105.6420   1.1952270501e+02   4.5876748931e+01    0.3379439    0.2387195 -11.97  0.001528284    2.202    0.546
       364  -8.1967    167.3854    114.2835   9.7924663972e+01   2.5766663451e+01    0.2208113    0.1448223 -50.91 0.0006719987    1.607    0.378
       365  -8.6564    174.9457    112.2002   9.5730341862e+01   2.4398951613e+01    0.2874738    0.2127276 -65.03 0.0007747427    1.634    0.388
       366 -10.0727    121.9360    112.1657   1.0850797750e+02   3.6372084230e+01    0.4534025    0.2920186 -67.77 0.0007146996    1.983    0.496
       367  -8.8109    159.2197    111.9027   9.9155592693e+01   2.8158993127e+01    0.2875632    0.2451002 -70.24 0.0006777687    1.297    0.229
       368 -10.1465     66.3231    110.0882   1.2394249686e+02   4.6481124383e+01     0.553929    0.3129403 -65.77  0.002155035    1.707    0.414
       369  -9.6863     14.0908    111.3911   1.3969794609e+02   5.1520388022e+01    0.3078899    0.1736968  69.48  0.001127745    2.023    0.506
       370  -9.0850     43.1056    109.6385   1.3086169366e+02   4.9389421958e+01    0.2999482    0.1682991  15.62  0.001436763    2.592    0.614
       371  -9.8365    249.1349    108.7402   8.1598418347e+01   8.2367726696e+00    0.5200246    0.2653028 -54.78  0.002077701    2.694    0.629
       372  -9.3364    250.0000    101.9673   7.9897291076e+01   9.1149123951e+00    0.3947423    0.2181528 -11.29  0.001508565    3.035    0.670
       373  -7.8500    183.2574    109.6416   9.3316381588e+01   2.2919905957e+01    0.1581031    0.1193088 -67.33 0.0004519545    1.619    0.382
       374  -8.2545    189.2956    108.0942   9.1691114852e+01   2.1773821249e+01    0.2201256    0.1912226 -46.33 0.0004688319    1.146    0.127
       375  -9.3475    139.9541    104.6957   1.0186944233e+02   3.4092742448e+01    0.4005274    0.3000322 -81.55 0.0009594705    1.779    0.438
       376 -10.4997     45.7695    102.5686   1.2873413577e+02   5.0767459357e+01    0.7357386    0.4035544  72.36  0.003073606    3.047    0.672
       377 -10.5971     22.9836    102.7760   1.3584910490e+02   5.2846524997e+01    0.7331104    0.3631945  74.08  0.002977828    3.096    0.677
       378  -8.6542    166.7166    104.0918   9.5378864628e+01   2.7956045074e+01    0.3141184     0.201887 -52.16 0.0008506241    1.676    0.403
       379  -9.5842    150.6034    103.2182   9.8855968346e+01   3.1951852295e+01    0.4597347    0.2952445 -61.86  0.001263909    1.963    0.491
       380 -10.7679    109.3544     99.0795   1.0852870819e+02   4.1821676892e+01    0.9652928    0.5621933  71.97  0.001896281    3.491    0.714
       381  -8.9401    107.6210     92.6762   1.0725024090e+02   4.3566616611e+01    0.6335532    0.2955041  29.04  0.002030773    3.605    0.723
       382  -9.0283      6.9457    103.2293   1.4075317146e+02   5.3862882587e+01      0.23965    0.1554637  82.27 0.0009723831    1.526    0.345
       383  -9.7125    128.4442    102.1324   1.0413177654e+02   3.7191022048e+01    0.3852296    0.3027491 -81.92  0.000990034    1.586    0.369
       384  -8.6337    130.0116     97.4903   1.0243273005e+02   3.7837686832e+01     0.312114    0.2056177  30.92  0.001315196    1.839    0.456
       385  -8.1335    175.4240    102.2182   9.2985480432e+01   2.6222732814e+01    0.2228581    0.1440511 -50.06 0.0009384498    1.626    0.385
       386  -8.4334    159.7742    100.9779   9.6094391745e+01   3.0236339427e+01    0.2843208    0.2085836 -58.77 0.0005156579    1.521    0.342
       387  -9.1429     82.1605    100.1190   1.1684636912e+02   4.6460946791e+01    0.3650358     0.259704 -89.09  0.001151887    1.904    0.475
       388 -10.1279     63.8230     96.0240   1.2159824629e+02   5.0107303223e+01    0.5724633     0.355464  89.00  0.001744784    2.607    0.616
       389  -9.2480     64.9358     88.0204   1.1927499345e+02   5.1785892373e+01    0.6333135    0.3413261   3.18  0.001936048    5.671    0.824
       390  -9.2665     95.0923     97.2558   1.1219639861e+02   4.4915991934e+01    0.3374553    0.2424296 -64.86 0.0006801427    1.505    0.335
       391  -8.6706    151.2587     95.8399   9.6647957836e+01   3.3294479015e+01    0.3120884    0.2059935  24.38  0.001232767    2.146    0.534
       392  -8.3738    176.3788     93.2383   9.0328969759e+01   2.7691354108e+01    0.2714019    0.1910714 -47.26  0.000490948    1.436    0.304
       393  -8.2133    164.8506     94.1481   9.3052317759e+01   3.0349357429e+01    0.2414552    0.2102695 -73.72 0.0006030109    1.258    0.205
       394  -9.4329    139.0510     92.0938   9.8564573808e+01   3.6914384658e+01    0.4516386    0.2969894 -57.44  0.001457094    1.745    0.427
       395 -10.2699    123.6447     91.6819   1.0247430577e+02   4.0454576547e+01    0.6431764    0.4520781  37.83  0.001332233    1.514    0.340
       396  -9.2243     45.8847     92.8961   1.2672376578e+02   5.3005580340e+01    0.4262986    0.2286291   9.93  0.001861844    3.089    0.676
       397  -7.6243    188.3473     93.6871   8.8050489323e+01   2.4660753415e+01    0.1624315    0.1207108 -75.18 0.0007046535    1.715    0.417
       398  -9.4642      5.4523     92.3276   1.3977136358e+02   5.6423851482e+01    0.3109039    0.1685544  57.55  0.001211443    2.294    0.564
       399  -8.2426    157.8137     91.5931   9.3910291272e+01   3.2557926729e+01    0.2540318    0.1811408 -45.31 0.0004518638    1.407    0.289
       400  -9.5694     34.8396     89.8207   1.2974805610e+02   5.4823916254e+01    0.4493418     0.247236 -85.12  0.001688574    2.419    0.587
       401  -8.1971    150.8610     89.1608   9.4825965763e+01   3.4712957102e+01    0.2390313    0.2115616 -75.16 0.0005328064    1.231    0.188
       402  -9.9162     86.3642     86.6942   1.1198137055e+02   4.8788706095e+01     0.462875      0.34383  85.75  0.001182995    1.935    0.483
       403  -8.6730     86.9882     81.0035   1.1013961921e+02   4.9916920241e+01    0.3063485    0.2105693  14.22  0.001181404    2.007    0.502
       404  -9.7295     48.5820     84.4506   1.2390355817e+02   5.4637924467e+01    0.4826441    0.3027133  75.34    0.0017158    2.648    0.622
       405  -7.7714    179.2735     85.6543   8.7616804768e+01   2.8365602696e+01    0.1609766    0.1186726 -66.87 0.0003142156    1.623    0.384
       406  -8.8354    127.2452     83.9550   9.9216767000e+01   4.1250909943e+01    0.4711436    0.2519169  26.35  0.001526274    3.390    0.705
       407  -9.8225    104.6572     83.1698   1.0534462675e+02   4.6182865044e+01     0.492887    0.3114101 -60.75 0.0009955495    1.915    0.478
       408  -8.8028    105.0193     77.4569   1.0348494141e+02   4.7293562115e+01    0.4075573    0.2471334  20.98  0.001228457    2.560    0.609
       409  -8.3248    157.8794     84.0941   9.1718599685e+01   3.3977756999e+01    0.2390366    0.2087464 -68.90 0.0004595645    1.235    0.190
       410  -9.1207    140.7981     82.9984   9.5438069647e+01   3.8317705594e+01     0.343486    0.2575692 -56.85 0.0007075872    1.461    0.316
       411  -8.9393     23.2887     90.2463   1.3366972013e+02   5.5708329857e+01    0.2846029    0.2213711  -4.89  0.001286053    1.648    0.393
       412  -9.6584     24.6780     80.4063   1.3132384617e+02   5.7831188505e+01    0.4671961     0.249932 -85.13  0.001626276    2.484    0.597
       413  -9.2454      9.6956     80.8748   1.3661805717e+02   5.8752764885e+01    0.2858557    0.1701545  62.49  0.001066695    2.210    0.548
       414  -8.4905    150.1719     80.6863   9.2477618357e+01   3.6509070377e+01    0.2766696    0.2063371 -52.15 0.0006900153    1.412    0.292
       415  -8.9996    119.3965     80.0146   1.0014583492e+02   4.3774346155e+01    0.4397636    0.2474919 -48.39  0.001460207    1.822    0.451
       416  -8.9637     74.4956     80.4110   1.1404045520e+02   5.2086177941e+01    0.3121956    0.2143858 -70.28 0.0008877899    1.808    0.447
       417  -8.4481    166.8532     79.7007   8.8460601053e+01   3.2556652763e+01    0.2608656    0.2112169 -24.32 0.0007219441    1.336    0.252
       418  -9.2480     65.2370     78.2130   1.1654767795e+02   5.3925446524e+01    0.3241157     0.219971 -61.07  0.001672683    1.490    0.329
       419  -9.8123     63.3973     73.6356   1.1587895244e+02   5.5172945768e+01    0.4338539    0.2464796 -62.53  0.001289691    1.991    0.498
       420  -8.7428    183.7672     78.0479   8.4583966582e+01   2.8579712162e+01    0.2221618    0.1994583 -41.12 0.0005389635    1.106    0.095
       421  -7.7649    174.7261     78.3740   8.6446351312e+01   3.0809717806e+01    0.1640525    0.1172439 -65.43 0.0004687415    1.687    0.407
       422  -9.3582    128.0482     75.4938   9.6386211182e+01   4.2736225223e+01    0.3695549     0.266395 -74.96 0.0006785762    1.978    0.494
       423  -7.8645    157.1461     76.1673   8.9516242737e+01   3.5625689655e+01     0.217574    0.1817141 -66.03 0.0005044874    1.319    0.242
       424  -8.9256    140.4138     74.9293   9.3054199698e+01   3.9948758550e+01      0.34389    0.1854589 -40.75 0.0009733568    1.847    0.459
       425  -9.9179     82.5950     71.7565   1.0874460098e+02   5.2615322580e+01    0.8346871    0.3984512 -46.73  0.003243675    1.957    0.489
       426  -8.2631    163.1940     73.3843   8.7357116314e+01   3.4606391608e+01     0.255631     0.179251 -43.11 0.0007591104    1.431    0.301
       427  -8.3700    151.3634     73.1740   8.9907320402e+01   3.7603292238e+01    0.2255617    0.1394116 -46.57 0.0005397783    1.676    0.403
       428  -8.9806    115.4918     72.4785   9.8856879936e+01   4.6107165856e+01    0.3711579    0.2294717 -45.22  0.001081385    1.617    0.381
       429  -9.2765    105.9311     71.8242   1.0141964133e+02   4.8239548410e+01    0.3091201    0.2091096 -54.79  0.000587265    1.644    0.392
       430  -8.2916     42.5097     73.0453   1.2321677893e+02   5.7839167055e+01    0.1967912    0.1119469 -58.43  0.000515034    1.538    0.350
       431  -7.6545    175.4890     72.5488   8.4593457602e+01   3.1629274903e+01    0.1536435    0.1494426 -87.69  0.000187994    1.007    0.007
       432  -9.2906     95.2087     71.2434   1.0450973185e+02   5.0459614295e+01    0.3408073    0.2333701 -58.93 0.0009180756    1.707    0.414
       433  -8.7728     28.6466     70.6584   1.2774727522e+02   5.9672847895e+01    0.3549991    0.1547096 -34.46  0.001536617    2.830    0.647
       434  -8.3960     32.0102     68.4833   1.2595464862e+02   5.9855066939e+01    0.2224575    0.1520222  -5.01 0.0008537352    1.846    0.458
       435  -7.5790    170.6707     71.3324   8.5192111855e+01   3.3066250835e+01    0.1643533    0.1191707 -71.60 0.0007051879    1.719    0.418
       436  -9.5094     51.4018     69.6783   1.1904435002e+02   5.7570001939e+01    0.4080666    0.2506201 -74.15  0.001353353    2.305    0.566
       437  -8.8894     16.6077     70.1743   1.3212664467e+02   6.0687898888e+01    0.2494025    0.1744384  86.05 0.0009307923    1.742    0.426
       438  -8.0966    157.3496     70.1262   8.7624988909e+01   3.6651589211e+01    0.2265126    0.1359872 -46.31 0.0003715467    1.729    0.422
       439  -8.8565    147.1131     68.5659   8.9447384322e+01   3.9477005991e+01    0.3131615    0.2435062 -50.35 0.0007429642    1.346    0.257
       440  -8.8528    138.7671     66.2282   9.0686989257e+01   4.1928650056e+01    0.3500551    0.2182756 -55.47 0.0008790922    1.944    0.486
       441  -8.9015    121.5521     66.1171   9.5087945118e+01   4.5972976672e+01    0.3165536    0.2398549 -66.50 0.0007217517    1.676    0.403
       442  -8.8844     64.3222     63.8918   1.1257435166e+02   5.7086960476e+01    0.5071489      0.28818 -11.10   0.00189828    3.612    0.723
       443  -8.6378     95.2388     64.8254   1.0237906872e+02   5.1717858404e+01    0.2755331    0.1869149  12.73  0.001059033    2.061    0.515
       444  -8.5872     37.1126     64.1788   1.2287707234e+02   6.0302206410e+01    0.2214293      0.16811 -69.04 0.0006860352    1.397    0.284
       445  -9.1687    110.0845     63.4770   9.7421281279e+01   4.8970513242e+01    0.3724198    0.2226681 -45.15 0.0008529069    1.701    0.412
       446  -7.4515    187.3374     63.6693   7.9805724574e+01   3.0059742897e+01    0.1636278    0.1135684 -68.94 0.0006938539    1.736    0.424
       447  -8.0007    158.2257     61.9556   8.4890775467e+01   3.7821793901e+01    0.2095606    0.1965192 -41.39 0.0002822365    1.082    0.076
       448  -7.8659     51.3387     62.3495   1.1690116308e+02   5.9123144263e+01    0.1406785   0.08943138 -25.38 0.0007045721    1.791    0.442
       449  -9.5091     97.7000     60.3072   1.0005637582e+02   5.2095358557e+01    0.4095435    0.3099143 -33.66  0.001410134    1.282    0.220
       450  -9.5964     73.3493     59.6318   1.0793032482e+02   5.6574421539e+01    0.3796096    0.2272283 -55.09  0.001085334    1.870    0.465
       451  -7.6903    164.4919     60.4266   8.3120015496e+01   3.6469525753e+01    0.1520014    0.1468741  68.89 7.302762e-05    1.013    0.013
       452  -7.9306     89.4174     59.9100   1.0256094762e+02   5.3751684736e+01    0.1899492    0.1205684 -63.13 0.0005312118    2.355    0.575
       453  -7.9761    146.9903     58.9983   8.6399659464e+01   4.1145490792e+01    0.2353725      0.18267 -73.18 0.0004750972    1.583    0.368
       454  -9.7757     23.4618     56.5230   1.2620121711e+02   6.3119678458e+01    0.4129998    0.2564038 -87.97  0.002088856    2.616    0.618
       455  -8.9865    130.7738     57.5523   8.9786549956e+01   4.5345889083e+01    0.2770983    0.2055943 -36.82  0.000726857    1.360    0.265
       456  -9.4086      7.4570     57.3264   1.3288789648e+02   6.4007766523e+01    0.2691184    0.1925573  87.09  0.001128254    1.723    0.420
       457  -9.4490    119.0686     55.2500   9.2047744234e+01   4.8455048583e+01    0.4841774    0.2283304 -42.67    0.0013606    2.186    0.543
       458  -9.6064     54.3045     55.6461   1.1361953302e+02   6.0111672603e+01    0.3428667    0.2416506 -65.99  0.001138107    1.801    0.445
       459  -9.1430    244.8580     56.1211   6.9631929851e+01   1.7110421888e+01    0.2276889    0.1921468  81.61  0.000692012    1.230    0.187
       460  -8.2757    139.9240     56.1700   8.7093745495e+01   4.3362020589e+01    0.2297052    0.2015553 -66.77  0.000463005    1.263    0.208
       461  -8.4807     44.1198     55.6775   1.1761645370e+02   6.1334122580e+01    0.2153848    0.1572456 -56.93  0.000635694    1.353    0.261
       462  -8.4325    105.8228     53.3012   9.5100564686e+01   5.1690442637e+01    0.2432685    0.1873021 -45.95 0.0005480964    1.370    0.270
       463  -8.2689    248.5779     52.1906   6.8279085121e+01   1.6822521750e+01    0.1823823    0.1260112 -22.19 0.0005133106    1.621    0.383
       464  -9.5824     92.3037     50.6773   9.8304189107e+01   5.4882061190e+01    0.4008991    0.2361076 -49.65  0.001096382    1.943    0.485
       465  -8.2311    144.6747     49.1990   8.3668511355e+01   4.3284501564e+01    0.2066073    0.1413278 -20.24  0.000556059    1.658    0.397
       466  -8.6229    129.8277     49.3046   8.7172723742e+01   4.6915471427e+01    0.2064506     0.184894 -45.64 0.0004857391    1.174    0.149
       467  -7.6614    149.6785     48.7131   8.2422545345e+01   4.2094564649e+01    0.1544088    0.1128288  28.42 0.0002261089    1.599    0.375
       468  -8.5293    112.1528     46.8137   9.0913470881e+01   5.1394660013e+01    0.2452378    0.1882572 -44.90 0.0006298681    1.395    0.283
       469  -8.9386     82.0371     46.6439   1.0019207731e+02   5.7497286362e+01    0.2612222    0.2098564 -50.48  0.000690616    1.408    0.290
       470  -8.8136    120.9610     47.4737   8.8774745098e+01   4.9292742518e+01     0.270378    0.2127236 -28.41 0.0004773316    1.291    0.225
       471  -8.5240     45.0484     44.8677   1.1358496882e+02   6.3345711666e+01    0.2173057    0.1577019 -45.47 0.0006403594    1.247    0.198
       472  -8.9859     16.5272     44.8441   1.2585971099e+02   6.6021920477e+01    0.2004756    0.1720967 -86.90 0.0008625878    1.506    0.336
       473  -9.0490    133.0040     43.5148   8.4367177794e+01   4.7028847060e+01    0.2806551    0.1989531 -50.75 0.0009260429    1.598    0.374
       474  -8.7194     92.3973     42.6280   9.5216615204e+01   5.6213354328e+01    0.3366551    0.1313125 -31.06  0.001239889    2.792    0.642
       475  -9.0519     58.0091     42.3177   1.0737971388e+02   6.2128900165e+01    0.4281851     0.171389 -50.54  0.001686014    2.846    0.649
       476  -9.4153     69.5100     41.5728   1.0268584949e+02   6.0510256683e+01    0.3860376    0.2388222 -55.61  0.001229097    2.202    0.546
       477  -9.4466      5.2443     42.0302   1.3009185948e+02   6.7277004709e+01    0.3311914    0.1838155 -78.38  0.001642219    2.333    0.571
       478  -8.9109    105.9232     41.5952   9.0718605327e+01   5.3575742158e+01    0.2645123    0.1996065 -40.00 0.0005600668    1.382    0.277
       479  -8.0011    140.4461     41.5243   8.1976880570e+01   4.5478201760e+01    0.1454623    0.1414288  71.18   0.00018114    1.048    0.046
       480  -8.4089     36.7856     40.9696   1.1568487781e+02   6.5004879323e+01    0.2142281    0.1608304 -58.78 0.0008017638    1.506    0.336
       481  -8.6540     95.3228     37.8790   9.2430943705e+01   5.6369619297e+01    0.2534474    0.2008945 -52.38  0.001126055    1.528    0.345
       482  -8.1671     80.5196     36.9895   9.6904651470e+01   5.9367482350e+01    0.2024211    0.1250643 -35.76  0.000504374    1.562    0.360
       483  -9.4495     26.2023     35.4691   1.1842492673e+02   6.7067642653e+01    0.3149794    0.1902087 -60.30 0.0009119652    1.863    0.463
       484  -8.0529    133.2673     35.9888   8.1621961621e+01   4.8030336853e+01    0.1829793    0.1275258 -28.41  0.000694832    1.495    0.331
       485  -8.1552    125.8903     35.5224   8.3169105484e+01   4.9887271140e+01    0.2108954    0.1371418  55.99 0.0004040912    1.480    0.324
       486  -8.6282    218.5291    247.4215   1.1395239167e+02  -6.1520735471e+00    0.2698853    0.1103728 -37.68  0.001350377    2.970    0.663
       487  -8.8344    119.1710     33.1046   8.3909430619e+01   5.1808953243e+01    0.2983845    0.1656476 -44.17 0.0006497758    2.044    0.511
       488  -8.1192     88.5403     34.5139   9.3216300383e+01   5.8230658216e+01    0.1355753    0.1242236   1.54 2.711312e-05    1.032    0.031
       489  -8.8826     48.5422     33.5467   1.0776142371e+02   6.4951600532e+01     0.219679    0.1894285 -34.39 0.0005754751    1.187    0.158
       490  -8.8493     60.5179     32.6416   1.0248113538e+02   6.3409337748e+01    0.2063189    0.1732014 -47.23 0.0005669791    1.413    0.292
       491  -8.3693    139.4901     32.1689   7.8902818260e+01   4.6987778042e+01    0.2274612    0.1939286 -75.37  0.001212048    1.336    0.252
       492  -8.8958     72.0932     30.9520   9.7368241697e+01   6.1795809768e+01    0.2710635    0.1965687 -46.94 0.0008404611    1.627    0.385
       493  -8.0828    191.4957    249.5283   1.1894870293e+02  -2.2544987166e+00    0.1176954   0.09143602  37.83 0.0008080063    1.101    0.092
       494  -8.1417     42.1581     30.3913   1.0921716336e+02   6.6292517079e+01    0.1522237    0.1120095  39.34 0.0004645028    1.675    0.403
       495  -8.8457     81.4598     27.6016   9.2647848356e+01   6.0592956444e+01    0.2568654    0.2124838 -53.23 0.0008374485    1.568    0.362
       496  -8.6339      3.5561     27.7280   1.2665112820e+02   7.0144078063e+01    0.2035559    0.1614153  88.14 0.0007352718    1.880    0.468
       497  -7.9805     71.6561     35.7034   9.9524342987e+01   6.1128659294e+01    0.1372856    0.0953358   3.56 0.0004299118    1.668    0.401
       498  -8.9340     91.6376     26.2725   8.8806276359e+01   5.8774114733e+01    0.3292869    0.1938324 -38.97 0.0008463135    1.819    0.450
       499  -8.1169    104.4911     22.9600   8.3717105247e+01   5.6457063449e+01    0.1981674    0.1321257 -25.41 0.0005127196    1.534    0.348
       500  -8.1231     34.6744     23.1186   1.0951016924e+02   6.8378588364e+01    0.1735568    0.1385759 -49.86  0.000857071    1.516    0.340
       501  -9.0078     63.5246     21.1287   9.6214481627e+01   6.4668789810e+01    0.2815726    0.1996747 -47.11 0.0009212839    1.794    0.443
       502  -8.8894     48.3755     21.8152   1.0272774137e+02   6.6864907879e+01    0.2219726    0.1833836 -24.06 0.0006253117    1.138    0.121
       503  -8.3046     19.5332     21.4998   1.1622207913e+02   7.0151993822e+01    0.1872467    0.1011292 -56.73 0.0007192328    2.148    0.534
       504  -7.7144    120.4371     21.2304   7.9043452764e+01   5.2988383029e+01    0.1927201    0.1254129 -38.87 0.0009440734    1.674    0.403
       505  -8.9595    175.9897    247.9564   1.2149008617e+02   4.0007573252e-01    0.2684969    0.1926759  71.16  0.001613865    2.119    0.528
       506  -8.5332    101.6366     29.4977   8.7181563761e+01   5.6244058479e+01    0.2275081    0.1577567 -48.50 0.0007190849    1.753    0.430
       507  -8.0665     87.8095     17.7568   8.6292446320e+01   6.0625129419e+01      0.16603    0.1545179 -47.88 0.0004791363    1.336    0.252
       508  -7.7758     38.8121     18.6038   1.0552090760e+02   6.8604276151e+01    0.1440985    0.1088342  35.81 0.0007253024    1.584    0.369
       509  -7.7784    112.7704     17.0531   7.9198333773e+01   5.5258258976e+01    0.1676832    0.1121044 -23.65 0.0003861288    1.565    0.361
       510  -8.0242     29.8430     16.0175   1.0860104621e+02   7.0045372506e+01    0.1668262    0.1268018 -56.90 0.0006217491    1.929    0.482
       511  -8.0965      1.9897     16.5113   1.2348388116e+02   7.2271410218e+01    0.1281868   0.08443759  44.69 0.0008092147    2.467    0.595
       512  -8.0626      7.4155     15.2647   1.2000858243e+02   7.2149621377e+01    0.1471971   0.09261323 -56.41 0.0009430854    1.671    0.402
       513  -8.5394    156.2307    248.2107   1.2507574612e+02   3.5268642998e+00    0.2191646    0.1400067  68.23 0.0007710857    2.202    0.546
       514  -7.6435     83.3289     10.6759   8.4463703653e+01   6.2329438074e+01    0.1211505    0.1020499 -63.08 0.0007049783    1.698    0.411
       515  -8.3218    113.4053    248.7520   1.3286222606e+02   1.0161552013e+01    0.1847294    0.1103018 -72.69  0.001110505    2.115    0.527
       516  -9.1365    103.9981    247.1045   1.3438793440e+02   1.1838849209e+01    0.3216521    0.1762336 -89.82  0.001679331    2.646    0.622
       517  -8.8464    242.8541    246.7511   1.0976899472e+02  -9.6086715517e+00     0.280292    0.1296909 -26.55   0.00160308    2.397    0.583
       518  -8.8427    232.7339    247.1290   1.1150513272e+02  -8.2093348555e+00     0.200937    0.1726707 -29.69 0.0008572837    1.582    0.368
       519  -7.7836    119.5300     11.4895   7.5438851097e+01   5.4240024003e+01    0.1357808    0.1241275  44.71 -8.53522e-07    1.028    0.027
       520  -8.1630    201.6417    248.7170   1.1705770187e+02  -3.7329200900e+00     0.120202   0.07425454  19.64 0.0003172433    1.671    0.402
       521  -8.5890    131.9722    247.8673   1.2942435345e+02   7.4307078513e+00    0.1813276    0.1558912  74.47 0.0006229844    1.254    0.203
       522 -10.0412    224.1236    244.6726   1.1258812007e+02  -6.6761964477e+00    0.3954187    0.2238483 -43.47  0.002237837    2.500    0.600
       523  -9.1559    147.2408    246.4191   1.2648799164e+02   5.2247932596e+00    0.2605213    0.1575429  64.04  0.001445853    2.038    0.509
       524  -8.3959     13.5130    247.4716   1.4971392304e+02   2.3264098556e+01    0.1023341   0.06920362  68.70 0.0001035425    1.034    0.033
       525  -9.0500    120.3533    245.4311   1.3126916701e+02   9.6218922215e+00    0.3112501    0.1803645  69.64  0.001601433    2.122    0.529
       526  -8.6166     67.7334    245.4978   1.4065291532e+02   1.7222073594e+01    0.2122789    0.1125269  87.04  0.001004791    2.038    0.509
       527  -8.1025     50.6767    245.0396   1.4354183729e+02   1.9482298934e+01    0.1773721     0.064762  81.39 0.0007040915    4.486    0.777
