#   1 NUMBER                 Running object number                                     
#   2 MAG_AUTO               Kron-like elliptical aperture magnitude                    [mag]
#   3 X_IMAGE                Object position along x                                    [pixel]
#   4 Y_IMAGE                Object position along y                                    [pixel]
#   5 X_WORLD                Barycenter position along world x axis                     [deg]
#   6 Y_WORLD                Barycenter position along world y axis                     [deg]
#   7 A_WORLD                Profile RMS along major axis (world units)                 [deg]
#   8 B_WORLD                Profile RMS along minor axis (world units)                 [deg]
#   9 THETA_WORLD            Position angle (CCW/world-x)                               [deg]
#  10 FWHM_WORLD             FWHM assuming a gaussian core                              [deg]
#  11 ELONGATION             A_IMAGE/B_IMAGE                                           
#  12 ELLIPTICITY            1 - B_IMAGE/A_IMAGE                                       
         1 -14.0481    212.9816     10.2117   3.9236578980e+01   3.0365820053e+01     2.564363     1.524956  33.46   0.01199562    2.580    0.612
         2 -13.2965    174.3837     54.3209   5.6804413812e+01   3.4455060838e+01     1.948072     1.204578  24.21  0.005948009    2.437    0.590
         3 -13.3888    189.5952     40.5056   5.0208105686e+01   3.2554580906e+01     1.015552    0.9210005 -23.55  0.003553977    1.196    0.164
         4 -12.5847    194.3880     34.4933   4.7820149099e+01   3.2131732967e+01    0.5466312    0.5143452  30.20  0.001428585    1.207    0.171
         5 -10.1550     54.5167      6.0211   7.0297798247e+01   6.7430026207e+01    0.1585347   0.09698611 -45.20 0.0008100799    2.523    0.604
         6 -10.5982    245.9991      2.0063   3.4663870769e+01   2.3651627817e+01    0.4167919    0.1498836  75.91  0.001865622    2.671    0.626
         7  -9.6670     55.6328    223.3248   1.2030416434e+02   2.1245860224e+01    0.1248049    0.1028611  79.08 0.0002436158    1.117    0.105
         8 -12.2555    249.2564    221.7916   8.2378111627e+01  -8.7196301152e+00     1.006244    0.1914805 -32.50  0.003292135    5.627    0.822
         9 -12.8183    247.5583    246.4253   8.6832016217e+01  -1.1329366258e+01     1.085211    0.5047669 -30.71  0.006248166    2.259    0.557
        10 -19.5080     23.8213    146.8899   1.2011589676e+02   4.1460389653e+01     19.31029     4.910004 -74.97   0.06741176    3.730    0.732
        11  -9.8572    160.5021    205.4945   9.6583927941e+01   8.3093713399e+00    0.2222985    0.1264264 -33.97 0.0009173873    2.201    0.546
        12 -10.3118     67.1700    205.0131   1.1635645577e+02   2.3442520347e+01    0.2921265    0.1843421 -49.99  0.001149449    2.021    0.505
        13  -9.6606     44.0056    205.5253   1.2111123498e+02   2.6234486347e+01    0.1525799    0.1187688  79.48  0.001033111    1.042    0.040
        14 -10.2704     96.4190    202.1809   1.0983710839e+02   1.9812829367e+01    0.4961207    0.3511994 -27.53  0.002519872    2.359    0.576
        15 -10.5413     57.7625    201.5031   1.1795936293e+02   2.5404051519e+01    0.2461446    0.1858388 -42.04  0.001482824    1.910    0.477
        16 -10.9931    193.1078    195.2720   8.8036871055e+01   4.2118726538e+00    0.9889748    0.5541505 -63.73   0.00334425    4.876    0.795
        17 -11.3571     60.2205    195.1300   1.1680904580e+02   2.6451254440e+01    0.3398706    0.2712247 -45.94  0.001578404    1.658    0.397
        18  -9.7386     82.0466    195.0350   1.1207296798e+02   2.3478783162e+01    0.1928939    0.1696955  76.14 0.0004597092    1.042    0.040
        19  -9.2714     44.5606    195.4143   1.2013379284e+02   2.8305070202e+01    0.1242914   0.09466191  73.88 0.0003043634    1.077    0.072
        20  99.0000     43.7509    221.2790   1.2238253045e+02   2.3086456227e+01    0.1987061    0.1512235  33.91  0.001355806    1.604    0.377
        21 -11.7143    149.6505    188.1782   9.5954783592e+01   1.3538472282e+01    0.4725217    0.3592923 -89.26   0.00163027    1.845    0.458
        22  -9.0655     72.0204    202.1028   1.1503862057e+02   2.3394453576e+01    0.3063117     0.166915  83.27   0.00146563    2.241    0.554
        23 -10.1383    238.4797    185.4895   7.7448449144e+01  -2.1485493407e+00    0.1336302    0.1108914  -0.25 0.0002201944    1.002    0.002
        24  -9.5620    133.3286    185.6704   9.9175213422e+01   1.7038678023e+01    0.1470546    0.1069381  72.53 0.0005459596    1.711    0.415
        25 -10.7557    150.1964    178.3860   9.4047254844e+01   1.5397553156e+01    0.4061548    0.2545532 -68.13   0.00140151    2.326    0.570
        26 -11.7713    144.0474    178.3923   9.5445280693e+01   1.6562474481e+01    0.5038856    0.3142242 -55.51  0.001688816    1.780    0.438
        27 -11.1770    139.8510    172.0791   9.5233799057e+01   1.8680175417e+01    0.4326792     0.305614  51.51  0.001201125    1.416    0.294
        28 -10.3464    188.4993    176.6786   8.5356717767e+01   8.3282022683e+00    0.3752511    0.3673047 -45.85  0.001645975    1.198    0.165
        29  -8.8936    194.4939    172.0015   8.3150555732e+01   8.0183937741e+00    0.2125638     0.139623 -37.35 0.0008212177    1.548    0.354
        30  -9.3072    163.6736    217.3366   9.7837260990e+01   5.7021483745e+00    0.1305345   0.09902466  66.97 0.0007051628    1.723    0.420
        31 -10.9892    229.8677    171.4582   7.6139939774e+01   1.4962252217e+00    0.3370777    0.1823024  22.69  0.001452724    2.307    0.566
        32 -10.6098    240.1523    169.1626   7.3808037451e+01   5.2313675898e-02    0.1709344    0.1609495 -34.31 0.0004078792    1.334    0.250
        33  -9.0777    187.8873    163.5636   8.2743505722e+01   1.0884175621e+01    0.2914894    0.1928184 -56.29 0.0009704779    1.951    0.487
        34  99.0000     50.0561    216.5808   1.2082586539e+02   2.3262527551e+01    0.3184668    0.2276012  -5.83  0.001680212    3.288    0.696
        35  -9.4698    184.7300    212.6210   9.2820520415e+01   2.8412003670e+00    0.2351565    0.2269311  83.28  0.001524672    1.351    0.260
        36 -10.9946     91.0514    157.5885   1.0453418116e+02   3.0598804271e+01     0.274282    0.2607471 -55.02 0.0004045723    1.149    0.129
        37 -11.8525     96.9243    151.1191   1.0188047132e+02   3.1179219397e+01    0.6334801    0.5011014 -29.63  0.003235718    1.575    0.365
        38 -11.0147    133.8611    145.5514   9.1280699425e+01   2.5684602174e+01     1.287024    0.3285758 -54.39  0.003039076    5.712    0.825
        39  -9.7106    113.4388    151.4020   9.7678486458e+01   2.8240081017e+01    0.3515936    0.2247465  79.27  0.001387687    2.493    0.599
        40  -9.5044    174.6658    149.1031   8.2410200142e+01   1.6443972290e+01    0.2584113    0.2149723  56.33 0.0008194405    1.316    0.240
        41 -11.4745    108.2161    137.7448   9.6240855657e+01   3.2401809261e+01     1.084154    0.4363605 -50.34  0.003920163    2.396    0.583
        42 -10.9610    105.7970    130.9630   9.5421475774e+01   3.4452260659e+01    0.4867234    0.3765322 -40.53  0.002396963    1.341    0.254
        43  -9.6881     55.9191    217.1802   1.1974172150e+02   2.2419203369e+01    0.2341843    0.1083646  76.89  0.001081786    2.670    0.626
        44  -9.8917    188.0639    152.3177   8.0227159123e+01   1.2998204133e+01    0.2974133    0.2240997 -47.90   0.00144757    1.426    0.299
        45 -11.8048     96.4876    137.1329   9.9283892872e+01   3.4600771621e+01    0.3365017    0.2911337 -79.14 0.0005277063    1.162    0.139
        46 -10.1576    135.7231    128.8782   8.6960959317e+01   2.9076845258e+01     0.382288    0.1839049 -50.10  0.001409525    2.118    0.528
        47  -9.3946    160.4966    128.4536   8.0743367438e+01   2.3812597586e+01     0.337692    0.1545019 -43.31  0.001212709    2.173    0.540
        48 -10.4681    102.8442    124.4654   9.4773200879e+01   3.6532637060e+01    0.3063542    0.2605187  -8.08 0.0008662519    1.425    0.298
        49 -10.1449    120.4252    122.9633   8.9556706670e+01   3.3556159853e+01    0.4254642    0.2809463 -18.06  0.001472215    2.369    0.578
        50 -10.2649    115.1354    128.8053   9.2383546253e+01   3.3225148718e+01    0.3475588    0.2846635 -14.74 0.0005734759    1.502    0.334
        51  -9.4442    110.2204    118.0586   9.1170695702e+01   3.6684841479e+01    0.2376359     0.218413  40.02 0.0003401897    1.130    0.115
        52 -10.0161    231.2469    113.7765   6.2840786495e+01   1.0940473188e+01    0.2715825     0.253385  23.69  0.000752213    1.144    0.126
        53  -9.6738    167.4697    112.2509   7.4943060874e+01   2.5612628889e+01    0.3373947    0.2488912 -73.99  0.001158867    1.895    0.472
        54  -9.9574    134.5791    106.2874   8.1415654708e+01   3.4357781535e+01    0.4500497    0.1471118 -49.11   0.00129986    3.369    0.703
        55 -11.2234    118.7304    110.8284   8.6943208326e+01   3.6687563434e+01    0.5551863    0.3850149  62.94  0.002391534    1.826    0.453
        56  -9.5389    205.6186    110.1370   6.6460625666e+01   1.7186392426e+01    0.2784062    0.2220938  41.26 0.0006317529    1.316    0.240
        57  -9.3978    130.4669     96.4517   7.9740285105e+01   3.7385017556e+01    0.3803571    0.1546959  50.88  0.001145165    2.742    0.635
        58  -9.3478    181.5213     81.5052   6.3407880748e+01   2.8143361463e+01    0.1536711    0.1510992 -36.73 0.0004070891    1.009    0.009
        59  -8.5141    184.3317     77.3289   6.1673018288e+01   2.8181470056e+01    0.1604459    0.1208123  17.69  0.000705174    1.717    0.417
        60  -9.0746     70.2625     72.2411   9.1109552620e+01   5.3916099509e+01    0.1748452     0.162439 -75.12 0.0003431606    1.302    0.232
        61  -8.8137     75.6501    247.2063   1.1855298612e+02   1.4239463046e+01    0.1179741   0.09889781 -78.93 0.0003932478    1.368    0.269
        62 -10.1985     71.9384    244.9102   1.1903365355e+02   1.5136356522e+01    0.1900415    0.1408628 -65.47  0.001008563    1.605    0.377
        63 -10.2742     58.7728    229.3633   1.2019865010e+02   1.9690851496e+01    0.1650162    0.1243503  81.27 0.0003159034    1.160    0.138
        64 -11.1784     50.3994    224.7519   1.2140055261e+02   2.1615404832e+01    0.2128584    0.1279693  78.47   0.00106739    1.517    0.341
        65  -9.7801     61.4152    219.8503   1.1890427587e+02   2.1190891147e+01    0.1484781   0.09903494 -58.51 0.0007434847    1.767    0.434
        66 -10.4052    189.9295     14.9901   4.2961336378e+01   3.5549703794e+01     0.215487    0.1930497 -85.77 0.0007409407    1.022    0.022
        67  -9.5381     64.9503    223.7126   1.1855841022e+02   1.9976650552e+01    0.1498846    0.1115123  76.94 0.0005649858    1.161    0.139
