#   1 NUMBER                 Running object number                                     
#   2 MAG_AUTO               Kron-like elliptical aperture magnitude                    [mag]
#   3 X_IMAGE                Object position along x                                    [pixel]
#   4 Y_IMAGE                Object position along y                                    [pixel]
#   5 X_WORLD                Barycenter position along world x axis                     [deg]
#   6 Y_WORLD                Barycenter position along world y axis                     [deg]
#   7 A_WORLD                Profile RMS along major axis (world units)                 [deg]
#   8 B_WORLD                Profile RMS along minor axis (world units)                 [deg]
#   9 THETA_WORLD            Position angle (CCW/world-x)                               [deg]
#  10 FWHM_WORLD             FWHM assuming a gaussian core                              [deg]
#  11 ELONGATION             A_IMAGE/B_IMAGE                                           
#  12 ELLIPTICITY            1 - B_IMAGE/A_IMAGE                                       
         1 -13.8791      3.4860     10.7005   1.3260653788e+02   7.4220090909e+01     3.479601    0.7614471 -64.29   0.01213783    3.903    0.744
         2 -14.0627    199.7682     10.0465   6.7769474126e+01   3.3604640198e+01     1.949339     1.163263  40.69  0.009320995    1.874    0.466
         3 -13.3793    187.9034     27.5615   7.4613842467e+01   3.4783082098e+01     1.207093     1.139027  38.42  0.006087974    1.092    0.084
         4 -10.9528    197.3330    243.2912   1.2144003988e+02   3.3786649164e+00    0.3486144    0.2358391 -60.43  0.001983044    4.367    0.771
         5 -11.5041    141.1985    249.9323   1.3170864961e+02   9.6442072715e+00    0.4019551    0.1389892  36.40  0.002206215    2.092    0.522
         6 -11.0892     66.9337    243.3505   1.4411826176e+02   1.9085508411e+01    0.3517897    0.2157608  64.64  0.001814012    1.577    0.366
         7 -10.3320     67.1388    250.3297   1.4448853560e+02   1.8073874231e+01    0.1818729    0.1278281  44.94 0.0008876579    1.039    0.038
         8  -9.4354     63.6652    250.7222   1.4509750413e+02   1.8376604257e+01    0.1568108   0.07871057  32.70 0.0005048534    1.662    0.398
         9 -10.6916     46.3601    248.5164   1.4789135075e+02   2.0405454825e+01      0.26765    0.1389929  62.32 0.0009016033    1.699    0.412
        10 -11.3260     29.2805    249.5471   1.5074638927e+02   2.1837952861e+01    0.3223168    0.1756676  45.67  0.002556366    1.277    0.217
        11 -11.7042     35.3742    244.4685   1.4955232869e+02   2.2025894167e+01    0.4229952    0.3507869 -35.80  0.003682584    1.970    0.492
        12  -9.9079     29.4108    242.4959   1.5047100209e+02   2.2858393163e+01    0.2643683    0.1591339  53.97  0.001222826    1.200    0.167
        13 -15.3675      4.7175    238.7430   1.5441963579e+02   2.5501166587e+01     10.71202    0.8187834 -78.35    0.0394332    9.023    0.889
        14  -9.9711     76.8592    245.0753   1.4250149505e+02   1.7783268057e+01    0.1607046    0.1001128  52.07  0.001012733    1.306    0.234
        15 -10.5801     81.6252    248.8410   1.4192330665e+02   1.6740956143e+01    0.2401932    0.1238582  47.73 0.0009390326    1.497    0.332
        16 -10.6406     95.1843    241.1301   1.3899860898e+02   1.6292880354e+01    0.2166798    0.1623144 -46.40   0.00150156    1.815    0.449
        17  -9.6874    183.4669    238.5103   1.2316785727e+02   5.6335944351e+00    0.1095291    0.0780703  21.39 9.957552e-06    1.048    0.046
        18  -9.2786    172.4443    238.5089   1.2506005097e+02   7.0481361647e+00    0.1081728   0.07974418  25.69 5.859139e-05    1.019    0.018
        19 -10.4818    232.9490    235.6992   1.1467315610e+02  -2.7482575616e-01    0.2000966    0.1403429 -40.17  0.001412563    2.542    0.607
        20 -10.5350     34.7336    229.7071   1.4904443408e+02   2.4332248685e+01    0.2373673    0.1380237  50.98  0.000983992    1.271    0.213
        21  -9.0530     36.6700    226.3152   1.4854842133e+02   2.4690580585e+01     0.160695   0.08712728  89.70 0.0005048399    1.922    0.480
        22 -14.7361     58.6036    212.8912   1.4371439979e+02   2.4717092719e+01     9.540895     2.429302  50.92   0.04062037    3.693    0.729
        23 -10.5215     82.7686    243.7984   1.4138515343e+02   1.7318209694e+01    0.3903948    0.1470413  59.66  0.001825955    4.009    0.751
        24 -12.6868     45.7383    233.6371   1.4729216381e+02   2.2677599282e+01    0.3032748    0.2441346  58.05 0.0007770833    1.103    0.094
        25 -11.1121    173.2673    221.8008   1.2280601471e+02   8.9186887316e+00    0.3298405    0.2748901  53.82   0.00240738    1.661    0.398
        26  -9.5233     27.5521    221.4960   1.4997036086e+02   2.6301705031e+01    0.1746183    0.1182259  49.25 0.0006181904    1.125    0.111
        27 -13.9414     51.9788    224.0998   1.4566018404e+02   2.3558908075e+01    0.9264508    0.6357258  67.00  0.005920286    1.308    0.235
        28  -8.7167    152.4811    212.9099   1.2547327137e+02   1.2941830175e+01    0.1362972    0.1137143 -34.93 0.0003432062    1.444    0.307
        29 -11.9032     30.9192    205.0457   1.4859642738e+02   2.8788555818e+01     0.260072    0.1516571  46.32 0.0005493296    1.351    0.260
        30 -11.1612     24.6463    202.1351   1.4966729777e+02   2.9860615050e+01    0.2701422    0.2305061 -14.83  0.002141596    1.786    0.440
        31 -11.4264     69.5823    198.7840   1.4046113062e+02   2.5956911838e+01    0.2998736    0.2103013 -45.15  0.001788299    1.880    0.468
        32  -9.2238     66.2767    195.4614   1.4086539723e+02   2.6925155075e+01    0.1976767     0.142645  55.28  0.000677884    1.191    0.161
        33 -10.1806    192.9494    195.0963   1.1529045083e+02   9.4933205292e+00    0.5372875    0.2848453 -56.96  0.001792149    7.633    0.869
        34 -11.6438     74.5804    191.0689   1.3873027425e+02   2.6770495752e+01    0.2289728    0.2142855 -25.95 0.0008101142    1.356    0.263
        35  -9.2689    106.3782    181.9572   1.3084360049e+02   2.4357952843e+01     0.186517    0.1411076  46.06 0.0004688528    1.192    0.161
        36 -10.9850     83.3410    178.4472   1.3552311983e+02   2.8063696876e+01    0.2043229    0.2004722  88.28 0.0004273754    1.151    0.131
        37 -13.2194     70.9500    176.2226   1.3806991767e+02   3.0007586732e+01    0.4274543    0.2547551 -41.53  0.001742772    2.296    0.564
        38  -9.1714    172.8064    174.5222   1.1566053061e+02   1.5479137156e+01    0.1793402    0.1701854  36.91 0.0006192938    1.311    0.237
        39  -9.8768    152.2565    248.5666   1.2966977478e+02   8.4420873684e+00    0.1501819   0.07648492  28.33 0.0005896309    1.589    0.371
        40 -12.0642     89.8833    168.6073   1.3285291446e+02   2.9123975866e+01     1.021897    0.5028331  49.57  0.004989679    2.036    0.509
        41 -10.3312    194.3500    158.1551   1.0837784108e+02   1.4348629696e+01    0.2879852     0.241069 -61.54  0.001191593    1.930    0.482
        42  -9.8950    101.5672    152.3961   1.2775340233e+02   3.0739242871e+01    0.3049746    0.2517689 -20.27 0.0008695966    1.463    0.317
        43  -9.2541    104.1673    148.0637   1.2641101036e+02   3.1238514074e+01    0.2043961    0.1725394 -19.62 0.0008084343    1.389    0.280
        44 -12.0402     90.4375    151.9447   1.3043187019e+02   3.2425753546e+01    0.2559364    0.2338473 -10.21 0.0005699083    1.269    0.212
        45 -13.0860     64.9658    140.9432   1.3541934271e+02   3.8099716413e+01     1.929156    0.9146298  80.50   0.00394111    4.399    0.773
        46 -10.6834    175.0404    138.4454   1.0812415865e+02   2.0841164140e+01    0.4942454    0.3515912  79.98  0.002061835    3.259    0.693
        47 -10.0141    169.4839    133.3094   1.0816203528e+02   2.2743618734e+01    0.2383702    0.2256988  47.41 0.0008578224    1.264    0.209
        48  -8.5974    192.0144    143.9930   1.0590981305e+02   1.6867115359e+01    0.1628082    0.1369618  -6.51 0.0004016173    1.075    0.070
        49  -9.2938     89.6307    138.4727   1.2853350082e+02   3.5407204735e+01    0.2284969    0.1598777  52.48 0.0005661345    1.473    0.321
        50  -9.7486    111.6257    137.2121   1.2261382777e+02   3.2317070063e+01    0.3319017     0.215473 -20.99   0.00131964    2.291    0.563
        51 -10.6101     99.3763    134.7343   1.2532319254e+02   3.4771805870e+01    0.2643193    0.2170827 -29.02 0.0003670904    1.381    0.276
        52  -8.6205    117.2793    129.3918   1.1962622557e+02   3.3005245043e+01    0.1459037    0.1067834 -17.25 0.0006998163    1.744    0.426
        53 -12.4906     30.4550    145.0143   1.4483418685e+02   4.0736189374e+01    0.4571799     0.279341  37.36   0.00274637    1.603    0.376
        54  -9.2725    108.3342    124.0839   1.2087601856e+02   3.5633986881e+01    0.1839743    0.1707805 -55.46 0.0003136241    1.093    0.085
        55  -9.9259    151.0201    117.1808   1.0853202244e+02   2.9204931011e+01    0.5082367    0.3243638  75.81  0.001744913    3.975    0.748
        56 -10.6874    168.0515    113.2565   1.0371831058e+02   2.6507783534e+01    0.3486375    0.3018884 -71.94  0.001061111    1.592    0.372
        57  -8.9516    203.4854    111.4946   9.6238167814e+01   1.9640862210e+01     0.145489    0.1226507  -0.55 3.380941e-05    1.048    0.046
        58 -14.1870     11.1006    207.3405   1.5243203834e+02   3.0077647099e+01     2.119107    0.8086941  89.86   0.01239072    2.541    0.606
        59  -9.4285    130.0282    102.0238   1.0989155447e+02   3.6324326228e+01     0.215758    0.2123727  13.33 0.0003056635    1.078    0.072
        60  -8.9445    126.6318     99.8494   1.1021245398e+02   3.7437841862e+01    0.2306953    0.2063424 -85.85 0.0003324937    1.379    0.275
        61  -8.8166    184.4762     77.4429   9.0603525291e+01   2.8909074622e+01    0.1509471     0.135988  -3.37 0.0001154358    1.025    0.024
        62  -9.3450    154.5400     75.5044   9.6181086215e+01   3.6093612791e+01    0.1544152    0.1435718  -9.40 0.0001330867    1.011    0.011
        63  -9.9624     23.9373     68.8563   1.3737503382e+02   5.9354778960e+01     0.216069    0.1811231  30.61 0.0004963101    1.406    0.289
        64  -9.8511    249.2260    249.6091   1.1411541260e+02  -3.3367419488e+00    0.1467131   0.06369878  25.04 0.0007449529    1.680    0.405
        65  -9.9036    162.0059    248.9872   1.2804847689e+02   7.1836930932e+00     0.161221    0.1036596  11.50 0.0005488815    1.650    0.394
