#   1 NUMBER                 Running object number                                     
#   2 MAG_AUTO               Kron-like elliptical aperture magnitude                    [mag]
#   3 X_IMAGE                Object position along x                                    [pixel]
#   4 Y_IMAGE                Object position along y                                    [pixel]
#   5 X_WORLD                Barycenter position along world x axis                     [deg]
#   6 Y_WORLD                Barycenter position along world y axis                     [deg]
#   7 A_WORLD                Profile RMS along major axis (world units)                 [deg]
#   8 B_WORLD                Profile RMS along minor axis (world units)                 [deg]
#   9 THETA_WORLD            Position angle (CCW/world-x)                               [deg]
#  10 FWHM_WORLD             FWHM assuming a gaussian core                              [deg]
#  11 ELONGATION             A_IMAGE/B_IMAGE                                           
#  12 ELLIPTICITY            1 - B_IMAGE/A_IMAGE                                       
         1 -15.4589      2.9370    114.1351   1.3308753842e+02   5.1727437595e+01     4.567478    0.6744252 -64.19   0.01521377    4.024    0.752
         2 -14.1616    111.3000     56.7551   8.3622945427e+01   4.8528830133e+01     1.359041     1.107117 -20.90  0.006360934    1.321    0.243
         3 -12.9810    138.1127     19.7260   6.6753740321e+01   4.7233304353e+01    0.6530028    0.5922906  -9.79  0.004414851    1.324    0.245
         4 -10.5639     66.3475      1.9074   7.6971384306e+01   6.3419519932e+01     0.246222    0.1060947  38.62  0.001316869    1.923    0.480
         5 -13.8492    142.5615    213.0301   1.1299824018e+02   8.5715069127e+00    0.5880788    0.5774059  55.15  0.002189574    1.033    0.032
         6 -15.4741    136.2542    217.7139   1.1519313225e+02   8.6929252934e+00     1.509486      1.14749 -54.25  0.007977855    1.387    0.279
         7 -15.7185    117.7390    214.3542   1.1882873736e+02   1.2673266536e+01     2.992761     1.813164 -27.14   0.01179542    2.996    0.666
         8 -14.6957    103.3392    231.7904   1.2454959255e+02   1.1272071658e+01      1.54084     1.205908  70.90  0.007379688    1.262    0.208
         9 -16.0060     57.2557    219.4297   1.3298347207e+02   2.0953441328e+01     2.850082     1.404054 -63.93   0.01005173    1.917    0.478
        10 -13.5160     18.3575    248.5893   1.4312848041e+02   1.9431222121e+01    0.4060661    0.2384556  83.47  0.001935453    1.419    0.295
        11 -15.7299     12.8844    229.9658   1.4284462279e+02   2.3938846864e+01     2.183169    0.6124305 -76.50  0.007079041    3.203    0.688
        12 -12.6747      2.8483    198.7256   1.4247152202e+02   3.1880899626e+01     1.582111    0.3275877 -78.04  0.004918891    5.085    0.803
        13 -13.2331      2.2087    172.2516   1.4031931658e+02   3.8104849283e+01     4.199064          nan -65.91    0.0113983    6.203    0.839
        14 -14.7602      2.2651    127.6166   1.3523224124e+02   4.8657966912e+01     2.135484     1.034113 -79.33   0.01055621    1.998    0.499
        15 -11.9264    144.5372    245.2643   1.1767457127e+02   1.7333539910e+00    0.2695958    0.2103638  25.44  0.001380411    1.300    0.231
        16 -13.7197     32.5864    248.0060   1.4051683092e+02   1.7893010119e+01    0.5510783    0.3738194  82.19  0.003464122    1.218    0.179
        17 -11.7502    243.1327    190.9183   8.8314810670e+01  -4.5361070841e+00    0.3045103    0.2096986 -52.69   0.00165098    1.654    0.395
        18 -14.0130     81.8684    187.3751   1.2308154914e+02   2.5012037084e+01    0.6625392    0.6328302  88.64  0.003824577    1.096    0.088
        19 -14.6170    145.2448    170.7995   1.0439447990e+02   1.7600573134e+01     1.368152    0.7713653 -56.41  0.005186988    1.870    0.465
        20 -13.7504     72.1978    154.2688   1.1997024602e+02   3.4755265443e+01     1.010082    0.5972366 -58.88  0.004395403    1.542    0.351
        21 -13.0906     56.2928    174.5164   1.2750077592e+02   3.1891729857e+01     1.016855    0.5719984 -51.59  0.003488474    1.762    0.432
        22 -13.2326     63.4398    164.4146   1.2408824650e+02   3.3457845003e+01    0.7776263    0.5212374  58.71  0.002122845    1.648    0.393
        23 -13.1848     63.2068    156.2924   1.2277949617e+02   3.5529242735e+01    0.7459648    0.5139348 -61.11  0.003057356    1.304    0.233
        24 -13.5939    104.0045    243.5946   1.2593550148e+02   8.7018453071e+00    0.9095448    0.6303611  27.62  0.004473229    1.672    0.402
        25 -12.1088    248.7470    182.1400   8.5655927408e+01  -3.8522428993e+00    0.3833312    0.2645469 -31.24  0.002165412    1.277    0.217
        26 -10.5729     19.2541    168.9686   1.3596211191e+02   3.7420878766e+01    0.1873511    0.1458871 -75.93  0.000676565    1.050    0.048
        27 -13.4886     95.8284    158.1954   1.1433731646e+02   2.9987064447e+01    0.7829382    0.4017348  56.34  0.002896846    2.559    0.609
        28 -13.3304     77.0955    144.5914   1.1675051374e+02   3.6434444059e+01    0.7930824    0.3806965 -51.03  0.003228559    1.920    0.479
        29 -13.2587     90.8806    113.5446   1.0571919099e+02   4.1610184549e+01    0.9197503    0.6880779 -43.35  0.004114979    1.281    0.219
        30 -14.4974     87.9538    136.0364   1.1187692715e+02   3.6799775906e+01     1.190111    0.8339376 -36.30  0.003975498    1.560    0.359
        31 -13.9296     88.8517    122.7395   1.0857029337e+02   3.9834513895e+01     1.001523    0.7725214 -69.19  0.003821556    1.427    0.299
        32 -13.9037    115.7501    133.1464   1.0350724242e+02   3.2428694651e+01     1.174299    0.7866389  73.89  0.004712562    2.246    0.555
        33 -11.8895    105.4817    138.9692   1.0764213491e+02   3.2994951897e+01    0.3221985    0.2453353  42.06  0.001545748    1.363    0.267
        34 -12.7298     23.0944    130.6385   1.2973307932e+02   4.6371053638e+01    0.3240866    0.1929569 -56.03  0.001741434    1.383    0.277
        35 -12.3213    104.9351    114.2007   1.0182158671e+02   3.8895393684e+01    0.5477585    0.3891482 -38.59  0.002579637    1.426    0.299
        36 -12.0055     74.6542     91.3046   1.0483454146e+02   4.9140519449e+01    0.4674673    0.3756812 -25.41  0.002067766    1.230    0.187
        37 -11.3386     68.0133     79.5288   1.0364644805e+02   5.2523507331e+01    0.2632273    0.1945475 -59.79  0.001398481    1.650    0.394
        38 -11.0900     56.6359     75.1634   1.0624030392e+02   5.4997064178e+01    0.2856227    0.2085841 -29.17  0.001036157    1.272    0.214
        39 -12.1775    101.8187     72.8669   9.1145885769e+01   4.7832563672e+01    0.3458997     0.292471  89.12  0.001534268    1.582    0.368
        40 -11.3451    124.8183     70.3500   8.4290596155e+01   4.3474734993e+01    0.4278352    0.3456643 -72.16  0.002247156    1.526    0.345
        41 -11.9999    124.5257     65.0825   8.2819185450e+01   4.4402409958e+01    0.4797209    0.2813256  41.87  0.002221441    1.696    0.410
        42 -10.9223     82.6053     66.4864   9.4919850335e+01   5.2517792928e+01    0.3910507    0.2414209 -27.45  0.001927631    1.742    0.426
        43 -11.1109    238.4908    227.9622   9.6046571473e+01  -1.0050708881e+01    0.1914502    0.1100706 -36.53  0.001039795    1.611    0.379
        44 -11.7273     90.7601     54.0133   8.8423919003e+01   5.3037476373e+01    0.5632644    0.2916082 -38.06  0.002671763    2.014    0.504
        45 -11.9350     99.4717     36.0561   8.0078945002e+01   5.3775261883e+01    0.3971777    0.3210559  49.22  0.002452572    1.163    0.140
        46 -12.6822    133.6311     29.4304   7.0339914342e+01   4.7211743753e+01     1.047886    0.4138884  57.47   0.00458447    2.134    0.531
        47 -15.8480     35.7470    233.4958   1.3875140516e+02   2.0581306604e+01     2.468931     1.181859  85.94  0.009408188    2.268    0.559
