#   1 NUMBER                 Running object number                                     
#   2 MAG_AUTO               Kron-like elliptical aperture magnitude                    [mag]
#   3 X_IMAGE                Object position along x                                    [pixel]
#   4 Y_IMAGE                Object position along y                                    [pixel]
#   5 X_WORLD                Barycenter position along world x axis                     [deg]
#   6 Y_WORLD                Barycenter position along world y axis                     [deg]
#   7 A_WORLD                Profile RMS along major axis (world units)                 [deg]
#   8 B_WORLD                Profile RMS along minor axis (world units)                 [deg]
#   9 THETA_WORLD            Position angle (CCW/world-x)                               [deg]
#  10 FWHM_WORLD             FWHM assuming a gaussian core                              [deg]
#  11 ELONGATION             A_IMAGE/B_IMAGE                                           
#  12 ELLIPTICITY            1 - B_IMAGE/A_IMAGE                                       
         1 -14.8903      7.4122    146.0634   1.4347766948e+02   4.3687210482e+01     7.399177     2.678092 -85.33   0.03002366    3.317    0.698
         2 -12.3914      2.7917     48.6033   1.2837863657e+02   6.4546426253e+01    0.8946985    0.1200625 -56.55  0.003223765    4.502    0.778
         3 -13.2667    197.7299     27.7091   6.7986443947e+01   3.2631746414e+01     1.437082     1.290823  32.09  0.007224576    1.363    0.266
         4 -13.2097    212.4638      9.3053   6.1822460491e+01   3.1200599278e+01     0.938937    0.8099834  59.92  0.006101436    1.286    0.223
         5 -11.8944      2.1918     11.3750   1.1651953537e+02   7.0701222369e+01    0.5623449    0.2324867 -47.32  0.003294285    2.240    0.554
         6 -12.6590      2.2134      3.3932   1.1318975343e+02   7.1797116439e+01    0.8050933    0.7298808 -61.04  0.006533927    2.210    0.548
         7 -10.8320    128.4560    244.7524   1.3001361981e+02   6.4619183607e+00    0.2133418     0.175788  72.62  0.001061186    1.174    0.148
         8 -11.9248    246.8879    244.5764   1.0801614010e+02  -1.3065190968e+01    0.5200389    0.3069688  23.41  0.003091136    1.521    0.342
         9 -10.1034    112.2042    250.4795   1.3369574428e+02   8.1238235926e+00    0.2380803     0.105585  39.69 0.0007624967    2.117    0.528
        10 -11.8387     99.8862    247.5758   1.3561809141e+02   1.0586329764e+01    0.4155778    0.3977111  62.33  0.001841015    1.357    0.263
        11 -11.3560     34.7542    245.9581   1.4670749958e+02   1.9901272827e+01    0.5282137    0.3102439 -70.36  0.003534242    1.697    0.411
        12 -10.5811     29.2253    248.5038   1.4776075606e+02   2.0081887530e+01    0.3205912    0.1849299 -66.84  0.001982674    1.859    0.462
        13 -10.7679      2.6977    247.3828   1.5177377873e+02   2.3166001769e+01    0.3791257     0.168677 -83.23  0.001886147    1.804    0.446
        14  -9.8912     22.8714    245.3246   1.4856692601e+02   2.1395561506e+01    0.1796326   0.09588232  62.51 0.0009152399    1.444    0.307
        15 -11.9160     12.1326    240.9112   1.4999117537e+02   2.3385315028e+01    0.4412322    0.2045601  88.24  0.002626091    1.793    0.442
        16 -11.3726    140.8273    250.3451   1.2840507566e+02   3.4351426476e+00    0.5391485    0.1659466  38.66  0.002046132    3.172    0.685
        17  -9.1819    206.3190    242.3180   1.1495723006e+02  -6.4331747361e+00    0.1275331   0.08704956  11.57 0.0007041278    1.660    0.397
        18  -9.8244     19.0695    242.2310   1.4897916684e+02   2.2393449156e+01    0.1848353    0.0788435  62.37  0.001073887    1.916    0.478
        19 -10.4593      5.8358    240.9890   1.5096970014e+02   2.4021895761e+01     0.165999    0.1185174  66.52 0.0004012644    1.191    0.161
        20  -9.9940    183.0714    238.7069   1.1875998329e+02  -1.9487754494e+00    0.1866043    0.1444962  36.13 0.0004326112    1.104    0.094
        21 -11.5497    124.6864    249.7803   1.3132702649e+02   6.2175568130e+00    0.6111426    0.1624281  43.32  0.002341646    3.073    0.675
        22 -10.5462     50.2824    235.0150   1.4327720863e+02   2.0059834634e+01    0.2754326    0.2313848 -35.72  0.001855129    2.147    0.534
        23 -14.2436    101.1860    228.5563   1.3323540444e+02   1.3952133890e+01     10.10465     0.378496  47.05    0.0170575   15.528    0.936
        24 -11.6732     22.5261    126.7516   1.3738507946e+02   4.6857547370e+01    0.4304126    0.2618364  52.52  0.001576421    1.951    0.487
        25 -13.6864     38.2523    225.5404   1.4461774062e+02   2.3425417755e+01    0.7880908    0.5908203  67.94  0.002496489    1.121    0.108
        26  -9.3185    173.1732    222.6180   1.1811583119e+02   2.4644338713e+00    0.2053971    0.1142009  34.18 0.0009622914    1.778    0.438
        27  -8.5384    152.4965    213.0232   1.2072951084e+02   8.0244476876e+00    0.1791074    0.1374853 -54.46 -7.968702e-05    1.439    0.305
        28 -12.2759      9.5954    206.9118   1.4827653320e+02   3.0318231357e+01    0.6375992    0.4163126  35.65  0.003035362    1.929    0.481
        29 -11.3961     59.9353    198.7350   1.3796308578e+02   2.6304783879e+01     0.266241    0.2211662 -62.06 0.0005278647    1.375    0.272
        30  -9.3605    191.6427    192.5288   1.0898683263e+02   4.3906665409e+00    0.4315743    0.2249285 -62.16  0.001497256    3.720    0.731
        31 -11.9219     13.7998    196.2690   1.4673545357e+02   3.2130944286e+01    0.2859297    0.1788419  62.36 0.0008211843    1.426    0.299
        32 -10.4349    218.6194    248.7648   1.1374001837e+02  -9.3060378987e+00    0.1951735    0.1616932 -37.72  0.001318518    1.492    0.330
        33 -11.6663     66.3131    190.3953   1.3565313847e+02   2.7284355621e+01    0.2738327    0.2314084 -72.03 0.0004927932    1.198    0.165
        34 -12.9874     63.3458    175.5816   1.3438522363e+02   3.1056965772e+01    0.5193153    0.2769727 -46.61  0.002192223    2.318    0.569
        35 -10.5121     76.6742    177.5782   1.3166410433e+02   2.8719214430e+01    0.2396957    0.2096992 -77.90 0.0003458185    1.095    0.087
        36  -8.6668     97.3888    173.3409   1.2625348295e+02   2.6448144775e+01     0.272657    0.1235889 -54.24 0.0007074274    2.137    0.532
        37 -11.4610     84.2287    168.4442   1.2853023085e+02   2.9700704730e+01    0.5951147    0.5638281 -49.69  0.002201212    1.252    0.202
        38  -9.4965     54.9719    229.9680   1.4201845528e+02   2.0441052303e+01    0.2528171    0.1341389  59.12  0.001193123    1.613    0.380
        39  -9.6182     97.1140    152.4975   1.2261697143e+02   3.1375089469e+01    0.2714317    0.2641059 -74.35 0.0007168505    1.116    0.104
        40 -11.7215     85.6618    151.5666   1.2529966982e+02   3.3456911787e+01    0.3038125    0.2473689 -46.91 0.0006024516    1.301    0.231
        41  -8.8701    100.1114    148.1781   1.2102930756e+02   3.1884584454e+01    0.2080783    0.1944911 -35.02 0.0003178208    1.213    0.176
        42 -11.9792     67.4652    143.6727   1.2849152877e+02   3.7992498570e+01    0.6676261    0.4406143  68.65  0.002778972    1.821    0.451
        43  -9.5129    109.0496    137.4203   1.1651334518e+02   3.2825996224e+01     0.455568    0.2668888 -27.98  0.001364343    2.852    0.649
        44 -10.0831     96.1702    134.6711   1.1927225184e+02   3.5744074980e+01    0.2535257    0.2085236 -40.64 0.0004439795    1.276    0.217
        45 -10.6108     31.0676    131.3859   1.3585908607e+02   4.5041075610e+01    0.2892803    0.1971295  57.71 0.0007364358    1.685    0.407
        46  -9.0535    154.6774    229.3051   1.2283226726e+02   4.6350203730e+00    0.1334098   0.09576812  68.97 0.0004874211    1.639    0.390
        47  -8.8774     78.3571    131.1346   1.2327251630e+02   3.9411062359e+01    0.2634845    0.1676026  66.50  0.001190526    2.114    0.527
        48  -9.4724    151.3196    229.3236   1.2349772081e+02   5.2311200468e+00    0.1277507    0.1019329   9.74 0.0007045235    1.674    0.403
        49  -8.5259     87.5570    128.7658   1.2030347391e+02   3.8549642468e+01     0.223185    0.1617861  66.69 0.0006642481    1.668    0.400
        50  -8.5978    106.3293    123.9835   1.1418343310e+02   3.6444172038e+01    0.1978538    0.1737704 -51.65 0.0003041485    1.083    0.076
        51  -9.7857    167.8755    113.1093   9.6178761412e+01   2.5741959847e+01    0.3311475    0.2657038 -83.12 0.0008535307    1.510    0.338
        52  -8.9259    203.1881    111.7704   8.8561751280e+01   1.7708741445e+01    0.2066942    0.1827512   5.03 0.0004734102    1.336    0.252
        53 -12.5887     32.9358    232.7138   1.4607964754e+02   2.2639240845e+01    0.2836424     0.239726 -78.20 0.0007651128    1.427    0.299
        54  -9.7439    242.4975     94.4792   7.7835027326e+01   1.1951899799e+01    0.1419011    0.1282473 -53.64   0.00012051    1.019    0.019
        55  -9.8563    157.9389     76.9488   8.8520499688e+01   3.5108965121e+01    0.2458984    0.1865444 -77.53 0.0007073712    1.680    0.405
        56  -8.3173     45.6253     68.8122   1.1831851681e+02   5.7253632660e+01    0.1594876    0.1069793 -55.90 0.0001180595    1.497    0.332
        57  -8.5399     31.6908     62.0096   1.2129667807e+02   5.9954515150e+01    0.1643554    0.1289372 -39.82 0.0004962257    1.047    0.045
        58  -8.4357     66.6781    250.2951   1.4172501542e+02   1.4981106015e+01    0.1226129   0.06729538  67.74 0.0003606118    1.616    0.381
        59  -9.8835     81.9236    249.3192   1.3899866356e+02   1.2987542342e+01    0.2035328    0.1153489  58.38  0.001191561    1.454    0.312
        60 -10.5601     46.8131    248.7000   1.4493073461e+02   1.7907870432e+01    0.3185022    0.1466411  66.23  0.001305146    1.956    0.489
        61 -11.2675     11.8113     54.0776   1.2641162619e+02   6.2995027419e+01    0.4067663     0.192565  40.54  0.002138125    3.239    0.691
        62  -9.4577    225.3359    245.3169   1.1196543283e+02  -9.9051221940e+00    0.1268857   0.08145776  11.04 0.0007048218    1.697    0.411
