#   1 NUMBER                 Running object number                                     
#   2 MAG_AUTO               Kron-like elliptical aperture magnitude                    [mag]
#   3 X_IMAGE                Object position along x                                    [pixel]
#   4 Y_IMAGE                Object position along y                                    [pixel]
#   5 X_WORLD                Barycenter position along world x axis                     [deg]
#   6 Y_WORLD                Barycenter position along world y axis                     [deg]
#   7 A_WORLD                Profile RMS along major axis (world units)                 [deg]
#   8 B_WORLD                Profile RMS along minor axis (world units)                 [deg]
#   9 THETA_WORLD            Position angle (CCW/world-x)                               [deg]
#  10 FWHM_WORLD             FWHM assuming a gaussian core                              [deg]
#  11 ELONGATION             A_IMAGE/B_IMAGE                                           
#  12 ELLIPTICITY            1 - B_IMAGE/A_IMAGE                                       
         1 -13.8999     73.1810     52.3619   8.6508576755e+01   5.7290965614e+01     2.057018    0.6929849 -55.79  0.006788209    3.358    0.702
         2 -11.4387     98.2228     16.1150   6.2837801765e+01   5.8957685533e+01    0.4001963    0.2872884  89.75  0.001845709    2.037    0.509
         3 -11.1215     97.7452     12.2604   6.1053426826e+01   5.9606416450e+01    0.4334951    0.2145208 -18.99  0.001713849    2.199    0.545
         4  -9.7693     71.3793      6.5948   6.6516709603e+01   6.6129600609e+01    0.2473425    0.1365092  70.54 0.0009598956    3.337    0.700
         5 -11.4684    174.1667    244.7541   9.8328508333e+01   7.9032266505e+00    0.2810921    0.2183806  76.30  0.002214437    2.156    0.536
         6 -11.3678    246.2089    247.9066   8.8346527267e+01  -1.7423401606e+00    0.4456203    0.1938339  41.68  0.003074574    1.849    0.459
         7 -11.6848    249.9295    240.4762   8.6909368949e+01  -1.7131704106e+00    0.3889509    0.1999103 -22.50  0.002940822    2.279    0.561
         8 -11.8589    237.5329    240.9905   8.8675429677e+01  -1.8035063828e-01    0.3301808    0.2017596  33.98   0.00162736    1.192    0.161
         9 -10.0612    107.3678    236.4918   1.0804712290e+02   1.7683896498e+01    0.2444841    0.1094447  61.80  0.001395907    2.749    0.636
        10  -9.4121    164.9778    234.3041   9.8644484863e+01   1.0201216196e+01    0.1487114   0.09878427  39.67 0.0006845341    1.067    0.063
        11  -8.7734    160.5632    234.5328   9.9361836878e+01   1.0788441683e+01    0.1029382   0.07337411  39.19 7.639067e-05    1.012    0.011
        12  -9.8524    127.7319    233.2127   1.0447964908e+02   1.5421556576e+01    0.1633164    0.1193175 -19.91  0.001182119    2.474    0.596
        13 -10.3768    169.8492    232.4676   9.7682723413e+01   9.7140898015e+00    0.2558772    0.1305999  46.50  0.001535201    1.562    0.360
        14 -10.9423    236.5008    230.6311   8.7489207597e+01   7.1110319940e-01    0.2203679    0.2071836 -79.37  0.001883763    2.287    0.563
        15 -11.2667    166.5171    248.7570   9.9886935558e+01   8.5412774470e+00    0.3063145    0.1594258  41.75  0.002225605    1.322    0.244
        16  -9.3880    171.2267    225.4435   9.6676532588e+01   1.0255651924e+01    0.2072859   0.09701131  53.41  0.001149594    2.458    0.593
        17 -10.9051    164.5346    226.5246   9.7867303235e+01   1.1092689411e+01    0.3069959    0.2325211  32.57  0.001792809    1.128    0.113
        18  -9.5899    185.0481    227.0078   9.4683485144e+01   8.1257886159e+00    0.1475218    0.1091355  55.32 0.0009696468    1.617    0.382
        19 -10.6276     88.3879    225.0700   1.1030738557e+02   2.1583938061e+01    0.2974177     0.107518 -61.28  0.001737949    3.428    0.708
        20 -11.1795     98.9632    226.3385   1.0863323169e+02   2.0076128530e+01     0.298685    0.1822341  36.42  0.001578233    1.498    0.332
        21  -9.6299    107.8005    223.6768   1.0693426206e+02   1.9284216055e+01    0.1895952    0.1328245 -40.59  0.001387016    2.286    0.562
        22  -9.1530     74.1780    229.3848   1.1296274756e+02   2.2706163417e+01    0.1511691   0.05979156  47.55 0.0009514142    1.730    0.422
        23 -11.2260    125.8546    221.0966   1.0366034672e+02   1.7183154854e+01    0.2900755     0.205102  45.29 0.0007996162    1.044    0.043
        24  -9.1293    157.5215    221.8994   9.8485695914e+01   1.2610812081e+01    0.1619729    0.1084695  40.15 0.0006751854    1.098    0.089
        25  -9.2041     75.8260    220.1526   1.1208468123e+02   2.3817557005e+01    0.1291075    0.1012476  42.35 0.0006073558    1.319    0.242
        26 -10.4647     99.6626    218.2119   1.0785716386e+02   2.1098672063e+01    0.2691965    0.1637701  67.61  0.001869463    1.700    0.412
        27  -8.6448    143.6061    216.8177   1.0023305082e+02   1.5217849289e+01     0.118887    0.0999698 -86.28 0.0004623248    1.590    0.371
        28 -10.2546    131.3507    215.5153   1.0217175039e+02   1.7134612787e+01    0.2533911    0.1739542  63.56  0.001198867    1.551    0.355
        29 -10.0574    160.5274    227.0211   9.8564563437e+01   1.1606570380e+01    0.1981898    0.1760633  20.57  0.001166251    1.288    0.224
        30  -9.0532     79.2641    211.3506   1.1086260135e+02   2.4693625785e+01    0.1514051   0.06843558  47.13 0.0007499643    1.612    0.380
        31  -9.0428    202.5192    208.9852   8.9628570588e+01   7.3751339087e+00    0.1374464    0.1027109 -19.22  0.001028113    1.581    0.368
        32  -9.2624    101.1308    207.3150   1.0664987556e+02   2.2462978787e+01    0.2772563   0.07877944  51.10  0.001209809    3.259    0.693
        33  -9.8756     57.4499    206.1342   1.1437204018e+02   2.8094191206e+01    0.2256727   0.08395949  50.43  0.001248609    1.947    0.486
        34  -9.6874     81.6920    202.4250   1.0973201247e+02   2.5752505049e+01    0.2124594   0.07551675  43.09  0.001133782    2.093    0.522
        35 -10.5877    250.2872    198.6309   8.0925355818e+01   1.3246790584e+00    0.2910269    0.1227969 -15.81  0.001593477    2.719    0.632
        36  -9.6338    155.9738    197.5063   9.5812936987e+01   1.5817766492e+01    0.2613897    0.1512614  11.48  0.001160607    4.031    0.752
        37 -10.6928     90.2094    199.6806   1.0793948806e+02   2.5074729814e+01    0.3680461    0.1517795  39.02  0.001788268    2.037    0.509
        38  -9.7849    127.7183    197.0996   1.0080582350e+02   2.0177232830e+01    0.3679088    0.2020897  31.25  0.001905674    1.971    0.493
        39  -8.9859    104.6517    195.2921   1.0484961894e+02   2.3785511114e+01    0.1168497   0.06817647  61.19 0.0007029001    1.668    0.401
        40 -10.7274    173.3024    195.1897   9.2500774995e+01   1.3393916014e+01    0.3380147    0.2501331 -24.00  0.002258374    1.690    0.408
        41  -9.7337     78.7570    193.9629   1.0957236768e+02   2.7473194875e+01    0.1748444   0.08783223  55.72  0.001053736    1.661    0.398
        42  -9.8457     44.2970    193.9088   1.1602334318e+02   3.1544251912e+01    0.2551231   0.09635209  57.01  0.001448737    2.128    0.530
        43 -10.2024     67.3459    195.5053   1.1183460726e+02   2.8640833755e+01    0.2557342    0.1131275  58.92  0.001466725    2.015    0.504
        44  -8.8852    124.1923    191.8430   1.0084231051e+02   2.1471022486e+01    0.1442349    0.1182374  33.04 0.0003981722    1.272    0.214
        45 -10.4315    140.5423    190.5723   9.7678289971e+01   1.9158331474e+01    0.3233627   0.09256025  41.60  0.001369269    2.827    0.646
        46 -12.8744     97.3010    187.0239   1.0539076374e+02   2.6123081149e+01    0.8824436    0.3364408  43.44  0.004543888    2.070    0.517
        47 -10.7473     88.7866    189.8956   1.0730657168e+02   2.6821716679e+01    0.3168163    0.1106047  42.36  0.001594873    2.234    0.552
        48  -9.2016    203.8878    188.4960   8.6402443831e+01   9.2954869784e+00    0.2587845   0.09575904  48.39  0.001197721    2.650    0.623
        49  -9.6004    156.6560    188.2957   9.4459135355e+01   1.6928830921e+01    0.2149378    0.1173093  48.92 0.0008105536    1.599    0.375
        50  -8.6760    121.0000    187.9673   1.0098173839e+02   2.2533711444e+01    0.1552672   0.06601597 -55.56 0.0007915868    2.868    0.651
        51 -10.5663     55.3991    187.2109   1.1349073594e+02   3.1444344523e+01    0.3815271    0.1205617  58.39  0.001740358    3.217    0.689
        52  -9.2649     34.9509    187.9710   1.1743905143e+02   3.3536610522e+01    0.1800861   0.08260135  60.62 0.0008879795    1.721    0.419
        53  -8.9191    144.3609    187.1585   9.6534605362e+01   1.9044158266e+01    0.1354624    0.1096304 -70.49 0.0006054285    1.595    0.373
        54 -11.1909    111.6566    186.5145   1.0258436752e+02   2.4147340874e+01    0.4804431    0.1954593  39.90  0.002443105    2.085    0.520
        55 -10.0461    211.0148    183.4243   8.4445351554e+01   8.6997377066e+00    0.4233102    0.1977417  25.32    0.0020724    2.498    0.600
        56 -10.4123     75.3877    184.8272   1.0942690136e+02   2.9423232608e+01     0.255662    0.1242211  58.15  0.001465483    1.846    0.458
        57  -9.6829     67.2392    185.5731   1.1107672882e+02   3.0316932671e+01    0.2137631   0.07880964  42.83  0.001133579    2.101    0.524
        58  -9.7632     13.1418    183.2063   1.2133405631e+02   3.6447084765e+01    0.2510652    0.1994111   3.17  0.001933767    2.278    0.561
        59  -9.7589    153.2174    180.1827   9.3939143797e+01   1.8608449015e+01    0.1969651    0.1235516  10.82  0.000962088    2.888    0.654
        60 -10.8715     60.7367    177.5308   1.1170510319e+02   3.2510286696e+01     0.315962    0.1424985  60.36  0.001632668    2.054    0.513
        61 -10.1409    204.5276    175.9573   8.4274992627e+01   1.0587144572e+01    0.2589288    0.1920099  -4.64  0.001168983    1.430    0.301
        62 -10.7662     89.3671    177.6734   1.0597274466e+02   2.8788436210e+01     0.381321    0.1065056  45.30  0.001661411    2.799    0.643
        63 -11.6259     77.8734    176.3577   1.0814972553e+02   3.0566064666e+01    0.5349923     0.143372  47.93  0.002302094    3.008    0.668
        64 -11.4502    108.1395    176.1686   1.0205796634e+02   2.6344150680e+01    0.5308941    0.1199677  42.92  0.002017426    3.481    0.713
        65 -10.8582    101.0059    176.0042   1.0346033723e+02   2.7422836102e+01    0.1682059    0.1369319  57.30            0    1.005    0.005
        66  -9.6195     44.8638    183.0600   1.1524659628e+02   3.3345211549e+01    0.1761216    0.1063937  62.33  0.000956055    1.291    0.225
        67 -10.7573     93.8947    174.3268   1.0469985067e+02   2.8731497586e+01    0.2331693    0.1755193  -4.05  0.001342728    2.601    0.616
        68  -9.1138    197.4711    182.4467   8.6506040826e+01   1.1009443370e+01    0.1176046   0.09351544  30.28 0.0001204917    1.020    0.020
        69  -9.6376     45.1330    172.1966   1.1445547516e+02   3.5265848719e+01    0.1636171   0.09655144  62.83  0.001075601    1.371    0.271
        70  -9.8985    123.3202    170.8171   9.8350832250e+01   2.4887468997e+01    0.2635607     0.155178  59.40  0.001321416    1.778    0.438
        71 -10.2191    128.8563    169.4844   9.7066581773e+01   2.4215438150e+01    0.3408164    0.2022811  14.91   0.00139214    4.069    0.754
        72 -10.8203     55.8150    170.1664   1.1210445211e+02   3.4427903265e+01    0.3085348    0.1494625  60.04  0.001543042    1.833    0.455
        73  -9.8011    208.0514    170.2299   8.2717910566e+01   1.0650695592e+01    0.2497197    0.1299034  34.20 0.0009883064    1.679    0.405
        74  -9.0579    153.5074    170.4869   9.2438790572e+01   1.9963458013e+01    0.1228103    0.1030663  39.94 0.0008103846    1.024    0.024
        75 -10.6114    114.0546    168.6404   9.9919433475e+01   2.6707234575e+01    0.3178954    0.1747376  35.59  0.001706793    1.822    0.451
        76  -9.4505    214.1894    168.1631   8.1351845662e+01   9.8467794262e+00    0.1878418    0.1375022  17.70  0.000905756    1.219    0.179
        77 -12.0288    102.1359    166.9167   1.0213835561e+02   2.8822366085e+01    0.5995523    0.2354462  39.21  0.002813649    2.311    0.567
        78 -11.7265     80.8848    164.9459   1.0635303185e+02   3.2214467930e+01    0.4901683    0.2298038  67.23  0.002269489    2.814    0.645
        79  -8.4205     19.6711    166.3343   1.1930745031e+02   3.8912165817e+01    0.1175682   0.05407668  62.40 0.0007051962    1.723    0.420
        80  -9.7254     38.2995    164.7418   1.1534560216e+02   3.7386752971e+01    0.2483564    0.1241384  63.53  0.001006906    1.710    0.415
        81 -10.5556    147.9575    163.8824   9.2470023475e+01   2.1910017131e+01    0.2891598    0.2054838  48.08  0.001749937    1.229    0.186
        82 -10.7808     70.4791    163.7618   1.0843724675e+02   3.3812639206e+01    0.2584805    0.1326034  63.20   0.00120127    1.942    0.485
        83 -11.6022     94.4728    161.3591   1.0305101310e+02   3.0950577755e+01    0.4113137    0.1966503  42.45   0.00184721    1.822    0.451
        84 -10.6512     62.5343    161.2196   1.0989000812e+02   3.5293489274e+01     0.238682     0.138518  62.10  0.001095564    1.531    0.347
        85  -9.0146     31.4975    160.4598   1.1649641467e+02   3.8897130246e+01    0.1967712   0.08272309  85.69  0.001026378    2.399    0.583
        86  -8.5583      9.4814    161.4789   1.2117667309e+02   4.0716001067e+01    0.1107394   0.07141067  66.58 7.326974e-05    1.136    0.120
        87  -9.6109     47.6863    164.1914   1.1332414066e+02   3.6474708143e+01    0.1851462    0.1116357  73.07  0.001182482    1.459    0.315
        88  -8.6497    130.6383    160.2946   9.5358113462e+01   2.5432151370e+01    0.1287135    0.0877215  67.33 0.0007030983    1.706    0.414
        89 -11.1486    112.4761    159.2600   9.8962948270e+01   2.8577537276e+01    0.3333465    0.1596154  41.40  0.001667248    1.859    0.462
        90 -11.5102    106.6002    158.7810   1.0013663703e+02   2.9585793805e+01    0.4827702    0.1901094  52.58  0.001774003    2.579    0.612
        91  -8.9586     23.4725    159.9632   1.1817184327e+02   3.9766823487e+01    0.1604616    0.0623826  72.62 0.0008094436    2.503    0.600
        92 -11.7246    122.2180    156.1918   9.6469979820e+01   2.7535180188e+01     0.492953    0.2697438  36.73  0.002530523    1.812    0.448
        93 -12.0889     83.3650    155.5945   1.0474335893e+02   3.3617341691e+01    0.5265731    0.2313117  51.20  0.002569516    2.057    0.514
        94 -11.3277     50.2118    154.9269   1.1200211546e+02   3.7972004255e+01    0.4888973    0.2795658  80.85  0.002477519    1.683    0.406
        95  -9.5549    213.2646    155.2794   7.9150957725e+01   1.1487337312e+01    0.2413443    0.1545547  47.88 0.0009511544    1.552    0.356
        96 -11.5194     68.7607    154.3031   1.0782274457e+02   3.5835107318e+01     0.417716    0.1893609  56.28  0.001634897    2.106    0.525
        97 -11.5996    136.5606    153.9803   9.3148866172e+01   2.5478058531e+01    0.6251874    0.2070467  40.73  0.002462118    2.810    0.644
        98 -11.1851    100.1577    151.8465   1.0056457379e+02   3.1852354038e+01    0.3262227    0.1533555  47.33  0.001612093    1.875    0.467
        99 -10.9090     92.1118    152.3854   1.0240998967e+02   3.2965191347e+01    0.2588806    0.1259058  52.04  0.001297362    1.893    0.472
       100 -11.6261     57.1689    146.6132   1.0963219711e+02   3.8804420627e+01    0.5991153    0.2647474  66.46  0.002582689    2.689    0.628
       101  -9.7300     28.9236    149.9772   1.1635357999e+02   4.1198045443e+01    0.3590502    0.1351214  75.80  0.001644249    3.022    0.669
       102  -9.4333    230.1065    148.9001   7.5224550962e+01   9.2449519139e+00    0.1711618    0.1592671   8.12 0.0004802442    1.272    0.214
       103 -13.3337    110.9100    146.3501   9.7384106824e+01   3.1169982897e+01    0.9870832    0.4192711  46.13  0.004352059    2.104    0.525
       104 -11.3893     78.9324    147.5989   1.0475018906e+02   3.5780939233e+01    0.3092388    0.1796751  61.34  0.001322107    1.680    0.405
       105 -11.3545    151.2485    146.2803   8.8825607709e+01   2.4126097125e+01     0.711433    0.2671137  51.45  0.002785927    2.791    0.642
       106 -12.3341     89.6451    144.6133   1.0190808907e+02   3.4826323390e+01    0.5658345    0.2269639  46.38  0.002219952    2.221    0.550
       107  -8.8731     13.6875    146.5844   1.1955485898e+02   4.3253779103e+01    0.1483649   0.07672413  48.48  0.000784772    1.611    0.379
       108 -12.0975    128.2630    144.3518   9.3276594521e+01   2.8591183850e+01    0.6844738    0.2587405  43.42  0.002863615    2.386    0.581
       109  -8.5240    219.3087    143.6760   7.5901372613e+01   1.1772345822e+01    0.1119185    0.1022671 -71.23 0.0007036834    1.650    0.394
       110  -8.7651    197.4453    143.5093   7.9556832911e+01   1.5855106216e+01    0.1297918    0.1117342  22.26 0.0008080336    1.011    0.011
       111 -11.7833     70.5189    141.0143   1.0587850436e+02   3.8241900870e+01    0.5989195    0.2859308  72.97  0.002546933    3.099    0.677
       112 -11.1955     57.8378    136.1648   1.0833095485e+02   4.0860011405e+01    0.3270141    0.2504178 -28.02  0.001958109    2.151    0.535
       113 -12.2537     66.3322    133.7124   1.0596134407e+02   4.0296282861e+01    0.8048156    0.2106568  40.42  0.003178088    3.268    0.694
       114 -13.2129     85.4704    132.9200   1.0119237655e+02   3.7785010025e+01    0.8918248    0.3792021  48.82  0.002960199    2.220    0.549
       115 -11.9165     73.9967    130.1237   1.0358824589e+02   4.0013291353e+01    0.5234619    0.2676596  58.86   0.00200837    2.070    0.517
       116 -12.7652     61.2730    125.4232   1.0614153708e+02   4.2700132299e+01     1.005215    0.4186297  60.91  0.003994462    3.093    0.677
       117 -10.6986     39.6110    146.8373   1.1369269731e+02   4.0745385245e+01    0.5171021    0.2615418  86.22  0.002725925    1.923    0.480
       118 -11.2961     81.2535    140.0957   1.0322936298e+02   3.6945390448e+01    0.2838752    0.1588407  46.32  0.001529243    1.619    0.382
       119 -10.0372     23.2225    137.9376   1.1682172178e+02   4.4172643277e+01       0.5161    0.1747017  69.32  0.002175249    3.468    0.712
       120  -9.4180     22.7735    131.6264   1.1646904244e+02   4.5526555169e+01    0.2530445    0.1420329 -41.30  0.001337271    3.049    0.672
       121 -10.6759     39.2306    136.1423   1.1284103213e+02   4.2979084368e+01    0.2954843    0.1710955  86.92  0.001175072    1.574    0.365
       122 -12.4333    115.7372    134.5119   9.4337905714e+01   3.2588027156e+01    0.6490844    0.2913941  45.86  0.002907984    2.050    0.512
       123 -11.4627    133.2961    132.8847   9.0109752754e+01   2.9748836213e+01    0.3919142    0.2497131  66.35  0.001721111    1.982    0.495
       124 -11.0342    138.0030    132.5041   8.9010089312e+01   2.8941679723e+01    0.2900278    0.2429868 -31.72  0.001703676    1.375    0.273
       125 -13.3987    102.1100    128.8606   9.6530558960e+01   3.5996669188e+01    0.9032634     0.471589  47.52  0.003662434    1.794    0.443
       126  -9.8009    154.9974    131.0000   8.5112306825e+01   2.5947729925e+01     0.229857   0.07166954  46.39 0.0008045961    2.957    0.662
       127  -9.4747     12.3120    129.0053   1.1885162065e+02   4.6962983615e+01    0.3235078    0.1090678  75.67  0.001405239    3.199    0.687
       128 -12.6964    120.9618    127.4715   9.1848533459e+01   3.3011210824e+01    0.9012084    0.3887391  33.30  0.003354892    3.204    0.688
       129 -10.6998    117.6559    125.3352   9.2206488265e+01   3.4017218895e+01    0.2435405     0.189141  87.11  0.001339305    1.486    0.327
       130 -11.7086     44.3921    122.5019   1.1013922494e+02   4.5329597234e+01    0.9922532    0.4223343  78.32  0.003984202    3.446    0.710
       131 -10.6685     28.3638    122.1637   1.1427417050e+02   4.7032348714e+01    0.7615074    0.2504075  69.47  0.002576554    5.097    0.804
       132 -12.2418     72.1172    120.8051   1.0268551279e+02   4.2249959450e+01    0.6516079    0.3583851  80.19  0.002952648    2.494    0.599
       133 -13.7178     81.1080    115.6180   9.9490965832e+01   4.2067016166e+01     1.141449    0.6859591  84.95  0.005213688    2.213    0.548
       134 -13.1052     74.8792     81.0952   9.4196345894e+01   5.0657043319e+01    0.9426263    0.5994051 -88.40  0.004318296    2.158    0.537
       135 -13.0927     67.2301    109.7103   1.0221715439e+02   4.5342354614e+01    0.9524775    0.4740143 -77.21  0.004277704    2.314    0.568
       136 -12.5352     64.1189     96.3967   1.0075354843e+02   4.8747369402e+01      0.78872    0.4650886  77.48  0.002776214    2.213    0.548
       137 -12.2731     65.4520     87.2572   9.8527695499e+01   5.0642630115e+01    0.7459889    0.4353817  14.82  0.003117974    3.309    0.698
       138 -12.1581    134.1282    120.2129   8.7379231735e+01   3.1924165912e+01    0.5936524    0.3600485  39.32  0.002866497    1.661    0.398
       139  -9.1668     12.6752    121.9920   1.1830014808e+02   4.8419524484e+01    0.1846841   0.04326094 -59.53 0.0007050927    4.327    0.769
       140 -11.6277    144.1210    120.3993   8.5196099536e+01   2.9932366209e+01     0.652973    0.2853142  47.39  0.002496467    2.167    0.539
       141 -12.8290    111.5098    115.6860   9.1769269217e+01   3.7031069485e+01    0.6475107    0.4595715  56.06  0.002911056    1.392    0.281
       142 -13.5939     96.1462    113.8347   9.5257880940e+01   4.0069759783e+01     1.018577    0.5669249  46.78  0.003759183    1.744    0.427
       143  -9.6269      2.7722    116.7016   1.2051510747e+02   5.0280193524e+01    0.4574225    0.1268374  76.09  0.001711026    4.302    0.768
       144 -10.2480     59.4156    114.3346   1.0507659997e+02   4.5346121516e+01    0.3269646    0.2337097  20.08  0.001850457    1.953    0.488
       145 -12.5497    125.4626    112.7845   8.7787358696e+01   3.5010946481e+01    0.7293524    0.3858636  32.04  0.002988146    2.504    0.601
       146 -10.3454     14.1414    109.7925   1.1700019599e+02   5.0954851555e+01      0.41333    0.1977808  85.20  0.002036825    1.845    0.458
       147 -11.5449     60.2837    108.0203   1.0387052129e+02   4.6636365074e+01    0.5037172    0.2727838 -59.30  0.002595446    1.735    0.423
       148 -14.1348    113.1893    102.3091   8.8443429030e+01   3.9443115577e+01     1.186567    0.8892175  56.00  0.006282544    1.339    0.253
       149 -14.0286     96.6816    100.1578   9.2286610327e+01   4.2881716064e+01     1.152375     0.864334  17.09  0.005860804    1.917    0.478
       150 -13.5943     82.7077     99.0104   9.5897153633e+01   4.5440782627e+01     1.193138    0.5062271 -51.49  0.004656471    2.300    0.565
       151 -12.4888     83.6519     73.7599   8.9557371215e+01   5.0869491775e+01    0.7344658    0.4714463  73.75  0.002773191    2.293    0.564
       152 -13.5739     90.3022     88.6528   9.1404991723e+01   4.6468297244e+01     1.272427    0.5455596  50.53  0.005029064    2.589    0.614
       153 -13.6178    106.3646     84.7134   8.5880679273e+01   4.4391551346e+01     1.051372    0.7141629  66.05  0.004640205    1.778    0.437
       154 -12.1970     84.1547     64.2644   8.6636441816e+01   5.2852344835e+01    0.5862495    0.4172004 -15.83   0.00271712    2.157    0.536
       155 -12.2397     95.7681     72.1728   8.5409338708e+01   4.9050088483e+01    0.5720418    0.3490017 -70.69  0.001969108    2.282    0.562
       156 -11.8328     45.8598    102.5162   1.0715127245e+02   4.9608763364e+01    0.8964197    0.3901261  71.72  0.003316444    3.879    0.742
       157 -10.9325     45.2362     92.2888   1.0575584270e+02   5.2017538843e+01    0.4527135    0.3139291  -5.10  0.002370319    2.524    0.604
       158 -10.8570     23.0731    102.7348   1.1382015424e+02   5.1802442802e+01    0.7492639    0.2726393  69.34  0.002865538    3.880    0.742
       159  -9.8368     20.4936     93.9911   1.1363975642e+02   5.4002300849e+01     0.411925    0.1283924 -54.49  0.001721112    3.264    0.694
       160  -9.0857    150.3407    104.6486   8.0205069872e+01   3.1483178500e+01    0.1486523    0.1137368 -84.46 0.0007043257    1.802    0.445
       161 -11.8874    131.0044    103.2864   8.4289437841e+01   3.5758689820e+01    0.5917608    0.2452942  52.45  0.002212158    2.581    0.613
       162  -8.7715      6.8010    103.2102   1.1853670196e+02   5.2946096148e+01    0.2058287   0.07456832  63.42 0.0009446157    2.773    0.639
       163 -12.1908    127.0880     92.4367   8.2523994235e+01   3.8674542593e+01    0.7412025    0.2879138  53.92  0.002567493    2.969    0.663
       164 -10.5023     34.8261     89.5286   1.0858639664e+02   5.3746586408e+01    0.5379261    0.2362659 -87.05  0.002297495    2.684    0.627
       165 -10.2753     35.8403     82.4709   1.0714632622e+02   5.5285391273e+01    0.4413418    0.2143162 -37.32  0.001854521    3.426    0.708
       166 -11.2921     48.1896     83.8286   1.0332755237e+02   5.3637918435e+01    0.7811176    0.3913252  75.01  0.003104009    3.261    0.693
       167  -9.5716      8.1968     82.5781   1.1631121197e+02   5.7515259922e+01    0.3969149     0.115316 -66.62  0.001020313    2.553    0.608
       168 -11.3899    121.4064     81.7971   8.1072779879e+01   4.1962099164e+01    0.3891968    0.2381705  64.39  0.001652314    2.072    0.517
       169 -10.0100     24.7676     80.9280   1.1060445312e+02   5.6664282759e+01    0.4092453    0.2015171  71.85   0.00165955    2.410    0.585
       170 -11.9524     62.1391     74.8488   9.6799152219e+01   5.3940187415e+01    0.8537284     0.249537 -59.32  0.003007378    3.095    0.677
       171 -11.5017    131.2685     76.9609   7.7185120157e+01   4.0776103271e+01    0.6141157    0.2176203  49.59  0.002085658    2.847    0.649
       172 -12.8194    107.3365     74.2259   8.2670332727e+01   4.6380199283e+01    0.6345778     0.536694  51.67  0.003427936    1.224    0.183
       173 -10.1260     28.9799     70.5063   1.0746085471e+02   5.8734085993e+01    0.3981153    0.1890014 -34.65  0.001647822    3.609    0.723
       174 -10.8105     49.2302     77.1915   1.0166648019e+02   5.5056897252e+01    0.3360904    0.2555615  -7.09  0.001766407    1.991    0.498
       175 -11.0179     51.4448     69.5659   9.9212042952e+01   5.6558169049e+01    0.6131902    0.2853462 -76.24   0.00217836    2.837    0.648
       176 -10.1249     51.0202     62.0115   9.7494568137e+01   5.8355139749e+01    0.2935723    0.1953584 -47.37  0.001172242    1.452    0.312
       177  -9.1381     16.6801     70.5410   1.1191763497e+02   5.9726384489e+01    0.2137042    0.1214303  82.84 0.0008751347    1.735    0.424
       178 -10.7951    122.8487     67.4065   7.6380695470e+01   4.4467213461e+01    0.3673759    0.2357136  74.43  0.001292923    2.315    0.568
       179 -11.8008    111.2423     64.9451   7.8712771138e+01   4.7456872694e+01     0.563656    0.3252244  65.62  0.002235135    2.441    0.590
       180 -12.5014    102.7395     62.9853   8.0507363155e+01   4.9606094654e+01    0.8449759    0.5168347 -88.08  0.002810569    3.963    0.748
       181  -9.8280     37.4889     64.4729   1.0312914807e+02   5.9327063146e+01    0.4009599    0.2022289 -84.74  0.001747451    2.515    0.602
       182  -8.9258     17.8345     62.9621   1.1030677103e+02   6.1416397242e+01    0.2128205   0.09756166 -52.10 0.0009175847    2.033    0.508
       183 -10.1414    194.7997    248.6672   9.5677647642e+01   4.7990530672e+00    0.1570643    0.1219886  27.79  0.001401533    1.174    0.148
       184 -11.1236    120.8503     57.6654   7.3678048615e+01   4.6756956950e+01    0.3832977    0.2780665  85.50  0.001705595    1.938    0.484
       185  -9.3708      7.7931     57.9863   1.1344813626e+02   6.3246217171e+01    0.2055768    0.1079304  75.20  0.001073438    2.050    0.512
       186 -10.4341     54.4232     53.8734   9.3934139350e+01   5.9769933126e+01    0.5991549    0.2806867 -73.11  0.002122981    3.558    0.719
       187 -10.8431    107.1205     54.7701   7.6448103557e+01   5.0328246956e+01    0.4421445    0.2811116  88.08  0.001611934    3.178    0.685
       188 -11.1452     63.2967     55.0694   9.0966200842e+01   5.8251254494e+01    0.4452741    0.2541125 -66.80  0.001578043    1.956    0.489
       189  -9.8166     63.8613     47.4771   8.8254381034e+01   5.9830707139e+01    0.3667962    0.2474345 -15.87  0.001695997    2.330    0.571
       190  -9.5763     43.9319     54.9089   9.8315252749e+01   6.0843009126e+01    0.3828712    0.1686937 -67.75  0.001625825    2.292    0.564
       191  -9.7301     45.9414     49.0476   9.5834218672e+01   6.1942899989e+01    0.2652684    0.1754272 -33.66  0.001217931    1.778    0.438
       192 -11.8738     93.4687     51.9791   7.9571346897e+01   5.3682457141e+01    0.5095987    0.3653035 -84.65  0.002228423    2.078    0.519
       193  -9.3351     31.2511     51.9012   1.0266897694e+02   6.2876427325e+01    0.3217972    0.1839497  79.97  0.001503868    2.486    0.598
       194  -8.8105     20.3172     52.6855   1.0740087685e+02   6.3636361430e+01    0.1245425   0.08339372  74.86   0.00040957    1.648    0.393
       195 -11.0738     82.2169     47.0258   8.1461445035e+01   5.6828931858e+01    0.3853248    0.2496198 -60.85  0.001151649    1.753    0.430
       196 -10.2951    123.7295     47.0162   6.9117661322e+01   4.8007458641e+01    0.3123281    0.2022406  88.85   0.00119159    2.649    0.622
       197  -9.2539     22.2841     46.9031   1.0528224506e+02   6.4828175088e+01    0.2727451    0.1614978  -7.93  0.001381825    2.728    0.633
       198 -10.7325    100.5710     54.3464   7.8225702163e+01   5.1781565946e+01    0.2788843    0.2648463 -46.43 0.0002132558    1.009    0.009
       199  -9.6883     44.9030     44.6080   9.4884858676e+01   6.3069364045e+01    0.2718906    0.1618795 -73.73  0.001052242    1.949    0.487
       200  -9.2575     16.7887     45.1990   1.0732037784e+02   6.5644963882e+01    0.2070416    0.1062355  68.82 0.0009492001    2.792    0.642
       201 -10.4768     58.6701     43.1628   8.8750718250e+01   6.1541255826e+01    0.3943594    0.2413821 -80.42  0.001636999    2.851    0.649
       202 -11.1034    106.9558     42.4729   7.1917499309e+01   5.2668402480e+01    0.3654609    0.2669079 -85.48  0.001639889    2.007    0.502
       203  -9.5011      5.2281     41.8290   1.1187762878e+02   6.7152010549e+01     0.389703    0.1510321  85.38  0.001488711    3.807    0.737
       204  -9.4976    113.5474     41.4938   6.9687997664e+01   5.1349894604e+01    0.1503337    0.1425374 -31.31 0.0001343708    1.007    0.007
       205 -11.3593     83.1693     39.0951   7.8058818652e+01   5.8229690829e+01    0.4409566    0.3428005 -84.76  0.001450861    1.771    0.435
       206  -9.0399     37.2186     41.4365   9.7190820330e+01   6.4667726441e+01    0.1619685    0.1186368  50.41 0.0006110285    1.632    0.387
       207 -11.7266     96.2994     38.8101   7.3639583306e+01   5.5642931871e+01    0.4538259    0.3199514 -80.17   0.00198649    2.236    0.553
       208 -10.7217    105.7136     36.3063   6.9790464744e+01   5.4036159357e+01    0.3709142    0.2228249 -47.87 0.0009804789    1.734    0.423
       209 -12.8811     90.5387     79.4945   8.9012150273e+01   4.8424216529e+01     1.040892    0.4172998  33.59  0.003559292    3.644    0.726
       210 -10.9025    112.9091     35.8330   6.7588555371e+01   5.2464186076e+01    0.4167899    0.2568966 -72.93  0.001515377    3.026    0.670
       211  -8.8093     26.3355     36.6821   1.0070594308e+02   6.6830108492e+01    0.1246748   0.09004393  79.05  0.000704865    1.699    0.411
       212 -11.1029    120.4424     33.9453   6.4848211068e+01   5.0973347268e+01    0.3374897    0.2724696  87.13  0.001651803    1.521    0.342
       213 -10.5692     74.0395     32.6105   7.8611364590e+01   6.1182256571e+01    0.4667382    0.2699654  67.03  0.001824036    3.200    0.688
       214  -9.8456     61.0620     32.7408   8.3736192866e+01   6.3360542158e+01    0.3368825    0.2422843  77.26   0.00164935    2.209    0.547
       215  -9.4463     49.8410     33.0403   8.8620946677e+01   6.4956585182e+01    0.2185037    0.1484731 -76.94 0.0009568828    2.032    0.508
       216  -8.7514     13.3021     31.6411   1.0566329381e+02   6.9011852986e+01      0.12223   0.08339023  79.71 0.0003288038    1.718    0.418
       217 -10.9746    102.9104     30.2008   6.8007526573e+01   5.5703042864e+01    0.3732442    0.2140548  68.02   0.00149998    2.409    0.585
       218 -11.4147     82.4219     28.4510   7.3746820874e+01   6.0364061331e+01     0.474584    0.3016459 -71.06  0.001889093    2.913    0.657
       219 -10.8035    110.3510     24.6121   6.3468418059e+01   5.4854673123e+01    0.2575737    0.2303383   9.65 0.0005688673    1.142    0.125
       220 -10.6987     92.7792     27.7201   6.9976574330e+01   5.8352343296e+01    0.4583782    0.2665448 -65.60  0.001648297    3.303    0.697
       221  -9.1548     43.9327     25.7624   8.8301179876e+01   6.7270511279e+01    0.1934772    0.1574707 -26.87 0.0004940829    1.256    0.204
       222 -10.2686     65.4396     22.3806   7.7262448773e+01   6.4636352060e+01    0.4367392    0.2803268  73.74  0.001824979    3.128    0.680
       223  -9.3490     58.8278     22.4573   8.0053848387e+01   6.5737876821e+01     0.226927    0.1412379 -38.99 0.0004857203    1.418    0.295
       224 -10.4538     50.5807     22.3941   8.3681217250e+01   6.7026823871e+01    0.4494536    0.1975674  48.55  0.001876676    3.050    0.672
       225  -9.3589     12.9897     21.4820   1.0277729366e+02   7.1320595158e+01    0.1823311    0.1383421 -59.05 0.0007604783    1.030    0.029
       226 -10.3681     84.3673     20.9353   6.9535046032e+01   6.1259840904e+01    0.2314516    0.2065167  78.18    0.0011115    1.367    0.269
       227 -10.3356     74.1396     20.0497   7.2728959591e+01   6.3453270318e+01    0.3210369    0.2065896 -63.05  0.001414965    2.359    0.576
       228  -8.5309    188.4765     20.5078   4.7345190460e+01   3.4740279244e+01    0.1506338    0.1426141 -36.21  0.000283479    1.033    0.032
       229 -10.8848     91.7525     18.9981   6.6189449796e+01   5.9988247774e+01    0.3310833     0.201717 -40.59   0.00152688    1.591    0.372
       230 -11.1430    167.6498    242.7446   9.9111900050e+01   8.9771118886e+00    0.2010834    0.1532941  32.00  0.000921971    1.149    0.130
       231 -10.0200     84.7254     11.4236   6.4561918308e+01   6.2651895965e+01    0.2645568    0.1452766  61.50  0.001143521    2.210    0.548
       232  -9.4034     40.8955     13.8402   8.4146037353e+01   7.0055322438e+01    0.1960019     0.154486 -24.22 0.0004242726    1.240    0.193
       233  -8.9036    107.2346    248.7666   1.0898463412e+02   1.6208807349e+01     0.123184   0.09019109  36.66 0.0007527839    1.337    0.252
