#   1 NUMBER                 Running object number                                     
#   2 MAG_AUTO               Kron-like elliptical aperture magnitude                    [mag]
#   3 X_IMAGE                Object position along x                                    [pixel]
#   4 Y_IMAGE                Object position along y                                    [pixel]
#   5 X_WORLD                Barycenter position along world x axis                     [deg]
#   6 Y_WORLD                Barycenter position along world y axis                     [deg]
#   7 A_WORLD                Profile RMS along major axis (world units)                 [deg]
#   8 B_WORLD                Profile RMS along minor axis (world units)                 [deg]
#   9 THETA_WORLD            Position angle (CCW/world-x)                               [deg]
#  10 FWHM_WORLD             FWHM assuming a gaussian core                              [deg]
#  11 ELONGATION             A_IMAGE/B_IMAGE                                           
#  12 ELLIPTICITY            1 - B_IMAGE/A_IMAGE                                       
         1 -17.3754     67.8685    192.0442   1.0140925779e+02   2.5460021961e+01     3.588818     2.729833  74.96   0.01946383    1.370    0.270
         2 -12.9381     25.8903     64.5426   9.1890993939e+01   6.2236836038e+01     1.171104    0.5262383  14.23  0.005005956    2.649    0.622
         3 -11.3916    210.7919      8.0750   2.7700887910e+01   3.1855639351e+01    0.2644923   0.08127827 -48.62  0.001170297    2.678    0.627
         4 -14.0999     18.3482      5.6301   7.1010753912e+01   7.3710160413e+01    0.9394812    0.4094673  31.25  0.004878836    2.125    0.529
         5 -10.7255    144.6233      4.1422   3.2839198908e+01   4.7356754226e+01    0.1578639    0.1222381   2.50 0.0005350867    1.687    0.407
         6  99.0000     22.4799    232.5242   1.1560634224e+02   2.1654814184e+01     1.373222     1.081621  -7.71  0.008858989    1.938    0.484
         7 -10.7704     69.8270    250.5697   1.0697427497e+02   1.2708257893e+01    0.2275645   0.08882471  38.09 0.0005692958    1.997    0.499
         8 -10.9265     64.7858    249.8392   1.0796662486e+02   1.3464655926e+01    0.2227992    0.1577504  83.14  0.001398778    1.538    0.350
         9 -12.4808     52.7301    246.9144   1.1025051229e+02   1.5463679047e+01    0.3871217    0.2299742 -87.66  0.002241781    1.876    0.467
        10 -11.1800     32.7553    249.2749   1.1448441226e+02   1.7241594522e+01    0.1641202    0.1258161  70.10 0.0003826197    1.142    0.124
        11  99.0000     11.4648    228.0604   1.1765418673e+02   2.3651484806e+01     1.611124     1.158728  -8.21   0.00977407    2.298    0.565
        12 -16.4694     56.5725    226.2159   1.0773966765e+02   1.9197551100e+01     3.191168     1.778484  52.94    0.0168674    1.640    0.390
        13 -10.2620    117.6452    213.7338   9.2100392097e+01   1.3411516620e+01    0.1737765    0.1313519 -70.52 0.0005533028    1.613    0.380
        14 -10.2614    108.5131    237.9641   9.7358403851e+01   9.9791137628e+00    0.1659475    0.1014347 -29.74 0.0005253697    2.358    0.576
        15 -11.4871    184.4850    213.0306   7.7283431359e+01   3.3799537528e+00    0.1950713     0.121593 -38.29  0.001038166    1.607    0.378
        16 -10.3853     96.3810    237.7466   1.0000498081e+02   1.1693325131e+01    0.1614206    0.1146991 -45.26  0.000569601    1.675    0.403
        17 -11.0502     14.2715    211.8161   1.1615771239e+02   2.6890025659e+01    0.2102795    0.1353058  50.06 0.0008439009    1.338    0.253
        18 -12.9892    153.1671    209.6729   8.3357846255e+01   8.7275943391e+00    0.4692958    0.3620768  -5.57  0.002297371    1.377    0.274
        19 -11.1528    179.9132    244.1607   8.3177434828e+01  -9.7672402385e-01    0.1731344    0.1504384  20.84 0.0006112129    1.233    0.189
        20 -10.9798     24.4960    208.3510   1.1362036204e+02   2.6683278604e+01    0.2049381    0.1723774  69.17 0.0001422734    1.014    0.014
        21 -12.2692    168.6409    206.0707   7.9378274262e+01   6.9937799330e+00    0.2936838    0.2834581  63.51  0.001842191    1.351    0.260
        22 -10.8631    229.5105    206.5111   6.7658565384e+01  -1.8056111579e+00    0.1247351   0.09737008 -10.15 0.0008104877    1.008    0.008
        23 -10.8438     18.0890    205.3628   1.1488947923e+02   2.7982489356e+01    0.2687837    0.1382779  50.53  0.001262177    1.703    0.413
        24 -11.2876     26.4134    201.0503   1.1263499546e+02   2.8163091235e+01    0.3452023    0.1879675  69.36  0.001742612    1.830    0.454
        25 -12.6986    147.1913    202.9956   8.3578797482e+01   1.0961528269e+01    0.4887865    0.3360233  43.36  0.001457146    1.491    0.329
        26 -10.9525    212.3877    200.1508   6.9580392338e+01   1.4951212059e+00    0.1737094    0.1118709 -44.46 0.0006503977    1.714    0.417
        27 -16.0228     93.6546    190.8147   9.4604578627e+01   2.2075173644e+01     2.432256     1.505614 -80.93   0.01075095    2.162    0.537
        28 -10.7000     15.4962    198.3011   1.1502152422e+02   2.9845139341e+01     0.236126    0.1118449  49.10  0.001182272    1.874    0.466
        29 -10.6146    139.6552    196.2890   8.4170261267e+01   1.3534026950e+01    0.1408185    0.1090741  62.26 0.0003257925    1.654    0.395
        30 -11.6555    124.4358    195.4337   8.7650357589e+01   1.6193800062e+01    0.3783227     0.320194  30.96  0.001536998    1.111    0.100
        31 -12.3273    190.0873    194.8270   7.2900071305e+01   5.6952417603e+00    0.2982239    0.1971241  33.24  0.001589913    1.506    0.336
        32 -12.8541     35.8400    192.8176   1.0964507843e+02   2.9124940018e+01    0.6533898    0.3991053   7.39  0.003149011    2.391    0.582
        33 -11.1785    137.8994    199.0983   8.5060069680e+01   1.3241579259e+01    0.2128544    0.1847036  61.83 0.0005107334    1.365    0.267
        34 -11.3075      6.1386    193.9917   1.1694683823e+02   3.1660873592e+01    0.1836055    0.1576324  59.00 0.0002748585    1.133    0.117
        35 -11.1806    113.0127    228.3168   9.5158393173e+01   1.1185002133e+01    0.2675245    0.2174689  39.46  0.001072575    1.102    0.093
        36 -10.1570      1.3570    190.4051   1.1786083273e+02   3.2882028238e+01      0.12079   0.09725786  81.40 7.569837e-05    1.028    0.027
        37 -10.7344      7.9641    188.3551   1.1616038893e+02   3.2832706463e+01    0.3400125    0.1344788  49.62  0.001519584    2.288    0.563
        38 -15.3851     70.9151    209.7299   1.0274315867e+02   2.0972054287e+01     2.700929    0.2655804  41.78  0.006881894    6.089    0.836
        39 -11.8181    128.6397    184.3770   8.4720151113e+01   1.7904653995e+01    0.3380473    0.2454206  20.83  0.001397499    1.458    0.314
        40 -10.9177     17.2919    183.2923   1.1349718406e+02   3.3242128817e+01    0.2134863    0.1584512   7.63  0.001231079    1.757    0.431
        41 -10.3602      9.5303    182.7304   1.1539895379e+02   3.4045501710e+01     0.178345    0.1036797  84.09 0.0009399678    1.570    0.363
        42 -11.5182    144.6938    181.5802   8.0330291152e+01   1.5765268481e+01    0.2811046    0.1383969  31.12 0.0007905891    2.105    0.525
        43 -11.5253     41.0804    180.2013   1.0704421524e+02   3.1622155684e+01    0.2422253    0.2016347 -63.54  0.000518936    1.217    0.179
        44 -10.6826     37.7765    177.2681   1.0761261546e+02   3.2710157356e+01    0.1813955    0.1656388  62.58  0.000564595    1.080    0.074
        45 -12.4044    186.5864    225.8470   7.9003872863e+01   9.6807794293e-01    0.3213386    0.1826776 -28.16  0.001688467    1.815    0.449
        46 -11.4029    191.5086    178.0608   6.9402087581e+01   8.4962476784e+00    0.2133386    0.1267636 -39.51  0.001031808    1.587    0.370
        47 -10.9449    176.4790    183.4770   7.3559034503e+01   9.9675954756e+00    0.1403356    0.1268357  -5.60 6.655237e-05    1.019    0.019
        48 -11.4040    124.6733    213.0683   9.0366333583e+01   1.2476944512e+01     0.360409    0.1526587 -45.55  0.001479941    2.591    0.614
        49 -10.2960    113.1944    176.4237   8.7195213491e+01   2.2307184873e+01    0.1983061    0.1337283  45.87 0.0001520075    1.499    0.333
        50 -12.9093    106.5414    170.1331   8.7810253396e+01   2.4903191668e+01    0.5114539    0.4275105 -51.28   0.00266568    1.212    0.175
        51 -11.9966    103.8774    164.5092   8.7492044176e+01   2.6701207920e+01    0.4417604    0.2052145 -51.98  0.001031292    2.126    0.530
        52 -11.5680    186.8054    249.0344   8.2551766461e+01  -2.5888337463e+00    0.2237124    0.1500658  23.78  0.001405443    1.252    0.201
        53 -10.7363    160.5329    169.4956   7.4279822587e+01   1.5509169591e+01    0.1456779    0.1372668  -8.28 8.214548e-05    1.024    0.024
        54 -12.8881    131.6452    168.3142   8.0949441424e+01   2.0964068570e+01    0.5126584    0.2690553  44.92  0.001442606    1.979    0.495
        55 -11.7065    139.2233    165.5907   7.8519630011e+01   2.0206144205e+01    0.2148551    0.1878819 -30.33 0.0002946531    1.143    0.125
        56 -11.7520     64.6311    156.2550   9.7232153306e+01   3.4802012157e+01    0.2668347    0.2191092 -75.53 0.0005931125    1.192    0.161
        57 -13.4069     66.1712    162.9667   9.7839360518e+01   3.2874389314e+01     0.661444    0.3714117  28.39  0.002555534    1.878    0.468
        58 -11.0987     28.2167    160.2006   1.0841674151e+02   3.7994284083e+01    0.1980819    0.1853671  -6.60 0.0003615064    1.280    0.219
        59 -13.9771     22.4157    153.3336   1.0934538397e+02   4.0288342719e+01    0.8484831    0.7547705  21.71  0.005230623    1.299    0.230
        60 -12.7508     99.3246    155.9098   8.7112712069e+01   2.9569395748e+01     0.476731    0.2745971  47.29  0.001986115    1.837    0.456
        61 -11.8178     97.9544    152.2908   8.6789398253e+01   3.0695202917e+01        0.232    0.2073342 -14.28 0.0003748591    1.234    0.189
        62 -12.3637    112.1714    155.8438   8.3541431457e+01   2.7355409379e+01    0.3356548    0.2605835   4.77  0.001574089    1.583    0.368
        63 -11.3446    125.1737    221.2594   9.1445843625e+01   1.0775869516e+01    0.3221076    0.1965605 -52.88  0.001330069    1.829    0.453
        64 -11.5858    212.3295    153.9338   6.0542818468e+01   9.3996220015e+00    0.2129054    0.1944081  48.50  0.000679718    1.341    0.254
        65  -9.9869    116.5221    239.9885   9.5851488038e+01   8.4855857997e+00    0.1617735    0.1288173 -58.68 0.0008414016    1.488    0.328
        66 -10.9523     59.9680    150.5412   9.7703067988e+01   3.6900972748e+01    0.2878271    0.1867617 -48.23  0.001022706    1.558    0.358
        67 -12.4675    144.6031    149.6424   7.3809777438e+01   2.2737283177e+01    0.4937086    0.1822682  35.70  0.001597803    3.031    0.670
        68 -13.8456    104.4134    142.2347   8.2851484221e+01   3.2046636098e+01    0.7698115    0.4600235  45.24  0.002931516    1.737    0.424
        69 -13.5318    111.1656    141.2362   8.0715193035e+01   3.1058469548e+01    0.7336121    0.4619721  57.24  0.002492177    1.988    0.497
        70 -12.1174    128.7516    147.4350   7.7325663803e+01   2.6281223305e+01    0.2856646    0.2411611  87.00 0.0007250415    1.470    0.320
        71 -13.1742    108.6621    147.5786   8.2794506448e+01   2.9979514491e+01    0.5110002    0.3681604 -41.29  0.001823782    1.422    0.297
        72 -12.2958    170.4476    158.5788   6.9791539516e+01   1.5945132758e+01    0.3388884    0.2427879 -89.97  0.001401456    2.708    0.631
        73 -10.5344      3.6110    221.2059   1.1895275843e+02   2.5807599856e+01    0.1842167    0.1455121   3.08 0.0007544759    1.818    0.450
        74 -12.2502    156.0818    144.7010   6.9964338152e+01   2.1578351875e+01    0.3939514    0.2396303  64.56  0.001484331    2.722    0.633
        75 -12.4996    141.0397    144.7937   7.3601661246e+01   2.4507860908e+01    0.3338442    0.2381879   7.47 0.0009078861    1.906    0.475
        76 -10.8741    149.6497    144.2768   7.1383847854e+01   2.2933320720e+01    0.1507276    0.1226469  79.56 0.0003441318    1.640    0.390
        77 -10.6864     93.4232    143.7036   8.6361111706e+01   3.3601317695e+01     0.203075    0.1418806 -46.04 0.0003475896    1.429    0.300
        78 -10.9219    223.4031    220.2068   7.1113190150e+01  -3.0496880175e+00    0.1556337     0.104348 -39.59 0.0004339521    1.635    0.388
        79  -9.8368      3.2814    136.3111   1.1334386754e+02   4.6096473455e+01    0.1333076   0.08338854 -50.33 0.0002620218    1.567    0.362
        80 -13.6899    143.2719    133.0968   7.0322899186e+01   2.6662499489e+01    0.8014266    0.4581483  28.96   0.00313207    2.176    0.540
        81 -15.2087    154.2896    127.9178   6.6432973842e+01   2.5519745472e+01     1.484495    0.9959917  62.22  0.006419313    1.921    0.480
        82 -13.8174    154.0182    118.0723   6.4053664755e+01   2.7646186947e+01    0.8082325    0.4919088  46.65  0.003500144    1.707    0.414
        83 -10.2160     75.6059    133.2034   8.9631591298e+01   3.9151982098e+01    0.2175032    0.1325758 -48.04 0.0003181041    1.598    0.374
        84 -11.6234    131.8179    131.8558   7.2929376023e+01   2.9259811078e+01    0.2428485    0.2157277  -5.90 0.0005274788    1.222    0.182
        85 -12.0060    137.5724    130.9476   7.1230636337e+01   2.8299414651e+01    0.4314085    0.2250643  43.86  0.001285119    1.964    0.491
        86 -11.8795    134.3366    127.7472   7.1277502859e+01   2.9676802779e+01    0.3297274    0.2122684 -47.74 0.0008707378    1.531    0.347
        87 -11.0210    115.9851    130.5204   7.6889779251e+01   3.2706512920e+01    0.2360831    0.1546048  40.17 0.0005336547    1.549    0.354
        88 -11.1253    108.1462    121.8432   7.7015526326e+01   3.6282344155e+01    0.2220696    0.1894924  -7.95  0.001077419    1.336    0.251
        89 -10.4012     48.7339    122.5938   9.6399961119e+01   4.5597730583e+01    0.1906578    0.1331118  41.25 0.0004926101    1.532    0.347
        90 -11.4369     60.0054    121.0066   9.2215198517e+01   4.4558021309e+01    0.2227434    0.2092523 -53.95 0.0003885767    1.005    0.005
        91 -11.5806    100.6595    119.9978   7.8785120399e+01   3.8149487845e+01    0.2968991     0.222697  64.71  0.001332839    1.657    0.397
        92 -11.5573     31.3553    118.2068   1.0166981606e+02   4.8610119161e+01    0.2751196    0.2623504   2.37 0.0008815905    1.168    0.143
        93 -12.0966     47.0477    117.2956   9.5955394372e+01   4.7170214863e+01    0.5046251    0.3023527 -14.34  0.002072854    2.494    0.599
        94 -10.8363     23.0877    115.7690   1.0420102495e+02   4.9977501893e+01    0.1960947    0.1724378 -89.11 0.0006565152    1.145    0.127
        95 -10.3221     59.5501    134.4871   9.5036573331e+01   4.1131001616e+01    0.1478973    0.1380202 -60.43 7.305998e-05    1.020    0.020
        96 -10.4443     82.4490    113.4873   8.2918611443e+01   4.2998917886e+01    0.1528924    0.1464656 -41.39 0.0004080765    1.005    0.005
        97 -11.7102     53.8384    110.3371   9.2067935773e+01   4.8106081954e+01    0.5298763    0.2351281 -37.32  0.001864121    2.862    0.651
        98 -14.2066    150.9898    107.6714   6.2068165439e+01   3.0444591928e+01    0.6909083    0.6323094 -79.40  0.003012497    1.188    0.158
        99 -10.9634     88.7777    110.2355   8.0023160917e+01   4.2680542762e+01      0.21879    0.1803391 -17.56  0.001060504    1.362    0.266
       100 -10.1776     75.2069    110.6572   8.4640392622e+01   4.4897865498e+01     0.212433    0.1443182  21.60 0.0007935212    1.677    0.404
       101 -13.8382    143.1466    107.4755   6.3866350070e+01   3.2204044600e+01    0.6603973    0.4788074 -10.33  0.002863768    1.914    0.478
       102 -12.4395     57.8045     99.8020   8.8117979750e+01   5.0198929562e+01    0.3928136    0.3079005 -54.01  0.001247563    1.205    0.170
       103 -11.3962     59.9944     96.0070   8.6323382542e+01   5.0809676657e+01    0.2241917    0.2044216 -29.03 0.0003715544    1.049    0.047
       104 -10.7413     75.5186     97.7180   8.1146933615e+01   4.7970248411e+01      0.38721    0.1408601  29.78  0.001211244    3.413    0.707
       105 -12.7073    147.5150    101.4648   6.1216085945e+01   3.2468736617e+01    0.3416039    0.3242319 -19.30  0.001360578    1.084    0.077
       106 -13.5980     50.0954     82.3099   8.6429986628e+01   5.5425463765e+01    0.9723446    0.6190725  58.69  0.004249379    2.395    0.582
       107 -10.2448    206.4896     81.5085   4.5194752519e+01   2.3097731793e+01    0.1357997     0.121881 -49.80 -6.219288e-05    1.038    0.036
       108 -10.4460    152.9920     80.4679   5.4181866836e+01   3.5213618752e+01    0.2217207    0.1449605  53.13 0.0004000721    1.543    0.352
       109 -10.3559    189.4457     77.2363   4.6691115919e+01   2.7447591117e+01    0.2073212    0.1180153 -48.06 0.0009487981    1.663    0.399
       110 -10.8304     75.2130     75.8158   7.4683788604e+01   5.2924644392e+01    0.2073437    0.2054711 -52.03 0.0006170101    1.132    0.116
       111 -10.8351    116.0157     74.1892   6.1151891152e+01   4.4895113958e+01    0.2788246    0.1942517 -21.97  0.001255448    1.716    0.417
       112 -12.5310     32.0396     74.6818   9.1956241751e+01   5.9330846941e+01    0.3284536    0.2243502   0.79  0.001706356    1.638    0.389
       113 -10.5609    125.1295     73.1940   5.8441037184e+01   4.3003486789e+01    0.2275333    0.2033287  17.77 0.0006984249    1.218    0.179
       114 -12.3405     36.7851     67.2166   8.7652357728e+01   6.0493386172e+01    0.9818877    0.5818629  73.08  0.003030757    5.975    0.833
       115 -10.4773    172.9529    249.0504   8.5268537856e+01  -7.9576204622e-01    0.2010362    0.1279468  -0.94  0.001131532    1.730    0.422
       116 -10.2736      2.1880     59.8040   1.0221327738e+02   6.5032679321e+01    0.1850466    0.1168292 -37.43 0.0006148067    1.351    0.260
       117 -10.6228    153.2379     57.7694   4.7585949157e+01   3.8919065765e+01    0.1914515    0.1665613  29.49 0.0005488066    1.327    0.247
       118 -10.6924    127.5172     56.4781   5.2535519944e+01   4.5274171478e+01    0.1437169    0.1383771  60.88 -7.079608e-06    1.002    0.002
       119 -10.7744    195.5201     44.4313   3.7644940031e+01   3.0945890895e+01    0.1323335    0.1132754 -69.97 0.0001867834    1.030    0.029
       120 -10.7482    173.5062    218.9617   8.0533674238e+01   3.9747570509e+00    0.1866242    0.1247655 -40.45  0.001024669    1.568    0.362
       121 -11.0383     60.2351     38.1205   6.6400677782e+01   6.2576485830e+01    0.2314583    0.1851412 -50.74  0.000682703    1.582    0.368
       122 -10.8797     11.6877     36.3566   8.9960824086e+01   6.9356125014e+01    0.1738906    0.1510241  58.13  0.001123514    1.723    0.420
       123 -10.5353    106.5406     32.0531   4.9066137926e+01   5.3670302661e+01     0.200252     0.136401 -28.66  0.001028994    1.589    0.371
       124 -10.6732     39.0110     29.0125   7.1868473187e+01   6.7484846432e+01    0.2107911    0.1387822  -0.40  0.001030983    1.662    0.398
       125 -10.9001    101.7961     25.6041   4.7795521722e+01   5.5543171346e+01    0.1946542    0.1239124  70.34  0.000949799    1.712    0.416
       126 -10.9225     84.3070     23.6705   5.1724016209e+01   5.9712895423e+01    0.1276335    0.1045127 -72.71 0.0007038511    1.659    0.397
       127 -12.0652     10.2307     15.7288   8.1810726200e+01   7.3157013719e+01    0.2062816    0.1317073  21.31  0.001279109    1.518    0.341
       128 -10.2598    238.2760    248.6413   7.3154683052e+01  -8.5880886078e+00   0.09228609   0.08335772 -14.29 0.0003909906    1.657    0.396
       129 -10.1378     92.7055    248.3140   1.0192678824e+02   1.0199190001e+01    0.1256866   0.08171567  57.14  0.000547053    1.599    0.374
