#   1 NUMBER                 Running object number                                     
#   2 MAG_AUTO               Kron-like elliptical aperture magnitude                    [mag]
#   3 X_IMAGE                Object position along x                                    [pixel]
#   4 Y_IMAGE                Object position along y                                    [pixel]
#   5 X_WORLD                Barycenter position along world x axis                     [deg]
#   6 Y_WORLD                Barycenter position along world y axis                     [deg]
#   7 A_WORLD                Profile RMS along major axis (world units)                 [deg]
#   8 B_WORLD                Profile RMS along minor axis (world units)                 [deg]
#   9 THETA_WORLD            Position angle (CCW/world-x)                               [deg]
#  10 FWHM_WORLD             FWHM assuming a gaussian core                              [deg]
#  11 ELONGATION             A_IMAGE/B_IMAGE                                           
#  12 ELLIPTICITY            1 - B_IMAGE/A_IMAGE                                       
         1  -8.3322     97.4112      3.1986   6.6883199468e+01   5.9668560154e+01    0.1835431    0.1151577 -31.73 0.0009528813    1.716    0.417
         2  -9.0472      4.4548    249.0995   1.3918127616e+02   2.3976363809e+01    0.2053988    0.0681144  51.88  0.001321862    1.977    0.494
         3 -11.5392    235.7296    227.0129   9.7049086964e+01  -5.0350181765e+00     1.108235    0.5351799  -5.77  0.004795561    3.749    0.733
         4 -10.8646    218.9198    245.2571   1.0266455260e+02  -4.5532991102e+00    0.5915529    0.4845818  -5.16  0.004508121    1.301    0.232
         5 -11.0628    226.0725    240.7148   1.0079729642e+02  -5.1108809647e+00    0.6625522    0.4251288   8.66  0.004296198    1.561    0.360
         6 -10.2953    248.5028    238.3856   9.6752579536e+01  -8.0693078426e+00    0.4936945    0.3397364 -10.50  0.003528576    1.403    0.287
         7 -11.4252    234.7225    249.0514   1.0060244302e+02  -7.2137746473e+00    0.5189741    0.2574207  23.33 0.0005766052    1.841    0.457
         8 -10.9937    231.8415    245.3643   1.0053175669e+02  -6.4335764663e+00     1.017036    0.4273204  20.17   0.00442615    3.542    0.718
         9 -10.2108    248.2980    250.1624   9.8579318954e+01  -9.1832369327e+00    0.5953628     0.290758  29.72  0.003719178    1.575    0.365
        10 -10.7699    243.4925    245.4938   9.8651202943e+01  -8.0804724752e+00    0.6355434    0.3148637  25.46  0.003813682    1.699    0.411
        11  -9.5534    204.7699    250.0741   1.0572857870e+02  -2.9938252074e+00    0.6226203    0.1284008  36.63  0.002188027    4.431    0.774
        12  -8.9468    211.5364    245.9585   1.0400956864e+02  -3.5401335097e+00    0.2937735    0.1218831  32.30   0.00152018    2.047    0.512
        13  -8.6730    184.5662    250.5363   1.0923962421e+02  -1.4018223059e-02     0.251255   0.08719538  40.66  0.001217059    2.197    0.545
        14 -10.1805    164.4785    243.6412   1.1187034146e+02   3.9467402361e+00    0.3060924    0.1621917  39.49  0.001781964    1.469    0.319
        15 -10.6351    168.0230    249.1488   1.1193038757e+02   2.6795986740e+00    0.5068071    0.2850264  46.97  0.003087734    1.499    0.333
        16  -9.9868    153.2390    249.3672   1.1453817978e+02   4.9090069229e+00    0.4225773    0.1376527  44.09    0.0019791    2.361    0.577
        17 -10.3427    144.1152    249.3763   1.1613535994e+02   6.2920292108e+00    0.3785173     0.177628  44.68  0.002138889    1.633    0.388
        18 -11.4621    116.2230    232.6574   1.1930447521e+02   1.3002509351e+01    0.7414104    0.2381756  36.61  0.003081543    3.106    0.678
        19 -11.6154    118.7316    238.1165   1.1942643951e+02   1.1765794325e+01    0.7508171    0.2460214  40.42  0.003446194    2.475    0.596
        20 -12.7136    102.8787    244.5651   1.2287392366e+02   1.3066855765e+01     1.665089     1.103251  10.42  0.008496542    3.650    0.726
        21 -10.6287    133.9811    245.2764   1.1746774107e+02   8.4021287662e+00    0.2545531    0.1830157  27.71   0.00140698    1.518    0.341
        22  -9.4193     90.1076    245.0661   1.2513644937e+02   1.4760989597e+01    0.2536588     0.209564 -24.78  0.001795733    2.153    0.535
        23  -8.3826    188.0127    245.4885   1.0798041871e+02   7.1183968915e-02    0.1876091   0.08936662  38.68 0.0008269678    1.620    0.383
        24 -10.4944    150.0059    244.6092   1.1455285812e+02   6.0538818374e+00    0.4296423    0.1424884  35.60  0.001822677    2.965    0.663
        25 -10.2846      3.9716    242.8915   1.3903581807e+02   2.5026316826e+01    0.3979127    0.1307678  67.33  0.002311612    2.486    0.598
        26  -7.8046    206.6131    244.7499   1.0467529612e+02  -2.6686301544e+00    0.1192107   0.06943375  21.82 0.0006952457    1.666    0.400
        27  -9.9189    179.2270    243.0438   1.0919053579e+02   1.7319233721e+00    0.4329774    0.1350619  40.07  0.001935013    2.504    0.601
        28  -9.0082     68.2763    241.5311   1.2860447524e+02   1.8199885303e+01    0.2224901     0.200719 -77.24  0.001789192    1.464    0.317
        29  -8.3004    193.3823    242.1558   1.0659346558e+02  -3.4894636096e-01    0.2273641   0.06547937  39.33 0.0008971888    2.738    0.635
        30  -9.8598    144.0108    241.8377   1.1529680168e+02   7.3682620206e+00    0.1785163    0.1656459  48.95 0.0008236156    1.193    0.162
        31  -8.9729     86.8680    242.2388   1.2546067697e+02   1.5651114461e+01    0.2600349    0.1398793  32.34  0.001490848    2.154    0.536
        32  -8.3061     49.2911    240.7303   1.3174446936e+02   2.0640347525e+01    0.1850237    0.1032368 -54.64  0.001164926    2.634    0.620
        33  -8.0744    205.4929    240.5076   1.0426324704e+02  -2.0093413556e+00    0.1175245   0.08909565  27.04  7.29536e-06    1.011    0.011
        34  -9.4336    171.5327    239.6794   1.1010996766e+02   3.3722242129e+00    0.2434932    0.1500079  24.71  0.001428613    1.707    0.414
        35  -9.8043    216.4746    235.4179   1.0162671203e+02  -3.0899109093e+00    0.3697273    0.1681744  23.47  0.001749453    2.627    0.619
        36  -9.0226     80.7397    245.6315   1.2678945671e+02   1.5926065156e+01    0.2253113    0.1718252  75.37  0.001719064    1.200    0.167
        37 -11.0746    244.5992    235.3344   9.6907747894e+01  -7.2129228164e+00     1.226286    0.5783422  15.00  0.006012784    2.777    0.640
        38  -9.8954     91.5050    236.8677   1.2418218852e+02   1.5888207738e+01    0.2524867    0.2038432  55.06  0.001878739    1.100    0.091
        39  -8.6461     78.1561    237.2173   1.2656713469e+02   1.7636295465e+01    0.2232589    0.1717605 -76.15  0.001663874    1.446    0.309
        40  -8.6248     60.9128    249.6125   1.3038993522e+02   1.7805757922e+01    0.1686176    0.1360799 -69.99  0.001360431    1.590    0.371
        41  -9.7175      6.7943    236.1283   1.3835269055e+02   2.5884798874e+01    0.2097045   0.09620596  80.43  0.001416619    1.779    0.438
        42  -8.7058    195.1599    236.3878   1.0547128431e+02   8.3652587274e-02    0.2550833   0.08631699  34.80  0.001098142    2.685    0.628
        43 -10.8541    130.3899    234.9208   1.1696312157e+02   1.0494077004e+01     0.264356    0.2113933 -43.23   0.00183345    1.643    0.391
        44  -8.8918    207.2811    234.9844   1.0314781852e+02  -1.6307930644e+00    0.2305876    0.1189688  30.28  0.001280117    1.670    0.401
        45  -9.0243     55.8753    232.7001   1.3010445006e+02   2.1217937458e+01    0.2665541    0.1418751 -72.30  0.001487477    1.943    0.485
        46  -9.0484    149.9958    237.7218   1.1373013299e+02   7.0292372862e+00    0.1770064    0.1277053  43.03 0.0008408566    1.090    0.083
        47  -8.2499     85.0418    232.4015   1.2494075283e+02   1.7518408699e+01    0.2134814    0.1299978 -47.19  0.001272808    2.478    0.596
        48  -9.9891    141.0467    234.6578   1.1498623040e+02   8.8806261283e+00    0.3208031    0.1454196  49.55  0.001641926    1.933    0.483
        49  -9.8196    135.2983    230.6498   1.1556399415e+02   1.0391425335e+01    0.2197299    0.1913496  47.28  0.001572835    1.094    0.086
        50  -8.2219    226.3029    230.3034   9.9163187164e+01  -3.9928654528e+00    0.1189264   0.07365631  14.00 0.0003440579    1.594    0.373
        51  -8.5295    216.4601    229.5346   1.0073047626e+02  -2.4008088520e+00    0.2618583    0.1443298  13.50  0.001173835    2.305    0.566
        52 -10.1243    163.4010    234.2570   1.1086143188e+02   5.4012799384e+00    0.3106954    0.1766246  40.48  0.001808786    1.396    0.284
        53  -8.5484    188.9997    229.5156   1.0557379243e+02   1.9392193200e+00    0.1931216   0.09696994  38.97  0.001035199    1.602    0.376
        54  -9.6837     92.7197    228.1225   1.2315638760e+02   1.7178604216e+01    0.2697786    0.1871733  35.05  0.001404716    1.532    0.347
        55  -8.0944     78.9973    229.0451   1.2573662680e+02   1.8906075819e+01    0.1520557    0.1401296  -1.48  0.001130534    1.716    0.417
        56  -9.2671    192.2791    248.4659   1.0764144378e+02  -9.3597614107e-01    0.3076033    0.0871855  38.98  0.001334533    2.750    0.636
        57  -8.2466      2.0000    227.9031   1.3878781690e+02   2.7726834693e+01    0.1465418   0.04436351 -81.29 0.0007918062    2.869    0.651
        58 -12.6448    114.7935    245.5980   1.2088435010e+02   1.1199170250e+01     1.395716    0.5985425  41.19  0.007600476    1.849    0.459
        59  -9.2469     68.3794    224.8215   1.2730180555e+02   2.1034555999e+01    0.3474801    0.2324103 -48.12  0.002209016    2.245    0.555
        60 -11.0266    244.0674    228.3829   9.5885945712e+01  -6.4070386828e+00    0.9124609    0.4790107  12.64   0.00492457    2.189    0.543
        61  -9.1881    154.9182    232.6252   1.1219635670e+02   6.9878884513e+00    0.2801163   0.09334353  41.25   0.00123335    2.393    0.582
        62  -9.4872    145.8773    225.8812   1.1300352477e+02   9.4476357278e+00    0.2295779    0.1650576  34.85 0.0008902046    1.255    0.203
        63  -8.0219    224.4214    224.8752   9.8623968612e+01  -3.0790041613e+00    0.2030471    0.1104216  33.26 0.0007986656    1.502    0.334
        64  -9.1464    122.0449    224.5330   1.1731764713e+02   1.3434892602e+01    0.1718923    0.1550395  71.66 0.0009328302    1.160    0.138
        65  -8.3937    164.4682    224.5055   1.0934719544e+02   6.6287467314e+00    0.1233571    0.1004013  40.55 0.0008095889    1.032    0.031
        66  -9.3303     16.4375    223.0421   1.3623516902e+02   2.7222348354e+01     0.201802    0.1275613  40.54 0.0006664057    1.626    0.385
        67  -9.9966     19.2800    218.3845   1.3552406648e+02   2.7776817178e+01    0.4857948    0.1837678 -81.70  0.002761849    2.398    0.583
        68  -7.7826    206.6554    222.6939   1.0138222882e+02  -1.6041674946e-02    0.1263425   0.07996151  15.60 0.0007042401    1.692    0.409
        69  -9.2463     98.8828    222.6432   1.2147011725e+02   1.7236239959e+01    0.1818589    0.1606304 -72.15  0.001319735    1.334    0.250
        70  -8.2541     83.0779    223.1582   1.2446754093e+02   1.9377812350e+01    0.1634182    0.1457601  53.08 0.0008152259    1.256    0.204
        71  -7.6662     59.2931    221.3250   1.2866922512e+02   2.2801483231e+01   0.09272648   0.08674061 -48.15 0.0004317138    1.619    0.382
        72 -10.0261    241.2253    217.5572   9.4569541237e+01  -4.7921986893e+00     0.379582    0.1994905  13.10  0.001931016    2.304    0.566
        73  -8.9097    233.0963    219.3296   9.6236701258e+01  -3.7621870657e+00    0.1984198    0.1172926  22.55 0.0009590912    1.517    0.341
        74  -9.8421    198.1844    245.2522   1.0618989933e+02  -1.4532546251e+00     0.284485    0.1648962  16.49  0.001611361    2.062    0.515
        75  -7.7331    160.4913    217.5114   1.0910858905e+02   8.3374733589e+00    0.1257569     0.104038  39.23   0.00081052    1.004    0.004
        76  -9.6461    248.5983    215.0918   9.2926971411e+01  -5.6144810072e+00    0.3292815    0.1830399  32.34  0.001776379    1.519    0.342
        77  -8.5065    129.5037    219.3320   1.1527521293e+02   1.3122079672e+01    0.2262798   0.09633035  41.27   0.00108128    1.958    0.489
        78  -8.0219    211.0092    216.0197   9.9537553626e+01   1.3642548226e-01    0.1525877    0.1244814  20.16  0.001014914    1.028    0.027
        79  -8.0038     83.0157    215.9485   1.2379925903e+02   2.0673518270e+01    0.1628739     0.145683 -17.36  0.001130204    1.759    0.431
        80  -8.0658      7.6622    216.7150   1.3740434203e+02   2.9184453546e+01    0.0844563   0.07338549 -68.09 0.0003537223    1.630    0.386
        81  -7.9227     91.5161    215.4995   1.2213276823e+02   1.9559575331e+01    0.1197098    0.0966134  61.20 0.0002111173    1.004    0.004
        82 -10.1185    158.3435    245.1426   1.1314038675e+02   4.6954467047e+00    0.2667972    0.1778228  53.77  0.001419762    1.458    0.314
        83  -7.6770    222.6219    212.6998   9.6933663147e+01  -1.3174969351e+00    0.1312174   0.07944255  15.09 0.0007025387    1.762    0.433
        84  -8.0760     62.8232    211.9718   1.2726082838e+02   2.4074723581e+01     0.166627    0.1259195 -44.01  0.001084282    2.021    0.505
        85  -8.1308      2.1560    212.4008   1.3813780107e+02   3.0459350177e+01    0.1423366   0.06434469  51.15 0.0009369041    1.715    0.417
        86  -8.0531    250.3362    210.1332   9.1783505731e+01  -5.3127582854e+00    0.1870002    0.1204933  -0.17 0.0008705813    1.489    0.328
        87  -8.5378     96.7048    210.5325   1.2059968155e+02   1.9707689154e+01    0.2282376    0.1082175  36.35  0.001131807    2.085    0.520
        88  -8.9169    247.8537    205.2734   9.1337509219e+01  -4.3752063579e+00     0.234505    0.1329834   0.05  0.001235543    2.070    0.517
        89  -8.1947      1.8404    206.1681   1.3792086070e+02   3.1631124452e+01    0.1333794   0.09931038 -81.09  0.001068849    1.357    0.263
        90  -7.3752    121.3081    206.3273   1.1522387576e+02   1.6674405365e+01    0.1166575   0.09804323   4.06 0.0007038375    1.656    0.396
        91 -11.4986     98.2360    240.6903   1.2333512216e+02   1.4331146315e+01    0.8766189    0.5136249 -38.91  0.004758141    3.315    0.698
        92  -8.3987    132.8736    199.8554   1.1200956381e+02   1.5927357161e+01    0.1930365    0.1703534  20.21 0.0009861382    1.301    0.232
        93  -8.0829      7.6818    206.3274   1.3691870021e+02   3.1086430964e+01    0.1133016   0.05355824  65.67 0.0003270117    1.680    0.405
        94  -7.6055    151.3026    196.6500   1.0778985689e+02   1.3318235818e+01    0.1309242   0.09803116  73.04 0.0007039746    1.697    0.411
        95  -8.0033     48.2286    191.6178   1.2835274883e+02   2.9790319219e+01     0.140581     0.106638  32.95 0.0002790446    1.596    0.373
        96  -7.5192    240.2307    172.0513   8.6348527121e+01   1.1119917169e+00    0.1563637   0.09933843 -25.94 0.0002976933    1.511    0.338
        97  -7.4442    241.2695    167.3228   8.5217372943e+01   1.5862991772e+00     0.133003   0.08989301   4.13 0.0002747709    1.569    0.362
        98  -8.0592    209.1935    160.2330   8.9499834902e+01   8.5898780896e+00    0.1758898    0.1656433  70.60 0.0004854689    1.345    0.257
        99  -9.2744     20.2068     70.7044   1.1984761865e+02   5.9325471484e+01    0.2703829     0.127544 -56.03  0.001428023    1.616    0.381
       100  -7.9692    126.3634     54.7475   7.9643659792e+01   4.6323706770e+01    0.1968183    0.1389918 -21.59 0.0002453658    1.515    0.340
       101  -7.3440    172.6536     50.3314   6.7979727944e+01   3.5633412918e+01     0.160521    0.1141037 -67.74 -0.0002006243    1.762    0.432
