#   1 NUMBER                 Running object number                                     
#   2 MAG_AUTO               Kron-like elliptical aperture magnitude                    [mag]
#   3 X_IMAGE                Object position along x                                    [pixel]
#   4 Y_IMAGE                Object position along y                                    [pixel]
#   5 X_WORLD                Barycenter position along world x axis                     [deg]
#   6 Y_WORLD                Barycenter position along world y axis                     [deg]
#   7 A_WORLD                Profile RMS along major axis (world units)                 [deg]
#   8 B_WORLD                Profile RMS along minor axis (world units)                 [deg]
#   9 THETA_WORLD            Position angle (CCW/world-x)                               [deg]
#  10 FWHM_WORLD             FWHM assuming a gaussian core                              [deg]
#  11 ELONGATION             A_IMAGE/B_IMAGE                                           
#  12 ELLIPTICITY            1 - B_IMAGE/A_IMAGE                                       
         1 -12.5746      2.2088     80.2935   8.9361506955e+01   5.7952164273e+01     1.452592          nan -64.50  0.004249216    5.857    0.829
         2 -13.5851    234.4384     41.7358   1.8231195431e+01   2.1202246081e+01     1.594709     1.048044  44.27  0.008099962    1.833    0.455
         3 -10.9534    108.2333     16.1661   3.2074166541e+01   5.5278132583e+01    0.3959579    0.2864261 -62.18  0.001041505    2.113    0.527
         4 -10.1385     19.9802      6.9749   6.0718131536e+01   7.0723602742e+01    0.2582779    0.1429046 -57.34   0.00115231    4.415    0.774
         5  -9.3571     59.9909      5.5060   4.2412693715e+01   6.5734328843e+01     0.146885     0.111366  69.06 0.0006455983    2.539    0.606
         6 -10.0583      1.8865      2.6719   6.8240972356e+01   7.2809378510e+01    0.2043625      0.10546 -35.13  0.001333837    1.419    0.295
         7 -10.2842    127.0939    230.5136   7.9856138081e+01   1.0321119429e+01    0.2865196    0.2005601  14.63  0.001545826    2.223    0.550
         8 -12.6045     41.3062    171.4766   9.0714408395e+01   3.4350692081e+01     0.733821    0.5545902 -21.82  0.001415843    2.205    0.546
         9 -11.7192     48.8162    166.1263   8.8453380277e+01   3.4687504271e+01    0.2819508    0.2534012 -46.86 0.0004985171    1.395    0.283
        10 -15.0720     16.4356    235.6759   1.0012353281e+02   2.4204161297e+01     5.548763      2.49079  25.83   0.02754822    4.381    0.772
        11 -15.3617     24.7802    180.9773   9.5076060076e+01   3.4016440295e+01     7.452083     2.358383 -89.21    0.0241511    5.612    0.822
        12 -11.4517     78.5538    206.0933   8.6584187976e+01   2.2323345455e+01    0.3221747    0.2068184 -85.51  0.000512457    1.612    0.380
        13  -9.4258    192.9742    194.9634   6.1187873382e+01   4.6951394363e+00    0.3313144    0.1787935 -61.76  0.001151211    4.468    0.776
        14 -11.2438    243.7536    172.2464   4.7094369058e+01  -1.0107112925e+00     0.291612    0.2122666 -46.57  0.001593167    1.718    0.418
        15 -10.9427    236.5396    172.7393   4.8477022876e+01   1.9698680744e-01    0.2942108    0.1472217  31.31  0.001303463    2.126    0.530
        16 -12.0844     75.5319    137.3277   7.7703919438e+01   3.7869607276e+01    0.4017408    0.2790592 -62.54 0.0005032701    1.330    0.248
        17 -12.3629     53.6757    119.3612   8.0467479676e+01   4.4891070201e+01     2.702873    0.7428318 -70.07  0.005575008    9.991    0.900
        18 -12.0270     70.0799    152.0928   8.1527631822e+01   3.5203167896e+01    0.5360729    0.3978926  66.95 0.0009657001    1.380    0.276
        19 -13.3732     68.2736    143.8189   8.0686799570e+01   3.7359731118e+01     2.215099     1.119586  79.74  0.003226669    4.344    0.770
        20 -10.5832    230.1125    166.1548   4.8270989686e+01   2.4008215253e+00    0.2455347    0.1876955  42.84 0.0009211544    1.371    0.270
        21 -11.3264    245.3158    163.6730   4.5037619204e+01   1.4623886973e-03    0.3563128    0.2293516 -49.97  0.001753353    2.078    0.519
        22 -12.3121    236.2554    157.6547   4.5348321763e+01   2.5984603341e+00     0.540813    0.3027897 -36.07   0.00257211    1.723    0.420
        23 -10.9821     61.8530    157.4133   8.4304819106e+01   3.5068218150e+01    0.2364043     0.226808 -87.97 0.0003955338    1.174    0.148
        24 -12.2817     32.6720    155.9635   9.1006905348e+01   3.8693451072e+01    0.4797185    0.4280223  -4.45  0.003333757    1.587    0.370
        25 -13.3435     47.3094    152.8049   8.7187379288e+01   3.7864075260e+01    0.6118575    0.4313962 -20.76  0.002413538    2.336    0.572
        26 -10.3563     88.3927    139.7892   7.4779234040e+01   3.5374301138e+01    0.3099087     0.292876 -52.11 0.0007989041    1.119    0.106
        27  -9.3766     92.3870    136.7587   7.3153522486e+01   3.5440765243e+01    0.2848547    0.2306549   3.67  0.001045869    1.651    0.394
        28 -11.6689    242.4560    136.7798   3.9673119231e+01   4.7546739961e+00    0.4990109     0.214803 -23.82  0.001785716    3.036    0.671
        29 -10.3680    104.9175    130.0567   6.8456932410e+01   3.4863555305e+01    0.4604535    0.3317165  51.69  0.001610702    1.455    0.313
        30  -9.7437     74.2753    130.6113   7.6819954916e+01   3.9616041114e+01    0.2610237     0.161648 -72.20   0.00103251    1.706    0.414
        31  -9.2237     85.5829    152.5997   7.7761114416e+01   3.2852811962e+01    0.2216563    0.1830701  83.21  0.000331849    1.207    0.171
        32  -8.6717    110.5941    167.2401   7.4184626321e+01   2.5483322510e+01    0.1788155    0.1314232 -49.26 0.0004476075    1.448    0.310
        33 -10.4569     89.6656    125.2752   7.1560522854e+01   3.8541802176e+01    0.2881489    0.2524771  -9.64 0.0008345899    1.371    0.271
        34  -7.9052    134.6678    125.3211   5.9625149195e+01   3.0181668658e+01    0.1577099     0.122731  85.89  0.000704943    1.698    0.411
        35  -8.4636    112.6297    123.6677   6.4971576883e+01   3.4912895942e+01    0.1563394    0.1187112  -9.10 0.0007029521    1.833    0.455
        36  -9.4556    102.3779    118.1138   6.6468299450e+01   3.8043857415e+01    0.2186604    0.1984449  18.84 0.0003691289    1.209    0.173
        37 -14.3118     14.9601    189.0464   9.7616711818e+01   3.3270909992e+01     1.530943    0.7397688  68.39  0.005659958    1.905    0.475
        38  -9.5676    204.4875    110.7469   4.0295559924e+01   1.7326688637e+01    0.3984218    0.2451736  32.75  0.001669155    1.938    0.484
        39 -11.2388    244.8857    107.3059   3.2511760802e+01   9.0243780542e+00     0.533426    0.1026379 -40.51  0.001473408    4.572    0.781
        40  -8.1024     37.4773    100.5077   8.1780233055e+01   5.0941261627e+01    0.1277388    0.1078099 -64.50 0.0001120502    1.040    0.039
        41 -10.1747    248.7753    249.0032   6.0205276877e+01  -1.1557240258e+01    0.2145707    0.1328018  28.37  0.001419379    1.263    0.208
        42 -10.4636    166.5245     87.5809   4.1907864976e+01   3.0646867594e+01    0.3180676    0.2211852   2.40   0.00104319    2.131    0.531
        43  -9.0556     41.6963     81.3032   7.6392292839e+01   5.4838748071e+01    0.2229107    0.1456559 -69.71 0.0008662005    1.629    0.386
        44  -9.1938    184.5963     77.2390   3.5232450892e+01   2.8035486613e+01    0.2104945    0.1487759 -20.74 0.0005666478    1.612    0.380
        45  -8.8358     31.0402     71.5206   7.7771724636e+01   5.7937593573e+01    0.1591212     0.122116  19.07 0.0008233342    1.530    0.346
        46 -12.3033    211.8706     56.6845   2.4965945065e+01   2.4518483161e+01     1.025082    0.5397928 -51.04  0.004292751    2.056    0.514
        47 -13.0104    218.0161     52.7991   2.3073781525e+01   2.3582665970e+01     1.175864    0.7534717 -54.19  0.005362485    1.616    0.381
        48 -10.6679    115.9770    244.4942   8.3550798456e+01   9.7591058218e+00    0.3592486    0.1748546 -68.74  0.001696594    2.843    0.648
        49 -10.0536     11.1911     53.1846   8.0728995866e+01   6.3178619781e+01    0.1513447    0.1281374 -72.69   0.00108266    1.351    0.260
        50 -11.3503     12.4316     59.6780   8.1798725499e+01   6.1776562357e+01    0.3692552    0.2490071  34.68  0.001072903    1.901    0.474
        51 -10.4005     52.8529     91.2414   7.5017309342e+01   5.1442532866e+01    0.3056672    0.1828649 -43.39  0.001274977    1.535    0.349
        52 -10.1587     80.8619    246.4974   9.0030572484e+01   1.4558863290e+01    0.2218515    0.1291797  84.37  0.001335661    1.922    0.480
        53  -8.4513    189.4999     15.4728   1.6940430644e+01   3.5408746853e+01    0.1375602    0.1238906  73.57 0.0001612043    1.035    0.034
        54 -12.9202      6.1589    195.3039   9.9659280069e+01   3.2799020038e+01    0.3596371    0.2967288  65.82 0.0007692922    1.245    0.197
        55 -13.8890      8.8122    208.2367   9.9932150390e+01   3.0025772722e+01      1.28556    0.9736032 -58.02  0.008561666    1.764    0.433
