#   1 NUMBER                 Running object number                                     
#   2 MAG_AUTO               Kron-like elliptical aperture magnitude                    [mag]
#   3 X_IMAGE                Object position along x                                    [pixel]
#   4 Y_IMAGE                Object position along y                                    [pixel]
#   5 X_WORLD                Barycenter position along world x axis                     [deg]
#   6 Y_WORLD                Barycenter position along world y axis                     [deg]
#   7 A_WORLD                Profile RMS along major axis (world units)                 [deg]
#   8 B_WORLD                Profile RMS along minor axis (world units)                 [deg]
#   9 THETA_WORLD            Position angle (CCW/world-x)                               [deg]
#  10 FWHM_WORLD             FWHM assuming a gaussian core                              [deg]
#  11 ELONGATION             A_IMAGE/B_IMAGE                                           
#  12 ELLIPTICITY            1 - B_IMAGE/A_IMAGE                                       
         1 -13.8258      2.9110    127.6140   1.1705742562e+02   4.8109450141e+01     6.523323     1.159314 -76.44   0.01680066    6.563    0.848
         2 -12.2500    211.0750     36.5481   3.9463813213e+01   2.8488653639e+01     1.266894    0.8635094 -25.65  0.006982171    1.727    0.421
         3 -11.7645    228.2419     21.0903   3.4335856664e+01   2.6628909399e+01    0.6915079    0.5389522 -55.65   0.00280137    1.130    0.115
         4  -9.2561      2.0113      4.1929   8.6496248699e+01   7.4088376844e+01    0.3500953   0.08911918 -41.03  0.001587392    3.144    0.682
         5  -9.8455    248.5972      2.6487   2.9162715717e+01   2.4518062116e+01    0.3804726    0.2193475 -86.26  0.002397864    1.551    0.355
         6 -10.5756     77.2978    223.9679   1.0915642300e+02   1.7324419894e+01    0.5173793    0.2157674 -64.21   0.00220759    2.499    0.600
         7 -11.5889     68.6309    244.0224   1.1292186011e+02   1.4450068485e+01    0.7275938    0.5305483 -89.41  0.002557406    1.395    0.283
         8 -11.3728     56.9188    241.5672   1.1503982476e+02   1.6426826155e+01    0.7018847    0.3677961  42.32  0.002389607    1.609    0.378
         9 -13.5260     41.5599    248.7681   1.1853801941e+02   1.6880465613e+01      4.78651     1.339213  27.40    0.0145267    7.260    0.862
        10 -13.1954      6.8512    244.8613   1.2463139444e+02   2.1329619870e+01     1.580394     1.258451 -86.04   0.01222349    1.298    0.230
        11 -12.1934     15.3445    214.3717   1.2136119356e+02   2.6716912657e+01    0.6710432    0.5727914  73.41  0.002647209    1.139    0.122
        12 -13.0760     10.4016    206.7254   1.2187831401e+02   2.8843813684e+01     1.060962    0.9043951 -50.74  0.004286058    1.546    0.353
        13  -8.9930    177.9971    223.0101   8.7235625730e+01   1.8579071623e+00    0.1880079     0.160403  62.55  0.000465255    1.599    0.375
        14 -12.6054      7.2504    230.2573   1.2384215854e+02   2.4172957792e+01     1.599507    0.6195894  61.81  0.008268679    2.268    0.559
        15  -9.0181     32.5351    222.0418   1.1840950405e+02   2.3300388445e+01    0.2585239    0.1052946 -83.52 0.0007100411    2.563    0.610
        16 -10.7343     85.3021    221.8333   1.0717447841e+02   1.6645448842e+01    0.3985307    0.3320523  79.67 0.0006238228    1.176    0.149
        17 -11.3531    121.8469    231.0996   1.0038103951e+02   9.3004411312e+00    0.8754879    0.6037343 -18.31   0.00443879    2.220    0.549
        18  -9.8608     43.8159    219.1223   1.1584551021e+02   2.2645434840e+01    0.2551684    0.1844094  69.75 0.0004621261    1.198    0.166
        19 -12.3699      5.0224    182.2284   1.2138535051e+02   3.4838646690e+01     2.115782    0.6533912 -83.77  0.008367005    3.151    0.683
        20 -11.6993    113.1048    230.6367   1.0220075011e+02   1.0733814925e+01    0.9409285    0.6701519 -45.34  0.005343362    1.644    0.392
        21  -8.1991     81.2399    181.9882   1.0292382724e+02   2.6230569346e+01    0.2447308    0.1919841  11.04  0.001268466    1.638    0.390
        22  -7.7849     99.3590    180.7402   9.8155408098e+01   2.3721918122e+01    0.1504772    0.1052176  63.61 0.0004638032    1.625    0.385
        23 -10.1914     59.0802    177.0881   1.0785245085e+02   3.0475702372e+01    0.4734811    0.2788036 -38.62  0.002139625    2.303    0.566
        24 -10.1738     64.5074    171.7383   1.0572464068e+02   3.1079838119e+01    0.3390479     0.260373 -42.94 0.0009403801    1.475    0.322
        25  -8.1386    192.3300    193.6581   7.8992978377e+01   4.7105013572e+00    0.1317887    0.1141945  85.51 0.0007051284    1.746    0.427
        26  -8.4825    101.6627    171.6780   9.6021139162e+01   2.5504322084e+01    0.1506737    0.1160528 -18.92 0.0007050526    1.713    0.416
        27 -11.9808     68.3503    144.8120   1.0034397569e+02   3.7310334453e+01    0.9329668    0.6187599  80.23  0.003324593    1.978    0.494
        28 -11.7727     61.6903    158.3418   1.0448843289e+02   3.4790026465e+01    0.5429985    0.3241726 -41.96  0.001442108    1.936    0.483
        29  -9.9050     23.3307    157.3684   1.1471537383e+02   3.9248616296e+01    0.4224931     0.190619  88.15  0.001729579    2.671    0.626
        30  -8.8705     96.6508    142.1003   9.1660251980e+01   3.3595583014e+01    0.2604277    0.2104021  51.35 0.0006040661    1.305    0.234
        31 -10.5601     84.8476    140.5438   9.4728410214e+01   3.5930433213e+01    0.3153192    0.2670729 -44.16 0.0003580422    1.177    0.150
        32  -8.0646    198.1707    139.9612   6.6430123587e+01   1.3909156134e+01    0.2466033    0.1640591 -63.83 0.0009548924    2.115    0.527
        33  -8.2534    100.0562    139.1614   9.0061167088e+01   3.3730096923e+01    0.2448665    0.2082258 -17.91  0.001221579    1.350    0.259
        34 -10.0861     74.5259    162.4879   1.0164809349e+02   3.1988299665e+01    0.3132949    0.2855712 -13.74 1.002757e-06    1.303    0.232
        35 -11.1572     80.6252    156.0363   9.8877549593e+01   3.2701194926e+01    0.9408146    0.6277748  23.70  0.002286843    1.767    0.434
        36  -9.2652    107.3066    131.1615   8.6185783260e+01   3.4370718414e+01    0.4214031    0.3221311  36.43  0.002009808    1.357    0.263
        37  -8.1456     17.2073    130.3619   1.1318918895e+02   4.6462830046e+01    0.1722413    0.1120419  40.00 0.0008195533    1.733    0.423
        38  -9.0904     95.3333    127.4169   8.8783735438e+01   3.7436041133e+01    0.3009188    0.2395407 -27.89 0.0009528504    1.390    0.280
        39  -8.0184    106.0602    119.6965   8.3759697405e+01   3.7345020382e+01    0.2071751      0.19444  21.56 0.0004237685    1.107    0.097
        40  -7.5785    205.7233    110.3783   5.8066172376e+01   1.7975905171e+01    0.1522696    0.1069107 -63.66 0.0004406123    1.704    0.413
        41  -7.6251     41.3340     92.2934   9.8266980084e+01   5.3628397346e+01    0.1436371   0.09250011 -29.79 0.0003375748    1.639    0.390
        42 -11.6125     30.5664    204.0329   1.1741985587e+02   2.7451327860e+01    0.4363359    0.4220884  10.96  0.001281025    1.394    0.283
        43 -13.6886     40.0371    193.7854   1.1437616788e+02   2.8766392938e+01     3.632726     1.440731  66.98   0.01283198    3.918    0.745
        44  -9.8968     13.4023     60.2136   1.0137167187e+02   6.3217167680e+01    0.2547041    0.1783661 -33.21 0.0007731601    1.211    0.174
        45  -7.7469     39.5373     58.4674   8.9442702705e+01   6.1204850545e+01    0.1321099    0.1110959 -24.92 0.0001234516    1.010    0.010
        46  -9.7505      3.0852     55.0882   1.0465229097e+02   6.4910584649e+01    0.2897812    0.1098105 -44.93  0.001427315    1.949    0.487
        47 -12.1697    203.3556     42.5157   4.1789848410e+01   2.9456987622e+01    0.8074561    0.7108213   4.28  0.004631136    1.516    0.341
        48 -11.9880    131.7409    230.2692   9.8142734508e+01   7.9141433210e+00    0.9456199    0.4655816  30.80  0.004323652    1.986    0.496
        49 -10.8909    218.9004     30.0754   3.7159735701e+01   2.7567186860e+01    0.4718216    0.3589468  41.10  0.001227749    1.784    0.439
        50  -9.9177    163.5019    225.2443   9.0620231249e+01   3.7763891696e+00    0.2358142    0.2010293  77.87  0.001378437    1.650    0.394
        51  -8.6266    132.4721     39.6186   5.2469216000e+01   4.6782388082e+01    0.2411793    0.1983459  67.77 0.0003991189    1.209    0.173
        52  -9.7279     16.6350    183.0855   1.1881257130e+02   3.3646056994e+01    0.2033545    0.1503367  57.61 0.0007259359    1.280    0.219
        53  -8.8578    132.9419     32.3894   5.0003427145e+01   4.7578516792e+01    0.2649945    0.2063098 -78.66  0.001066838    1.544    0.352
        54  -9.0902      1.6124     31.7305   9.8423046747e+01   6.9587305558e+01    0.2261262    0.0818202 -50.73  0.001131538    2.106    0.525
        55 -11.8756    101.9430    229.2460   1.0443318858e+02   1.2692564210e+01    0.9167899    0.3856373  28.90  0.003716608    2.748    0.636
        56  -8.9966      2.3058     24.4597   9.5384978972e+01   7.0845555910e+01    0.2027257      0.08516 -50.52  0.001075745    2.025    0.506
        57  -8.8044     59.0659    229.6730   1.1358364999e+02   1.8554656059e+01    0.2147069      0.16789 -75.84 0.0005922769    1.305    0.234
