#   1 NUMBER                 Running object number                                     
#   2 MAG_AUTO               Kron-like elliptical aperture magnitude                    [mag]
#   3 X_IMAGE                Object position along x                                    [pixel]
#   4 Y_IMAGE                Object position along y                                    [pixel]
#   5 X_WORLD                Barycenter position along world x axis                     [deg]
#   6 Y_WORLD                Barycenter position along world y axis                     [deg]
#   7 A_WORLD                Profile RMS along major axis (world units)                 [deg]
#   8 B_WORLD                Profile RMS along minor axis (world units)                 [deg]
#   9 THETA_WORLD            Position angle (CCW/world-x)                               [deg]
#  10 FWHM_WORLD             FWHM assuming a gaussian core                              [deg]
#  11 ELONGATION             A_IMAGE/B_IMAGE                                           
#  12 ELLIPTICITY            1 - B_IMAGE/A_IMAGE                                       
         1 -15.0915     68.5413    144.3361   1.0859504059e+02   3.7078767697e+01     5.178132     2.549821  68.33  0.003096587    3.460    0.711
         2 -13.2582    229.3712      3.0224   3.7033305317e+01   2.7724391011e+01      1.71815    0.5915231  59.14  0.004198968    2.895    0.655
         3 -14.1854    195.8375     37.5393   4.9554991158e+01   3.1769542546e+01     1.538496     1.203771 -18.41  0.003758047    1.457    0.314
         4 -14.6357    205.6459     26.7517   4.5317881385e+01   3.0710515804e+01     1.672937     1.318108  21.33  0.001966142    1.685    0.407
         5  -9.9956    155.6805     11.0490   4.7475563782e+01   4.5064704318e+01    0.1799338    0.1793862  87.36 0.0005050098    1.090    0.083
         6 -10.2716     64.0818      9.0407   6.9136368425e+01   6.5592991069e+01    0.1716141    0.1572271 -59.17 0.0007420338    1.669    0.401
         7 -11.7625     32.4169      4.3046   8.0307343658e+01   7.0867010251e+01    0.2960129    0.2342893 -51.09  0.001918628    2.095    0.523
         8 -12.2906     59.7490      3.1250   6.7798289592e+01   6.6990024280e+01    0.5116411    0.2805507  41.76  0.002833211    1.714    0.417
         9 -11.0433    208.2305    196.4659   8.6156254233e+01   1.6237700352e+00    0.2385675    0.1819513 -29.66 0.0007025147    1.344    0.256
        10  -8.9111    159.3167    250.3097   1.0387685220e+02   1.5418236876e+00    0.1151921   0.08309482  15.49 0.0002413079    1.636    0.389
        11 -10.9220    139.7038    249.5754   1.0738168034e+02   4.6761075657e+00    0.2762758    0.1774317  53.48  0.001699561    1.425    0.298
        12 -11.2118    117.3388    249.6738   1.1147940608e+02   8.0473850142e+00     0.302343    0.2046187  78.49  0.001882876    1.778    0.438
        13 -15.0174     85.4152    229.9195   1.1543305736e+02   1.6111858869e+01     1.735221      1.14887 -84.92   0.00790571    1.587    0.370
        14 -15.2319     47.2021    220.6492   1.2180980911e+02   2.2873167342e+01     1.605197     1.136604  88.16  0.007818655    1.223    0.182
        15 -16.2374     52.7902    199.1766   1.1895089995e+02   2.6561663721e+01     3.555628     3.003262  80.83   0.02138167    1.101    0.092
        16 -10.3150     81.5491    194.9927   1.1249171355e+02   2.3619452701e+01    0.2813438    0.2324353  61.88 0.0009218075    1.075    0.070
        17  -9.8179     95.3370    188.5400   1.0866459186e+02   2.2941163948e+01    0.2642184    0.2129051  12.98   0.00147407    1.749    0.428
        18 -16.6833     57.5508    247.5709   1.2189146079e+02   1.6637876653e+01     8.383094     2.784302  29.74   0.02572958    8.217    0.878
        19  -9.6907     99.3260    186.0848   1.0743643263e+02   2.2846164937e+01    0.2813079    0.1489979  54.55  0.001067532    1.912    0.477
        20 -10.4403    147.0591    183.9937   9.6463576344e+01   1.5017888249e+01    0.2205619    0.2039738  47.45  0.001266078    1.011    0.011
        21 -10.4481     99.3613    180.7022   1.0665337091e+02   2.4016885065e+01    0.2360268    0.2239995  70.67 0.0005995109    1.113    0.102
        22 -15.4972     10.1879    206.6734   1.2768890197e+02   2.9589212860e+01    0.6769795    0.5247262 -63.70  0.002881981    1.618    0.382
        23 -12.2844     72.3724    176.0638   1.1219802666e+02   2.9089342768e+01    0.4517986    0.2853807 -41.10  0.002238114    2.215    0.549
        24 -12.1438     76.2023    171.1295   1.1065811284e+02   2.9680194923e+01    0.3301103    0.2829479 -41.97 0.0008215102    1.454    0.312
        25  -9.8907    204.3976    176.5985   8.3044585614e+01   5.5892368393e+00    0.2709146    0.1195696 -51.73 0.0009574856    3.454    0.711
        26 -11.0504    140.2691    173.8382   9.6154203712e+01   1.8363533981e+01    0.5485739    0.3259419  76.99  0.001921321    3.581    0.721
        27 -10.3345     53.2994    165.8806   1.1536526652e+02   3.3902038274e+01    0.4669626    0.1674292 -51.45  0.001830502    3.199    0.687
        28 -11.5218     47.3731    172.6500   1.1749162838e+02   3.3043489349e+01    0.4028264    0.2548041 -59.25  0.001223802    1.592    0.372
        29  -9.7952     52.0559    171.9961   1.1635831298e+02   3.2641302761e+01    0.2709177    0.1792125  82.07 0.0009158346    1.427    0.299
        30 -13.1365     53.5047    146.6127   1.1282824398e+02   3.8436208185e+01     1.063716    0.5977863  30.08  0.005311716    2.095    0.523
        31 -13.8208     73.0471    157.1570   1.0942835297e+02   3.3388727355e+01    0.5825744    0.5323531 -47.09  0.001786238    1.285    0.222
        32  -9.2207    130.7749    214.0510   1.0462148075e+02   1.2071511987e+01    0.1688895    0.1554646  64.69 0.0003597567    1.085    0.078
        33  -9.7072    160.8284    165.2428   8.9861692768e+01   1.6180750938e+01    0.2374118    0.1609054  86.06 0.0008322702    2.710    0.631
        34 -12.2946     91.1118    154.8159   1.0454253557e+02   3.1256447152e+01    0.6159489     0.435384 -30.84   0.00296076    1.988    0.497
        35 -11.4009    133.6886    144.3164   9.1833182806e+01   2.6089993205e+01     1.148728    0.3093087 -55.02   0.00287233    5.169    0.807
        36 -10.8266    174.3549    148.8707   8.3369878249e+01   1.6758355105e+01    0.3146162    0.2741339 -89.57  0.001138928    1.411    0.291
        37 -13.1581     84.3055    162.0131   1.0739370857e+02   3.0612076751e+01     1.379586    0.5606596  58.25 0.0004943153    3.838    0.739
        38 -10.3880    143.8203    145.9383   8.9725190080e+01   2.3699866299e+01    0.3651863    0.2049479 -69.60  0.001249522    3.107    0.678
        39 -10.0847     86.1847    145.1671   1.0412625637e+02   3.4325162776e+01    0.2326563    0.1935843  67.03 0.0003961555    1.211    0.174
        40 -11.3152    104.2541    139.9156   9.8397945111e+01   3.2611155910e+01    0.5679957    0.3631823 -33.28  0.002455652    2.070    0.517
        41 -12.4043     91.7016    139.9590   1.0171552740e+02   3.4706967862e+01    0.3021015    0.2658038 -70.58 0.0004219162    1.058    0.055
        42 -11.3754     45.9940    139.3171   1.1375368822e+02   4.1050937910e+01    0.2839545    0.1601516 -69.62 0.0006311683    1.518    0.341
        43 -12.7917     45.4345    116.9834   1.1045294857e+02   4.6528235459e+01    0.6556721    0.3932404 -83.16  0.002622378    1.800    0.444
        44 -10.0380     79.0900    139.3146   1.0495424718e+02   3.6806827525e+01    0.1908722    0.1704303  69.59 0.0003236028    1.123    0.109
        45  -8.9500     38.9143    137.7653   1.1539875014e+02   4.2172541667e+01     0.139604    0.1107191  30.87 0.0002996769    1.522    0.343
        46 -10.7170    105.9810    130.7162   9.6009068608e+01   3.4492805926e+01    0.3551151    0.3019567 -87.73  0.001212772    1.256    0.204
        47  -9.3020    114.5221    169.4428   1.0133991761e+02   2.3985411454e+01    0.1413064    0.1321846  71.89 -2.469115e-05    1.015    0.015
        48 -10.6023    112.7346    130.3446   9.4121967806e+01   3.3349317488e+01    0.3403264    0.2788089  -4.05 0.0008750348    1.606    0.377
        49 -11.6985    135.5944    127.8604   8.7610450081e+01   2.9425851769e+01    0.8305165    0.2032827 -47.84  0.002236417    4.040    0.752
        50 -11.2272     99.8038    126.7823   9.6828619778e+01   3.6517870672e+01    0.3915738    0.2910131 -15.61  0.001412546    1.937    0.484
        51 -10.0729    160.5079    127.4961   8.1474167586e+01   2.4178635919e+01    0.3556009    0.2472989 -85.04  0.001391686    2.394    0.582
        52 -11.7621    119.1653    123.8590   9.0915901738e+01   3.3643789516e+01    0.6704857    0.4157346 -20.93  0.002452584    2.833    0.647
        53 -11.3833     23.7436    120.3929   1.1718766209e+02   4.7732170055e+01    0.2698961    0.1841317  56.58  0.001121653    1.619    0.382
        54 -10.1906    108.7833    119.1161   9.2599520068e+01   3.6727127163e+01    0.2263302    0.2141857  51.54   0.00036763    1.102    0.093
        55  -9.8563    167.3771    112.4854   7.6073794663e+01   2.5780503962e+01    0.3383419    0.2511424 -85.76  0.001096744    1.952    0.488
        56 -12.2464    118.3941    108.8161   8.7371471712e+01   3.7261612727e+01    0.7365403    0.5298615 -50.51  0.003013086    1.345    0.257
        57 -10.1129    205.4615    110.1685   6.7629033785e+01   1.7496858595e+01    0.3160994    0.2187784  40.76 0.0009100258    1.556    0.357
        58 -12.9239     43.6238    127.6151   1.1268562151e+02   4.4138290776e+01    0.8081106    0.4092939 -82.40  0.002855564    2.202    0.546
        59 -10.5768    134.5288    104.4743   8.1889627003e+01   3.4865257777e+01    0.6202726    0.1505669 -45.67  0.001633818    4.046    0.753
        60  -9.4404     66.6727    104.6894   1.0160160978e+02   4.6957003030e+01    0.1442034    0.1016312 -30.56  0.000704069    1.662    0.398
        61 -11.6565     19.7002    111.0146   1.1705969687e+02   5.0283159528e+01     0.315292    0.1842278  41.82  0.001366185    1.977    0.494
        62  -9.8638     59.8221     97.3110   1.0209229613e+02   4.9605528523e+01    0.2253885    0.2044034  29.89  0.001356813    1.261    0.207
        63 -11.1774     53.1898     90.6586   1.0271951524e+02   5.1974238770e+01    0.4005494    0.2020588 -43.29  0.001354723    1.888    0.470
        64 -11.3186     41.9194     91.8285   1.0673999657e+02   5.2920226480e+01    0.2569986    0.2385246 -48.38 0.0007434301    1.119    0.106
        65  -8.7623    161.7029     89.3110   7.0971356312e+01   3.1771338064e+01    0.1587991    0.1240551 -73.92  0.000265346    1.598    0.374
        66  -9.5648    157.0318     80.9966   6.9593108476e+01   3.4492002093e+01    0.1933584    0.1792586 -37.12 0.0004509084    1.062    0.058
        67  -9.3119    184.4885     77.0668   6.2708313663e+01   2.8481505385e+01    0.2328906    0.1490195 -35.24 0.0005091924    1.529    0.346
        68 -10.3388     61.3559     68.7340   9.3979395530e+01   5.5885685026e+01    0.2511394    0.2145892  83.57 0.0006502713    1.589    0.371
        69 -10.1797    106.7462    210.5401   1.0908858059e+02   1.6625913895e+01     0.389091    0.1741905  32.49  0.001664384    2.594    0.615
        70 -13.8637    185.7065     45.4692   5.3353206187e+01   3.3228311873e+01     1.177273    0.9610904  26.90 0.0008881555    1.457    0.313
        71 -18.0209      6.3630    240.1055   1.2991267622e+02   2.3625847452e+01     11.11214     1.533726 -77.61   0.03511494    6.028    0.834
        72 -10.5651    113.4208    207.7333   1.0734715805e+02   1.6114899363e+01    0.2441449    0.1899212  73.33 0.0007514844    1.298    0.230
        73 -10.9092    151.4977     54.8073   6.2666597356e+01   4.0449728634e+01    0.2961429    0.2582506 -71.66 0.0005513739    1.280    0.219
        74 -10.2870    230.3867    166.6138   7.6082009626e+01   2.4825194129e+00    0.2614927    0.1091363 -47.71 0.0009513069    3.258    0.693
        75 -10.9597    153.1950     48.3883   6.0217689931e+01   4.1028418749e+01    0.3347733    0.2680893 -79.86  0.001117453    1.494    0.331
        76 -12.1512     19.1975     33.7829   9.9856287845e+01   6.7369580576e+01    0.4484324    0.1760685  29.91  0.002226386    2.953    0.661
        77  -9.8306    189.7964     15.0860   4.4023578809e+01   3.6014009661e+01     0.211783    0.1717826 -65.40 0.0005680055    1.203    0.169
        78 -10.7798    108.1705    203.3236   1.0786658429e+02   1.7832621540e+01    0.2436906    0.2108685  41.91 0.0007078765    1.187    0.158
        79  -9.1963    159.9842    197.0253   9.5947535462e+01   1.0152415434e+01    0.1551323    0.1520519  16.41 0.0004123132    1.089    0.082
        80 -10.4465    111.9788    197.0210   1.0619649401e+02   1.8497102346e+01    0.3130549     0.211573   3.04  0.001344794    3.121    0.680
