#   1 NUMBER                 Running object number                                     
#   2 MAG_AUTO               Kron-like elliptical aperture magnitude                    [mag]
#   3 X_IMAGE                Object position along x                                    [pixel]
#   4 Y_IMAGE                Object position along y                                    [pixel]
#   5 X_WORLD                Barycenter position along world x axis                     [deg]
#   6 Y_WORLD                Barycenter position along world y axis                     [deg]
#   7 A_WORLD                Profile RMS along major axis (world units)                 [deg]
#   8 B_WORLD                Profile RMS along minor axis (world units)                 [deg]
#   9 THETA_WORLD            Position angle (CCW/world-x)                               [deg]
#  10 FWHM_WORLD             FWHM assuming a gaussian core                              [deg]
#  11 ELONGATION             A_IMAGE/B_IMAGE                                           
#  12 ELLIPTICITY            1 - B_IMAGE/A_IMAGE                                       
         1 -13.9619     67.3690    143.9023   6.0995346096e+01   3.7546953825e+01      4.29462     2.038805 -85.17  0.005058112    4.398    0.773
         2 -13.8623    232.5192     56.0257   3.2341840942e+00   2.1302825844e+01     1.189228    0.9147727 -84.28  0.004913192    1.328    0.247
         3 -13.8631    240.1676     50.4697   1.4056281833e+00   2.0606141345e+01     1.095966    0.9831505   1.08  0.002303342    1.594    0.373
         4 -11.7425      2.9777     22.5456   6.0659568315e+01   7.4031762521e+01    0.4820513    0.2269052 -34.91  0.002447788    1.879    0.468
         5 -11.6201      2.7594     10.2581   5.4960987304e+01   7.6344339418e+01    0.5977892    0.1914145 -47.13   0.00270683    2.650    0.623
         6  -9.5583    158.2032      8.7963   3.5899057676e+02   4.3368072580e+01    0.1686566    0.1402603  60.70 0.0004110746    1.279    0.218
         7 -10.2045     17.9650      4.4913   3.8998300725e+01   7.5583188526e+01    0.2907228    0.1635354 -55.13  0.001301865    3.690    0.729
         8  -8.9943     62.1684    234.1831   7.3401941581e+01   1.6855432067e+01    0.1776125    0.1249225  58.85 0.0008831446    1.355    0.262
         9  -9.6906     58.4552    249.6275   7.5431832064e+01   1.4300493091e+01     0.251108     0.166524  63.81   0.00153376    1.518    0.341
        10  -9.5206     33.0846    248.8097   8.0895193979e+01   1.7255540567e+01    0.2241483    0.1645676 -77.73  0.001119548    1.556    0.357
        11  -9.6971     28.1831    250.2566   8.2011842143e+01   1.7485610074e+01    0.2133886    0.1448789  22.47  0.001015934    1.534    0.348
        12 -13.2407     13.0166    241.5638   8.4843292956e+01   2.0651895668e+01    0.9668691    0.7050537 -78.54  0.005322672    1.522    0.343
        13 -13.2566      5.1731    235.4816   8.6286167839e+01   2.2577105740e+01     1.426408    0.5158325 -66.54  0.006929287    3.037    0.671
        14 -15.3781     10.9685    208.2861   8.3847956372e+01   2.7849709986e+01     9.170579     4.528615 -82.88   0.04742317    1.976    0.494
        15 -15.2888     17.5312    175.0598   8.0163729526e+01   3.5158397419e+01     5.769699     1.895672  87.69   0.01900824    3.992    0.749
        16  -9.3889     63.1497    226.1199   7.2481337288e+01   1.8382528811e+01    0.2418034    0.1642243 -54.22  0.001333266    1.747    0.428
        17 -13.2995      4.1462    182.3616   8.4269663599e+01   3.4458761471e+01    0.5103775     0.443734 -40.25  0.001350364    1.424    0.298
        18 -11.2432     85.6273    224.0864   6.6870884534e+01   1.5915624698e+01    0.4699896    0.1398328  37.16  0.001798106    2.583    0.613
        19  -9.4360     40.5301    222.4938   7.7605443604e+01   2.1784269282e+01    0.2067264    0.1186442  14.90 0.0008349324    2.113    0.527
        20 -11.0360     75.0548    219.6304   6.8973166842e+01   1.8235642751e+01    0.5053198    0.3047737  35.31  0.002639169    1.393    0.282
        21  -9.9025     34.8776    220.6015   7.8824412339e+01   2.2801840238e+01    0.2210036    0.1883654  84.76 0.0007025829    1.201    0.167
        22 -10.2174     45.6929    219.6369   7.6154605930e+01   2.1822558840e+01     0.306145    0.1943353  26.22  0.001674323    1.511    0.338
        23  -9.5619     49.8309    217.6408   7.4988208020e+01   2.1780550288e+01    0.2534027    0.1522714  36.51  0.001043824    1.401    0.286
        24  -8.9233     71.6888    207.9788   6.8585181473e+01   2.1199973324e+01    0.1508638    0.1249507 -73.11 0.0005452031    1.330    0.248
        25  -8.1853    191.2877    205.6782   4.0317935961e+01   4.1520992099e+00    0.1086166    0.1045195  67.76 0.0003616661    1.601    0.375
        26 -10.1269     55.4731    193.4008   7.1296423639e+01   2.6629656335e+01    0.3099383    0.2515444 -34.19  0.001723861    1.514    0.339
        27  -9.4415     77.0357    192.2184   6.5322654423e+01   2.4070469982e+01    0.2239334    0.1573446  -7.78 0.0006445723    1.991    0.498
        28 -10.2020    125.3961    189.2724   5.2201263658e+01   1.7336097671e+01    0.2984513    0.2575284  81.57 0.0007242919    1.475    0.322
        29  -9.3321     42.3407    233.3357   7.7923229554e+01   1.9318451355e+01    0.2115366     0.142705 -88.09 0.0007036334    1.602    0.376
        30 -11.3665     71.7917    188.0688   6.6226495932e+01   2.5776430683e+01    0.4725755    0.3788618  12.16  0.001660034    1.387    0.279
        31 -10.9858     74.6515    182.0117   6.4640572811e+01   2.6834449261e+01    0.7518186    0.3461522  57.30  0.001673574    2.959    0.662
        32 -10.9689     99.0691    181.0869   5.7741442055e+01   2.3393477424e+01    0.3312212    0.2912455  11.45 0.0006786771    1.181    0.153
        33 -10.9341     66.8001    180.0871   6.6605414790e+01   2.8388860380e+01    0.2866046    0.2222033 -88.25 0.0006700961    1.385    0.278
        34  -8.4329    157.7969    175.9788   4.2031230946e+01   1.4666917838e+01    0.1833808    0.1107596 -43.54 0.0005118313    1.680    0.405
        35 -12.5461    232.5860    166.8912   2.5918465814e+01   4.5306030804e+00       1.0301    0.6117083  10.59  0.005358623    2.267    0.559
        36 -12.2212     75.0391    132.3909   5.6283642813e+01   3.9382788977e+01    0.4765754    0.3043526 -50.32 0.0004760273    1.571    0.363
        37 -12.2667     79.7642    159.7115   5.9798381136e+01   3.1614503918e+01     1.870951     0.816361  60.06  0.005063433    4.912    0.796
        38 -11.3329    210.9020    247.8352   4.3297990300e+01  -4.3552590582e+00    0.2702937    0.2508102  14.69  0.002093486    1.685    0.406
        39 -13.0949    234.8894    156.3698   2.3565651016e+01   5.8248867201e+00    0.8546557    0.4342932 -29.62  0.004417018    1.766    0.434
        40 -11.8617     47.9558    157.3359   6.9287013989e+01   3.6588733524e+01    0.3922641    0.3587278   0.99  0.001026905    1.234    0.190
        41  -8.9794    196.4060    162.4974   3.1312377861e+01   1.0716880660e+01    0.1354074    0.1171016 -17.86 8.616051e-05    1.018    0.018
        42 -11.7943     40.4541    161.8914   7.2177798646e+01   3.6263272350e+01    0.4364638    0.3110707  -7.60  0.001598838    1.853    0.460
        43 -11.0858    125.8554    229.9979   5.8125987385e+01   9.2290621579e+00    0.2580472    0.2255882  69.73  0.001618003    1.484    0.326
        44 -13.4238     45.7601    145.1941   6.8343895850e+01   4.0052922363e+01    0.5462553      0.36511  -9.34  0.001644712    2.052    0.513
        45 -10.5346     72.9994    168.1498   6.3151551557e+01   3.0491786950e+01    0.4934864    0.2527464 -79.64 0.0003057206    2.698    0.629
        46  -8.8751    133.3602    143.1704   4.1227698867e+01   2.6101689316e+01    0.2147085    0.1451521 -59.33 0.0004228899    1.703    0.413
        47  -8.3179    208.6615    141.2387   2.4755412431e+01   1.2375604066e+01    0.1189827    0.1041591 -80.27 0.0002235413    1.549    0.354
        48  -9.9787     88.1553    135.1373   5.2560194830e+01   3.6494853441e+01    0.3111461    0.2907791   4.21 0.0007031919    1.130    0.115
        49  -9.3074     92.4953    132.5190   5.0618350003e+01   3.6391324714e+01    0.3682826    0.2531658   8.39 0.0008750374    1.987    0.497
        50 -10.6223     20.0677    143.1540   7.6642513254e+01   4.3176911106e+01    0.3527576    0.2543287 -81.14  0.001873927    1.288    0.223
        51 -11.2999     42.4637    130.4413   6.7265794000e+01   4.4378096550e+01    0.4281461    0.2831919  75.80  0.001105754    1.785    0.440
        52  -9.8288     38.8589    126.1152   6.7881735617e+01   4.5940690179e+01    0.2571471    0.2111455  22.60 0.0004429914    1.287    0.223
        53  -9.4735    105.4703    130.4785   4.6153926911e+01   3.4490646115e+01    0.2888743    0.2578172 -46.80 0.0009471879    1.138    0.121
        54  -9.7709    103.1589    127.0864   4.6066321287e+01   3.5756679050e+01    0.3775425    0.3076071 -19.97  0.001608746    1.432    0.302
        55 -11.7344     60.6490    150.0562   6.4197652062e+01   3.6878688669e+01    0.4429985    0.3346829  62.01 0.0004884877    1.395    0.283
        56 -11.1372     89.3650    121.6059   4.9150882900e+01   3.9688994437e+01    0.3768622    0.2717587  26.04 0.0007653163    1.479    0.324
        57 -10.0271     13.9388    121.2904   7.6413111729e+01   4.9466874626e+01    0.2706551    0.1529383 -58.46  0.001142493    1.599    0.375
        58 -10.5956     32.4823    168.5126   7.5286485794e+01   3.5402260700e+01    0.3883408    0.2519873  58.48  0.001670787    1.498    0.333
        59  -9.6329     34.4460    117.4394   6.8127603473e+01   4.8732450084e+01    0.3989752    0.1970548  12.28  0.001325278    2.497    0.600
        60  -9.1187    183.5340    116.5003   2.3765128450e+01   2.1447428176e+01    0.2404087    0.1314043  37.04 0.0006400496    2.204    0.546
        61  -9.5418    102.0837    116.1040   4.3726726646e+01   3.8617978316e+01    0.2249937    0.2200289  35.48 0.0003253738    1.009    0.009
        62 -11.1432     15.8200    114.1669   7.4829442142e+01   5.1230057648e+01     0.503179    0.2704414  85.73 0.0006256765    2.116    0.527
        63 -10.3834    204.7527    110.7511   1.8789933387e+01   1.8302057677e+01     0.342262    0.2530942  33.88  0.001156945    1.620    0.383
        64  -9.0658     32.4924    107.0918   6.7110516538e+01   5.1685471543e+01    0.2103828    0.1365783 -68.93 0.0003951491    1.475    0.322
        65  -9.3825     24.0091    105.2651   7.0257422185e+01   5.2953636681e+01    0.1913492    0.1855758  -8.47 0.0007126236    1.099    0.090
        66  -8.8146     75.1432     97.8872   4.8118934453e+01   4.8115925817e+01    0.2078348    0.1756967 -26.64 0.0004093776    1.263    0.208
        67  -9.8025     27.1055     92.3472   6.6585581561e+01   5.6062107608e+01    0.3971061    0.2577814  36.55  0.001077695    1.639    0.390
        68  -9.8212    168.1804     90.5880   2.0266618817e+01   2.9460059674e+01    0.2047575    0.1344402  42.47 0.0006713896    1.697    0.411
        69  -8.3811    120.6332     90.2881   3.1140888240e+01   4.0445362296e+01    0.1609835     0.123683  85.47 0.0007023009    1.703    0.413
        70  -9.6958     94.9162     87.0391   3.7974904021e+01   4.6796395710e+01    0.4065321    0.2769692 -72.72  0.001652638    2.147    0.534
        71 -10.5801     33.7528    165.3863   7.4595585179e+01   3.6074448275e+01    0.5975879     0.251377  45.74  0.001923127    2.251    0.556
        72  -9.6240     74.6519     86.8933   4.5169654164e+01   5.0822053724e+01    0.2680682    0.2143954  46.03 0.0004631399    1.283    0.221
        73  -9.0399     20.6543     84.3308   6.7902485485e+01   5.8672408411e+01    0.1446187    0.1009106  59.86 0.0007050071    1.758    0.431
        74  -9.0047    115.2948     80.6742   2.9737747062e+01   4.3621955546e+01     0.234757    0.1768462 -82.97  0.001032842    1.796    0.443
        75  -9.2350    184.5746     77.6550   1.4107700486e+01   2.8006969871e+01    0.2511676    0.1325732 -32.75  0.000709552    1.950    0.487
        76  -9.2856    109.4307     73.9133   2.9284253927e+01   4.6306003101e+01    0.2704353    0.2059023 -80.38  0.001062787    1.753    0.429
        77  -9.5154     23.4655     72.9663   6.3994675000e+01   6.1272201358e+01    0.3189454    0.1403935  38.31  0.001303694    2.527    0.604
        78 -12.5735    213.8172     66.1349   7.3911597321e+00   2.3561577750e+01     1.311859     1.136463  52.07  0.008416819    1.390    0.281
        79  -9.8499    112.0065    247.1506   6.3308186479e+01   8.0631954716e+00    0.1902003    0.1792428 -44.40 0.0009897503    1.316    0.240
        80 -10.7163     73.1127    243.6167   7.1687694382e+01   1.3680842023e+01    0.4639576    0.2879412  59.85  0.001807067    1.701    0.412
        81  -8.4373     82.6796     67.6798   3.5928780400e+01   5.3441144229e+01    0.1553497    0.1182655   3.38 0.0004815039    1.668    0.400
        82  -9.1569     82.9687     61.7553   3.3715293291e+01   5.4547505128e+01    0.2024366    0.1866766  42.53 0.0002149391    1.060    0.057
        83 -11.4719    106.7310    229.4353   6.2467904459e+01   1.1989789974e+01    0.4303846    0.1346873  37.74  0.001677684    2.557    0.609
        84  -8.9339     54.0000    229.9582   7.4971386639e+01   1.8685444169e+01    0.1840746   0.07180023 -71.69 0.0007986251    2.916    0.657
        85  -8.9132     58.4643     39.4867   3.4670453960e+01   6.3516985583e+01    0.1385642    0.1284164  23.01 0.0001161575    1.075    0.070
        86 -11.0959      4.3728     38.1173   6.5339754900e+01   7.0725122455e+01    0.4526998    0.2178466  44.86  0.001994339    3.105    0.678
        87  -8.7006     25.3042     37.6693   5.1557086729e+01   6.8984314870e+01    0.1219087    0.1049321  62.56  0.000234037    1.655    0.396
        88 -10.4337     43.5242     26.2422   3.5669619206e+01   6.8386093702e+01     0.239585    0.2287934  44.42 0.0005137589    1.310    0.237
        89  -9.2977     51.0000    243.7894   7.6672308138e+01   1.6268544558e+01    0.2801505   0.06903981 -71.81  0.001030952    4.751    0.790
        90  -9.9273     60.4111     20.9636   2.5055558755e+01   6.5916890662e+01    0.2651718    0.2061711  47.86 0.0009046446    1.208    0.172
        91  -9.8113     82.2949     16.0735   1.5087952485e+01   6.1596678057e+01    0.2656229    0.1928241 -67.26  0.001373979    1.860    0.462
        92 -10.4599     29.3968    241.5323   8.1310386057e+01   1.9050227835e+01    0.3396824    0.2443759 -60.09  0.002195748    1.727    0.421
        93  -9.2137    189.3538     15.0818   3.5774289753e+02   3.5359245764e+01    0.1766388    0.1381904 -53.25 0.0005967771    1.167    0.143
        94  -9.0510     56.6439    235.6925   7.4801999940e+01   1.7210826724e+01    0.1194454   0.09428834 -11.46            0    1.724    0.420
