#   1 NUMBER                 Running object number                                     
#   2 MAG_AUTO               Kron-like elliptical aperture magnitude                    [mag]
#   3 X_IMAGE                Object position along x                                    [pixel]
#   4 Y_IMAGE                Object position along y                                    [pixel]
#   5 X_WORLD                Barycenter position along world x axis                     [deg]
#   6 Y_WORLD                Barycenter position along world y axis                     [deg]
#   7 A_WORLD                Profile RMS along major axis (world units)                 [deg]
#   8 B_WORLD                Profile RMS along minor axis (world units)                 [deg]
#   9 THETA_WORLD            Position angle (CCW/world-x)                               [deg]
#  10 FWHM_WORLD             FWHM assuming a gaussian core                              [deg]
#  11 ELONGATION             A_IMAGE/B_IMAGE                                           
#  12 ELLIPTICITY            1 - B_IMAGE/A_IMAGE                                       
         1 -14.1614    202.7315     18.7691   6.3939441890e+01   3.2518110431e+01     2.211287     1.363605  26.99    0.0100832    2.941    0.660
         2 -12.8670      2.4324      5.0383   1.1247264215e+02   7.1842429373e+01     1.415776     0.288995 -43.19  0.006212184    3.994    0.750
         3 -11.7919      2.1551     14.4066   1.1646454192e+02   7.0565653167e+01    0.4063891    0.1719001 -47.43   0.00240186    2.163    0.538
         4 -10.4944     13.4006      2.7816   1.0617010575e+02   7.1215164845e+01    0.1528614     0.074459 -25.82 0.0007782262    1.709    0.415
         5 -10.7766    222.5210    245.0023   1.1086298493e+02  -9.7373806071e+00    0.2405214    0.1464053  23.74 0.0007887192    1.552    0.356
         6 -10.1440    184.1618    250.5188   1.1889009433e+02  -4.2825452513e+00     0.227494    0.1047619  37.37 0.0003978564    1.869    0.465
         7 -10.8314    169.8056    248.5777   1.2133109121e+02  -1.5538276266e+00    0.3425118     0.235002  14.35 0.0007172507    1.946    0.486
         8 -11.8065    149.7994    248.3793   1.2513117346e+02   1.9037631817e+00    0.4105066    0.3266836  69.92  0.002559354    1.360    0.265
         9 -10.9471    143.2367    249.0284   1.2647255810e+02   2.9147235949e+00     0.251271    0.2034693  82.81 0.0004443203    1.407    0.289
        10 -12.5382    133.4142    249.1883   1.2836440873e+02   4.5508520611e+00     1.136545    0.3161793  41.61  0.004281837    3.049    0.672
        11 -12.7629    126.5026    240.7539   1.2861783845e+02   7.2159231706e+00    0.8398661    0.4756774  35.67  0.004262357    1.815    0.449
        12 -11.6460    114.8826    250.4721   1.3201444188e+02   7.3983300640e+00    0.7096342    0.2267314  39.96  0.002852661    2.880    0.653
        13 -11.9481    109.6652    247.2421   1.3262236230e+02   8.8261132794e+00    0.5254025    0.4462833  81.16  0.002495636    1.153    0.132
        14  -9.6508     89.0727    250.6105   1.3678547468e+02   1.1441640775e+01    0.2360665    0.1004079  42.49 0.0004043754    2.059    0.514
        15 -10.6131     88.7375    247.3007   1.3651439385e+02   1.2105679770e+01    0.4087846    0.2897943  45.37  0.002570622    1.345    0.257
        16 -10.6850     81.4584    246.2395   1.3773799001e+02   1.3400034976e+01    0.5159246    0.2896252  84.96  0.002766046    2.016    0.504
        17  -8.8283     68.6558    250.2747   1.4039947707e+02   1.4496819778e+01    0.1257765    0.0685972  65.64 0.0002397007    1.622    0.384
        18 -11.2962     59.8487    245.6715   1.4155119544e+02   1.6587865566e+01    0.4209942    0.2622035 -78.54  0.001979743    1.522    0.343
        19 -11.1167     67.0331    244.1147   1.4014249376e+02   1.5891351209e+01    0.4347413    0.2374904  31.94  0.002252501    2.529    0.605
        20 -11.3554     22.9150    202.0179   1.4465806690e+02   3.0049402190e+01    0.3826908    0.2476272  78.73  0.001039543    1.266    0.210
        21 -11.6512     40.8418    204.8649   1.4143717547e+02   2.7409414925e+01    0.8476352    0.3047647  52.59  0.003394763    2.638    0.621
        22 -14.8774      3.3904    194.2559   1.4774559987e+02   3.3612140389e+01     6.773961          nan -69.09   0.01965499    6.903    0.855
        23 -12.0803    245.4685    241.1607   1.0608689745e+02  -1.2697812112e+01    0.3586723    0.2341072  -7.93   0.00216798    1.568    0.362
        24 -11.1782    164.6274    241.6036   1.2130809968e+02   4.6826783999e-01    0.3858528    0.2598917  65.98  0.001774098    1.896    0.473
        25  -9.7189    136.4934    227.5148   1.2483321137e+02   7.9437225700e+00    0.2199042    0.1905963  56.06  0.001068557    1.004    0.004
        26 -12.1158    135.7579    241.2080   1.2687771825e+02   5.5527215805e+00    0.5029414    0.3802772  -3.03    0.0026909    2.276    0.561
        27 -11.4198    134.0106    232.5406   1.2604297928e+02   7.4363591432e+00    0.2815279    0.2527823 -59.52 0.0003291019    1.285    0.222
        28 -11.2519     89.7392    238.5094   1.3541140118e+02   1.3623180555e+01    0.3919928    0.2715875  86.89  0.001493178    1.422    0.297
        29  -9.2790     83.8086    242.1477   1.3690030728e+02   1.3826340506e+01     0.150927    0.1369579  64.05 0.0007926944    1.281    0.220
        30 -11.3653    172.8158    239.7446   1.1943594033e+02  -6.5417532226e-01     0.346521    0.2561488 -60.33  0.002007273    1.727    0.421
        31 -11.3314     97.4716    239.6507   1.3407067080e+02   1.2195386165e+01    0.3336518    0.2867641  42.92  0.001771337    1.333    0.250
        32 -11.6385    135.5466    236.3427   1.2626216052e+02   6.4674355202e+00    0.4622734    0.3324309  20.61  0.001462634    1.900    0.474
        33 -10.4473    116.0054    239.5714   1.3050432012e+02   9.1989727223e+00    0.2903199    0.2526808 -26.90  0.001823014    1.679    0.404
        34 -13.9752      5.9783    245.3384   1.5045320493e+02   2.3099727519e+01     1.134369    0.6053661  78.58  0.005794636    1.409    0.290
        35 -10.4425    104.5823    237.9253   1.3251262563e+02   1.1386770386e+01    0.2103649    0.1570302  44.32 0.0005635854    1.288    0.224
        36  -9.2065     82.6913    238.3234   1.3671782650e+02   1.4733031053e+01    0.2920393    0.1007113  40.91  0.001253884    2.653    0.623
        37 -10.6366    165.6767    235.3795   1.2016726908e+02   1.3303898412e+00     0.238114    0.1667805 -44.90  0.001336085    1.657    0.397
        38  -8.9515    156.0743    236.5227   1.2223349281e+02   2.8327511352e+00    0.2027164     0.113119  43.54 0.0005530253    1.534    0.348
        39 -10.8776    122.5371    232.9355   1.2837894371e+02   9.3465050477e+00    0.3907294    0.2980073 -54.84  0.001805238    1.515    0.340
        40 -10.7517    127.6651    233.8758   1.2748706215e+02   8.2884362751e+00    0.2697819    0.2020106  45.01 0.0009107242    1.196    0.164
        41  -9.5796    110.4846    233.9658   1.3088852421e+02   1.1179324527e+01    0.2379886    0.1220608 -72.72  0.001092665    2.491    0.599
        42 -11.2507     98.3461    231.6948   1.3299118569e+02   1.3602121470e+01    0.3877339    0.2609185 -78.82  0.000559044    1.557    0.358
        43 -10.3926    112.6240    230.1771   1.2998973569e+02   1.1557678596e+01    0.3281918    0.1971593  43.20 0.0008914486    1.508    0.337
        44 -11.0732    105.6689    229.1040   1.3123614249e+02   1.2924755107e+01    0.5231016    0.2540978  43.24  0.001612408    1.838    0.456
        45  -9.3241     77.9850    233.4763   1.3710454565e+02   1.6389947773e+01    0.1753679    0.1409876  87.22 0.0004327555    1.133    0.118
        46 -10.9816    156.6049    231.7531   1.2141558165e+02   3.5766143024e+00    0.2548424    0.2308175  28.58 0.0005464367    1.153    0.133
        47  -9.1716     62.7924    233.1666   1.3991378820e+02   1.8628677493e+01    0.1432114    0.1265753  75.49  0.000246624    1.252    0.201
        48 -10.6728    141.8839    230.1435   1.2412634485e+02   6.4944133533e+00    0.3310944    0.2602813 -29.00  0.001359763    1.721    0.419
        49 -11.4680    142.0779    221.7452   1.2284025648e+02   8.0436234996e+00     0.409162    0.3503522  30.73 0.0003568805    1.256    0.204
        50 -11.1049    137.7211    214.4012   1.2261553492e+02   1.0274012528e+01    0.4612186     0.433408  26.21  0.002070214    1.215    0.177
        51 -10.6789     84.5792    229.7223   1.3544396222e+02   1.6150136852e+01    0.3814717    0.2096465  42.32   0.00201616    1.718    0.418
        52 -10.8860     77.4882    220.9264   1.3585910953e+02   1.9022284551e+01    0.3730984    0.2101398  69.75  0.001176656    1.846    0.458
        53 -10.5350     79.8617    227.7440   1.3614126287e+02   1.7263666952e+01    0.3162274    0.2564314 -15.60  0.001803359    2.353    0.575
        54  -9.9479     78.7013    224.6930   1.3603556014e+02   1.8061179822e+01    0.2306141     0.164799 -62.40 0.0005391728    1.521    0.342
        55  -9.3597    179.9284    228.4291   1.1624639365e+02  -2.9034861001e-02    0.2472498    0.1639422  85.80  0.001029741    3.332    0.700
        56 -11.2743    245.6547    227.3228   1.0362520008e+02  -1.0875357921e+01    0.2128314    0.1984608  87.52  0.001422986    1.758    0.431
        57  -9.0790    190.6986    228.2822   1.1410032505e+02  -1.9206851686e+00    0.1236207    0.1004971  66.02 0.0002098493    1.550    0.355
        58 -10.6703    165.8655    226.5296   1.1874648417e+02   2.8361080460e+00    0.3775575     0.253189 -78.07  0.001791498    2.435    0.589
        59 -10.8872    160.5722    223.7448   1.1937157152e+02   4.3004270250e+00    0.3499427    0.2372054  24.92  0.001066202    1.730    0.422
        60 -10.8507    132.5904    224.4291   1.2518111544e+02   9.2270016064e+00    0.2691706    0.2659515 -85.71  0.001743827    1.197    0.165
        61 -10.0254    129.1494    221.0586   1.2539853659e+02   1.0496358189e+01    0.2474838    0.2018596  85.25 0.0007759357    1.285    0.222
        62  -9.5512    147.1073    225.1552   1.2232957051e+02   6.4876051594e+00    0.1912262    0.1730546  25.29 0.0003261731    1.223    0.182
        63 -10.6825    117.3326    224.3127   1.2827222086e+02   1.1914194760e+01     0.235978    0.2099884  65.51 0.0002776388    1.061    0.058
        64  -9.9743    197.6537    226.6709   1.1246910431e+02  -2.8828764812e+00    0.2579877    0.2122253  72.33  0.001289387    1.678    0.404
        65 -10.1197    110.9240    221.4256   1.2918939215e+02   1.3585976627e+01    0.3076525    0.1972522 -45.63  0.001229746    1.989    0.497
        66 -10.8189     70.9233    220.0002   1.3705104236e+02   2.0177900242e+01    0.5396565    0.2898959 -71.55  0.002846399    1.803    0.445
        67 -10.6421    245.8382    220.6412   1.0238149671e+02  -9.9651835031e+00    0.2820875    0.1294825 -23.25  0.001237237    2.705    0.630
        68  -9.5617    104.9181    218.7188   1.3005981509e+02   1.5148469180e+01     0.185697     0.151294  60.75  0.000228008    1.065    0.061
        69 -10.2554     92.4969    225.9734   1.3346812346e+02   1.5678788683e+01    0.2807965    0.1584344  53.28 0.0008824478    1.552    0.356
        70 -14.3031     30.6971    246.1076   1.4654638840e+02   2.0215958211e+01     1.935712     1.107902  39.58   0.01232946    1.937    0.484
        71  -9.0594     23.3116    217.6859   1.4581484276e+02   2.6700568549e+01     0.152558   0.08890165 -72.05 0.0005104581    1.529    0.346
        72 -10.7916     22.8360    213.8182   1.4560922703e+02   2.7555849191e+01    0.3543252    0.2791882 -32.42  0.002311028    2.331    0.571
        73 -11.2792     99.3770    223.5310   1.3180050396e+02   1.5073464600e+01    0.4212134     0.265494  59.18  0.002270724    1.441    0.306
        74  -8.2967    119.2830    217.3185   1.2690169205e+02   1.2983767752e+01    0.1226309    0.1090693  -8.29 0.0001446091    1.585    0.369
        75  -8.8572     93.8431    217.0428   1.3211212349e+02   1.7307766058e+01    0.2208508    0.1316557  80.98  0.001056297    2.015    0.504
        76  -9.6136     88.1761    212.9911   1.3276824435e+02   1.9063690918e+01    0.2330916    0.1574163  87.38 0.0007220695    1.513    0.339
        77 -10.6278     68.0482    214.6463   1.3704249375e+02   2.1722080979e+01    0.2946562    0.1622368 -69.71 0.0004482447    1.724    0.420
        78 -10.1816    102.4077    212.1533   1.2970373146e+02   1.6939308313e+01    0.3595412    0.1935851  63.67  0.001611988    2.109    0.526
        79 -10.8798     73.1615    209.9413   1.3548271610e+02   2.1996355437e+01    0.3352593    0.2749984  15.92  0.001974679    1.891    0.471
        80 -12.7710     13.8222    238.7718   1.4884120136e+02   2.3520084697e+01    0.5807347    0.3255644  60.51  0.003936343    1.401    0.286
        81  -9.5178    107.0203    209.9803   1.2843439465e+02   1.6624537846e+01    0.2314549    0.1811021  41.18 0.0006404118    1.323    0.244
        82  -9.5566    108.7405    207.3426   1.2769460326e+02   1.6893231449e+01    0.2286237    0.1775862 -82.65 0.0002914055    1.297    0.229
        83  -8.9786    134.4925    208.4699   1.2236530660e+02   1.2066519330e+01    0.2280888    0.1290761 -42.44  0.001016389    2.174    0.540
        84  -9.6563    113.2022    208.4209   1.2689969280e+02   1.5893175182e+01     0.253763    0.2246611 -49.10  0.001283533    1.348    0.258
        85  -8.7086    119.6817    208.7004   1.2556027512e+02   1.4696451860e+01     0.128251    0.1118591  -1.29 0.0001846042    1.618    0.382
        86 -11.4158     99.7937    247.6325   1.3450961750e+02   1.0331078861e+01    0.7668656    0.2974681  51.48  0.003510218    2.218    0.549
        87 -11.1122    245.9931    206.5133   9.9712966750e+01  -7.9118809817e+00    0.2789411    0.1806898   5.52  0.001460203    1.811    0.448
        88  -9.9286    174.7517    206.0918   1.1345695039e+02   4.9266736871e+00    0.3283611    0.2136423 -29.52  0.001212399    1.922    0.480
        89 -12.0742     93.3958    202.6522   1.3031989699e+02   2.0472192840e+01    0.5271882    0.4444963 -77.18  0.003161564    1.156    0.135
        90 -11.4908    249.6405    241.5742   1.0542513757e+02  -1.3353371139e+01     0.853159    0.1187343 -35.54  0.002383871    7.974    0.875
        91  -8.8851    125.8172    205.8275   1.2380690365e+02   1.4200259899e+01     0.194376    0.1521303  72.24 0.0005071958    1.294    0.227
        92  -8.9287    149.1768    204.6595   1.1860005403e+02   1.0095030426e+01     0.304116    0.1657031 -28.91  0.001098224    3.497    0.714
        93  -8.5990    178.2786    204.6710   1.1246861035e+02   4.5197705662e+00    0.1360027    0.1107889  82.68 0.0002873576    1.598    0.374
        94 -10.1434    102.9664    202.8399   1.2828642574e+02   1.8848608604e+01    0.4555822    0.2404669  57.28  0.002043866    1.953    0.488
        95 -10.0966     99.0533    197.2588   1.2832968983e+02   2.0735567846e+01    0.4957609    0.2323044  56.67  0.001747524    2.350    0.575
        96  -9.6723    102.5504    195.5489   1.2730665915e+02   2.0527973978e+01     0.225758    0.1316101 -60.18 0.0005408342    1.717    0.418
        97  -9.5510    166.9845    203.2384   1.1456853514e+02   6.9642022874e+00    0.1958522    0.1693365  46.56            0    1.076    0.071
        98  -9.1286    132.9945    202.7504   1.2176587016e+02   1.3530458896e+01    0.1967233    0.1763358  63.40  0.000371847    1.012    0.012
        99  -9.7587     64.1079    202.1174   1.3644423014e+02   2.5000776823e+01    0.2409789    0.1744343  35.16 0.0003131866    1.653    0.395
       100 -11.3330     32.7858    201.8278   1.4273540534e+02   2.9010280450e+01    0.2018528    0.1582363  87.76 0.0002815592    1.053    0.051
       101  -9.7004    196.9739    200.6969   1.0790727561e+02   1.6886785299e+00    0.2029156    0.1770114  33.90 0.0006973633    1.078    0.073
       102 -10.1258    115.1063    200.2236   1.2525876490e+02   1.7318961545e+01    0.2274241      0.18972 -80.27  0.000226659    1.190    0.160
       103  -9.0816    183.0514    200.4807   1.1070710715e+02   4.3905203463e+00    0.2058725    0.1320461  42.49 0.0003771106    1.461    0.316
       104  -8.7592    169.5188    200.4613   1.1353107547e+02   7.0151997039e+00    0.1427807    0.1324357  47.58 4.140666e-05    1.027    0.026
       105  -9.9030    119.9694    199.4624   1.2407551790e+02   1.6615290258e+01    0.2403331    0.1856614 -88.51 1.236756e-05    1.384    0.278
       106  -9.5624     43.4961    199.2653   1.4036159582e+02   2.8315143796e+01    0.2449261    0.1633499 -50.42  0.001107509    1.908    0.476
       107  -8.4111     86.2552    199.2870   1.3139938875e+02   2.2355565435e+01    0.1981858    0.1524884 -64.12 0.0002116789    1.315    0.240
       108  -9.4101     85.9644    195.7378   1.3098000776e+02   2.3195861687e+01    0.2112298    0.1615196  75.70 0.0002958036    1.217    0.179
       109 -11.1667     57.6891    194.0483   1.3685842821e+02   2.7676241256e+01    0.5852168    0.3095065 -67.53   0.00251407    1.702    0.412
       110 -10.0656     52.8617    197.7904   1.3829081758e+02   2.7469305783e+01    0.3481633    0.1790279  52.16   0.00179541    1.833    0.454
       111  -9.4984    133.8679    197.8230   1.2075858048e+02   1.4409267848e+01    0.2381945    0.1970411 -75.88 0.0004037163    1.274    0.215
       112  -9.2392    133.2345    194.3224   1.2030382755e+02   1.5278209045e+01    0.2431106    0.2060484  24.93  0.001189631    1.383    0.277
       113 -11.6418     65.1060    194.9310   1.3538521836e+02   2.6468154266e+01    0.4014414    0.2563581 -50.01  0.001577838    1.879    0.468
       114 -10.9531     76.4301    186.9576   1.3187742171e+02   2.6654106749e+01    0.4138891    0.2339088 -75.94  0.001253656    1.802    0.445
       115 -11.8021     70.6479    187.4183   1.3322594081e+02   2.7394680133e+01     0.326458    0.2920557 -37.66 0.0007993737    1.503    0.335
       116  -9.3988    113.0869    195.5650   1.2497681238e+02   1.8696969296e+01     0.305816    0.1782359  61.06  0.001367466    1.881    0.468
       117  -9.3310    112.8720    192.1238   1.2447754177e+02   1.9498620466e+01    0.2083138    0.1933316 -40.65  0.001201518    1.303    0.233
       118  -8.4045    107.6297    196.2860   1.2629614619e+02   1.9493104224e+01    0.1503461   0.09820221  69.99 0.0007019472    1.707    0.414
       119 -11.6598     38.3234    194.2954   1.4091392058e+02   3.0031561740e+01    0.3730026    0.1934363 -66.70  0.001117442    1.690    0.408
       120  -9.7881     40.9028    187.8822   1.3971761229e+02   3.1168195665e+01    0.2630042     0.197996  88.45   0.00166602    1.082    0.075
       121 -10.9063    249.3249    194.3560   9.6768822689e+01  -6.5770253863e+00    0.3003976    0.2540205  29.49  0.001879516    1.227    0.185
       122  -9.1073     31.7969    195.3507   1.4233480962e+02   3.0539719718e+01    0.2942052   0.09552818  47.39  0.001316971    2.826    0.646
       123  -9.5034    159.8844    194.2003   1.1443948425e+02   1.0149442819e+01    0.2155801    0.1902987  67.84 0.0004160196    1.168    0.144
       124 -10.1624    120.5067    192.5149   1.2283271217e+02   1.8036557423e+01     0.388205    0.3037642 -46.86  0.001525472    1.437    0.304
       125  -9.3607    117.9893    189.9969   1.2298051935e+02   1.9053354119e+01    0.2100566    0.1919167  78.37            0    1.017    0.017
       126  -9.6972     72.9665    193.0338   1.3345265101e+02   2.5776283297e+01    0.1967188    0.1660942  81.83 0.0003101127    1.013    0.013
       127 -12.9217     39.4732    228.7565   1.4377324872e+02   2.2559987315e+01      0.47275    0.3706972  52.55  0.002468242    1.355    0.262
       128 -10.0905    191.5492    191.3776   1.0720807359e+02   4.4570437865e+00    0.2599004    0.2345923  12.00 0.0006804309    1.116    0.104
       129  -8.9693     84.7762    192.4026   1.3077909708e+02   2.4135559463e+01    0.1649146    0.1294658  36.93 0.0002760042    1.454    0.312
       130 -14.6163     45.6812    218.7620   1.4178699064e+02   2.3847146615e+01     1.871332     1.401368  30.25   0.01190586    1.855    0.461
       131  -9.2972    135.1557    190.0045   1.1912528763e+02   1.5847742213e+01    0.2172558    0.1820852  77.61 0.0003770998    1.233    0.189
       132  -9.6809     32.2904    189.8373   1.4170664361e+02   3.1708346269e+01    0.3260179    0.1837944  39.39  0.001856221    1.918    0.479
       133 -10.7827    249.8987    187.8103   9.5371677760e+01  -5.6334456492e+00    0.3577147     0.216784 -25.13  0.001832501    1.636    0.389
       134 -10.4907    141.1760    182.4768   1.1640081784e+02   1.6323651668e+01    0.4781765    0.2951197  22.58  0.001290377    2.486    0.598
       135  -9.8544     29.8061    183.6180   1.4160491174e+02   3.3372283356e+01    0.2976014    0.1969051 -76.69  0.001307091    1.236    0.191
       136  -9.2655     36.6526    184.1315   1.4021657642e+02   3.2505563657e+01    0.2061896    0.1422936  56.53 0.0004907066    1.405    0.288
       137 -10.0268     24.4931    184.2067   1.4276524884e+02   3.3795090746e+01    0.1947596    0.1528029  60.28 0.0005510513    1.279    0.218
       138 -12.8532    248.2267    171.9745   9.2444038752e+01  -2.7408077430e+00     1.099844    0.4590266 -42.44  0.004596714    2.293    0.564
       139 -11.0182    249.6222    150.9441   8.7782296256e+01   6.2226772743e-01    0.4931787    0.3083262 -40.70  0.002041885    1.449    0.310
       140 -10.7856    249.6966    117.9212   8.0585653089e+01   6.4305284973e+00     0.502826    0.3208877 -22.84  0.001800096    1.923    0.480
       141 -12.4357    248.4919    112.7514   7.9625272430e+01   7.5835420209e+00     1.441592    0.9377975  -1.63  0.005787848    3.147    0.682
       142 -13.1856    248.4445    134.3208   8.4380913860e+01   3.7760533311e+00     1.540032    0.7895443 -39.82  0.006925651    1.739    0.425
       143 -12.7014    248.4067    101.2866   7.7096246926e+01   9.5994229593e+00    0.9437559    0.4937851 -38.25  0.004284572    1.749    0.428
       144  -9.7275    174.8614    179.6873   1.0838847622e+02   1.0110955480e+01    0.3150701    0.1298345  38.05  0.001102903    2.609    0.617
       145  -9.7918    115.3250    177.7188   1.2148685667e+02   2.2320141375e+01    0.3247418    0.2158041 -69.84  0.001520204    1.615    0.381
       146  -9.1035     47.8377    179.6739   1.3729557180e+02   3.2213774029e+01    0.1688986    0.1043271  50.30 0.0005212045    1.613    0.380
       147 -10.1392     19.7903    179.2172   1.4326546076e+02   3.5380379758e+01    0.1869311    0.1743456  25.92 0.0008454646    1.528    0.345
       148 -11.5089     79.2572    175.3929   1.2955927786e+02   2.8921171514e+01    0.3756995    0.2732535  45.00  0.001071327    1.416    0.294
       149 -11.5281     67.0246    173.5385   1.3213967004e+02   3.1138981046e+01      0.50501    0.3172345 -57.31   0.00159156    1.532    0.347
       150  -9.7502    121.9354    175.5587   1.1955100692e+02   2.1588673343e+01    0.2104995    0.1872302 -74.37 0.0004973111    1.100    0.091
       151  -9.8781    107.5508    173.0523   1.2249284256e+02   2.4803828205e+01    0.2165778     0.186682  62.60 0.0004946171    1.115    0.103
       152  -9.2664     90.9670    172.6957   1.2637292575e+02   2.7714856037e+01    0.2580563    0.1840304 -49.01 0.0005417873    1.513    0.339
       153 -10.8188     89.9494    160.2437   1.2449270541e+02   3.0838471458e+01    0.4178138    0.2456335 -72.21  0.001850777    1.847    0.459
       154 -10.5502     93.5094    169.4251   1.2521903453e+02   2.8069562595e+01    0.2269128    0.2207399  50.78 2.794029e-05    1.196    0.164
       155 -10.5850     28.5093    171.3456   1.4060308489e+02   3.6296344414e+01    0.3794968    0.1819309 -66.04   0.00197998    1.712    0.416
       156  -8.6235     31.3142    171.6799   1.4002203400e+02   3.5929255032e+01    0.1920103    0.1023321 -76.45  0.000694073    1.583    0.368
       157 -12.4575     86.8246    166.7979   1.2638829309e+02   2.9778777974e+01    0.6715448     0.523373 -53.65  0.002606352    1.311    0.237
       158  -8.7094    100.5304    170.4970   1.2371887145e+02   2.6631060193e+01    0.1451616    0.1326081 -89.52 -5.578106e-05    1.017    0.017
       159  -8.8145     52.6393    170.7727   1.3509350277e+02   3.3692287344e+01    0.1152743   0.09960144 -32.06 0.0003066318    1.576    0.365
       160 -10.8330     44.4692    168.7709   1.3671500027e+02   3.5147788355e+01    0.4655612    0.3495827  26.75  0.002779375    1.737    0.424
       161  -9.0600     36.7334    170.6157   1.3869470144e+02   3.5593549674e+01    0.1626962    0.1054662  52.57 0.0003394989    1.572    0.364
       162  -9.6689    126.6698    167.0161   1.1681278872e+02   2.2647249491e+01    0.3142376     0.261502  40.16  0.001615919    1.250    0.200
       163  -9.2895     58.5844    167.4092   1.3324711082e+02   3.3725111336e+01      0.20523    0.1717966 -87.64  0.000671353    1.027    0.027
       164 -10.3098     68.7032    166.8504   1.3076118683e+02   3.2485426235e+01    0.2379745    0.2039921 -78.75 0.0004115559    1.040    0.038
       165  -9.0000     77.0000    165.9362   1.2862400839e+02   3.1499710918e+01    0.2255288   0.07305078 -61.04 0.0004957786    2.849    0.649
       166  -9.0419     53.8259    164.8330   1.3401083569e+02   3.4942347700e+01    0.1815567    0.1325363  86.97 0.0003256583    1.297    0.229
       167  -8.4699    177.5181    163.5422   1.0442937186e+02   1.2905312712e+01    0.1509399    0.1471093  75.29 8.378203e-05    1.044    0.042
       168 -10.3885     39.8908    162.0910   1.3692733841e+02   3.7230758474e+01    0.3943582    0.1908103  25.41  0.001255573    2.866    0.651
       169  -8.6515    154.5199    161.5379   1.0914525384e+02   1.8228145919e+01    0.1542432    0.1469262  78.84 7.597812e-05    1.039    0.037
       170 -10.6389     95.9708    158.1798   1.2262190440e+02   3.0332225474e+01     0.473249    0.1880362 -60.73  0.001714928    2.569    0.611
       171  -9.9057     73.5599    159.5255   1.2842681607e+02   3.3537534790e+01     0.210104    0.1734568  64.15 0.0004765716    1.213    0.175
       172 -10.5394     72.6665    156.5468   1.2815632525e+02   3.4380483299e+01    0.3522636    0.2728296  45.74  0.001956356    1.371    0.271
       173  -9.2625     78.8456    158.8495   1.2700517875e+02   3.2915560437e+01    0.1950911    0.1522902  85.10 0.0004483093    1.295    0.228
       174  -8.9695     52.2388    158.3885   1.3347783830e+02   3.6665236658e+01    0.1714644    0.1160909  51.12 0.0009372608    1.549    0.355
       175 -11.9500     31.2532    155.9011   1.3817666910e+02   3.9589366569e+01    0.4633507    0.3442718 -44.47  0.002842524    1.587    0.370
       176  -9.2176    228.3936    155.3148   9.2422974824e+01   3.9207988291e+00    0.1969468    0.1284674 -47.08 0.0004541578    1.535    0.348
       177  -8.4503    175.7681    155.0339   1.0293798068e+02   1.5078453590e+01    0.1881049    0.1279078 -46.00            0    1.474    0.322
       178 -10.9246     99.5320    151.3990   1.2043327302e+02   3.1342174764e+01    0.4556476    0.3699463 -40.22  0.001512021    1.371    0.270
       179  -9.7564    102.2323    146.5299   1.1876762407e+02   3.2031052584e+01    0.4414523    0.1919539 -40.95  0.001206942    2.982    0.665
       180 -10.1026    113.8735    150.5379   1.1662959383e+02   2.8952024922e+01    0.3047882    0.2531465 -63.40 0.0004525202    1.164    0.141
       181  -9.0539     52.7113    146.3170   1.3153167932e+02   3.9479511354e+01    0.1923619    0.1333768  43.08 0.0002370719    1.583    0.368
       182  -9.9758     60.4062    151.0947   1.3034135656e+02   3.7371296967e+01    0.3263748    0.2049958  63.38  0.001046702    1.834    0.455
       183 -11.0302     56.0528    150.1465   1.3128931473e+02   3.8154537579e+01    0.4710076    0.3289426 -42.22  0.002254639    1.651    0.394
       184  -8.9204     87.5293    151.5190   1.2351429841e+02   3.3320712714e+01     0.144591    0.1313767 -76.38 0.0001358514    1.016    0.016
       185  -8.6905     91.2920    150.6834   1.2239589691e+02   3.2908561430e+01    0.1481837    0.1080002  82.17 0.0004109122    1.599    0.374
       186 -12.8300     67.6056    144.1954   1.2732624360e+02   3.8058567166e+01    0.7473368    0.5429831  85.17  0.002996839    1.526    0.345
       187 -11.7058     72.9185    139.5585   1.2507844080e+02   3.8420930694e+01    0.4974923    0.4009196  57.63  0.002712835    1.324    0.245
       188 -10.9965    133.5727    142.4029   1.0993197854e+02   2.6958579709e+01    0.9040635    0.2891298 -50.89    0.0027603    3.173    0.685
       189 -10.6943    236.3253    145.9751   8.8962716408e+01   4.0602069501e+00    0.2755755    0.2205072  44.76 0.0007709545    1.350    0.259
       190  -8.7107    107.3412    146.2676   1.1740142994e+02   3.1174773376e+01    0.1439208    0.1201831  -9.74 0.0003318667    1.602    0.376
       191 -11.3796     31.8587    145.9109   1.3672565689e+02   4.1862298755e+01    0.2258114    0.1855064  53.68  0.001361304    1.350    0.259
       192 -12.0945     32.3345    140.9082   1.3590966303e+02   4.2985865918e+01    0.4972115    0.2733679 -88.49  0.002429045    2.062    0.515
       193 -12.4224     23.7686    154.5715   1.3977650430e+02   4.0622140096e+01    0.4695816    0.3542976  76.57  0.002903332    1.270    0.213
       194 -11.1775     60.3646    137.4526   1.2803778401e+02   4.0637423684e+01    0.2978607    0.2439422 -85.75 0.0009939197    1.196    0.164
       195  -9.3021    138.5403    138.5080   1.0780996286e+02   2.6811685883e+01    0.1558909    0.1502983 -80.64 3.917842e-05    1.007    0.007
       196 -10.7922     46.3560    138.4320   1.3191315691e+02   4.2095229955e+01    0.2875004    0.2022593   7.69  0.001544166    2.099    0.524
       197 -10.3094    110.6620    136.1623   1.1435976562e+02   3.2950842910e+01    0.3764091     0.293008  11.28  0.001236415    1.755    0.430
       198 -10.5594     39.3839    146.7894   1.3497459754e+02   4.0884170797e+01    0.3034282    0.1547643  59.44  0.001400699    2.462    0.594
       199 -11.4975     45.2825    131.3394   1.3102359090e+02   4.3889275954e+01    0.4535805    0.2921924  88.32  0.002122121    1.842    0.457
       200  -8.9908     25.6518    139.7038   1.3743173874e+02   4.3895713563e+01    0.1245852   0.08195285 -43.81 0.0007033658    1.677    0.404
       201 -11.8051      2.0769    130.8647   1.4221485813e+02   4.7746102186e+01    0.5062863    0.1518943 -68.43    0.0022913    2.377    0.579
       202 -10.9018     33.1551    131.8186   1.3434850027e+02   4.5029723248e+01     0.196657    0.1928576  89.45 0.0006463926    1.220    0.181
       203 -12.2253     31.7893    127.3691   1.3401734536e+02   4.6194797707e+01    0.5722578    0.2951269  62.80  0.002580127    2.870    0.652
       204 -12.5191     12.1414    128.5187   1.3937633624e+02   4.7575730417e+01    0.3793671    0.2553577 -87.72  0.001894681    1.396    0.284
       205 -13.2690     20.8240    121.4729   1.3607463625e+02   4.8509581267e+01     1.079519    0.5771767 -13.60  0.004920478    3.572    0.720
       206 -11.6645     66.6133    128.0242   1.2455871588e+02   4.2051167349e+01    0.4658061    0.3676657 -82.80  0.002092774    1.325    0.245
       207  -9.3754    109.7546    128.9688   1.1295880933e+02   3.4806688909e+01     0.207824     0.188704 -57.00            0    1.053    0.050
       208  -9.1396     74.3384    128.6414   1.2254250352e+02   4.0817154438e+01     0.148934    0.1055586  81.16 0.0007038519    1.817    0.450
       209 -10.4612    209.7737    125.7964   8.9156097497e+01   1.3495474323e+01    0.3095408    0.2562733 -36.15 0.0004947484    1.188    0.158
       210 -11.4112     38.3006    121.8834   1.3131389244e+02   4.6834283726e+01    0.3115184     0.213181  64.00  0.001683745    1.795    0.443
       211  -9.0340    234.2954    125.3176   8.4694050051e+01   8.2613250746e+00    0.1415802    0.1131221  -1.50 0.0002566072    1.608    0.378
       212 -10.2666     58.2940    125.0066   1.2628640313e+02   4.3849675311e+01    0.3050167    0.1743154  32.17  0.001197978    2.015    0.504
       213 -10.3992     54.7916    120.8418   1.2646211485e+02   4.5255853501e+01    0.2613434    0.2085398  25.18  0.001311176    1.489    0.328
       214  -9.2669     53.6681    181.9446   1.3628371367e+02   3.0962272652e+01    0.2340906    0.1683349  10.15 0.0009250327    2.381    0.580
       215  -9.7279    116.7941    128.7916   1.1105593711e+02   3.3495141418e+01    0.2602988    0.1743014  -9.22 0.0009617903    2.857    0.650
       216  -9.6215     48.5547    117.9468   1.2768105249e+02   4.6655738576e+01    0.2021444   0.08246795 -43.79 0.0008080799    2.579    0.612
       217  -8.5648     85.2988    126.6872   1.1909302548e+02   3.9605781752e+01    0.1447187    0.1102224  84.53 0.0007014262    1.605    0.377
       218 -12.0105     15.3855    114.7548   1.3654464770e+02   5.0450552719e+01    0.3348955    0.1893167 -71.07 0.0008202184    1.474    0.321
       219 -10.9233    168.0281    113.2265   9.4586943618e+01   2.5713547372e+01    0.3799758    0.3057806 -83.45 0.0008936406    1.477    0.323
       220  -9.4682    203.6963    111.8154   8.6928942035e+01   1.7596668237e+01    0.2385284    0.1951296 -19.60 0.0008084775    1.425    0.298
       221 -11.1692     57.2070    110.2586   1.2357366373e+02   4.7405554816e+01    0.3737254    0.2315569  14.68  0.001818259    2.229    0.551
       222 -10.5299     31.6434    110.9647   1.3126626688e+02   4.9974860546e+01    0.2035375    0.1818408  47.00 0.0005462682    1.335    0.251
       223 -12.1395    247.8618    142.5222   8.6259967702e+01   2.4348566404e+00    0.8059134    0.6337919  36.83  0.004479002    1.417    0.295
       224  -9.6187    126.1859    180.1369   1.1939786935e+02   1.9744384331e+01    0.2815207    0.2005164 -78.62  0.001326669    1.636    0.389
       225 -14.4280      9.6014    210.5350   1.4775537242e+02   2.9604648457e+01     3.231268    0.8637723 -69.67   0.01488789    2.896    0.655
       226 -13.1484    246.4296    159.0247   9.0040342498e+01  -1.9695946726e-01     1.431673    0.9474033 -60.66  0.006802412    2.098    0.523
       227 -10.8858    200.4907    246.2433   1.1515287983e+02  -6.3686209543e+00    0.2997494    0.1754607  57.91 0.0009521149    2.522    0.604
       228 -10.7547    193.7563    245.1723   1.1625462086e+02  -5.0912629800e+00    0.2191969    0.1946213  45.72 0.0002805131    1.206    0.171
       229 -11.3265    190.0622     15.6083   6.4680682648e+01   3.5925160624e+01    0.3052069    0.2207443  81.50 0.0009065209    1.224    0.183
       230  -9.5004     68.9381    247.0000   1.4006069376e+02   1.5072875462e+01    0.1980381   0.05764787  40.98 0.0004723622    3.070    0.674
