#   1 NUMBER                 Running object number                                     
#   2 MAG_AUTO               Kron-like elliptical aperture magnitude                    [mag]
#   3 X_IMAGE                Object position along x                                    [pixel]
#   4 Y_IMAGE                Object position along y                                    [pixel]
#   5 X_WORLD                Barycenter position along world x axis                     [deg]
#   6 Y_WORLD                Barycenter position along world y axis                     [deg]
#   7 A_WORLD                Profile RMS along major axis (world units)                 [deg]
#   8 B_WORLD                Profile RMS along minor axis (world units)                 [deg]
#   9 THETA_WORLD            Position angle (CCW/world-x)                               [deg]
#  10 FWHM_WORLD             FWHM assuming a gaussian core                              [deg]
#  11 ELONGATION             A_IMAGE/B_IMAGE                                           
#  12 ELLIPTICITY            1 - B_IMAGE/A_IMAGE                                       
         1 -11.4449     43.4625     82.6274   1.2825318749e+02   5.5291428516e+01    0.9603268    0.7302176 -27.29  0.004844356    1.511    0.338
         2 -12.0844     82.3322      7.3781   8.7087011087e+01   6.2966281237e+01     2.227383     1.165756   4.13  0.009652331    2.710    0.631
         3 -11.0412    120.8513      3.7748   7.5639829803e+01   5.4845468108e+01    0.8361351    0.5759915  88.58  0.003562637    1.868    0.465
         4 -11.6690    108.4904      3.9054   7.8413269512e+01   5.7732766460e+01     1.698005     0.694259  53.53  0.007368081    2.083    0.520
         5 -10.9311    131.8526      3.1411   7.3242472620e+01   5.2211484157e+01    0.9225475    0.3842537  64.09  0.003546325    2.159    0.537
         6 -11.6888    155.7791     20.1563   7.5113401677e+01   4.4402580628e+01     1.158665    0.6288311  49.52  0.004023545    1.737    0.424
         7 -14.0671    164.0605      9.4431   7.0183190237e+01   4.3350248066e+01     4.259717     2.125152  65.04   0.01864864    1.781    0.439
         8  -9.2859     39.3772      7.2919   1.0362323554e+02   6.9995326333e+01    0.5449052    0.2824822 -12.70  0.002685406    2.488    0.598
         9 -10.0460     50.7285     35.1951   1.1123701583e+02   6.4143332420e+01    0.7464308    0.3621135 -52.92  0.003478834    2.382    0.580
        10 -10.2434    225.2105     29.0831   6.8200709581e+01   2.5183812191e+01    0.4778605    0.3326268  47.12  0.001343676    1.640    0.390
        11 -10.6162     38.7875     29.7203   1.1412169085e+02   6.6532305174e+01    0.8661763    0.3977581 -53.97  0.004099913    2.487    0.598
        12 -10.1856    111.7363     15.2477   8.2399761604e+01   5.5846291779e+01    0.6851751    0.2804915  37.50   0.00259472    2.763    0.638
        13 -10.6609    116.5938     18.2722   8.2447237566e+01   5.4383316007e+01    0.7591242    0.4157482 -39.11  0.003478901    1.998    0.500
        14  -9.4644    117.5370     13.5174   8.0304289594e+01   5.4686195473e+01     0.321572     0.231662  48.02  0.001207773    1.263    0.208
        15  -9.5715     94.0495     17.7541   8.8251860163e+01   5.9417426945e+01     0.416528    0.3933864 -87.84   0.00218651    1.360    0.265
        16 -11.7016     43.0980     20.6352   1.0836069758e+02   6.7546048163e+01    0.8448201    0.7837527   7.53  0.004557885    1.293    0.226
        17 -10.5516     71.2963      5.2918   8.9697986428e+01   6.5276831928e+01    0.5872839    0.3665077  35.06  0.002504651    1.486    0.327
        18 -10.4080    249.2561     14.1540   6.2218670944e+01   2.1137644782e+01    0.5865354    0.3245616 -11.51  0.002633292    2.710    0.631
        19 -10.5999    248.0094      6.0938   6.0430946045e+01   2.2312876665e+01    0.7301146      0.39729  48.57   0.00354248    2.354    0.575
        20  99.0000     19.9064     14.8911   1.1682563653e+02   7.0922933248e+01    0.4137663    0.2218904 -24.15  0.002403359    1.843    0.457
        21 -11.3561    128.5307     17.7163   7.9503744965e+01   5.1591639966e+01    0.8961706    0.6946716  59.22  0.004260214    1.233    0.189
        22  -8.0490     60.3335      9.3030   9.5723704976e+01   6.6690075709e+01    0.1292188   0.08312274   9.38 0.0003612585    1.659    0.397
        23  -8.0114     56.6869      8.6932   9.6857455000e+01   6.7347125400e+01    0.1948357    0.1485816   3.14 0.0007084004    1.160    0.138
        24  -8.2857     53.5177      7.0247   9.7295766143e+01   6.8047014908e+01    0.2326927    0.1670493 -68.37  0.001110154    3.668    0.727
        25  -8.3362     48.6989      6.6893   9.9148182195e+01   6.8805364932e+01    0.2141567    0.1244502  27.57  0.001221897    1.729    0.422
        26  -9.4296    229.6810      5.6942   6.1783928455e+01   2.6734165336e+01    0.2774038    0.2037131  38.52  0.001387538    1.754    0.430
        27 -10.4499    213.5128      4.4855   6.2905294936e+01   3.0898346992e+01    0.4620087    0.1951138  80.12  0.001878118    2.377    0.579
        28  -9.8318     61.5493      2.1646   9.1614134066e+01   6.7328428163e+01    0.5376702    0.2537891  43.51  0.002766601    2.031    0.508
        29  -8.5976     26.0291      2.7011   1.0775796306e+02   7.2208693906e+01    0.2336805    0.1359933 -41.32  0.001321654    1.682    0.405
        30  -9.2255    222.5797      1.7651   6.1393707200e+01   2.8889390881e+01    0.3077216     0.132976 -24.38  0.001318666    2.507    0.601
        31  -8.5192     51.6695      1.9159   9.5380596930e+01   6.8949809890e+01    0.2101412    0.1639958  30.64  0.001410526    1.296    0.229
        32  -8.2524     39.7686      1.5008   1.0037135929e+02   7.0709386689e+01    0.2453713    0.1081745  40.94  0.001275163    2.481    0.597
        33  -8.3534     16.1504      1.5056   1.1241781130e+02   7.3360705884e+01     0.224617    0.1003604  27.01 0.0009719543    2.448    0.592
        34  -9.5266     35.1313     79.9302   1.3046222613e+02   5.6703572537e+01    0.3460805    0.2389518 -72.06  0.002021716    1.359    0.264
        35  -8.9968     49.1302     62.1667   1.2102858161e+02   5.9111268481e+01    0.3039187    0.1892381  23.07  0.001649743    1.915    0.478
        36  -7.8469     10.4491     55.9976   1.3418175205e+02   6.3716053626e+01    0.1738161    0.1424571  63.84  0.001190785    1.565    0.361
        37  -8.3805    198.0732     54.3023   7.8794178340e+01   2.8736094435e+01    0.2156939    0.1909165  74.29  0.001134978    1.115    0.104
        38  -7.7838     34.2536     52.4099   1.2385487303e+02   6.2669836055e+01    0.1550012    0.1127769  38.52 0.0009593344    1.692    0.409
        39  -9.9455     82.6022     46.8234   1.0384495897e+02   5.7244791224e+01    0.4934352    0.4188879 -41.28  0.001935543    1.188    0.158
        40  -9.3795     81.4887     41.3447   1.0213161836e+02   5.8387937944e+01    0.4794164    0.3168282  37.20  0.002513888    1.565    0.361
        41  -9.2712     81.4858     36.9833   1.0040642266e+02   5.9110479146e+01    0.3374095    0.1619901 -31.25  0.001442495    2.087    0.521
        42  -7.6858    203.4510     49.4457   7.6576523307e+01   2.8044092182e+01     0.147165    0.1406673 -79.81 0.0003739512    1.010    0.010
        43  -8.5902    111.6764     44.8004   9.4079421935e+01   5.1841189417e+01    0.4813308    0.2170894 -23.12  0.001689326    3.050    0.672
        44 -10.1817      3.3248     40.3656   1.3340206660e+02   6.7297363596e+01    0.4582703    0.3289652  86.10   0.00306379    1.855    0.461
        45  -8.8590     97.6412     42.4996   9.7336824828e+01   5.5152179232e+01     0.284017    0.1715461 -31.72  0.001346575    1.624    0.384
        46 -10.8869    174.1452    242.7956   1.2412558689e+02   2.3140499061e+00    0.4431652    0.1941259  43.14  0.002324415    1.754    0.430
        47 -10.4462    163.2639    243.1783   1.2608528707e+02   4.0380930622e+00    0.2930653    0.2283838  15.67  0.001971513    1.579    0.367
        48  -8.2007    200.6729    240.6791   1.1922347989e+02  -1.7284055720e+00    0.1196522   0.07670213  19.19 0.0007047683    1.685    0.407
        49 -10.4800    203.0370    226.3006   1.1669535713e+02  -3.3111644384e-01    0.2921445    0.2218384  49.13  0.001893311    1.353    0.261
        50 -10.4493    208.2263    225.0563   1.1558878080e+02  -1.0394685470e+00    0.3111556    0.2189439   4.35  0.001823948    1.645    0.392
        51  -8.8844    239.2014    203.4040   1.0658739354e+02  -3.4916358528e+00    0.1685169    0.1063228  46.60 0.0009507231    1.671    0.401
        52  -9.6624     66.4061     30.2664   1.0304499127e+02   6.2727706601e+01    0.5870748    0.2261813 -40.76  0.002501231    2.448    0.591
        53  -7.8545     37.6522    185.2883   1.4379668334e+02   3.2960047851e+01    0.1243792    0.0663052  66.38 0.0007024047    1.659    0.397
        54  -9.2412     11.4696     34.1140   1.2802944911e+02   6.8072714382e+01    0.4433134    0.2759579 -42.69   0.00212359    1.247    0.198
        55  -7.3388     59.2810     35.6594   1.0800407384e+02   6.2903647193e+01    0.1179251    0.1000767 -65.99 0.0004543558    1.627    0.386
        56  -8.3308     27.0250     35.4062   1.2144889643e+02   6.6659774402e+01    0.2255947    0.1129465  23.09  0.001234386    2.330    0.571
        57  -9.3150     40.6442    142.6773   1.3893429896e+02   4.1855151689e+01    0.2603155    0.1497706 -50.70  0.001405314    1.954    0.488
        58  -9.6424     86.6481     31.2007   9.6313551928e+01   5.9061169367e+01    0.3860314     0.280514  -5.98  0.002077139    1.472    0.320
        59 -11.5382     10.9994    138.8353   1.4563663461e+02   4.5424187249e+01    0.6608512    0.3068795 -66.60  0.003752504    1.755    0.430
        60  -8.4048     97.6042     27.8770   9.1507467536e+01   5.7365440099e+01    0.4614755    0.2499317 -11.78  0.001918109    2.510    0.602
        61  -8.8999    125.2733     28.6002   8.4413080859e+01   5.1071836137e+01    0.2853513    0.2669337   7.01  0.001341798    1.059    0.056
        62 -12.7709    240.9477    133.0861   9.2000738506e+01   6.0767004689e+00     1.588739     1.148258  47.67  0.004724225    1.451    0.311
        63  -9.4154    104.9998     25.6580   8.8463603817e+01   5.6094065388e+01    0.4199546    0.3373456  46.02  0.002359925    1.212    0.175
        64  -9.9344     49.8162     27.4869   1.0846384282e+02   6.5578928114e+01     0.352402    0.3151322 -43.41  0.001930792    1.331    0.249
        65 -10.0399     11.0701    127.2205   1.4454321500e+02   4.7983351672e+01    0.3011919    0.1348593 -71.51  0.001647378    1.716    0.417
        66  -8.6510     22.2276    125.5891   1.4154117615e+02   4.7471839690e+01    0.1354408    0.1181142  -1.92 0.0009459914    1.627    0.385
        67 -10.6110     11.4826    118.1218   1.4350179993e+02   4.9981103198e+01    0.4516368    0.2690005  66.71  0.002735773    1.732    0.423
        68  -9.6980      3.8024    139.2260   1.4734065409e+02   4.5872869459e+01    0.2626131    0.1918287 -56.81  0.001865482    1.521    0.342
        69  -9.2796     19.8564    107.6446   1.3995541177e+02   5.1721865799e+01    0.3485942    0.1515193 -55.63  0.001619025    1.962    0.490
        70  -9.3868     17.0089    103.9705   1.4027468871e+02   5.2764434990e+01    0.3701859    0.2508215 -68.08  0.002388006    1.167    0.143
        71  -9.3970     30.3943    102.0660   1.3607731721e+02   5.2126648785e+01    0.3129892    0.1629227 -46.90  0.001634971    1.941    0.485
        72  -9.7168     46.9616     99.0864   1.3055197698e+02   5.1191929328e+01    0.3398037    0.1523259 -55.89  0.001599436    1.857    0.461
        73  -9.0997     64.2866     16.4159   9.7654873832e+01   6.5117932675e+01    0.2351792    0.2261687  54.89  0.000952527    1.437    0.304
        74  -8.7729      2.7988     89.2626   1.4253086036e+02   5.6942047253e+01    0.3135946    0.1778251 -84.60  0.001888676    1.558    0.358
        75  -7.7987      8.4419     17.5570   1.2381328461e+02   7.1330424946e+01    0.1109919    0.0829358 -37.05 0.0003624723    1.011    0.011
        76  -9.2344    108.4933     39.2277   9.2871254542e+01   5.3405947000e+01    0.3867353    0.2599599  -0.29  0.001778405    1.932    0.482
        77 -10.2014    183.4701    246.2197   1.2294875706e+02   3.6370387866e-01    0.3042923    0.1460102  49.07  0.001641745    1.848    0.459
        78  -9.4164    227.6241     78.8328   8.0918973501e+01   1.7576393376e+01     0.416311     0.328317  -0.63  0.002007615    1.547    0.353
        79  -9.9547     11.0467     70.3707   1.3687313682e+02   6.0615336345e+01    0.5063291    0.2135596 -58.43  0.002716476    1.727    0.421
        80  -9.5639     13.1955     77.5669   1.3742395606e+02   5.8913917764e+01    0.2552166    0.1893892  16.35  0.001455446    1.728    0.421
        81  -8.4056     69.9550     36.1427   1.0415255146e+02   6.1203808212e+01    0.3126606    0.2371569  -7.28  0.001799032    1.356    0.263
        82 -10.5032     16.1068     73.5341   1.3569714430e+02   5.9609891842e+01    0.5374159    0.4292436 -26.40  0.003764272    1.429    0.300
        83 -10.6109      4.4066     76.7538   1.4023151841e+02   5.9598485420e+01     0.646689    0.3621344  49.23  0.003736282    2.249    0.555
        84  -7.8490    203.7981     76.5535   8.4119543415e+01   2.3792845136e+01    0.2024553    0.1479196  77.67 0.0005673171    1.569    0.363
        85  -8.6314     83.4039     69.8079   1.1144641130e+02   5.2698896003e+01    0.3395839    0.2392444  19.74  0.001695717    1.758    0.431
        86  -9.0034     75.0896     67.7756   1.1356347411e+02   5.4452791275e+01     0.529361    0.3638583  -8.24  0.002549181    2.074    0.518
        87  -8.5331     33.9228     68.5455   1.2829320370e+02   5.9309506983e+01    0.3471061    0.1874936  -5.11  0.001581183    3.261    0.693
        88  -9.6444     24.7436     64.3725   1.3066297183e+02   6.0976244812e+01    0.4483604    0.1988344 -56.11  0.001856241    1.723    0.420
        89  -9.5591     16.5588     64.3006   1.3367675134e+02   6.1578354200e+01    0.2453068      0.15566 -73.96  0.001343839    1.492    0.330
