#   1 NUMBER                 Running object number                                     
#   2 MAG_AUTO               Kron-like elliptical aperture magnitude                    [mag]
#   3 X_IMAGE                Object position along x                                    [pixel]
#   4 Y_IMAGE                Object position along y                                    [pixel]
#   5 X_WORLD                Barycenter position along world x axis                     [deg]
#   6 Y_WORLD                Barycenter position along world y axis                     [deg]
#   7 A_WORLD                Profile RMS along major axis (world units)                 [deg]
#   8 B_WORLD                Profile RMS along minor axis (world units)                 [deg]
#   9 THETA_WORLD            Position angle (CCW/world-x)                               [deg]
#  10 FWHM_WORLD             FWHM assuming a gaussian core                              [deg]
#  11 ELONGATION             A_IMAGE/B_IMAGE                                           
#  12 ELLIPTICITY            1 - B_IMAGE/A_IMAGE                                       
         1 -14.4217    161.3380     52.1203   7.9711082369e+01   3.8462256866e+01     1.864856     1.362067  11.23  0.006405662    1.932    0.482
         2 -14.0560    173.8604     36.0823   7.2920186195e+01   3.7585208196e+01    0.8896363    0.7718866 -56.45  0.002901785    1.198    0.166
         3 -12.3701    189.6457     14.6516   6.4985662295e+01   3.6228107451e+01    0.3394574     0.254334 -52.24  0.001068396    1.372    0.271
         4 -13.9032    191.7125      4.4817   6.2216159572e+01   3.6773749673e+01    0.9933477     0.545222  67.91  0.004202789    1.535    0.349
         5 -10.0794     18.4888    218.4322   1.4701685806e+02   2.7183403033e+01    0.1092524   0.08691613 -87.04  8.93308e-05    1.232    0.188
         6 -18.6889     68.0761    244.6184   1.4031706437e+02   1.5799984359e+01      6.46412     4.988017  45.77   0.04387014    1.416    0.294
         7 -10.3642      3.1808    176.5224   1.4674257314e+02   3.7535840242e+01    0.1151683   0.09554987 -71.82 0.0002947095    1.298    0.230
         8 -19.2724     46.9793     97.6810   1.2443716963e+02   5.1425684986e+01     18.44235     1.816073 -58.11   0.03687726   10.275    0.903
         9 -10.4627    184.5196    186.5033   1.0822080076e+02   6.8839391811e+00    0.1442317    0.1379371  34.54 -4.886631e-05    1.008    0.008
        10 -11.6225    208.8848    197.6911   1.0547709730e+02   7.9428858731e-02    0.2498782    0.2101243  75.77 0.0007477956    1.611    0.379
        11 -12.7067    139.2902    200.7096   1.2051988897e+02   1.2895845558e+01    0.3983844    0.3798442 -53.62  0.001861345    1.174    0.148
        12 -12.4427     34.1113    184.3252   1.4111946073e+02   3.2822984848e+01     0.250561    0.2044206 -71.51 0.0007175799    1.239    0.193
        13 -10.5994    122.3053    165.5051   1.1805766790e+02   2.3919059819e+01     0.249941    0.2198756  85.98 0.0003297025    1.122    0.109
        14 -10.6881    223.8739    164.2677   9.5747276929e+01   3.2169236440e+00    0.2367292    0.1881603 -49.24 0.0005021434    1.319    0.242
        15 -10.3043     25.8384    165.3656   1.4090084360e+02   3.7990238326e+01    0.3052933    0.1299571  23.02  0.001361961    3.636    0.725
        16 -11.1332    237.6026    159.7476   9.2277510582e+01   1.3657318844e+00    0.2011332    0.1235669 -46.72 0.0008082861    1.648    0.393
        17  99.0000      4.1614    208.9963   1.4889893866e+02   3.0550687670e+01    0.1649475    0.1377621 -50.80   0.00100127    1.806    0.446
        18 -10.9665    139.4716    156.1258   1.1204654285e+02   2.2664948105e+01    0.2785587    0.2118442  55.42 0.0003886401    1.325    0.245
        19 -12.2020    134.2424    148.2504   1.1160969123e+02   2.5544004109e+01    0.7898722    0.3163871 -58.85  0.002458581    3.274    0.695
        20 -12.4856    134.0000    143.9943   1.1072701747e+02   2.6573129389e+01    0.9920908    0.3182102 -57.50  0.002525487    4.829    0.793
        21 -10.0355    175.2083    194.0138   1.1162810853e+02   7.2699784711e+00     0.223316    0.1648238 -80.08 0.0004913313    1.937    0.484
        22 -10.1806     13.8430    152.1874   1.4217679584e+02   4.2081880762e+01    0.1588541     0.123767 -53.61  0.001070129    1.392    0.282
        23 -12.4189      4.1681    112.4166   1.3972202087e+02   5.1729239592e+01    0.3889292    0.3397827 -71.45  0.001673874    1.144    0.126
        24 -13.6953      3.1187    127.9378   1.4199299509e+02   4.8348176873e+01     1.143782    0.7006354 -63.83  0.007288324    1.262    0.208
        25 -13.2007      7.0350    143.8379   1.4285079120e+02   4.4506255691e+01    0.6573796    0.6354266 -69.65  0.005152648    1.325    0.245
        26 -13.2408      4.3559    137.6041   1.4280202787e+02   4.6100689780e+01    0.7684937    0.4846884 -33.41  0.004668293    2.142    0.533
        27 -12.8192    112.4759    139.6756   1.1519607751e+02   3.1841211084e+01     0.756744    0.5290849   6.58  0.003116058    2.474    0.596
        28 -12.4744    103.1318    138.8716   1.1744876118e+02   3.3747993654e+01    0.3125563    0.2783939 -47.57 0.0004596701    1.147    0.128
        29 -11.1341    174.5693    149.0327   1.0239908612e+02   1.6692650620e+01     0.289527     0.264953  77.96 0.0008354497    1.149    0.130
        30 -12.7493    206.7215    180.1419   1.0240397095e+02   3.6694224369e+00    0.8434722    0.4481422  32.04  0.002930091    2.182    0.542
        31 -12.2789     94.0813    137.3931   1.1951854237e+02   3.5672054010e+01    0.4543796    0.2709974 -40.01  0.001980804    1.920    0.479
        32 -12.6141     11.5828    205.8858   1.4736430010e+02   3.0482985770e+01    0.3083163    0.2719637  51.91   0.00216657    1.479    0.324
        33 -12.0648    106.1050    130.8157   1.1489532160e+02   3.5106912232e+01     0.408799     0.347267 -77.46  0.001182578    1.218    0.179
        34 -11.4244    107.2197    125.6601   1.1341166174e+02   3.6102604213e+01    0.3068103    0.2615558 -21.06  0.000497905    1.385    0.278
        35 -12.0628    118.7832    129.4492   1.1124283170e+02   3.3009892904e+01    0.3984279    0.3606251 -55.43  0.001139255    1.071    0.066
        36 -12.7770    124.3141    126.4817   1.0910165513e+02   3.2583164415e+01    0.6925003    0.4485059  79.50   0.00262964    2.579    0.612
        37 -11.1501    160.5296    127.6660   1.0050985751e+02   2.4453712235e+01     0.395884    0.2609548 -63.40  0.001633687    1.833    0.455
        38 -11.6565    142.7283    127.5936   1.0473332905e+02   2.8442742723e+01    0.3952506    0.2929079  86.76  0.001065016    1.805    0.446
        39 -12.3997    145.6814    146.5188   1.0846225542e+02   2.3545244158e+01    0.5171436    0.3559993  67.23  0.001647019    1.770    0.435
        40 -11.3006     92.8563    123.6395   1.1685559220e+02   3.9120187373e+01    0.2966349    0.1781809  53.64  0.001303698    1.939    0.484
        41 -12.3165    135.6042    122.5043   1.0524589994e+02   3.1120511339e+01      0.50663    0.2511283 -53.51  0.001883413    2.147    0.534
        42 -11.2657    112.9831    118.5571   1.1015483503e+02   3.6640180099e+01    0.3278357    0.2712216  88.83  0.001102158    1.414    0.293
        43 -13.3948    194.0404    193.9477   1.0771574860e+02   3.5862127904e+00     1.171377    0.6236759 -57.29  0.003355128    2.672    0.626
        44  -9.9739    116.3151    115.6253   1.0852920277e+02   3.6649666756e+01    0.1601028    0.1197644 -87.63  0.000703102    1.795    0.443
        45 -10.9359    168.3466    113.1335   9.5075171574e+01   2.5724721093e+01    0.4348151    0.3014337 -77.96  0.001266807    2.054    0.513
        46 -11.4625    134.7341    106.1637   1.0124455563e+02   3.4877203027e+01    0.5351177    0.1518886 -44.49  0.001552845    3.480    0.713
        47  -9.9737     94.6429    111.3117   1.1343167685e+02   4.1647500969e+01    0.1497362    0.1142854  82.10 0.0007043441    1.737    0.424
        48 -10.7840    205.4719    110.1746   8.6764769397e+01   1.7548347340e+01    0.3293599    0.2199841  44.46  0.000992281    1.619    0.382
        49 -10.0559    163.0462    110.2767   9.5525799189e+01   2.7561382196e+01    0.2149964    0.2005572  67.50  0.000271795    1.072    0.067
        50 -12.5577    196.0143    171.3579   1.0273616073e+02   7.5123170210e+00    0.9008341    0.4577487 -53.82  0.002952294    2.416    0.586
        51 -10.7177    180.1055    192.1911   1.1025245341e+02   6.6563939815e+00      0.24048    0.2112838 -74.80 0.0003997991    1.327    0.247
        52 -11.3592     88.6567     78.1021   1.0615112282e+02   4.9709612992e+01    0.2398945    0.2204413  29.15 0.0004075783    1.138    0.121
        53  -9.7848    117.4721     78.4539   9.7922766013e+01   4.4155531331e+01    0.1443037    0.1406127   1.21 0.0004518645    1.007    0.007
        54  99.0000     14.5460    248.7525   1.4956256445e+02   2.1702301308e+01    0.3867355    0.1184044  51.68  0.002075893    2.427    0.588
        55 -11.2278    167.4951    191.0952   1.1271547471e+02   9.3795721915e+00    0.3542529    0.2767224   8.40  0.001323787    1.672    0.402
        56 -13.2461    178.1401     28.7709   7.0250735111e+01   3.7438907685e+01    0.4729069    0.4404656  -5.61  0.001349685    1.301    0.231
        57 -10.3360     13.4216     59.8397   1.2676545880e+02   6.2142079834e+01    0.1578145    0.1460068 -30.94 0.0004405111    1.230    0.187
        58 -10.0164    201.5031    222.4765   1.1147892967e+02  -2.7603943714e+00    0.1327761    0.1164326  24.59 6.114993e-05    1.005    0.005
