#   1 NUMBER                 Running object number                                     
#   2 MAG_AUTO               Kron-like elliptical aperture magnitude                    [mag]
#   3 X_IMAGE                Object position along x                                    [pixel]
#   4 Y_IMAGE                Object position along y                                    [pixel]
#   5 X_WORLD                Barycenter position along world x axis                     [deg]
#   6 Y_WORLD                Barycenter position along world y axis                     [deg]
#   7 A_WORLD                Profile RMS along major axis (world units)                 [deg]
#   8 B_WORLD                Profile RMS along minor axis (world units)                 [deg]
#   9 THETA_WORLD            Position angle (CCW/world-x)                               [deg]
#  10 FWHM_WORLD             FWHM assuming a gaussian core                              [deg]
#  11 ELONGATION             A_IMAGE/B_IMAGE                                           
#  12 ELLIPTICITY            1 - B_IMAGE/A_IMAGE                                       
         1 -15.1702    247.7677     96.0370   1.7756178834e+01   1.1798534392e+01     2.838976     1.011848 -25.21   0.00919834    4.244    0.764
         2 -11.9789     20.6561     98.5381   7.7176963310e+01   5.4598421542e+01    0.9220905    0.3719261 -89.88  0.003075389    3.586    0.721
         3 -14.1129    249.1429    120.4487   2.2948484828e+01   7.8573560096e+00     1.749593    0.2706959 -36.78  0.005103496    4.754    0.790
         4  -9.7766    112.3602     21.0367   1.6525176744e+01   5.4674165015e+01    0.2490558   0.07349842 -45.66 0.0007043009    4.534    0.779
         5 -10.0471    140.5667    250.2166   6.5886638586e+01   3.9972845348e+00    0.1434672    0.1061458 -28.03 0.0009467569    1.662    0.398
         6 -10.2684    243.0838    245.7919   4.7019440481e+01  -8.1810013451e+00    0.2381983    0.1040598 -23.06  0.001398102    2.196    0.545
         7 -10.0779    212.4698    247.0664   5.2253871065e+01  -4.8526291840e+00    0.1516794   0.09632268 -26.42  0.001029361    1.587    0.370
         8  -9.9913    187.5342    247.0164   5.6646019382e+01  -1.7641887183e+00    0.1512658     0.106292 -32.03  0.001029905    1.590    0.371
         9 -10.9230    176.1802    245.4247   5.8513803960e+01  -8.2866498182e-02    0.3705008    0.1682564 -30.11  0.001871605    2.833    0.647
        10 -10.0128    155.9783    247.1759   6.2553760469e+01   2.3643491594e+00    0.1422327    0.1292977  81.85 0.0007951974    1.597    0.374
        11 -10.1109    232.9789    246.1898   4.8699482866e+01  -7.1190845133e+00    0.1339141    0.1073755 -26.15  0.001034961    1.598    0.374
        12 -10.6694    147.3399    245.1292   6.3966976960e+01   3.8337068050e+00    0.2764498    0.1990982  78.46  0.001587038    2.552    0.608
        13 -10.2278    195.0117    245.0002   5.5018730559e+01  -2.4565736562e+00    0.1614815    0.1333224  48.63  0.001131051    1.800    0.444
        14 -10.4554    123.4818    243.4603   6.8483066362e+01   7.3657719837e+00    0.1876364    0.1181241 -76.17  0.001037823    2.503    0.601
        15  -9.2474    209.6808    243.3228   5.2193375429e+01  -4.0695819248e+00   0.09653162   0.08421049  37.61 0.0007044587    1.671    0.402
        16 -10.2806    201.9205    242.3717   5.3414456936e+01  -2.9942681383e+00    0.1957223    0.1415987 -53.94  0.001235496    2.433    0.589
        17 -10.4193    169.4350    242.0341   5.9323462973e+01   1.2815946468e+00     0.212222    0.1476217 -38.33  0.001384766    1.669    0.401
        18  -9.9934    131.5351    243.4803   6.6879304003e+01   6.2547659459e+00     0.120245   0.09678682  34.39 0.0003967646    1.024    0.023
        19 -10.5073    106.6822    243.3342   7.1848179830e+01   9.6785475870e+00     0.123871   0.07712966  57.41 0.0007048307    1.695    0.410
        20 -10.1887    186.0828    241.6646   5.6167762016e+01  -8.7730196744e-01    0.1788408      0.12464  38.59  0.001167531    1.489    0.329
        21 -10.9566    160.2294    238.7776   6.0651694571e+01   3.0053803540e+00    0.4104653     0.213552 -56.85  0.002091468    2.977    0.664
        22  -9.8356    153.7432    240.9991   6.2202302623e+01   3.5703865689e+00    0.1353932    0.1028912 -41.67 0.0008921379    1.571    0.364
        23 -10.4934    248.3235    239.5918   4.5259685903e+01  -8.0786297275e+00    0.1984718    0.1073171 -22.71  0.001158978    1.608    0.378
        24 -10.2472    220.9999    239.9833   4.9762316924e+01  -5.0322985387e+00    0.1472236    0.1338777  30.34   0.00113149    1.701    0.412
        25  -9.3789    214.3629    240.6920   5.0998878413e+01  -4.3204789250e+00   0.09836954   0.08370669  39.80 0.0006783881    1.743    0.426
        26 -10.1614    194.2903    239.0045   5.4292679060e+01  -1.5931071394e+00    0.1576083    0.1291882   0.20 0.0007571383    1.124    0.110
        27 -10.9515    231.2547    236.7705   4.7565011977e+01  -5.8594705904e+00    0.2653198    0.2261759 -62.52  0.001779536    2.772    0.639
        28 -10.0267    209.1719    237.7981   5.1468243847e+01  -3.3278517220e+00    0.1556842    0.1063272   1.31 0.0006972115    1.283    0.221
        29 -10.2616    182.8335    237.5933   5.6192365595e+01   1.0136961191e-01    0.2432881     0.114688 -27.16   0.00120351    2.710    0.631
        30 -10.1081    243.2455    236.9860   4.5659382868e+01  -7.2407341038e+00    0.1529302    0.1081343  -8.95 0.0006860493    1.130    0.115
        31  -9.9717    204.3356    236.1947   5.2080267855e+01  -2.5171538974e+00    0.1401277    0.1006617 -38.24 0.0006257118    1.697    0.411
        32 -10.4216    250.3118    244.6111   4.5711094213e+01  -8.8221607003e+00    0.1950556    0.1000238 -23.93  0.001120554    1.715    0.417
        33 -10.6235    219.7595    232.9035   4.8897011732e+01  -4.0286930793e+00    0.2108332    0.1857295 -70.17  0.001425204    2.470    0.595
        34  -9.7517    248.2908    233.6643   4.4348411295e+01  -7.4268728906e+00   0.08946377   0.07945024 -10.50   0.00048413    1.637    0.389
        35 -10.1580    122.7103    232.5447   6.7389542369e+01   9.2832940099e+00    0.1966702    0.1130198 -56.43  0.001079558    2.104    0.525
        36 -10.0279    241.5784    231.7984   4.5117981157e+01  -6.4693425377e+00    0.1354688    0.0911438 -31.78 0.0009403307    1.638    0.389
        37 -10.2178    176.7044    235.5908   5.7057593104e+01   1.2067072563e+00    0.1862454    0.1048235 -41.78  0.001067988    2.042    0.510
        38 -10.6521    194.8196    231.5925   5.3103723559e+01  -6.7575973878e-01    0.2071405    0.1628753 -31.42  0.001115084    1.436    0.303
        39 -10.0037    187.5558    231.9742   5.4498805380e+01   2.4339063227e-01    0.1596732    0.1097122 -32.39 0.0008409347    1.558    0.358
        40 -10.0021    157.9801    230.7776   6.0008182536e+01   4.5294407399e+00    0.1868078    0.1581273 -62.89  0.001139462    1.628    0.386
        41 -10.3453    143.9902    230.7756   6.2810343631e+01   6.5315649993e+00    0.1970879    0.1632962 -76.16  0.001187842    1.687    0.407
        42  -9.7143    132.3013    231.6561   6.5306403708e+01   8.0643468987e+00    0.1221435   0.08736974  59.59 0.0004557418    1.679    0.404
        43 -10.6752    236.0271    229.3606   4.5629716643e+01  -5.5477017757e+00    0.2430365    0.1342541 -28.65  0.001284559    1.677    0.404
        44 -10.6879    212.8748    228.3530   4.9379403981e+01  -2.5963268813e+00    0.2848052    0.1515616 -46.26  0.001536861    2.686    0.628
        45 -10.1750    248.8228    228.4181   4.3437282287e+01  -6.8972337454e+00    0.1914105    0.1184282 -33.93  0.001291928    1.768    0.434
        46 -10.4354    248.3955    224.1965   4.2826492701e+01  -6.3656455064e+00    0.1860244    0.1141137 -30.93  0.000989722    1.606    0.377
        47 -10.1774    173.7946    229.2000   5.6694796958e+01   2.5332116116e+00    0.1718836    0.1255543   3.90  0.001073835    1.354    0.261
        48 -10.0637    151.4963    228.9928   6.1056627876e+01   5.7383727997e+00    0.1658649    0.1226102 -44.95  0.001007893    1.585    0.369
        49 -10.1198    229.5239    227.9981   4.6484369053e+01  -4.6138202020e+00    0.1590713   0.09581589 -28.32 0.0008176125    1.569    0.363
        50 -10.2099    184.4674    227.9723   5.4480434046e+01   1.2284251889e+00    0.1631945    0.1137196 -36.04  0.001023162    1.576    0.366
        51 -10.1332    139.0084    227.9813   6.3459527242e+01   7.7103341945e+00    0.1924407    0.1416191   0.84  0.001128777    1.636    0.389
        52 -10.0819    190.4894    226.4876   5.3128528707e+01   6.1293535803e-01    0.1742014    0.1143692 -49.14 0.0009901565    2.084    0.520
        53 -10.2998    167.7047    226.8500   5.7535942399e+01   3.7473071280e+00    0.2251277    0.1004458 -37.42  0.001080693    2.569    0.611
        54 -10.2007    161.6506    226.1133   5.8623913888e+01   4.7296670569e+00    0.2135688    0.1183031 -55.33  0.001088073    2.528    0.604
        55 -10.0628    223.5190    226.0272   4.7179819536e+01  -3.6376697248e+00    0.1625057   0.09823614 -28.26  0.001025392    1.570    0.363
        56 -10.4343    113.6283    232.0534   6.9217831676e+01   1.0654696630e+01    0.2496362    0.1200482 -58.29  0.001258287    2.497    0.599
        57 -11.1664    239.1278    220.9192   4.3768463905e+01  -4.9026458390e+00    0.2731269    0.1934374 -34.03  0.001885352    1.630    0.386
        58 -10.4002    206.4357    224.4692   4.9907011230e+01  -1.2510372220e+00    0.2295212    0.1059387 -36.35  0.001215717    2.219    0.549
        59  -9.6561    134.0000    223.9735   6.3970854238e+01   9.1227046426e+00    0.1809554   0.07310513 -52.78 0.0007974227    2.908    0.656
        60 -10.6805    216.7265    222.3842   4.7762288160e+01  -2.3144921910e+00    0.2342817    0.1712772 -38.62  0.001541505    1.677    0.404
        61 -10.7411    181.0896    222.1060   5.4232000776e+01   2.5576890448e+00    0.3221731    0.1708146 -19.01  0.001517798    2.673    0.626
        62 -10.5367    148.3878    222.2027   6.0747380802e+01   7.2996072692e+00    0.2699531    0.1576421 -45.13  0.001464256    1.948    0.487
        63 -10.5596    173.1337    221.1207   5.5622288983e+01   3.8466106851e+00    0.2689472    0.1740771 -39.32  0.001573883    1.695    0.410
        64 -10.7480    226.3457    220.4065   4.5795703309e+01  -3.2794630857e+00    0.2557682    0.1663162 -27.25   0.00167291    1.443    0.307
        65 -11.2047    192.2097    219.1101   5.1658159730e+01   1.4309205821e+00     0.419053    0.1649078 -38.58  0.001967492    2.659    0.624
        66 -10.5912    104.0000    221.0079   7.0006971364e+01   1.4038376161e+01    0.1882302   0.07339084 -60.21 0.0008070924    2.975    0.664
        67 -10.3693    202.8344    218.5506   4.9610662537e+01   4.3239674604e-02    0.2448814    0.1372432 -19.37  0.001320769    1.962    0.490
        68 -10.3637    159.1932    218.9057   5.8066264307e+01   6.2422122233e+00    0.2375728    0.1676215 -18.88  0.001367806    1.643    0.391
        69 -11.4269    249.7301    214.8113   4.1074423868e+01  -5.4122558926e+00    0.4671168    0.1618556 -39.04  0.002233407    3.109    0.678
        70 -10.5675    210.3970    217.3882   4.8063466049e+01  -8.1672991244e-01    0.2669988    0.1061758 -39.17  0.001288022    2.601    0.616
        71 -10.6169    244.2575    214.9004   4.1950577215e+01  -4.7794558220e+00    0.2274254    0.1630285 -41.72  0.001505924    1.963    0.491
        72 -11.1844    232.5770    213.7814   4.3657697642e+01  -3.2132808230e+00    0.3186652    0.1907198 -42.30  0.001885775    2.110    0.526
        73 -10.7089    198.5378    214.2997   4.9705746501e+01   1.2425047895e+00    0.2585084    0.1865827 -15.12   0.00134911    1.313    0.238
        74 -10.3751    169.0358    214.6681   5.5441052456e+01   5.4651579953e+00    0.2043459    0.1745855 -47.12  0.001315346    1.429    0.300
        75 -10.1732    142.6049    214.7218   6.0886897734e+01   9.4489077266e+00    0.2326621    0.1216403 -45.69   0.00114895    2.146    0.534
        76 -10.6207    185.5007    212.8566   5.1925733611e+01   3.3212910469e+00     0.296541    0.1577166 -35.18   0.00143204    1.957    0.489
        77 -11.4087    214.7941    209.2093   4.5921837766e+01  -2.7937722775e-01    0.5108292    0.2287752 -34.78  0.002607418    2.155    0.536
        78 -10.1812    131.3086    211.8887   6.2901061446e+01   1.1685367006e+01    0.2360086     0.123832 -62.13  0.001086175    2.548    0.607
        79 -10.2787    161.5040    210.5229   5.6318730549e+01   7.2860751961e+00    0.2473379    0.1253311 -44.33  0.001206961    2.159    0.537
        80 -11.4658    236.9615    207.1703   4.1813678908e+01  -2.9120867237e+00    0.4018439    0.2389565 -40.69  0.002194997    1.970    0.492
        81 -10.7276    192.3006    208.9108   4.9980204162e+01   2.9332836074e+00     0.281893    0.1566834 -41.30  0.001329756    1.931    0.482
        82 -10.0829    179.5150    216.0396   5.3591313691e+01   3.7039652864e+00    0.1774706    0.1182474 -36.70  0.001034607    1.596    0.374
        83 -10.3625    147.5591    208.2800   5.8882851629e+01   9.8286029269e+00    0.3001665    0.1249533 -46.43  0.001303528    2.635    0.620
        84 -10.1157    115.7567    208.7533   6.5894927547e+01   1.4658325400e+01    0.1933664    0.1125508 -73.37 0.0008947676    2.444    0.591
        85 -11.2106    205.1001    206.3757   4.7174887648e+01   1.4719767106e+00    0.3999509    0.1578221 -31.37  0.001770562    2.707    0.631
        86 -12.3240    249.5886    185.3537   3.5922450442e+01  -1.6448056356e+00    0.6498429    0.2494201 -32.99  0.003180189    2.204    0.546
        87 -11.6973    249.2520    177.0077   3.4417953143e+01  -4.6369958059e-01      0.33937     0.199087 -43.66  0.001439562    1.984    0.496
        88 -10.8020    246.7757    205.7526   3.9998219229e+01  -3.9471763754e+00    0.2651064     0.134848 -30.73   0.00122063    1.715    0.417
        89 -11.1488    243.8421    200.1305   3.9481271118e+01  -2.8647489837e+00    0.3909993    0.1660251 -32.34   0.00165501    2.060    0.515
        90 -11.1282    250.1704    200.3055   3.8520804221e+01  -3.6725307922e+00    0.3638327    0.1348241 -32.00  0.001479517    2.327    0.570
        91 -12.0948    245.7965    192.6771   3.7844713607e+01  -2.1335918445e+00    0.4691612    0.3430805 -53.15  0.002797774    2.413    0.586
        92  -9.7962    156.5866    206.7835   5.6748966850e+01   8.6864838809e+00    0.1665257    0.1278095 -58.96 0.0009495821    1.659    0.397
        93  -9.9480    139.0000    206.9878   6.0524190494e+01   1.1398996927e+01    0.1984808   0.07604026 -51.28 0.0008003761    2.928    0.658
        94 -11.3081    228.2686    202.0413   4.2362098861e+01  -1.1028108809e+00    0.4981954    0.1988793 -22.81  0.002067332    3.264    0.694
        95 -10.9229    197.3595    202.8527   4.7999173182e+01   3.1171724633e+00     0.334624     0.191487 -36.35  0.001694361    1.746    0.427
        96 -10.7615    184.1673    202.2039   5.0411733126e+01   5.1940845525e+00    0.3224119    0.2018348 -25.42   0.00173238    1.690    0.408
        97 -10.9119    210.8665    200.3381   4.5085013091e+01   1.5376723696e+00    0.3028556    0.1896435 -39.61  0.001423597    1.694    0.410
        98 -10.6926    163.4370    200.7695   5.4348495201e+01   8.6605833528e+00     0.306727    0.1238028 -42.78  0.001294435    2.634    0.620
        99 -10.8100    177.1885    209.3698   5.2977621536e+01   5.0970405979e+00    0.3900801    0.1715751 -39.25  0.001813378    2.407    0.585
       100 -10.3871    222.1187    200.4276   4.3124525588e+01  -4.8430202554e-02    0.2214567    0.1493075 -45.27  0.001162079    1.915    0.478
       101 -11.5240    237.2778    197.0006   3.9979911260e+01  -1.6078466494e+00     0.491815    0.1456851 -34.24  0.002080811    3.044    0.671
       102 -10.0500    139.5864    199.2994   5.9220084937e+01   1.2747349843e+01     0.241688    0.1345009 -56.42  0.001134996    2.134    0.531
       103 -10.0706    176.7122    197.4974   5.1080120284e+01   7.1252905446e+00    0.2250273    0.1134845 -41.77   0.00106603    2.061    0.515
       104 -10.7382    148.7512    196.6687   5.6791917919e+01   1.1761522890e+01    0.3990936    0.1851427 -56.39  0.001650281    2.817    0.645
       105 -10.6836    202.8310    196.6633   4.5895398935e+01   3.2583575024e+00    0.2393913     0.172595 -37.20  0.001326474    1.449    0.310
       106 -11.1890    215.9144    194.6701   4.3177131858e+01   1.6501310671e+00    0.3269466    0.1676636 -42.62  0.001421212    2.133    0.531
       107 -10.3640    192.1593    196.1201   4.7806088024e+01   4.9520882700e+00    0.2083739    0.1564782  -3.17  0.001021297    1.298    0.230
       108 -11.4999    224.6380    192.5003   4.1271863716e+01   7.3017159745e-01    0.4451029    0.2042404 -36.80  0.001848854    2.040    0.510
       109 -10.3753    209.5062    194.4865   4.4286565285e+01   2.6059910691e+00    0.2418772    0.1134445 -37.41  0.001001469    2.056    0.514
       110 -10.6757    231.1957    193.0865   4.0274963959e+01  -2.5835478869e-01    0.3110133    0.1331117 -26.46  0.001457661    2.345    0.574
       111 -10.8862    185.4867    192.6069   4.8474230103e+01   6.5633824406e+00    0.3896897    0.1849583 -32.17  0.001746838    2.285    0.562
       112 -10.3798    160.5688    192.7383   5.3591980897e+01   1.0557859371e+01    0.2536711    0.1266821 -41.20  0.001147082    2.111    0.526
       113 -10.3886    199.1594    190.5645   4.5477855320e+01   4.7673199718e+00    0.2381498    0.1676011 -32.09  0.001030382    1.367    0.269
       114  -9.6782    205.4814    190.5107   4.4295485460e+01   3.8138803970e+00    0.1298086    0.1074302  -2.52 -2.134112e-05    1.024    0.023
       115  -9.9400    179.3369    189.8615   4.9202848701e+01   8.0103033236e+00    0.1957234    0.1130368 -30.88 0.0009489309    1.828    0.453
       116 -10.0901    172.1448    190.1621   5.0719883090e+01   9.1258381860e+00    0.1728113    0.1653506 -76.61 0.0008590649    1.351    0.260
       117 -10.8407    237.5032    187.4596   3.8212334207e+01  -3.2959618811e-01    0.3247203    0.1557681 -23.32  0.001375497    2.049    0.512
       118 -10.0857    138.5934    188.7939   5.7742066540e+01   1.4958037334e+01    0.1875491    0.1351136 -64.84 0.0009540568    1.708    0.415
       119 -10.7153    230.5995    186.0593   3.9083440154e+01   8.2067057558e-01    0.2957686    0.1767657 -17.65  0.001289754    1.600    0.375
       120 -10.9197    216.8424    186.0729   4.1435000814e+01   2.7996159432e+00    0.3466102    0.2064861 -23.54  0.001876662    1.594    0.373
       121 -10.5292    191.2065    185.9110   4.6135546822e+01   6.7734702458e+00    0.2687789    0.1774256 -49.27  0.001406801    1.819    0.450
       122 -10.3660    164.5967    184.9749   5.1363227710e+01   1.1316680746e+01    0.2989928    0.1302365 -44.67  0.001245021    2.375    0.579
       123 -10.6876    155.5383    184.2892   5.3189545772e+01   1.2978968113e+01    0.4027878    0.1380009 -49.45  0.001444305    3.213    0.689
       124 -10.2080     94.6732    186.0070   6.7732869164e+01   2.2681861832e+01    0.2233599    0.1122166 -88.39 0.0007051553    4.346    0.770
       125 -10.6748    120.3257    184.8147   6.1332224867e+01   1.8827457808e+01    0.2697378    0.1339893 -64.35  0.001079557    2.604    0.616
       126 -10.5489    202.6318    182.9798   4.3418818231e+01   5.4468514085e+00    0.2888475    0.1146522 -38.30  0.001231866    2.411    0.585
       127 -10.4284    182.7611    183.1378   4.7279608348e+01   8.6176852679e+00    0.2909823     0.150381 -43.83   0.00134876    1.999    0.500
       128 -12.8327    242.1568    179.8741   3.6055973879e+01   9.8170283252e-02      0.62218    0.3004816 -37.95  0.003260671    1.916    0.478
       129 -10.6401    224.3228    182.2326   3.9420358527e+01   2.2786384246e+00    0.2882586    0.1497665 -30.03  0.001485092    1.739    0.425
       130 -10.5828    210.6238    182.1528   4.1801611151e+01   4.3401317507e+00    0.3103135     0.137789 -31.57  0.001396681    2.203    0.546
       131 -10.6134    174.0533    181.5032   4.8742956420e+01   1.0359519016e+01    0.3650305    0.1810074 -35.52  0.001604416    2.125    0.529
       132 -10.0864    196.9861    181.7694   4.4249018918e+01   6.5390459338e+00    0.1880013    0.1589995  -9.00  0.001101436    1.045    0.043
       133 -11.3343    235.4069    180.1717   3.7189961007e+01   9.9238826608e-01    0.3615387    0.1743708 -22.03  0.001733974    2.174    0.540
       134 -10.6184    147.0954    178.2635   5.3977028635e+01   1.5617952824e+01    0.4196844    0.1719039 -45.42  0.001633726    2.529    0.605
       135 -11.1564    231.2279    175.9521   3.7066631575e+01   2.2062586727e+00    0.3993166    0.1586233 -34.79  0.001799638    2.216    0.549
       136 -10.7984    217.5599    175.8178   3.9355666704e+01   4.2692274021e+00    0.3631541    0.1379775 -40.68  0.001539307    2.531    0.605
       137 -10.8917    191.7822    175.6598   4.4071946055e+01   8.4219183999e+00    0.4279292    0.1880992 -30.03  0.001706896    2.643    0.622
       138 -10.0666    211.5014    174.9640   4.0259545540e+01   5.3450764479e+00    0.1997629    0.1164532 -35.42 0.0007985533    1.582    0.368
       139 -10.6833    183.0527    174.1079   4.5492315772e+01   1.0166042578e+01    0.3468637    0.1785516 -30.95  0.001516438    2.106    0.525
       140 -10.5474     76.9986    175.5004   7.0762938020e+01   2.7777235298e+01    0.2210352   0.09199008  52.58 0.0008106483    2.654    0.623
       141 -10.6589    224.7327    172.3030   3.7439481339e+01   3.7202852587e+00     0.339844    0.1488237 -29.16  0.001524151    2.211    0.548
       142 -10.2192    157.7652    173.0274   5.0612085734e+01   1.4784981667e+01    0.1906304    0.1173227 -45.40 0.0008904204    1.664    0.399
       143 -10.0640    250.6131    171.8164   3.3225846041e+01   7.3012622349e-02    0.1687986    0.0947431 -38.21 0.0006761815    1.668    0.400
       144 -10.5398    175.8998    170.2153   4.6183569879e+01   1.2116987462e+01    0.3658131    0.1709378 -29.06  0.001378015    2.813    0.645
       145 -10.5084    120.7341    169.7376   5.8680572038e+01   2.2056698015e+01    0.2929943     0.182831 -80.30   0.00117823    2.531    0.605
       146 -12.0163    248.2832    167.6045   3.2764276754e+01   9.8703119709e-01    0.3696726    0.1566548 -24.59  0.001665913    2.421    0.587
       147 -10.3011    205.5055    168.5467   4.0074020721e+01   7.3593850751e+00    0.2747544    0.1208985 -38.89  0.001167086    2.121    0.528
       148 -10.2482    198.3455    168.7832   4.1453351492e+01   8.5091776451e+00    0.2496046    0.1598065 -28.73  0.001199367    1.492    0.330
       149 -11.0454    219.2653    166.2469   3.7169175634e+01   5.5136247137e+00    0.3584798    0.2028041 -27.64  0.001816907    1.637    0.389
       150 -10.6388    191.9143    164.2483   4.1764151912e+01   1.0401327630e+01    0.4251503    0.1535021 -34.65  0.001531291    2.946    0.661
       151 -10.3454    184.6433    165.0302   4.3357682515e+01   1.1534143205e+01    0.3176805    0.1255124 -41.63  0.001234813    2.450    0.592
       152 -10.3501    234.3043    163.1492   3.4054187053e+01   3.6701328723e+00    0.2652614   0.09800214 -30.50  0.001086341    2.576    0.612
       153 -10.3042    138.4825    163.9945   5.3285904644e+01   2.0139491773e+01     0.205448    0.1324767 -76.79 0.0008102383    2.575    0.612
       154 -11.2446    212.8598    161.5249   3.7325481750e+01   7.3147820367e+00    0.4403191    0.1728876 -38.59  0.001834366    2.313    0.568
       155 -10.7130    204.9088    160.9479   3.8634426113e+01   8.7423636726e+00    0.3511655    0.1716634 -29.41  0.001525127    2.096    0.523
       156  -9.9118    132.3027    162.6475   5.4513995187e+01   2.1565536941e+01    0.1508362    0.1166348  80.41 0.0007039573    1.703    0.413
       157 -10.3718    222.2557    160.4778   3.5490881400e+01   5.9582343850e+00    0.2497423    0.1596966 -30.63 0.0009045689    1.363    0.267
       158 -10.2593    151.5004    160.0279   4.9444952704e+01   1.8570284449e+01    0.2088872    0.1316943 -71.02 0.0008099726    2.665    0.625
       159 -14.0383    244.2809    149.6163   2.9774916186e+01   4.2029626779e+00    0.9756245     0.423829 -29.72  0.004526236    2.032    0.508
       160 -11.8001    247.4581    155.0052   3.0398019943e+01   2.9279391844e+00    0.2811571    0.1886745 -26.25 0.0009947807    1.204    0.170
       161 -13.2244    243.8188    139.2880   2.7700082259e+01   5.8399848229e+00    0.6440888    0.3448404  -8.20  0.002602235    3.307    0.698
       162 -12.5522    239.1230    139.8486   2.8507531263e+01   6.5024132061e+00    0.4198079    0.1705123 -31.66  0.001821461    2.161    0.537
       163 -11.4601    250.6471    155.3979   3.0009354987e+01   2.4063985972e+00    0.5065379    0.1080643 -33.79  0.001672055    4.134    0.758
       164 -12.1876    249.4225    149.2918   2.8956561175e+01   3.4791530777e+00    0.5039982    0.1660157 -32.04  0.001959263    2.634    0.620
       165 -10.6885    237.4840    157.9953   3.2515357997e+01   3.9703172697e+00    0.3099355     0.107241 -33.78  0.001278129    2.502    0.600
       166 -12.0582    234.5483    154.5136   3.2266073015e+01   4.9539828014e+00    0.3765103    0.2220757 -14.84  0.001889756    1.893    0.472
       167 -10.7318    232.3801    151.8215   3.2052983832e+01   5.7130595130e+00    0.2786604    0.1095378 -33.38  0.001187927    2.222    0.550
       168 -11.7879    227.2130    157.3458   3.4025329126e+01   5.6653478973e+00    0.3836861    0.1671231 -36.06  0.001586893    1.993    0.498
       169 -10.7019    177.1760    158.8106   4.3588872720e+01   1.4040002096e+01    0.3190012    0.1008692 -47.60  0.001014731    3.529    0.717
       170 -10.9749    218.1104    155.2839   3.5121188587e+01   7.4742844088e+00    0.3740077    0.1729383 -33.64   0.00167926    1.946    0.486
       171 -10.4612    196.4333    155.7406   3.9121376964e+01   1.1123449724e+01    0.3506605    0.1261397 -37.25  0.001295906    2.652    0.623
       172 -10.1788    104.6905    157.3393   6.0557661948e+01   2.7739041339e+01     0.156894    0.1134013  74.46 0.0007044253    1.688    0.407
       173 -10.5644    167.3953    155.4881   4.4953950602e+01   1.6508289380e+01    0.3884585    0.1360541 -43.12  0.001345231    2.795    0.642
       174 -10.1793    157.5888    154.8356   4.6978172262e+01   1.8500415724e+01    0.2163474    0.1389731 -55.71 0.0009596449    1.774    0.436
       175 -10.6076    204.9676    153.1433   3.6984742697e+01   1.0075082025e+01    0.2543796    0.1839355 -29.84  0.001222906    1.247    0.198
       176  -9.9228     81.3101    153.9915   6.6382822473e+01   3.2428459698e+01    0.2401186    0.1174711 -87.06 0.0007034155    4.159    0.760
       177 -10.1536    223.5270    151.6750   3.3454829266e+01   7.1675411184e+00    0.2479405    0.1144867 -32.20 0.0009990731    1.948    0.487
       178 -10.4882    132.4810    151.9993   5.2329793223e+01   2.3913165877e+01    0.2152529    0.1354037 -76.02 0.0008100647    2.585    0.613
       179 -10.8519    213.6171    147.5808   3.4259486420e+01   9.5206633505e+00    0.3779632    0.2083027 -17.73  0.001609133    2.369    0.578
       180 -10.7444    189.2060    148.1781   3.8878871053e+01   1.3816825813e+01    0.3381458    0.1756566 -45.06  0.001342574    1.907    0.476
       181  -9.7990    162.0000    149.0274   4.4737891243e+01   1.8849498970e+01    0.2477785    0.0823653 -44.45 0.0008022035    2.941    0.660
       182 -10.3362     28.6549    149.3397   8.0946293987e+01   4.0385066021e+01    0.1528544   0.08543044  64.17  0.000704784    1.781    0.439
       183 -11.0658    199.0827    146.8176   3.6698220903e+01   1.2242304717e+01    0.3956591    0.1922438 -30.35  0.001635499    2.136    0.532
       184 -12.7461    234.3970    144.9501   3.0301337022e+01   6.4673622361e+00     0.540709    0.2147718 -25.44  0.002019529    3.125    0.680
       185 -11.0626     39.3021    146.9310   7.7560712379e+01   3.9897813366e+01    0.3431296    0.1743231  57.15  0.001487286    2.062    0.515
       186 -11.2100    223.6663    145.1528   3.2049046505e+01   8.2053080313e+00    0.3508916    0.1971768 -20.16  0.001378998    1.993    0.498
       187 -11.3052    148.5169    144.6233   4.6846769377e+01   2.2429197219e+01    0.4755093    0.2947168 -80.24  0.001561223    3.754    0.734
       188 -11.1957     55.1562    144.9431   7.2571021410e+01   3.8514608878e+01    0.4098301    0.2099798  83.24  0.001521573    2.725    0.633
       189 -10.9297    105.8312    143.9129   5.7650789841e+01   3.0803598640e+01    0.4579976    0.2726786  80.30  0.001544651    3.260    0.693
       190  -9.9713    218.4823    143.5089   3.2552078794e+01   9.3624253159e+00    0.1369492    0.1173895 -24.66 4.207686e-05    1.033    0.031
       191 -10.0771     87.6504    143.3251   6.2682846490e+01   3.4116024616e+01     0.163812     0.112327  71.05 0.0007048902    1.753    0.430
       192 -11.3697    230.0694    141.5171   3.0245539863e+01   7.7213279917e+00    0.2142636     0.156958 -29.20 0.0009033288    1.145    0.127
       193 -10.8298    124.4987    142.0075   5.2231148316e+01   2.7749465138e+01    0.2258449    0.1376453 -75.75 0.0008105491    2.665    0.625
       194 -11.2895      2.5872    141.4565   8.7831421575e+01   4.4593693691e+01    0.3862389    0.1256125  81.21  0.001355062    3.433    0.709
       195 -10.1580    181.6155    140.2085   3.8599972217e+01   1.6777462820e+01    0.2191494    0.1308573 -31.60 0.0009606268    1.693    0.409
       196 -10.7969    171.9759    137.2457   3.9907678310e+01   1.9272749025e+01    0.3793282    0.1759814 -50.87  0.001398716    2.428    0.588
       197 -11.1524     22.1821    134.6312   8.1358110591e+01   4.4846167068e+01    0.7205135    0.2253689 -77.33  0.002560053    2.919    0.657
       198 -10.4792    218.5938    137.2012   3.1153173167e+01   1.0400669466e+01    0.2033727    0.1157211 -26.84 0.0009505864    1.703    0.413
       199 -10.5721    207.5118    136.4816   3.2877307885e+01   1.2528718286e+01      0.29974    0.1252156 -37.60  0.001201508    2.133    0.531
       200 -11.3174     69.0419    136.0121   6.6898120200e+01   3.8940707445e+01    0.2951996     0.223743 -66.26 0.0003914768    1.238    0.192
       201  -9.6223     16.2880    137.3092   8.3438413270e+01   4.4643085296e+01    0.1330279   0.09061516 -51.99 0.0002013145    1.576    0.365
       202 -11.1172    197.8444    134.2928   3.4113853275e+01   1.4741053016e+01     0.465906    0.1871186 -32.59  0.001691721    2.606    0.616
       203 -14.1734    242.6448    125.7198   2.4971224291e+01   8.1216508483e+00    0.7631031    0.4169667 -27.60  0.003841121    1.638    0.389
       204 -10.0674    224.4674    247.9688   5.0359491590e+01  -6.3566938172e+00    0.1462204   0.09269183 -26.15  0.000713569    1.564    0.361
       205 -10.2997    192.8658    128.4488   3.3675111259e+01   1.6791002071e+01    0.3086431     0.183596 -23.67  0.001320853    1.945    0.486
       206 -10.9625     97.9991    126.7658   5.6202988000e+01   3.6516205327e+01     0.390261    0.2199908 -72.97  0.001407743    2.471    0.595
       207 -11.3898     11.5023    127.5181   8.4001070061e+01   4.7587048940e+01    0.3462836    0.1172969 -80.91  0.001304057    2.635    0.620
       208 -11.5926     58.0170    122.0461   6.7867484186e+01   4.4220267330e+01     0.501421    0.2174948 -78.32  0.001600742    3.317    0.699
       209 -12.0548     42.7142    120.9667   7.2828082051e+01   4.6430494015e+01    0.8527771    0.3377351 -85.14  0.002467253    4.343    0.770
       210 -10.9638    152.4291    128.1946   4.2087137056e+01   2.5191176339e+01    0.3831746    0.1391422 -51.83   0.00115234    3.288    0.696
       211 -11.1062     81.8671    122.0456   6.0095236677e+01   4.0576802839e+01    0.3870077    0.1997409  47.10 0.0008749418    2.061    0.515
       212 -11.5832     26.2793    119.0042   7.8138718394e+01   4.8644836324e+01     0.398528    0.2175559 -83.59  0.001813375    1.735    0.423
       213  -9.9640    194.4981    120.4955   3.1470708949e+01   1.7939649963e+01    0.1478547    0.1330266 -30.64  0.000810665    1.008    0.008
       214 -10.8142    158.3050    119.5849   3.8590943461e+01   2.5772195547e+01    0.3887754    0.1366073 -42.17  0.001249638    2.718    0.632
       215 -11.6615    140.7279    117.3545   4.2168320499e+01   3.0077622382e+01    0.5667714    0.2105407 -55.70  0.001522482    4.117    0.757
       216 -10.4627    178.8233    132.6700   3.7414372979e+01   1.8800638374e+01    0.2965904    0.1066591 -39.15  0.001003718    2.658    0.624
       217 -11.1529    129.9829    117.7145   4.5001998457e+01   3.2310799398e+01    0.3054667    0.2047337 -60.27  0.001088198    1.645    0.392
       218 -11.9842     70.0193    116.5771   6.2751630921e+01   4.3927165099e+01    0.4645505    0.2205881 -73.01  0.001585144    2.760    0.638
       219 -10.8973    131.5018    130.9985   4.7900889623e+01   2.8920973185e+01    0.3937007    0.1457477 -58.24  0.001041054    4.311    0.768
       220 -10.4640    185.5215    113.9663   3.1528820046e+01   2.1030807030e+01    0.2204972    0.1285146 -17.14 0.0008101565    2.640    0.621
       221 -11.3394    108.6688    113.1756   4.9737993592e+01   3.7832686168e+01    0.3352903    0.1448745 -57.48  0.001089604    2.635    0.620
       222 -11.3115     92.1465    112.9265   5.4698747678e+01   4.1101760291e+01    0.3728725    0.2653748 -77.34  0.001406945    1.674    0.403
       223 -10.9311    142.5049    130.5879   4.5039320507e+01   2.6743491189e+01    0.3353633    0.1507747 -46.93  0.001211052    2.172    0.540
       224 -11.4766     13.6134    108.7152   8.1240050399e+01   5.2419292395e+01    0.5038539    0.2038307 -76.91    0.0015529    2.124    0.529
       225 -10.6100    174.0000    110.0130   3.2771202704e+01   2.4289104260e+01      0.26542   0.08264709 -39.78  0.000808665    2.986    0.665
       226 -10.3616    133.0000    108.0546   4.1645170240e+01   3.3857264506e+01    0.2733342   0.08892144 -44.89  0.000805425    2.963    0.663
       227 -10.2625    182.3176    107.6795   3.0535574188e+01   2.2917562495e+01    0.1542181    0.1155208 -69.07 0.0005526024    1.662    0.398
       228 -10.8067     82.5875    130.3536   6.1638960572e+01   3.8296458403e+01    0.3126805    0.1480699 -64.22  0.001149983    2.198    0.545
       229 -10.8665      1.9989    115.4599   8.5995962231e+01   5.1379544393e+01     0.418081    0.1359879  88.78   0.00145791    3.302    0.697
       230 -11.5910    118.3003    105.6349   4.4942789272e+01   3.7623997214e+01    0.2615472    0.1993467  89.45  0.001128735    1.723    0.420
       231 -10.9331     79.0166    112.7278   5.8888139818e+01   4.3479188400e+01    0.4535891    0.2600697 -85.51   0.00153337    3.050    0.672
       232 -10.1003      1.3312    104.8104   8.5220555692e+01   5.4209159910e+01    0.1922861   0.09430034 -68.85  0.000349145    1.619    0.382
       233 -11.9686    139.5184     99.4709   3.7592594364e+01   3.4278118155e+01    0.4831352    0.2216371 -46.29  0.001726046    2.114    0.527
       234 -10.5323    218.6750    246.9613   5.1183253495e+01  -5.5729071563e+00    0.2240599   0.09072805 -34.93   0.00123684    2.571    0.611
       235 -11.4608    127.9699     99.8295   4.0655190736e+01   3.6824928865e+01    0.4919033    0.2042724 -34.40  0.001475582    3.208    0.688
       236 -11.3358     43.0375     98.3116   6.8473689181e+01   5.2462191793e+01    0.7191504    0.2691624 -73.98  0.002241208    3.534    0.717
       237 -11.2429    107.7506     97.9085   4.5815325866e+01   4.1686550127e+01    0.3094588    0.2261022 -67.62  0.001190968    1.570    0.363
       238 -11.5234     62.8309     95.6540   6.0343417967e+01   5.0503370014e+01    0.4943412    0.2417808 -79.99  0.001365117    4.706    0.788
       239 -11.3573     58.5648     91.2105   6.0800551226e+01   5.2280580590e+01    0.4305996    0.2049646  36.26  0.001716596    2.227    0.551
       240 -10.7001    145.5160     95.0278   3.4865634285e+01   3.3830148792e+01    0.2507615    0.1520863 -41.69   0.00102808    1.577    0.366
       241 -11.9966    171.1055     90.9242   2.8195305480e+01   2.8642991618e+01    0.3410651    0.1912652 -42.13  0.001282937    1.647    0.393
       242 -10.8168     94.6552     92.6721   4.8366477070e+01   4.5625067534e+01    0.1636482    0.1260412 -11.47 0.0007050562    1.748    0.428
       243 -12.3884    138.2332     89.4256   3.4962081680e+01   3.6708002155e+01    0.4900647     0.212995 -36.34    0.0016591    2.432    0.589
       244 -11.5661    124.3940     85.8136   3.7408039568e+01   4.0711798774e+01    0.3916424    0.2148489 -26.33  0.001346759    2.634    0.620
       245 -11.9148    146.5275     86.8820   3.2228106586e+01   3.5258878303e+01     0.330271    0.2198652  74.05  0.001344589    1.985    0.496
       246 -10.4361     80.4932     85.5213   5.1023066464e+01   5.0070228216e+01    0.1553084    0.1468311 -60.93 0.0001152489    1.036    0.034
       247 -10.5226     34.6625     84.4585   6.8765591852e+01   5.7023147715e+01    0.2667376    0.1404486 -47.10 0.0008162626    1.768    0.434
       248 -11.6401    136.0110     83.1580   3.3590038608e+01   3.8527888494e+01    0.2999303    0.2309864 -42.13 0.0009604772    1.252    0.201
       249 -10.1570    164.4974    247.9935   6.1038957693e+01   1.1102812697e+00    0.1483334    0.1140193 -39.64 0.0006216424    1.580    0.367
       250 -10.8685     24.0419     76.7432   7.1618680235e+01   6.0021370340e+01    0.6824646    0.1018082 -58.57  0.002062805    3.772    0.735
       251 -11.7923    175.6134     76.7570   2.3340386979e+01   3.0167995772e+01     0.274812    0.1886085  44.80 0.0009622845    1.653    0.395
       252 -12.8564    140.9444     73.0166   2.9207554381e+01   3.9327155303e+01    0.4895715    0.3831886  -4.20  0.001553252    1.684    0.406
       253 -11.3100    127.8079     72.8750   3.2340057386e+01   4.2561770507e+01    0.4264261     0.219102 -29.56  0.001530225    2.343    0.573
       254 -10.5740      9.3266     74.3084   7.7791075348e+01   6.1706463181e+01     0.142759   0.08091527 -43.73 0.0002273937    1.655    0.396
       255 -12.6722    181.0562     78.7073   2.2942919350e+01   2.8532697916e+01    0.4483215    0.2609479 -55.95  0.001344659    1.897    0.473
       256 -13.7493    153.7296     69.8770   2.5443451072e+01   3.6742494318e+01    0.7267577    0.5240415  20.87  0.003145873    1.987    0.497
       257 -12.1326    149.6151     99.7377   3.5254937731e+01   3.1895407413e+01    0.6431711    0.1488487 -40.76  0.001642811    4.179    0.761
       258 -11.9205    164.6022     70.5863   2.3534872605e+01   3.3927045126e+01     0.397955    0.1795268  50.93  0.001486009    2.332    0.571
       259 -12.0202    147.1410     70.8691   2.7140437988e+01   3.8197402198e+01    0.3344735    0.2059206 -51.65 0.0006571012    1.681    0.405
       260  -9.6811    105.5277     71.5186   3.8085292092e+01   4.8061966284e+01    0.1568826    0.1502004 -63.89 -1.320284e-06    1.052    0.050
       261 -10.8929      5.6968    101.8117   8.3302533697e+01   5.4755956840e+01    0.2912621   0.08014037 -68.05   0.00108499    2.618    0.618
       262 -12.5192    145.8914     62.1275   2.4582744607e+01   4.0073766387e+01    0.4973553    0.2689918 -64.54  0.001707357    2.899    0.655
       263 -10.4532     36.5583     62.7176   6.2002216827e+01   6.2248204311e+01     0.293046    0.1130534 -53.26  0.001152583    2.174    0.540
       264 -10.4805     81.5045     72.5177   4.6422771726e+01   5.2910957893e+01    0.2778201    0.1432062 -57.55 0.0009479016    2.283    0.562
       265 -11.1418    129.6176     60.8055   2.7787833153e+01   4.4387580239e+01    0.2313697    0.1365881 -46.59 0.0009493859    1.702    0.413
       266  -9.9430     57.7923     59.0001   5.0955290519e+01   6.0155263832e+01     0.198819    0.1739422 -40.52            0    1.059    0.056
       267 -11.1178     54.2417    129.9247   7.0504855528e+01   4.2615862026e+01    0.2853333    0.1814848 -52.73 0.0009820382    1.549    0.354
       268 -11.5789     86.1613     54.9069   3.8205201291e+01   5.5659188887e+01     0.277375    0.2363646 -42.65 0.0002976013    1.158    0.137
       269 -10.8351    159.0020     54.9460   1.9718625345e+01   3.7952380695e+01    0.2293913    0.2202385 -60.34 0.0005449036    1.048    0.046
       270 -10.0189     62.0000     54.0008   4.7199382238e+01   6.0525808034e+01    0.2399442   0.07845073 -46.60 0.0005306649    2.891    0.654
       271 -10.6453    161.6029     47.7832   1.6992854530e+01   3.8399324729e+01    0.2178907    0.1258706 -43.85 0.0007805369    1.634    0.388
       272 -10.3669    137.4707     46.4743   2.1005946088e+01   4.4788431919e+01    0.1499886    0.1439629 -76.75  9.79613e-05    1.001    0.001
       273 -10.0026    159.5292     41.9897   1.5474304778e+01   3.9776230686e+01     0.214781    0.1408471 -33.70 -1.002333e-05    1.497    0.332
       274 -10.1985     28.4690     42.4672   5.8980709808e+01   6.7774990478e+01    0.1353555    0.1147563 -33.19 0.0001299725    1.017    0.017
       275  -9.9241    184.2523     41.5979   1.1804339679e+01   3.3606467230e+01    0.1903153    0.1292662  59.34 0.0006150751    1.556    0.357
       276 -10.7434    121.9152     37.0344   2.0858511365e+01   5.0173038379e+01    0.2549309    0.2152922  66.80 0.0008421548    1.167    0.143
       277  -9.7318     38.3203     35.3150   5.0429152210e+01   6.8015896806e+01    0.1404551   0.09521993 -15.35 0.0003760876    1.656    0.396
       278 -10.4723    176.7216     33.2597   1.0300759562e+01   3.6594249119e+01    0.2199328    0.1873498  79.46  0.000282276    1.163    0.140
       279 -10.1519     89.4714     32.0193   2.7312469902e+01   5.8827983084e+01     0.203715    0.1248685   0.13 0.0008095173    2.517    0.603
       280  -9.9510    124.4826     28.4710   1.6995533752e+01   5.0671483314e+01    0.1444334    0.1374065  88.03 0.0001033907    1.025    0.024
