#   1 NUMBER                 Running object number                                     
#   2 MAG_AUTO               Kron-like elliptical aperture magnitude                    [mag]
#   3 X_IMAGE                Object position along x                                    [pixel]
#   4 Y_IMAGE                Object position along y                                    [pixel]
#   5 X_WORLD                Barycenter position along world x axis                     [deg]
#   6 Y_WORLD                Barycenter position along world y axis                     [deg]
#   7 A_WORLD                Profile RMS along major axis (world units)                 [deg]
#   8 B_WORLD                Profile RMS along minor axis (world units)                 [deg]
#   9 THETA_WORLD            Position angle (CCW/world-x)                               [deg]
#  10 FWHM_WORLD             FWHM assuming a gaussian core                              [deg]
#  11 ELONGATION             A_IMAGE/B_IMAGE                                           
#  12 ELLIPTICITY            1 - B_IMAGE/A_IMAGE                                       
         1 -12.2082    195.5990     36.7364   5.0941583788e+01   3.0836026640e+01     1.047605     0.912314 -18.66  0.003402999    1.138    0.121
         2 -12.4990    205.6899     25.5285   4.6209447664e+01   2.9455242543e+01     1.019462    0.8081926  20.32  0.002028163    1.416    0.294
         3 -10.5278     39.9856      7.5624   8.0095818445e+01   7.1788510369e+01    0.2941441    0.2154123 -75.11  0.001567851    2.219    0.549
         4  -9.0987     61.5052      3.5190   6.7403801056e+01   6.8820346881e+01    0.1337199    0.1187576 -11.63 0.0008102895    1.019    0.019
         5 -10.3567    229.2862      2.0660   3.7127283800e+01   2.5664034931e+01    0.6513155    0.2586735  79.14  0.002577824    2.719    0.632
         6  -7.3987     42.2715    231.3484   1.1753775794e+02   2.6436050695e+01   0.07542159   0.07152925  62.70 0.0002749369    1.625    0.385
         7 -14.6982     52.8084    199.8734   1.1402139462e+02   3.0142031260e+01     5.559298      3.17855  75.02   0.03808575    1.593    0.372
         8  -7.9395    130.6006    212.7653   1.0088335044e+02   1.7726540405e+01    0.1282189    0.1006999 -88.29 0.0009455321    1.636    0.389
         9  -7.9829     29.7349    211.0075   1.1881030746e+02   3.0845555122e+01    0.1349539    0.1081413  63.72 0.0002973778    1.243    0.195
        10 -10.5049     34.2288    208.4538   1.1789842473e+02   3.0790126629e+01    0.3028824    0.1200818  47.53  0.001933994    1.707    0.414
        11 -15.9329      5.4470    239.1833   1.2369172891e+02   2.8926381360e+01     7.417229    0.7674701 -77.84    0.0315902    7.814    0.872
        12  -8.0893    198.6095    222.7137   9.0780215373e+01   6.4253283266e+00    0.1112215    0.1013806 -34.77 0.0007702015    1.597    0.374
        13  -8.2927     96.9716    190.2718   1.0475426304e+02   2.5987790222e+01    0.1669266    0.1230846  52.02 0.0005893197    1.057    0.054
        14  -8.6884     99.3377    180.9578   1.0329515754e+02   2.7182609207e+01    0.1575713    0.1350858  70.21 0.0008537477    1.131    0.116
        15 -10.2958     72.1367    177.3826   1.0847709523e+02   3.1620057916e+01    0.2763485      0.23238 -37.32  0.001931631    1.882    0.469
        16 -10.3277     76.1692    172.1446   1.0713149161e+02   3.2022955309e+01    0.2749215    0.2550914  -8.34 0.0005486488    1.662    0.398
        17 -10.1662    102.0622    172.1541   1.0171675189e+02   2.8277251107e+01    0.4507066    0.2102738  55.95  0.002238273    2.079    0.519
        18 -14.6084     66.7822    247.1886   1.1432360674e+02   2.1510305361e+01     6.358848     1.726708  33.34   0.02114795    5.931    0.831
        19 -15.6911      1.8217    106.1263   1.1968187923e+02   5.3423694006e+01     13.63263    0.3426332 -79.25   0.02819336   13.276    0.925
        20 -12.0957     48.8076    147.1531   1.1079134682e+02   4.0323252204e+01      1.25086    0.4407856  30.75   0.00543627    3.343    0.701
        21 -12.3955     57.8638    128.4358   1.0649171529e+02   4.3118282093e+01     1.603125    0.5558213 -80.45  0.005326585    4.803    0.792
        22 -10.9630     84.2370    162.8115   1.0439511837e+02   3.2609766567e+01    0.4414553    0.2707788  60.93  0.001923931    1.470    0.320
        23 -12.0930     72.9053    158.0278   1.0635917527e+02   3.5106060845e+01    0.4661444    0.4356391  70.05  0.001436257    1.262    0.208
        24 -12.4292     68.3707    144.4262   1.0584765106e+02   3.8407437304e+01    0.8886665    0.6094664  89.30  0.003562099    1.409    0.290
        25 -10.3965     90.6396    155.8811   1.0213658702e+02   3.2965345915e+01    0.4325856    0.3391607 -29.14  0.001497758    2.051    0.512
        26  -9.1870    133.6874    144.4507   9.0914836143e+01   2.7823103738e+01    0.2920062     0.126119 -53.88  0.001244129    2.752    0.637
        27  -7.7897    109.4287    147.5186   9.6747084205e+01   3.1543063918e+01    0.1300696    0.1095214  64.59  0.000168227    1.051    0.049
        28  -8.4413     86.9770    145.7209   1.0162180701e+02   3.5479648624e+01    0.2237215    0.1495044  76.73 0.0005445094    1.575    0.365
        29  -9.4834    104.2119    140.1840   9.6782611006e+01   3.3814442388e+01    0.4959041    0.3312567 -16.65   0.00207528    3.752    0.734
        30 -10.6658     91.7680    140.6207   9.9768182988e+01   3.5749219178e+01    0.2509237    0.2240616  72.42  0.000871912    1.072    0.067
        31 -11.3533     43.5733    133.8560   1.1076629441e+02   4.3677728109e+01    0.3712335    0.2976074  62.95   0.00255471    1.105    0.095
        32 -11.9789     42.8632    126.8044   1.1021026062e+02   4.5261021972e+01    0.7158318    0.3178332  56.02  0.003505189    2.139    0.533
        33  -8.5971    105.9928    130.8278   9.4795118265e+01   3.5344582070e+01    0.2248401    0.1934033 -75.33  0.001368506    1.187    0.158
        34  -9.4274     99.9861    127.0160   9.5582700938e+01   3.7138809483e+01    0.2715944    0.2233862 -30.48  0.000884279    1.668    0.401
        35  -8.9322    112.5810    131.0189   9.3265307837e+01   3.4148875706e+01    0.2570628    0.1852558  38.91  0.000738655    1.410    0.291
        36  -8.3379    108.8623    119.3771   9.1971734080e+01   3.7126693478e+01    0.1886901      0.15758  50.75  0.000511743    1.140    0.123
        37  -8.0219    167.5970    112.7986   7.7287953358e+01   2.6429452589e+01    0.1970498    0.1313505 -49.94 0.0006709676    1.711    0.415
        38 -10.5085     40.8446    107.5944   1.0848495047e+02   4.9713098282e+01    0.3357385    0.2373621  12.13  0.001924318    2.134    0.531
        39  -9.9259    117.6154    109.4499   8.7732731901e+01   3.7477671251e+01    0.4431004    0.2411811  65.26  0.001762028    2.574    0.611
        40  -8.3763    205.5130    110.0154   6.9646086591e+01   1.8619986531e+01    0.2160929    0.1731032  44.80 0.0006967317    1.206    0.171
        41  -8.7257    134.8025    106.3871   8.2892880586e+01   3.4599027136e+01    0.2786414    0.1115505 -47.31  0.001038158    2.640    0.621
        42  -9.0742     32.5871     96.2400   1.0947719219e+02   5.3143742200e+01    0.1765884   0.09610365 -64.13 0.0009505062    1.638    0.389
        43 -10.1719     20.6864     92.6345   1.1279100512e+02   5.5048053341e+01    0.2849444    0.1830174  86.94  0.001726972    1.339    0.253
        44  -9.2164     42.2113     91.8154   1.0577723005e+02   5.3150351490e+01    0.2256722    0.1834351  16.65   0.00139981    1.641    0.391
        45  -8.8981     61.4694     68.8163   9.4479089724e+01   5.5989780823e+01    0.2730657    0.1597425  56.36  0.001055313    2.005    0.501
        46 -13.8883     10.1126    206.7106   1.2211638858e+02   3.3429140409e+01    0.8854789     0.623952 -65.15  0.006916243    1.995    0.499
        47 -10.7185     23.4674     55.3866   1.0595625472e+02   6.3427744918e+01    0.3274741    0.1987474 -44.01  0.001828784    1.758    0.431
        48  -8.9958    152.5344     55.4788   6.4344629959e+01   3.9561616378e+01    0.3240865    0.2457137 -75.61 0.0009446503    1.628    0.386
        49 -11.9890    185.8455     44.3443   5.4743557904e+01   3.2455905500e+01    0.9947211    0.7077525  19.56  0.003244325    1.701    0.412
        50 -10.0172    133.7222    243.9404   1.0337186208e+02   1.3435626461e+01    0.3830158    0.1849861 -69.91  0.002154801    4.395    0.772
        51  -9.0605     53.8287    231.2236   1.1561063886e+02   2.5184835960e+01    0.1941174    0.1149097  82.92 0.0009387559    1.684    0.406
        52  -8.8470    155.1187     49.8497   6.1929949129e+01   3.9774409044e+01    0.3053935    0.2154481 -66.90 0.0009264615    1.764    0.433
        53  -9.1741     49.7673    233.9645   1.1641835741e+02   2.5244827307e+01    0.2130734    0.1044967  55.68 0.0005359509    1.400    0.286
        54  -9.3716     62.6966    236.5079   1.1441706352e+02   2.3425833451e+01    0.1834514    0.1235454  64.98 0.0006214579    1.201    0.167
        55  -8.2995    111.9823    217.5434   1.0462644744e+02   1.9759195613e+01    0.1681827   0.08058421  42.11 0.0003869761    1.561    0.360
