#   1 NUMBER                 Running object number                                     
#   2 MAG_AUTO               Kron-like elliptical aperture magnitude                    [mag]
#   3 X_IMAGE                Object position along x                                    [pixel]
#   4 Y_IMAGE                Object position along y                                    [pixel]
#   5 X_WORLD                Barycenter position along world x axis                     [deg]
#   6 Y_WORLD                Barycenter position along world y axis                     [deg]
#   7 A_WORLD                Profile RMS along major axis (world units)                 [deg]
#   8 B_WORLD                Profile RMS along minor axis (world units)                 [deg]
#   9 THETA_WORLD            Position angle (CCW/world-x)                               [deg]
#  10 FWHM_WORLD             FWHM assuming a gaussian core                              [deg]
#  11 ELONGATION             A_IMAGE/B_IMAGE                                           
#  12 ELLIPTICITY            1 - B_IMAGE/A_IMAGE                                       
         1 -14.3479    223.3383    192.7169   8.7403265950e+01   4.6028136262e+00     1.810388    0.9904677 -10.07     0.010233    2.135    0.532
         2 -13.1156     13.4947     29.4990   1.1326983041e+02   7.0571398775e+01    0.5278903    0.3917701 -80.12  0.003256634    1.333    0.250
         3 -12.6019    204.2652     27.8270   5.1565576830e+01   2.9800184806e+01    0.7329941    0.5362716 -74.94  0.003700828    1.509    0.337
         4 -11.6977    210.2089     20.7426   4.8834891770e+01   2.9066622583e+01    0.4507352    0.2783119  21.57  0.001127329    2.202    0.546
         5 -13.0325    219.2777     10.3173   4.5021597427e+01   2.7859713793e+01    0.7427603    0.6191507 -53.89  0.003154968    1.111    0.100
         6 -12.5293      4.0470      5.7744   1.1193701603e+02   7.6408435714e+01    0.8435597     0.392953 -51.98  0.004575421    1.624    0.384
         7 -12.8470    228.2723    202.5979   8.8184102434e+01   2.8597168485e+00    0.9979585    0.5153435   2.14  0.005310099    2.543    0.607
         8 -11.8089    192.8906    241.3743   9.9344684580e+01   3.8813658007e+00    0.5660957    0.2627431  17.74  0.002899626    3.028    0.670
         9 -12.3313    131.2472    215.6021   1.0728405708e+02   1.5657829615e+01    0.6634758    0.5248557 -80.62  0.004718756    1.756    0.430
        10 -14.2150    208.1275    246.0648   9.7459138272e+01   1.4427272281e+00     1.527675    0.6165393  35.76  0.009370114    1.753    0.429
        11 -13.8529    164.2320    232.3254   1.0313817605e+02   8.7807149563e+00     1.884201    0.8967987  34.10     0.011302    1.579    0.367
        12 -12.4125    192.3000    229.0842   9.7913621713e+01   5.2131740906e+00    0.6846176     0.471324   5.38  0.004917823    1.521    0.343
        13 -14.3445    126.5084    232.5763   1.0992490343e+02   1.3987981842e+01     1.343892    0.8408979  52.04   0.00721807    1.461    0.315
        14 -12.6021    143.1940    232.8538   1.0693180691e+02   1.1654403966e+01    0.6471837    0.5525778  89.17  0.005117715    1.686    0.407
        15 -10.8429    149.2682    249.8156   1.0758811367e+02   8.8114267600e+00    0.3062288     0.147374  31.01  0.001851212    1.678    0.404
        16 -11.5274    138.5764    250.0896   1.0944328602e+02   1.0188074771e+01    0.5825304    0.1091562  38.30  0.002382799    3.603    0.722
        17 -14.3220    104.1559    236.8485   1.1437792637e+02   1.6378926856e+01     2.031398     1.275089  43.65   0.01458012    1.131    0.116
        18 -13.2029     33.5544    166.0812   1.2366307846e+02   3.7117895206e+01     1.842013     1.356332  76.10   0.01111567    1.149    0.130
        19 -13.2936     49.7027    204.2142   1.2250824552e+02   2.8166219555e+01     0.730574    0.5044789  58.32  0.003775057    1.105    0.095
        20 -12.5296      2.3917    245.2122   1.3258588746e+02   2.6167892703e+01    0.2730224    0.1316658  63.88  0.001382078    1.478    0.323
        21 -13.0751     34.6874    204.0851   1.2551488131e+02   2.9787204351e+01       1.1268    0.4234959  60.48   0.00613756    2.256    0.557
        22 -12.7089     38.9338    188.4845   1.2382144691e+02   3.2179540472e+01     1.980235     1.089564 -43.39   0.01038994    3.415    0.707
        23 -13.6901     61.0866    165.0966   1.1703215639e+02   3.4244423103e+01     4.121339     1.980064  17.57    0.0164233    3.996    0.750
        24 -15.8278     14.2786    239.2990   1.3049119547e+02   2.6003692178e+01     1.818214    0.4945767  58.20     0.010608    2.465    0.594
        25 -13.7743     38.4647    244.6302   1.2652680968e+02   2.2882178336e+01    0.8290577    0.3787039  56.75  0.005678735    1.588    0.370
        26 -16.4759     60.8975    240.9527   1.2244437211e+02   2.1024719107e+01     2.372569     1.193657  48.98   0.01655685    1.366    0.268
        27 -14.7202     36.5295    225.8744   1.2612962780e+02   2.5948385846e+01     1.502092    0.5321006  61.38  0.008380954    2.420    0.587
        28 -12.1134    248.8900    246.7362   9.1361631363e+01  -3.6309652201e+00    0.4128282    0.1757307 -16.21  0.002643014    2.697    0.629
        29 -13.8174    100.1190    194.1969   1.1120491393e+02   2.3508602186e+01     1.820609    0.9327818  67.34  0.008594779    2.852    0.649
        30 -12.4690     79.7791    185.3710   1.1468879276e+02   2.7891495133e+01    0.8610069    0.6306939  56.36  0.004920659    1.132    0.116
        31 -12.0761     69.1355    177.7600   1.1634532797e+02   3.0719100515e+01     0.675015    0.3727908  40.67  0.002696624    1.508    0.337
        32 -12.8867    126.3985    200.4648   1.0649365721e+02   1.8625244502e+01     1.177577    0.8166974 -34.97  0.007310226    2.000    0.500
        33 -12.8417    119.9360    193.2687   1.0694758081e+02   2.0748254909e+01     1.004414      0.48778 -47.71   0.00521929    2.613    0.617
        34 -12.7536    112.6806    191.4669   1.0824947616e+02   2.2138896183e+01    0.7152475    0.5920125 -82.79  0.004758304    1.438    0.305
        35 -11.2263     12.7451    205.6832   1.2987188687e+02   3.1593569544e+01    0.2279454    0.1537295  46.45 0.0009004531    1.198    0.165
        36 -10.8290    140.8197    221.8514   1.0617414839e+02   1.3415977203e+01    0.3427064    0.1807507  37.35  0.002072314    1.422    0.297
        37  -9.5642     65.5578    184.4837   1.1774404846e+02   2.9888156644e+01    0.1158926   0.09682452  55.66 0.0001708551    1.087    0.080
        38 -11.4493    129.0955    179.9675   1.0327636228e+02   2.1527491539e+01    0.4998918    0.3996178  75.48  0.003111542    1.506    0.336
        39 -13.0774    181.1857    244.7487   1.0167289365e+02   5.1050785078e+00     1.041813    0.6088381  11.68  0.006732658    2.078    0.519
        40 -11.3860    110.0941    173.1753   1.0651505462e+02   2.5747643539e+01    0.3106393    0.2438802  48.91  0.001934532    1.077    0.072
        41 -10.8151     98.0915    169.7539   1.0880736148e+02   2.8229408036e+01    0.2973298      0.21647  27.04  0.001729939    1.502    0.334
        42 -12.5660    237.5054    158.1714   7.8983811408e+01   6.2247249791e+00    0.8998405    0.2547945 -27.86  0.003545126    3.622    0.724
        43 -11.6655      9.6220    155.8091   1.2878933324e+02   4.1375879732e+01     0.682964    0.2602029  72.25  0.003428269    2.354    0.575
        44 -12.5520     13.6619    143.3388   1.2720413998e+02   4.3703046917e+01    0.6172416    0.5151182 -77.18  0.003867443    1.288    0.223
        45 -11.0724     44.4859    148.1967   1.1959598552e+02   3.9746186100e+01    0.3971729    0.2902394 -72.96  0.002264252    1.372    0.271
        46 -11.6069     38.9626    146.1089   1.2084668369e+02   4.0789346108e+01    0.4498343    0.2027552  42.85  0.002074312    1.888    0.470
        47 -10.8694     70.3380    144.6920   1.1245781393e+02   3.7352377297e+01    0.3078648    0.2353387  87.48  0.001065886    1.281    0.219
        48 -11.4955     67.5176    142.5102   1.1292809019e+02   3.8206424027e+01    0.5201383    0.2843349  45.82  0.002657572    1.630    0.386
        49 -12.7659    208.5920    201.9539   9.1329986652e+01   5.7950830483e+00    0.5316798    0.3997168 -29.35  0.003754098    1.609    0.378
        50 -10.8619     58.0117    131.3344   1.1411714359e+02   4.1927414954e+01    0.3064017    0.1675196  53.08  0.001526961    1.739    0.425
        51 -15.2198     82.7071    220.0327   1.1706734371e+02   2.1602699610e+01     1.729498      1.18376 -64.95   0.01069611    1.844    0.458
        52  -9.8955     98.1497    129.3067   1.0265727843e+02   3.6500129778e+01     0.210788    0.1743449  15.23   0.00114614    1.499    0.333
        53 -12.2802     71.0035    123.1798   1.0923342100e+02   4.2074654220e+01    0.7285396     0.482178  84.97  0.003694688    1.697    0.411
        54 -11.6566     56.1408    116.4356   1.1263603058e+02   4.5610505994e+01    0.5697737     0.404747 -16.54  0.002878776    2.259    0.557
        55 -12.0199      2.2671     73.9009   1.2607235224e+02   6.0499092055e+01    0.5140019   0.09618634 -82.76  0.001557431    5.038    0.802
        56 -11.5998    194.7269     34.6654   5.4807320812e+01   3.1450990695e+01    0.2830762    0.2673473  39.65 0.0008840678    1.112    0.100
        57 -12.9240    233.5202    244.2604   9.3309553289e+01  -1.5973080202e+00    0.5866879    0.2131191  24.66  0.003124148    2.681    0.627
        58 -12.4110    242.3633    224.5788   8.9288501968e+01  -1.0713633962e+00    0.2656656    0.1904622 -13.60  0.001775166    1.477    0.323
        59 -12.8441    237.7639    221.0280   8.9475232085e+01  -1.7048647794e-01     0.403096    0.2132667  15.00  0.002130848    1.739    0.425
        60 -12.0603     23.3691     25.4389   1.0592102275e+02   7.0772912463e+01    0.2988548    0.1691117 -30.18  0.001510293    1.964    0.491
        61 -12.9848    216.9321    212.6518   9.1548534643e+01   3.4529638608e+00    0.8786857    0.5870347   0.40  0.006015701    1.468    0.319
