#   1 NUMBER                 Running object number                                     
#   2 MAG_AUTO               Kron-like elliptical aperture magnitude                    [mag]
#   3 X_IMAGE                Object position along x                                    [pixel]
#   4 Y_IMAGE                Object position along y                                    [pixel]
#   5 X_WORLD                Barycenter position along world x axis                     [deg]
#   6 Y_WORLD                Barycenter position along world y axis                     [deg]
#   7 A_WORLD                Profile RMS along major axis (world units)                 [deg]
#   8 B_WORLD                Profile RMS along minor axis (world units)                 [deg]
#   9 THETA_WORLD            Position angle (CCW/world-x)                               [deg]
#  10 FWHM_WORLD             FWHM assuming a gaussian core                              [deg]
#  11 ELONGATION             A_IMAGE/B_IMAGE                                           
#  12 ELLIPTICITY            1 - B_IMAGE/A_IMAGE                                       
         1 -10.2461    166.1863     21.8621   2.6339616069e+01   4.0546131584e+01    0.5410507    0.3737069  50.99  0.002736954    1.347    0.258
         2 -10.1593    159.1994     19.0306   2.6627056208e+01   4.2626209848e+01    0.5686255    0.2718469 -49.53  0.002232763    2.705    0.630
         3  -9.2450    185.8797     18.6106   2.2322572961e+01   3.5890177696e+01    0.3708279    0.1804838 -37.18 0.0009655519    2.073    0.518
         4  -9.7085    211.3344     15.8040   1.8296363510e+01   2.9761599939e+01    0.5326265    0.1470474 -42.28  0.001827269    3.433    0.709
         5 -10.4447    123.4131     19.3242   3.3873628308e+01   5.1227917689e+01    0.3141259    0.2853019 -82.58 0.0006359912    1.360    0.264
         6  -9.5549    194.6314     15.8311   2.0343437536e+01   3.3964742860e+01    0.3278934    0.2125277 -37.48  0.001091805    1.575    0.365
         7  -8.7654    194.5103     10.4961   1.8865674980e+01   3.4558473546e+01    0.2425864    0.1091179 -38.64  0.001033883    2.215    0.549
         8 -10.6781    194.7661      3.7160   1.6953952883e+01   3.5167209512e+01    0.4655243    0.3529074  30.42  0.002569566    1.556    0.358
         9 -10.4336    243.9987     14.1853   1.4548841246e+01   2.2079947803e+01    0.3974576    0.2841843  54.05  0.001768264    1.539    0.350
        10  -8.7046     89.8003     14.2524   4.0592990414e+01   5.8906043290e+01    0.4139175    0.2425376 -60.17  0.001534113    4.618    0.783
        11 -10.3804    188.8089     12.9915   2.0299894536e+01   3.5747772340e+01    0.4189398    0.2342159 -86.66  0.001779708    2.290    0.563
        12 -11.5847     58.6348     11.4644   4.9617365908e+01   6.4597453691e+01    0.4518442    0.3293841   9.69  0.001413109    1.249    0.199
        13 -10.7730     57.1072      6.4494   4.7906985599e+01   6.5452845820e+01    0.2533746    0.1959002  -8.45 0.0005454982    1.079    0.073
        14  -9.7208    223.9454     12.2744   1.6022910228e+01   2.7044007300e+01    0.2800744    0.2204551 -65.71 0.0005642733    1.212    0.175
        15 -10.3363    162.5687     10.4365   2.3316901620e+01   4.2676501815e+01    0.3493455    0.3089064  89.29 0.0006651216    1.178    0.151
        16  -8.9983    204.8785     10.0383   1.7506534534e+01   3.1991888430e+01    0.2125172    0.1655413 -64.93 0.0004990706    1.290    0.225
        17 -10.6069    235.9630      6.5538   1.3483692468e+01   2.4782909935e+01    0.3781439    0.2629281 -60.93  0.001028936    1.356    0.263
        18 -10.3062    230.8108      2.6156   1.3006911632e+01   2.6408851607e+01    0.4791489    0.2739314 -71.46  0.002236221    1.858    0.462
        19 -10.1243    215.0723      5.9266   1.5327505427e+01   2.9881341013e+01     0.284417    0.2552957 -77.31 0.0007120571    1.033    0.032
        20 -11.1400    112.3447      5.4685   3.1161214496e+01   5.5160060702e+01    0.2791973    0.2708686   1.92 0.0005577508    1.175    0.149
        21  -9.9088    240.3440      3.2729   1.2337594238e+01   2.4103083383e+01    0.3094583    0.2328781 -63.15  0.001867951    1.207    0.172
        22  -9.7787    202.9961      3.2270   1.5896994469e+01   3.3147158562e+01    0.3472992    0.1954263 -42.10  0.001709223    1.786    0.440
        23 -10.4367    179.5643      4.8901   1.9167722081e+01   3.8905799495e+01    0.3072781    0.2125732 -85.40  0.001575303    1.576    0.365
        24 -12.0276    127.7730      2.4921   2.6740627371e+01   5.1919517371e+01    0.2790075    0.2489237  54.76  0.000503505    1.101    0.092
        25  -9.0803     89.2980      8.6958   3.8412830282e+01   5.9626189063e+01    0.2472288     0.184807   1.48  0.000642004    1.260    0.206
        26  -8.7833    222.2992      2.5596   1.3772141951e+01   2.8456470509e+01    0.2604391    0.1207318  79.93  0.001145343    2.174    0.540
        27  -8.9326    198.3996    217.2138   6.7710669717e+01   1.2455697329e+00    0.1541392    0.1199466 -51.20 0.0009480439    1.705    0.414
        28 -10.1716     36.4126    248.5834   9.9138415261e+01   2.0794126800e+01    0.3740697    0.2343113  83.52   0.00258805    1.310    0.236
        29  -8.6124     18.2147    249.9425   1.0187500373e+02   2.2538580676e+01    0.1623214    0.1050044  58.36 0.0008018143    1.212    0.175
        30  -9.8916     13.4376    214.8208   1.0080656047e+02   2.8978182019e+01    0.2245601    0.1417837  71.93 0.0006490032    1.165    0.141
        31 -10.4000     62.4383    213.8242   9.2418812621e+01   2.3659925755e+01    0.2547484    0.1867915 -88.16  0.001117976    1.226    0.184
        32  -9.4184    230.0306    214.0393   6.1575255697e+01  -3.7211945194e+00    0.1934858    0.1560054  23.92 0.0006741381    1.038    0.036
        33  -8.4281    236.0157    212.9148   6.0349713988e+01  -4.5689244627e+00    0.1663824    0.1511841  64.17 0.0006200927    1.658    0.397
        34  -8.3010    186.0068    209.6797   6.8765447406e+01   4.5066928290e+00    0.1866965    0.1412067  41.44 0.0006721071    1.133    0.117
        35 -10.1924    150.1894    205.1603   7.4862366055e+01   1.1627241964e+01     0.330285    0.2887276  61.45  0.001120319    1.112    0.101
        36 -10.2866     62.6875    205.5688   9.1628019166e+01   2.5166024419e+01    0.2984023    0.1632524  68.00  0.001056368    1.759    0.431
        37  -9.3978    127.4954    201.2539   7.8718966777e+01   1.6250293139e+01    0.3128453    0.2055378  54.47  0.001449391    1.371    0.270
        38  -8.5668     27.1626    199.8879   9.7553461284e+01   3.0364866831e+01    0.1698242    0.1101212  73.46 0.0005494863    1.220    0.180
        39  -8.6946    203.5764    199.2107   6.3724083778e+01   2.8855117685e+00    0.2318166    0.1590198  39.75 0.0004960769    1.274    0.215
        40  -8.6631     77.1499    197.1793   8.8056321868e+01   2.4840858578e+01    0.1681992    0.1558048 -86.80 0.0006144795    1.264    0.209
        41  -9.6615     17.3108    195.7435   9.8995809859e+01   3.2137740052e+01    0.2520894    0.1701839  69.74 0.0009922895    1.169    0.144
        42  -9.0616    131.4027    191.8871   7.6576657994e+01   1.7292354864e+01     0.289114    0.2017578  77.31  0.001058263    1.761    0.432
        43  -8.2651    171.1502    190.3902   6.8375030402e+01   1.0297908187e+01    0.1948589    0.1145785  52.03 0.0005766559    1.675    0.403
        44  -8.8491    139.4033    187.7821   7.4314427656e+01   1.6633393472e+01    0.2325261    0.1886829  67.85 0.0007646495    1.250    0.200
        45  -9.3121     45.6767    186.6596   9.3065595223e+01   3.0925657970e+01    0.2346808    0.1531008  74.97  0.000604447    1.344    0.256
        46  -9.5639    126.2387    182.9047   7.6253150321e+01   1.9897667591e+01    0.2991056     0.244799  62.41  0.000859025    1.138    0.121
        47  -8.3660     81.9946    183.9538   8.5555714407e+01   2.6774767095e+01    0.1490497    0.1256949  75.34 0.0003660058    1.007    0.007
        48  -9.0531     60.0537    183.2304   8.9905411262e+01   2.9882472175e+01    0.2028725    0.1516618 -84.88 0.0007777988    1.171    0.146
        49  -8.0964     52.4952    183.4744   9.1429966320e+01   3.0764116037e+01    0.1182372   0.09421559  80.77 3.852547e-05    1.006    0.006
        50  -8.8129     34.9420    176.8560   9.4251237998e+01   3.4091045610e+01    0.1628882    0.1374303 -71.86 0.0007333291    1.303    0.232
        51  -8.6410    176.2456    171.8371   6.3959193591e+01   1.2525858537e+01    0.2065259    0.1903299  65.18 0.0008179489    1.175    0.149
        52 -10.2405     71.3421    170.4429   8.6082016832e+01   3.1048228179e+01    0.4390387    0.2644671  72.11  0.002335584    1.821    0.451
        53 -12.3045    229.1795    168.5756   5.3163962035e+01   2.6683120880e+00    0.4155788    0.2986539  39.00 0.0008700778    1.323    0.244
        54 -12.0596    222.5467    166.4377   5.3922855947e+01   4.2609794375e+00    0.4289328    0.3318425  -5.97 4.377225e-05    1.336    0.251
        55 -10.0422     43.5788    169.2411   9.1771826146e+01   3.4725602515e+01    0.4043053    0.2266867  78.15  0.001635148    1.848    0.459
        56  -7.5111    100.7005    168.7139   7.9494095034e+01   2.7058700877e+01    0.1191026    0.1057552 -15.63 0.0003703232    1.554    0.356
        57  -8.1286    111.3332    166.9831   7.6892274197e+01   2.5660151601e+01    0.1869825    0.1689391  88.15  0.000600762    1.053    0.050
        58  -9.6547    197.5524    162.0091   5.7733055815e+01   9.9455761212e+00     0.254064    0.2336172  55.06 0.0004010606    1.190    0.159
        59  -8.6619    155.1791    161.5250   6.6346107404e+01   1.8625210564e+01    0.2639082    0.2151002  81.87 0.0006747548    1.476    0.322
        60  -9.0362    183.5345    159.8715   6.0086236461e+01   1.3183755286e+01    0.2555069    0.1914075  35.41 0.0005759166    1.286    0.222
        61  -8.0957    182.1929    156.1449   5.9582674092e+01   1.4130408765e+01    0.1852527    0.1693722  76.78 0.0004958366    1.256    0.204
        62  -7.5149    139.6933    155.6705   6.8582353225e+01   2.2821160869e+01    0.1401754    0.1141546  -1.96 0.0003965045    1.658    0.397
        63  -8.3363    101.5571    155.2447   7.7133174631e+01   2.9764287577e+01    0.1854536    0.1221466 -47.60 0.0009411798    1.638    0.389
        64  -7.7586    239.2270    153.9771   4.8333243033e+01   2.9389645501e+00    0.1745173    0.1064682 -31.40 0.0008590083    1.591    0.372
        65  -7.6498    213.7000    151.6866   5.2434811652e+01   8.3734491636e+00    0.1455082    0.1057468   9.56 0.0002092212    1.608    0.378
        66  -7.7447      1.2088    147.9385   9.8574405014e+01   4.3070112464e+01     0.148382   0.06736284 -78.12 0.0008588444    1.694    0.410
        67  -8.6327    147.1315    142.7683   6.4283394670e+01   2.3961479955e+01     0.217836    0.1910495  68.96 0.0005102704    1.196    0.164
        68  -8.3428    117.3651    137.9671   7.0208481540e+01   3.0740964437e+01    0.1952742    0.1784093 -64.21 0.0005202324    1.077    0.071
        69 -10.0525    208.2645    131.0146   4.8793834148e+01   1.3016494994e+01    0.3135293    0.2928942  31.79 0.0005184835    1.061    0.057
        70  -8.4504    152.4913    131.9647   6.0679424558e+01   2.5038973878e+01    0.2248287    0.1958031  51.00 0.0005049845    1.132    0.117
        71  -9.4454    155.6602    129.4753   5.9387329270e+01   2.4865834391e+01    0.3250471    0.2996071 -76.99  0.001010244    1.173    0.147
        72  -8.0557    141.0126    132.5071   6.3442778836e+01   2.7313538148e+01    0.2087753    0.1430049  47.71 1.808087e-05    1.442    0.307
        73  -8.0666    186.4587    128.4724   5.2502347402e+01   1.8291779710e+01    0.1470835    0.1456366  38.37   1.2674e-05    1.055    0.052
        74  -8.9906     75.5239    125.6116   7.8190449666e+01   4.0269867237e+01     0.238639    0.1961205 -65.71 0.0005741224    1.100    0.091
        75 -10.5145    120.4895    122.1102   6.6030529296e+01   3.3570795178e+01    0.3130601    0.2827627  75.74 0.0004211996    1.158    0.137
        76  -7.7155     83.6704    122.2754   7.5448991926e+01   3.9830488404e+01    0.1356837    0.1009281  76.83 0.0002294666    1.593    0.372
        77  -7.8808      1.3294    120.7598   9.6086746433e+01   4.8777310966e+01    0.1550786   0.07499035 -67.92 0.0004629944    1.545    0.353
        78  -8.4338    226.3268    118.3016   4.2495438774e+01   1.1212085867e+01    0.1493755    0.1094032  13.36 0.0005150955    1.641    0.390
        79  -8.5117     89.3203    116.2831   7.2736086957e+01   4.0292744893e+01    0.1826234    0.1517256  85.95 0.0006942161    1.329    0.247
        80  -8.7248    161.8809    114.9930   5.4480650677e+01   2.6380504214e+01    0.2193468    0.2151571 -82.02 0.0003529897    1.059    0.056
        81  -8.5747    250.5176    114.4893   3.7634425734e+01   6.7061781202e+00    0.1399913    0.1248374  -8.73 -6.105257e-05    1.061    0.058
        82  -9.1353    238.0161    111.6529   3.8948567721e+01   9.7587254171e+00    0.2616548    0.1949468 -55.34 0.0008444128    1.580    0.367
        83  -9.1519    193.7802    110.5020   4.6610667168e+01   1.9904251740e+01    0.2862535    0.2328003 -68.11 0.0007359509    1.503    0.334
        84  -8.6107      9.3931    110.7368   9.2972097587e+01   5.0393466666e+01    0.1840973    0.1277697  48.94  0.001253283    1.665    0.399
        85  -8.6631    135.6283    107.6285   5.8774809529e+01   3.3588075017e+01    0.2939626    0.1800765  66.57  0.001153562    2.369    0.578
        86  -9.9774     67.4152    106.5129   7.6609050115e+01   4.5635399196e+01    0.3303838    0.2971794  74.93  0.001118829    1.200    0.166
        87  -9.1295    203.1706    107.0065   4.3913038219e+01   1.8341897276e+01    0.2420896    0.2167617  41.81 0.0003911197    1.120    0.107
        88 -11.2610     48.1336    104.1202   8.1517333661e+01   4.8476083727e+01    0.4463455    0.3507285  80.98  0.001427326    1.428    0.300
        89  -8.0033    246.4454    105.4756   3.6155614761e+01   8.9309379084e+00    0.1398796    0.1282011 -27.63 0.0001352146    1.033    0.032
        90  -9.8261    184.8581    102.8210   4.6426447482e+01   2.3380942531e+01     0.438507     0.328469  16.00  0.001309925    1.671    0.402
        91  -9.0339     25.7279    103.2566   8.7591926716e+01   5.0795086053e+01    0.1971216    0.1781175 -68.19 0.0006325176    1.133    0.117
        92 -10.1231      3.1875    101.9068   9.3483058617e+01   5.2686344255e+01    0.2970643    0.2048838 -88.98  0.001053437    1.332    0.249
        93 -10.7361    191.7487     99.1226   4.4081210721e+01   2.2412967532e+01     0.381768     0.292531  65.90 0.0004047962    1.461    0.315
        94  -9.9203    119.6608     99.1513   6.0614754726e+01   3.8602310177e+01    0.2670669    0.2457134 -61.24 0.0002982599    1.112    0.100
        95  -8.2211    235.6722     96.4267   3.5655632464e+01   1.2672155070e+01    0.2709892    0.1410579  72.99 0.0009565963    3.394    0.705
        96  -7.9664    130.6776     96.3307   5.7034064735e+01   3.6936184656e+01    0.1529788    0.1202077 -84.10 0.0007049607    1.698    0.411
        97  -9.2131    214.6313     94.1513   3.8562612677e+01   1.7848929317e+01     0.300503    0.2713757  89.49 0.0006568788    1.247    0.198
        98  -9.8827    137.6453     93.6402   5.4559194420e+01   3.5986107998e+01    0.2592047    0.2547575 -54.83 0.0003101377    1.041    0.040
        99 -11.0198    193.4759     91.1190   4.1628284191e+01   2.3401854502e+01    0.3787962    0.3336937 -48.60  0.001970224    1.165    0.142
       100  -9.9054    158.9719     91.8396   4.9019855825e+01   3.1515550316e+01    0.3417545    0.2985166  32.88  0.000526309    1.171    0.146
       101  -8.1213    147.8724     92.8529   5.1868736830e+01   3.3872209184e+01    0.2077803    0.1829403  82.87 0.0005687714    1.310    0.237
       102  -8.9079     17.6182     92.0301   8.8075722735e+01   5.3860682514e+01    0.1904691    0.1514395  61.90  0.000692506    1.486    0.327
       103 -10.9282    197.4547     81.9608   3.8419977912e+01   2.3992080684e+01     0.448783    0.3118745 -42.48   0.00100371    1.439    0.305
       104  -8.8198     12.9622     77.0670   8.6893696858e+01   5.7370062652e+01     0.200263     0.159667 -89.70  0.000471668    1.374    0.272
       105  -9.0889     13.6950     82.6671   8.7662658192e+01   5.6136857964e+01    0.1917162    0.1599565 -45.02 0.0007771686    1.203    0.169
       106  -9.8699     17.1407     79.5872   8.6058318656e+01   5.6556308536e+01    0.2994692    0.1806096 -53.65 0.0007954856    1.304    0.233
       107 -10.5343    122.3247     80.4728   5.4714767475e+01   4.1828116028e+01    0.3048298    0.2859839 -45.78 0.0005295738    1.083    0.077
       108 -10.9973     54.1866     79.9742   7.4534984191e+01   5.3051834021e+01    0.2719762    0.2453317 -57.00 0.0004767814    1.092    0.085
       109  -8.3986     25.2591     79.2460   8.3465316135e+01   5.6024531072e+01     0.151092    0.1251642 -87.59 0.0005514307    1.337    0.252
       110 -12.3683    249.6532     74.8446   2.8383987262e+01   1.2851551207e+01    0.3243293    0.2496293 -36.68 0.0004591949    1.191    0.161
       111 -11.7772    218.1795     74.3598   3.2854123198e+01   2.0185014211e+01    0.2922066    0.2725237 -67.84  0.000258422    1.101    0.091
       112  -9.2228    206.4079     75.5072   3.5097212850e+01   2.2856772897e+01    0.3022062    0.2451381 -69.08 0.0008838038    1.409    0.290
       113 -11.6896    184.6073     71.1867   3.7832967786e+01   2.8941766044e+01     0.338779    0.3126103 -82.80 0.0004350191    1.162    0.140
       114 -10.2997    209.4105     69.7415   3.3049680659e+01   2.3029277348e+01     0.500551     0.331627 -81.71  0.001661441    2.197    0.545
       115  -8.5341    204.9879     66.9644   3.3030845245e+01   2.4547685180e+01      0.20216    0.1941696 -67.72 0.0004575156    1.046    0.044
       116 -10.0659    152.0704     71.0115   4.4561423735e+01   3.6927561978e+01    0.4077996    0.3003676  33.71  0.001138201    1.451    0.311
       117 -10.0438    175.6369     69.7557   3.9167692665e+01   3.1404601288e+01    0.3507636     0.260821 -56.37  0.001230593    1.527    0.345
       118 -10.2750    239.7060     69.0715   2.8326244523e+01   1.5927509444e+01    0.4986277    0.2469899  61.71  0.001498716    2.161    0.537
       119 -10.3863    166.1563     68.7627   4.0812783595e+01   3.3908677829e+01    0.2918781    0.2691485 -70.45 0.0003885874    1.180    0.153
       120 -11.6719    141.4293     67.5046   4.5972352088e+01   4.0029230329e+01    0.3601492    0.3175879 -55.85 0.0001983397    1.243    0.195
       121  -7.8351     97.7151     70.3697   5.8513311172e+01   4.8561809958e+01    0.1400402     0.111482 -74.11 0.0007018438    1.702    0.413
       122  -9.7120    133.6469     66.8187   4.7657674671e+01   4.1918210357e+01    0.3430307    0.2887676 -60.06 0.0009025282    1.371    0.271
       123 -10.8889    249.8408     65.4195   2.6098085772e+01   1.4168584636e+01    0.3417899     0.234491 -34.89  0.001010288    1.342    0.255
       124  -9.6235    185.7471     62.7079   3.5199870502e+01   3.0012276609e+01    0.2547256    0.2362025 -65.09 0.0003347726    1.125    0.111
       125  -8.2357     97.8504     58.8692   5.4824470237e+01   5.0685991919e+01    0.1791755    0.1695702  81.82 0.0006468896    1.302    0.232
       126 -10.1637     19.6438     57.8885   8.0639713020e+01   6.0873472404e+01    0.2355207    0.1845093 -50.03 0.0003914488    1.022    0.022
       127  -8.5097    175.2201     58.1896   3.5853589284e+01   3.3358283151e+01    0.2074138    0.1765425 -71.17 0.0006258599    1.327    0.247
       128  -9.9240     78.7031     57.0386   6.0119417320e+01   5.4299216330e+01     0.302503    0.2861392 -29.24 0.0008045845    1.129    0.114
       129 -10.4163     29.2955     55.9672   7.6727066551e+01   6.0495531513e+01    0.2842357    0.1873232 -57.04 0.0008603647    1.334    0.250
       130  -9.7208    226.5675     55.3534   2.6679953142e+01   2.0991258630e+01    0.2661355    0.2311915 -65.09 0.0004696335    1.153    0.133
       131 -11.0069     53.9966     54.7514   6.7648608503e+01   5.8181310810e+01    0.3427462    0.2295107 -42.48  0.000868828    1.272    0.214
       132  -9.4127    150.9118     53.8050   3.9492587816e+01   4.0049928078e+01     0.364043    0.2758032 -42.06  0.001798008    1.375    0.273
       133 -10.6461    178.5974     51.9554   3.3370048845e+01   3.3447747977e+01    0.5206311    0.3055839  45.42  0.001604456    1.725    0.420
       134  -9.5008     15.2622     52.6655   8.0933430777e+01   6.2222057273e+01    0.2171288    0.1734563 -55.17 0.0005853545    1.116    0.104
       135 -11.4491    167.5676     49.4388   3.4687753175e+01   3.6598617070e+01    0.5173348    0.3660446 -39.17  0.001459317    1.449    0.310
       136  -9.4949    124.3870     50.2000   4.4589519976e+01   4.6769645156e+01    0.2744894    0.2387637 -52.33 0.0006468117    1.307    0.235
       137  -7.9762    219.2283     43.9985   2.4732892921e+01   2.4344721322e+01    0.1916754     0.114865 -31.11  0.000881161    1.663    0.399
       138 -11.1813    107.7635     42.6956   4.6410071486e+01   5.1475044856e+01    0.3563724    0.3192164  -6.97 0.0005914712    1.045    0.043
       139 -11.3102    148.6681     39.8843   3.5474416201e+01   4.2647692172e+01    0.4153886    0.3891625 -66.92  0.000859013    1.188    0.158
       140 -10.8156     73.1014     41.9466   5.6776130269e+01   5.7847998012e+01    0.2517681    0.2150387 -15.16 0.0003101488    1.018    0.018
       141  -9.8896    200.4469     37.8239   2.5701127979e+01   2.9857063742e+01    0.4641508    0.2982146 -75.10  0.001720274    2.002    0.500
       142  -9.6852    173.6495     36.9125   2.9725644844e+01   3.6803450612e+01    0.3401898    0.2793152  29.60  0.000868888    1.306    0.235
       143  -9.2406    163.1092     36.9330   3.1643656267e+01   3.9467905518e+01    0.2437344    0.2291288 -20.32 0.0004111156    1.107    0.097
       144  -8.8653     68.5604     33.7587   5.5281127941e+01   5.9887043291e+01     0.194485    0.1693415  67.02  0.001191077    1.739    0.425
       145  -8.8356    242.6678     31.3378   1.8737894092e+01   2.0364757853e+01    0.1469497   0.08955397 -62.00 0.0007051961    1.741    0.426
       146 -11.5794    216.1583     28.7525   2.1126068383e+01   2.7059236574e+01    0.3112878    0.2772735 -76.61 0.0004024763    1.074    0.069
       147 -11.1833    196.8199     26.6874   2.3100160909e+01   3.2171134330e+01    0.3038648     0.269872  63.48 0.0004804934    1.082    0.076
       148  -9.1658    236.3828     27.1440   1.8392596268e+01   2.2351077423e+01    0.4197556    0.1301135 -52.19  0.001290831    4.383    0.772
       149  -8.9531    104.0024     27.9844   4.2023686172e+01   5.4366904646e+01    0.2048909    0.1909866   1.74 0.0005574035    1.092    0.084
       150  -9.2546    110.0222    247.1393   8.7283270701e+01   1.1370244967e+01    0.2405511    0.1944658  47.06  0.001724658    1.226    0.184
       151  -9.1973    218.5109    245.4959   6.8556587483e+01  -5.5702242771e+00    0.2504028    0.1641813  29.25 0.0009624663    1.209    0.173
       152  -9.8432    182.1362     21.9303   2.3840395007e+01   3.6473921576e+01     0.427125    0.3030001 -60.37  0.002057488    1.590    0.371
       153 -10.6535    215.4405    243.5523   6.8787284995e+01  -4.8721863018e+00     0.752108    0.4931521  -1.06    0.0041735    1.874    0.466
       154  -9.0728    213.6187     21.7808   1.9601929585e+01   2.8518291150e+01    0.2641186    0.1651931 -48.58 0.0007187293    1.599    0.375
       155  -9.1107    224.6218    243.5440   6.7243552452e+01  -6.3025754998e+00    0.2368079    0.2049353  74.33  0.001653878    1.971    0.493
       156  -8.0581     25.4924     22.5533   6.7570996893e+01   6.6955994598e+01    0.1145359   0.08940982 -27.73 0.0001101728    1.040    0.038
       157 -10.2925    177.5573    239.1131   7.4679155971e+01   1.8062560994e+00    0.3393186    0.2363989  45.88  0.001162563    1.191    0.160
       158  -8.9026    114.2152     19.7507   3.6220650778e+01   5.3234699907e+01    0.2293424    0.1748434 -31.60 0.0008469091    1.390    0.281
       159  -8.1930     61.7733     19.1902   5.1827173732e+01   6.3089820904e+01    0.1796188    0.1402485 -74.23 0.0009502829    2.785    0.641
       160  -9.4142     81.3422    239.4741   9.1383208488e+01   1.6683143221e+01    0.2939379    0.1535503  60.31  0.001452946    1.630    0.387
       161  -9.2465     66.8894    240.7362   9.3862958193e+01   1.8396540358e+01     0.189543    0.1301434  84.01 0.0007250028    1.303    0.233
       162  -8.1813     74.5310    235.9070   9.2219722217e+01   1.8195598110e+01    0.1461952   0.09729273 -76.47  0.001014773    1.545    0.353
       163  -9.0640    235.7074     16.0902   1.5782369468e+01   2.3802592289e+01    0.1849638    0.1616825 -47.94  0.001077964    1.122    0.109
       164  -9.4125    207.1843     15.7980   1.8779205970e+01   3.0799171013e+01    0.2142535    0.1761503 -70.40 0.0008153316    1.202    0.168
       165 -11.2515     59.4168    232.2353   9.4440658758e+01   2.0776855408e+01     0.332166    0.2154703  58.42  0.002371665    1.197    0.164
       166  -9.2592    117.0444     14.8523   3.3680330853e+01   5.3162782587e+01    0.1988188    0.1859835 -60.49  0.001148951    1.313    0.238
       167  -9.6551    100.4576    231.5285   8.7377980100e+01   1.5275824261e+01    0.2593164    0.1795318  83.51 0.0006829308    1.500    0.333
       168  -9.4030    101.3446    227.1361   8.6770839931e+01   1.5880638675e+01    0.2268974    0.1539522  53.28 0.0006764738    1.190    0.160
       169  -7.7558    143.3100     14.3113   2.7932468715e+01   4.7068628633e+01    0.1472992    0.0953858  31.95 0.0007026963    1.625    0.385
       170  -8.9403     83.3825    231.1020   9.0301157787e+01   1.7798732781e+01    0.2488283    0.1634011  79.17  0.001143372    1.460    0.315
       171 -10.8556     24.9779    229.9644   9.9830977714e+01   2.5144685662e+01    0.3412144    0.2248811  68.46  0.001158647    1.093    0.085
       172  -9.0702    211.9025    224.0056   6.6395170379e+01  -1.9522713008e+00    0.2686079    0.1525502  46.65 0.0009272117    1.652    0.395
       173  -8.4322    182.4850    222.5429   7.1425518288e+01   3.2543608675e+00    0.1947281    0.1247643 -42.23 0.0007107178    1.890    0.471
       174  -8.2422     86.1382    223.1458   8.9070595844e+01   1.8782646535e+01    0.1682806    0.1085031  65.42 0.0007323095    1.351    0.260
       175  -9.4374    165.3459    219.9486   7.4180220990e+01   6.6000599036e+00    0.4848957    0.3074309  32.86  0.002732519    1.526    0.345
       176  -8.1185    130.5005    222.4495   8.0952846576e+01   1.2094793524e+01    0.1231309   0.09973634  54.84 1.215046e-05    1.014    0.014
       177  -9.8023     70.4877    219.3008   9.1479892960e+01   2.1615304791e+01    0.2217452    0.1744055  78.43 0.0005318635    1.081    0.075
       178  -8.8560    225.2146    218.9796   6.3247845174e+01  -3.5362977031e+00    0.2607584    0.2186099  80.75 0.0009749437    2.114    0.527
       179  -7.7566    224.2945    215.6560   6.2848432511e+01  -2.9685710759e+00    0.1625521    0.1463356  77.95 0.0008431121    1.731    0.422
       180  -8.7932    177.9643    218.3385   7.1615115799e+01   4.6460534323e+00    0.2215345    0.1757975 -72.90  0.001350082    1.800    0.444
       181  -8.8052     49.4962    217.9638   9.5018668123e+01   2.4507890543e+01    0.1561474   0.09128915 -81.75  0.001014533    1.570    0.363
       182  -7.8540     43.3027    218.6903   9.6126440477e+01   2.5105807982e+01    0.1136716   0.06103318  68.84 0.0003338419    1.606    0.377
       183  -8.2876    248.9566    216.7041   5.8821168495e+01  -7.0870275953e+00    0.1664741    0.1275094  23.88 0.0004612597    1.087    0.080
