#   1 NUMBER                 Running object number                                     
#   2 MAG_AUTO               Kron-like elliptical aperture magnitude                    [mag]
#   3 X_IMAGE                Object position along x                                    [pixel]
#   4 Y_IMAGE                Object position along y                                    [pixel]
#   5 X_WORLD                Barycenter position along world x axis                     [deg]
#   6 Y_WORLD                Barycenter position along world y axis                     [deg]
#   7 A_WORLD                Profile RMS along major axis (world units)                 [deg]
#   8 B_WORLD                Profile RMS along minor axis (world units)                 [deg]
#   9 THETA_WORLD            Position angle (CCW/world-x)                               [deg]
#  10 FWHM_WORLD             FWHM assuming a gaussian core                              [deg]
#  11 ELONGATION             A_IMAGE/B_IMAGE                                           
#  12 ELLIPTICITY            1 - B_IMAGE/A_IMAGE                                       
         1 -11.9690     58.5211    131.6154   1.0069613370e+02   4.1905792935e+01     1.159605    0.5175943 -74.72  0.003983091    3.108    0.678
         2 -12.1667    198.3535     42.7935   4.1980089365e+01   3.0569783837e+01    0.9278805    0.8188769 -61.81   0.00346976    1.073    0.068
         3 -12.2487    207.3525     33.8349   3.8738384061e+01   2.9678056193e+01    0.6696528    0.6595179  62.29  0.001383585    1.273    0.214
         4 -11.2354     32.1659     26.5127   8.0702411843e+01   6.7862943153e+01    0.9276007    0.2700168 -50.05  0.002573624    7.864    0.873
         5 -11.4486     32.7235     11.8613   7.3529040987e+01   6.9870472375e+01    0.3395074    0.2584122  -8.59  0.002320177    1.102    0.093
         6  -9.5478     61.1972      7.8481   5.9373321158e+01   6.5780963734e+01    0.1796008    0.1209481  22.63   0.00107228    1.324    0.245
         7  -8.6899     40.6708      3.6595   6.5557633684e+01   6.9675772173e+01    0.1276999   0.07403041  12.85 0.0007051583    1.740    0.425
         8 -12.0519    232.2842      7.4278   3.0702519475e+01   2.7337978743e+01    0.8007339    0.6352697 -74.19  0.004524081    1.030    0.029
         9 -10.8821    144.1496    227.0988   9.4577995958e+01   6.1583360737e+00    0.4354501    0.3219924 -47.27  0.002461403    1.514    0.340
        10  -8.3065    139.3447    250.3190   9.8832868959e+01   2.7710857717e+00    0.1268503   0.09178594   4.04 0.0007049275    1.724    0.420
        11 -10.6270    127.7840    246.8632   1.0078330670e+02   5.1042025442e+00    0.4365971    0.2565379 -63.81  0.002295163    2.221    0.550
        12  -9.5900    107.4755    249.8905   1.0534494145e+02   7.5685493850e+00    0.2040471    0.1621045  22.88  0.001278289    1.351    0.260
        13 -10.2662     79.0467    238.8326   1.1007070843e+02   1.3708989485e+01    0.4521188    0.2762243 -42.33  0.002362876    2.359    0.576
        14  -9.7027     72.2391    250.2179   1.1251678466e+02   1.2418780336e+01     0.243649    0.1454743  41.07 0.0004924085    1.410    0.291
        15  -9.9839     72.3541    245.3134   1.1205776911e+02   1.3343299310e+01    0.4193777    0.2933843  81.77  0.002219496    1.472    0.321
        16 -16.9632      9.5626    243.9183   1.2400952464e+02   2.0917496420e+01     14.24747     4.451414 -78.50   0.02416081    2.931    0.659
        17  -8.2018    143.3144    209.3110   9.1970309014e+01   9.7508974710e+00    0.1411019    0.1070279  -3.89 0.0007031223    1.634    0.388
        18 -10.3444    110.0432    203.8050   9.8829082383e+01   1.6448387438e+01     0.442358    0.2525734  21.61   0.00112271    2.281    0.562
        19  -9.9424    122.2008    198.8649   9.5169728604e+01   1.5525483473e+01    0.3295763    0.2511819 -82.53  0.001665242    1.627    0.385
        20  -8.9850     31.6726    202.9363   1.1697484999e+02   2.7331583351e+01    0.3053358     0.187098  74.35  0.001695852    1.522    0.343
        21  -9.2773     60.1055    197.8354   1.0994669693e+02   2.5158530999e+01    0.2162665    0.1839778  76.55  0.000367799    1.045    0.043
        22 -10.3542     49.7525    250.2295   1.1691253783e+02   1.5269455006e+01    0.2381034    0.1998579  28.08   0.00166839    1.481    0.325
        23  -9.7412    194.4186    197.5762   7.8732257198e+01   3.3246672130e+00    0.3895234     0.237562 -64.19  0.001547002    3.315    0.698
        24 -11.9883     56.1984    185.0589   1.0940598082e+02   2.8703394727e+01    0.9195113    0.6935087  49.06  0.005190237    1.283    0.221
        25  -8.9979    147.0566    187.6323   8.7301874631e+01   1.3616801172e+01    0.3649783    0.2014712 -67.18    0.0013356    3.013    0.668
        26  -7.7134     49.8374    222.3026   1.1468332174e+02   2.0944038229e+01    0.2004383    0.1211384  56.51 0.0008991353    1.460    0.315
        27  -7.3679     79.6851    183.3129   1.0326351500e+02   2.5925199555e+01    0.1495382    0.1018292  68.55 0.0004108096    1.639    0.390
        28  -9.0824     99.6661    180.8346   9.7779879177e+01   2.3425524037e+01    0.2350237    0.2031292  22.22 0.0007496129    1.270    0.213
        29  -9.2456     65.8685    179.5830   1.0626794531e+02   2.8780888437e+01    0.2754315    0.1957563 -81.07 0.0009241903    1.392    0.282
        30  -9.2881     42.6453    179.8786   1.1217741912e+02   3.1583179722e+01    0.2269163    0.1758673  50.87 0.0003315451    1.268    0.212
        31  -9.4353    186.8255    174.9125   7.5825387875e+01   8.9528554797e+00    0.3687403    0.2784873 -40.12  0.001188049    1.298    0.229
        32  -9.7131    114.1236    173.6136   9.2810705679e+01   2.2704436234e+01    0.3047175    0.1997609  20.64  0.001316071    1.896    0.473
        33 -10.5759     70.5757    171.3400   1.0387175438e+02   3.0176311631e+01    0.4671209    0.3100933 -33.71  0.001524944    2.009    0.502
        34 -10.6655     74.8387    166.8859   1.0204781232e+02   3.0685677239e+01    0.4398524    0.3770037 -86.93  0.001203489    1.132    0.117
        35 -10.2498     96.9016    168.8879   9.6464711246e+01   2.6777401509e+01    0.5344494    0.2778445  63.19  0.001830139    3.177    0.685
        36  -7.9654     60.0051    218.5211   1.1214132670e+02   2.0490082207e+01    0.1815739    0.1113813  42.03 0.0004067235    1.475    0.322
        37  -9.2814     33.5470    165.7001   1.1290650348e+02   3.6060516871e+01     0.449922    0.2258366  50.21  0.001639756    2.065    0.516
        38 -10.0319    120.5630    246.2224   1.0220809882e+02   6.3012611752e+00     0.260285    0.1239495  43.06  0.001261554    1.789    0.441
        39 -10.1883     54.9882    150.1904   1.0494100054e+02   3.7588449965e+01    0.5288574     0.247416  46.07  0.002189352    2.310    0.567
        40  -8.9949     39.5036    146.6124   1.0885578843e+02   4.0266103813e+01    0.3147583    0.1836378  28.20  0.001537731    1.923    0.480
        41 -11.0171     82.7917    158.9645   9.8547933048e+01   3.1496229319e+01    0.7984934    0.5855255  80.57   0.00104779    1.610    0.379
        42  -7.9754     50.3241    145.2866   1.0552147560e+02   3.9404984325e+01    0.1413265    0.1018757 -35.76 0.0004150734    1.604    0.376
        43  -9.3144    103.6809    137.9648   8.8437966659e+01   3.3282471724e+01    0.4794785    0.2925088 -28.57  0.001851262    2.277    0.561
        44 -10.6650     90.8742    137.5148   9.2064099994e+01   3.5621200832e+01    0.2999402    0.2700731 -33.49 0.0003825598    1.155    0.134
        45 -10.4807     89.8668    151.9021   9.5268525495e+01   3.2161494214e+01    0.6791919    0.4432423 -20.29   0.00212638    2.412    0.585
        46  -9.6706     32.3036    132.1327   1.0887979008e+02   4.4668159136e+01    0.2448222    0.2067647 -84.94 0.0007948544    1.124    0.111
        47  -9.2855    105.8377    130.9499   8.6213962393e+01   3.4613899170e+01    0.3757408     0.319712 -52.19  0.001332026    1.141    0.124
        48  -8.9685    135.6054    130.1944   7.7810555804e+01   2.8903585841e+01    0.2370497    0.1462753 -37.34 0.0009585955    1.705    0.414
        49  -9.8543     43.6888    129.9227   1.0501269548e+02   4.4084436829e+01    0.2259388    0.1959137 -10.98 0.0007582647    1.353    0.261
        50  -9.1861    112.4023    129.0198   8.3869774754e+01   3.3843796376e+01    0.2958669    0.2242205  15.98 0.0007814643    1.606    0.377
        51  -9.4711     99.3948    124.8873   8.6671887984e+01   3.7275820134e+01    0.3308159    0.2584849 -12.82 0.0007041684    1.592    0.372
        52  -9.6629    134.0747    147.3698   8.2253795013e+01   2.5210727561e+01     1.060008    0.2846132 -55.18  0.002405063    5.821    0.828
        53 -10.0135    119.2791    122.3756   8.0285430246e+01   3.4073994982e+01    0.4735916    0.3017343   4.63  0.001638505    3.002    0.667
        54  -9.4578    135.0000    120.0260   7.5408951685e+01   3.1355503841e+01    0.4341237   0.08929569 -45.85  0.001032712    4.767    0.790
        55 -11.9275     71.6082    153.3072   1.0070418492e+02   3.4585740254e+01    0.5740922    0.5306506  79.80  0.001067924    1.069    0.064
        56  -8.5223    108.1602    118.1808   8.2414670137e+01   3.7256492692e+01    0.2280029    0.2056343 -17.93 0.0003765435    1.168    0.144
        57  -8.0423     49.0000    116.9246   1.0090777485e+02   4.6788207149e+01    0.2439232   0.07349911 -61.48 0.0008043163    2.955    0.662
        58 -11.1541     42.2552    110.3428   1.0185914408e+02   4.9177003565e+01    0.6913399    0.3137365 -40.32  0.002808824    2.357    0.576
        59 -11.3018     50.4677    107.8944   9.8525187496e+01   4.8866820226e+01    0.4834358    0.4578699 -13.84  0.002789088    1.126    0.112
        60  -9.1007    231.3630    113.6570   5.4031189677e+01   1.2078752803e+01    0.2345205    0.2135029 -61.71   0.00081379    1.141    0.124
        61 -10.7160    115.0874    109.7718   7.8191484171e+01   3.7845751915e+01    0.7036948    0.2493791 -49.65  0.002219637    2.880    0.653
        62 -10.7018     32.7803     99.3542   1.0294227146e+02   5.2810278444e+01    0.4999943    0.1938308 -60.64   0.00205928    2.159    0.537
        63  -7.8109    139.6604    106.2751   7.0548495810e+01   3.3373946756e+01    0.1573052    0.1261656  87.22 0.0003315902    1.613    0.380
        64  -8.4201    205.5342    110.4548   5.7535064342e+01   1.7874420077e+01    0.1468015    0.1336656 -48.95 0.0008077415    1.031    0.031
        65  -8.6252    127.9870     95.4844   7.0591523360e+01   3.8245175222e+01    0.2343405    0.1540356  47.64  0.000929529    1.544    0.352
        66  -8.7080     51.4857     93.4937   9.4786122326e+01   5.2223241648e+01    0.1419839    0.1261515 -41.37 0.0001291412    1.009    0.009
        67  -9.0713    134.7197    106.5461   7.1901905589e+01   3.4405997281e+01    0.4253515    0.1325669 -48.88  0.001202832    3.532    0.717
        68 -12.0547     68.8962    144.2769   9.9895191871e+01   3.7275964230e+01    0.9161965    0.6118596  70.95  0.003283833    1.907    0.476
        69  -8.9873    155.4559     87.6034   6.1554959595e+01   3.3535202865e+01    0.3030757    0.2295678 -89.73 0.0008555628    1.726    0.421
        70 -10.6220     32.5173    107.3754   1.0462557431e+02   5.0870237886e+01    0.6173708    0.2041636 -69.20  0.002107382    3.290    0.696
        71  -8.2769     74.7208     84.9422   8.4034258568e+01   5.0881410210e+01    0.2034104    0.1794973 -36.92 0.0003590952    1.068    0.064
        72  -8.7660    157.9680     82.7240   5.9626020374e+01   3.3855200119e+01    0.2161438    0.1989045  61.17  0.000587492    1.089    0.082
        73 -11.6678    186.6576     51.7082   4.5869814052e+01   3.2071292139e+01    0.6514257    0.4925589  38.27  0.002095685    1.620    0.383
        74 -10.0936    124.5970    244.1166   1.0110411074e+02   6.0746763238e+00     0.311396    0.1512637 -43.09  0.001460406    2.611    0.617
        75  -9.3432    101.3954    245.1944   1.0608171138e+02   9.3168130862e+00    0.1687686    0.1165736 -85.11 0.0008510805    1.793    0.442
        76  -8.2331     89.1488    210.8075   1.0469720399e+02   1.8145070498e+01    0.1985611    0.1659093  69.12 0.0006449192    1.147    0.128
        77 -10.4250     22.0734     48.7583   9.4173412809e+01   6.4961519784e+01     0.466294     0.160364 -42.64  0.002043874    2.351    0.575
        78 -10.0336     32.4388     36.7458   8.4849768447e+01   6.6153342659e+01    0.2384848    0.1617865 -39.60 0.0008821802    1.376    0.273
        79 -15.6024      5.7307    209.0935   1.2290952849e+02   2.8489316161e+01     7.079005     1.162608 -70.49   0.02191903    4.269    0.766
        80  -8.5789    246.6525    242.3097   7.6816033313e+01  -1.1007622624e+01   0.09697912   0.09047483  20.20 0.0006773673    1.708    0.415
        81 -10.1002    103.2472    237.4075   1.0480790415e+02   1.0529488421e+01    0.2764204    0.1666169 -72.86  0.001432129    2.056    0.514
        82  -8.1235    168.5120    233.4948   9.0371430715e+01   1.1672325567e+00    0.1313343    0.1127671  21.50 0.0001767242    1.026    0.025
