#   1 NUMBER                 Running object number                                     
#   2 MAG_AUTO               Kron-like elliptical aperture magnitude                    [mag]
#   3 X_IMAGE                Object position along x                                    [pixel]
#   4 Y_IMAGE                Object position along y                                    [pixel]
#   5 X_WORLD                Barycenter position along world x axis                     [deg]
#   6 Y_WORLD                Barycenter position along world y axis                     [deg]
#   7 A_WORLD                Profile RMS along major axis (world units)                 [deg]
#   8 B_WORLD                Profile RMS along minor axis (world units)                 [deg]
#   9 THETA_WORLD            Position angle (CCW/world-x)                               [deg]
#  10 FWHM_WORLD             FWHM assuming a gaussian core                              [deg]
#  11 ELONGATION             A_IMAGE/B_IMAGE                                           
#  12 ELLIPTICITY            1 - B_IMAGE/A_IMAGE                                       
         1 -12.8412      4.6708      6.3145   1.0725827630e+02   7.5828281665e+01    0.9404092    0.4571686 -46.73  0.005137278    1.576    0.366
         2 -13.0292    219.5376     10.1102   4.4586146312e+01   2.8315912727e+01    0.7292229    0.6237312 -44.34  0.002896609    1.068    0.064
         3 -12.0910    244.2056    225.8924   8.9658035316e+01  -7.8524040382e-01    0.2461237    0.1614115 -15.40  0.001572338    1.519    0.342
         4 -13.8006    210.3788    246.3564   9.7558753510e+01   1.6371893700e+00      1.42229    0.6101928  36.11  0.009074772    1.724    0.420
         5 -12.6007    147.1599    236.3207   1.0676358006e+02   1.0911317751e+01    0.7281479    0.5714701 -88.53  0.005432518    2.075    0.518
         6 -14.1489    185.0463    236.6340   1.0040154752e+02   5.8383031936e+00     1.710019     1.076322  17.98   0.01208005    1.464    0.317
         7 -10.4861    140.7763    250.5467   1.0927596151e+02   1.0051247942e+01    0.3599617   0.07047603  38.46  0.001529746    3.530    0.717
         8 -14.5818    107.3591    239.1058   1.1396547120e+02   1.5683872545e+01      2.14709     1.186772  40.03   0.01477492    1.326    0.246
         9 -13.4815     35.5872    168.7310   1.2265402614e+02   3.6004592113e+01      1.18165     1.007977 -25.90  0.008404933    1.742    0.426
        10 -14.4920     41.0197    189.6850   1.2288178942e+02   3.1403551685e+01     1.877553    0.9423493 -53.25   0.01062742    2.701    0.630
        11 -14.6021     61.0507    167.1025   1.1670334868e+02   3.3554291251e+01     3.173728     1.851235   9.70   0.01473738    3.350    0.701
        12 -15.3020     85.1361    223.0750   1.1665858188e+02   2.0722014343e+01     1.785715     1.101441 -60.90   0.01111577    2.010    0.502
        13 -15.8726     15.7279    240.5896   1.2975963989e+02   2.5326291869e+01     1.820532    0.5350032  56.34   0.01110553    2.319    0.569
        14 -16.6607     62.3966    241.1125   1.2192779849e+02   2.0649015651e+01     2.674879     1.268373  46.20   0.01840511    1.478    0.324
        15 -15.0654     38.3192    227.4849   1.2543292263e+02   2.5213604193e+01     1.446818    0.6047658  65.94  0.008826887    2.249    0.555
        16 -12.5510    239.1917    222.6548   8.9935741866e+01   1.2308242917e-01    0.3404675    0.1887419   1.19  0.002248604    1.793    0.442
        17 -12.8300    219.2289    214.0252   9.1761903423e+01   3.5624299066e+00    0.9322708     0.566222  -4.04  0.006140316    1.716    0.417
        18 -13.3843    231.8035    200.2331   8.7628122597e+01   3.2217843097e+00     1.554583    0.5915839 -18.99  0.007122133    3.535    0.717
        19 -14.3968    224.7640    194.5360   8.7819723480e+01   4.8086062851e+00     1.909699    0.8037539 -21.63  0.009616912    2.757    0.637
        20 -13.0908    210.2180    205.4896   9.1940431857e+01   5.7131314960e+00     1.319218    0.5779815 -21.94  0.006723815    2.930    0.659
        21 -13.3989    163.1941    234.0981   1.0376344619e+02   9.0347753717e+00     1.110547    0.9521949 -13.39  0.009189045    1.408    0.290
        22 -11.8095    125.4899    207.2608   1.0748235032e+02   1.7821396326e+01    0.6715865    0.3199261  29.79  0.003491659    2.122    0.529
        23 -12.2570    129.0757    199.4135   1.0584402624e+02   1.8501506481e+01    0.8956074    0.7500396 -43.50  0.006378701    1.454    0.312
        24 -12.3443    121.9042    196.1209   1.0685636894e+02   2.0060225271e+01    0.8367732    0.4820964 -30.91  0.004304076    2.888    0.654
        25 -12.9378    114.4984    192.5793   1.0791830923e+02   2.1705372985e+01    0.9013309     0.745883  10.24  0.005765755    1.467    0.318
        26 -13.7631    101.8313    195.5152   1.1083697781e+02   2.2994035749e+01      1.36857    0.8285041  75.42  0.007102859    2.321    0.569
        27 -11.2619    199.5661    204.0128   9.3504651775e+01   7.4149149155e+00    0.3366939    0.2040841 -20.27   0.00210421    1.847    0.459
        28 -12.5046     81.8652    186.2733   1.1401466670e+02   2.7280977253e+01    0.8322004    0.6569759  70.19  0.005743039    1.200    0.166
        29 -10.3200    152.1396    250.3356   1.0736846788e+02   8.6346151486e+00    0.2637739   0.09915677  35.81  0.001514691    1.942    0.485
        30  -9.7008     57.5511    195.0022   1.1985474438e+02   2.8645969524e+01    0.2169354    0.1356598  15.19  0.001242339    2.459    0.593
        31 -11.2025    131.0047    181.6867   1.0309496524e+02   2.1047916883e+01    0.4614741    0.3752686  88.61   0.00293627    1.590    0.371
        32  -9.2835     65.4585    184.4745   1.1734383299e+02   2.9657153821e+01    0.1707297    0.1068265 -70.49  0.000425694    1.698    0.411
        33 -12.1785     69.3450    178.7010   1.1596790089e+02   3.0275542813e+01    0.5180404    0.4583647  17.76  0.002270656    1.426    0.299
        34 -12.4559    214.6006    180.9989   8.7198743549e+01   7.8455885250e+00     0.454118    0.2895481  34.18  0.002805184    1.367    0.268
        35 -13.2742     50.9978    205.2784   1.2187297800e+02   2.7559540048e+01     1.015935    0.5753287  36.44  0.006677134    1.548    0.354
        36 -10.6977    166.8974    176.7006   9.5110493809e+01   1.6078306164e+01    0.2123114    0.1413519  24.51  0.001204948    1.459    0.315
        37 -11.8697    112.9129    172.7523   1.0567829861e+02   2.5375814528e+01    0.5110218    0.4339367  -8.63  0.003253093    1.512    0.339
        38 -10.5863    143.2948    223.5852   1.0604551852e+02   1.3041856754e+01    0.3254034    0.1646969  37.11  0.001759651    1.521    0.342
        39 -11.3318    164.8812    170.8646   9.4520997212e+01   1.7293334610e+01    0.2046096    0.1622237  12.98  0.001253703    1.264    0.209
        40 -11.6436     99.3636    170.4311   1.0835920372e+02   2.7817689581e+01    0.4770521    0.2456912  43.88  0.002461656    1.696    0.410
        41 -12.4012    239.2135    155.3662   7.8434906722e+01   6.9726000341e+00    0.3341894    0.3075165   8.42  0.002379792    1.358    0.263
        42 -12.0633     30.9959    157.0602   1.2287976400e+02   3.8848879374e+01    0.4006696    0.2656077  23.46  0.002503973    1.808    0.447
        43 -12.2046     32.8233    152.0328   1.2205901367e+02   3.9737229304e+01    0.6427402    0.2133949  38.90   0.00305765    2.495    0.599
        44 -12.0094     10.7119    157.0848   1.2763100870e+02   4.0601821022e+01    0.6478261    0.2830419  75.83  0.003016435    2.064    0.516
        45 -12.7755     15.0959    145.0430   1.2592059491e+02   4.2799347508e+01    0.8353895    0.5229461 -84.03  0.004194407    1.377    0.274
        46  -8.3440     13.1674    206.1814   1.2913992208e+02   3.1077305724e+01    0.3704876    0.1367702  36.72  0.002242634    2.097    0.523
        47 -10.4784     53.9989    153.3203   1.1699293516e+02   3.7229087375e+01    0.2684532     0.210358 -45.52  0.001696854    1.615    0.381
        48 -12.9081      2.8469    246.3130   1.3196509962e+02   2.5588103527e+01    0.3391042    0.1596763  55.86  0.001544742    1.386    0.278
        49 -11.0679     23.1572    152.1939   1.2441315000e+02   4.0592383155e+01    0.3303843     0.268263 -16.71  0.002197881    1.860    0.462
        50  -9.5712      1.3358    162.8432   1.2999222282e+02   4.0135923166e+01    0.1502946    0.0801552 -76.95 0.0008661958    1.725    0.420
        51 -11.0684     46.0229    149.9596   1.1862640447e+02   3.8835362846e+01     0.356223    0.2892854 -87.68  0.002310854    1.131    0.116
        52 -11.0477     39.0730    147.3714   1.2011949962e+02   4.0122120711e+01    0.3105831    0.1809691  51.38  0.001353141    1.538    0.350
        53 -10.7641     70.3367    144.7003   1.1189439655e+02   3.7071027075e+01    0.2999691    0.2452496  65.43  0.001035177    1.120    0.107
        54 -11.3018     66.8242    142.3355   1.1248420294e+02   3.8038641999e+01    0.4342247    0.2577792  43.60  0.002257124    1.571    0.364
        55 -11.0484     58.4261    132.1040   1.1335848668e+02   4.1357641072e+01    0.2773102    0.1406692  50.57  0.001340467    1.945    0.486
        56  -9.6428     98.0053    129.2396   1.0226960126e+02   3.6376241534e+01    0.2135213    0.1599576  -3.18   0.00105452    2.018    0.505
        57 -12.2037     73.0022    126.9960   1.0861319826e+02   4.0624209059e+01     0.759289    0.3375485  55.22  0.003049345    2.766    0.638
        58  -9.5345    107.2123    120.8577   9.8203037435e+01   3.6630055403e+01    0.1823135    0.1646811 -10.76 0.0003678229    1.287    0.223
        59 -11.6073     58.1039    117.9378   1.1141963023e+02   4.4648808890e+01    0.5773125    0.4060502 -11.20   0.00291144    2.307    0.567
        60 -12.6934      2.4198     75.8688   1.2423991082e+02   5.9649039504e+01    0.8009537    0.1371797 -76.65  0.002573222    4.381    0.772
        61 -10.1976     52.5076     89.4873   1.0816915411e+02   5.2103817022e+01    0.1361255    0.1210619 -73.44 0.0002121373    1.001    0.001
        62 -10.0593     82.6646     80.3263   9.5717435603e+01   4.9902924406e+01    0.1488127    0.1126835  83.36  0.000693174    1.719    0.418
        63 -11.4007    194.8735     34.6840   5.4492476941e+01   3.1799954231e+01    0.2841837    0.2421009   3.81 0.0009399081    1.231    0.188
        64 -12.1598     15.4683     31.7912   1.0987097214e+02   6.9474130969e+01    0.3221092    0.2269338 -56.65  0.001948455    1.138    0.121
        65 -12.5204    204.3189     28.1848   5.1355762903e+01   3.0190906285e+01    0.7003599    0.5333496 -60.30  0.003683521    1.397    0.284
        66 -11.6430    210.6225     20.4917   4.8390109745e+01   2.9457660308e+01    0.4150715    0.2601652  24.31  0.001009163    2.031    0.508
        67 -14.3952    129.7025    232.3511   1.0940681490e+02   1.3721588907e+01     1.232678     1.161702  86.08  0.008251466    1.371    0.270
