#   1 NUMBER                 Running object number                                     
#   2 MAG_AUTO               Kron-like elliptical aperture magnitude                    [mag]
#   3 X_IMAGE                Object position along x                                    [pixel]
#   4 Y_IMAGE                Object position along y                                    [pixel]
#   5 X_WORLD                Barycenter position along world x axis                     [deg]
#   6 Y_WORLD                Barycenter position along world y axis                     [deg]
#   7 A_WORLD                Profile RMS along major axis (world units)                 [deg]
#   8 B_WORLD                Profile RMS along minor axis (world units)                 [deg]
#   9 THETA_WORLD            Position angle (CCW/world-x)                               [deg]
#  10 FWHM_WORLD             FWHM assuming a gaussian core                              [deg]
#  11 ELONGATION             A_IMAGE/B_IMAGE                                           
#  12 ELLIPTICITY            1 - B_IMAGE/A_IMAGE                                       
         1 -14.3825    159.8663     58.0823   7.3582777416e+01   3.7835995079e+01     1.493292     1.215336  39.41  0.003504726    1.277    0.217
         2 -14.7742    172.7937     43.4189   6.6266199820e+01   3.6751661296e+01     1.277228     1.103114   1.50  0.003793866    1.242    0.195
         3 -15.2105    195.9056     10.1392   5.2015421492e+01   3.4620626073e+01     3.216419     1.273645  65.41  0.009898724    2.354    0.575
         4  -9.8968    133.7939    245.9666   1.1543433868e+02   1.0965052116e+01    0.1032757   0.08397814 -64.98 0.0003881394    1.615    0.381
         5 -10.8987    139.1840    249.2720   1.1490120739e+02   9.7814656597e+00    0.3376794    0.1989017 -49.37  0.001926091    2.352    0.575
         6 -10.8426    138.3941    244.1816   1.1453355321e+02   1.0527215640e+01    0.3609539    0.1431523 -47.01  0.002013852    3.593    0.722
         7 -14.3058    100.7775    244.1324   1.2049182295e+02   1.5802650901e+01    0.6277907    0.5525915  84.63  0.005530674    1.353    0.261
         8 -17.0990     87.0828    180.6170   1.1691914681e+02   2.8002739931e+01     6.276282     2.488346 -48.50   0.02699709    3.811    0.738
         9 -11.2072     30.3946    205.4754   1.2940686499e+02   3.0437893331e+01    0.1312568   0.09260429  33.03 0.0009737249    1.882    0.469
        10 -10.3246    150.8793    243.0886   1.1243842680e+02   8.8358300967e+00    0.1558241    0.1220463  42.54 0.0006811304    1.111    0.100
        11 -10.5317    167.9501    241.8177   1.0959006048e+02   6.4466184957e+00    0.1543856      0.13961  42.38 0.0005553949    1.225    0.184
        12 -12.0945    183.8294    199.9041   1.0144248854e+02   9.1171482843e+00    0.2922069    0.1487332  47.32  0.001560117    1.691    0.409
        13 -11.6032    222.9535    197.9577   9.4569812588e+01   2.7509903175e+00    0.2149654    0.1621749 -28.88 0.0007267829    1.526    0.345
        14 -10.7391    134.1101    198.0559   1.1007624566e+02   1.7737552138e+01    0.2621334    0.2128693 -20.07  0.001694501    1.859    0.462
        15 -12.1407    159.4678    194.5627   1.0496611717e+02   1.4041484861e+01    0.3091978     0.224787  80.55  0.001480447    1.914    0.478
        16 -13.0698    147.5939    185.5406   1.0583455021e+02   1.7484422445e+01    0.4585812    0.3278218 -66.43  0.002735628    1.727    0.421
        17 -12.9173    153.4765    184.7195   1.0460582424e+02   1.6594071904e+01    0.3869642    0.2988577 -66.81  0.002155908    1.580    0.367
        18 -13.6907    151.4683    195.7812   1.0659429228e+02   1.5216874585e+01    0.5602824    0.4624564  20.26  0.003587196    1.436    0.304
        19 -11.0965    108.7802    240.4534   1.1891827938e+02   1.5221839648e+01    0.1555379     0.148472  44.13 0.0008110611    1.468    0.319
        20  -9.4537      8.2363    195.6844   1.3268843066e+02   3.4301036594e+01     0.101683   0.05038954  69.80 0.0003024412    1.504    0.335
        21 -11.2639    180.7060    193.2186   1.0096019064e+02   1.0563959427e+01    0.1910992    0.1573509 -44.90 0.0008781475    1.468    0.319
        22 -11.9360    175.8916    229.5892   1.0686342778e+02   6.6673870152e+00    0.2064372    0.1621227 -20.17  0.001016132    1.690    0.408
        23 -11.1744    131.0784    235.2971   1.1483307318e+02   1.2749766538e+01    0.1883889    0.1479238 -63.88 0.0007791914    1.623    0.384
        24 -11.7601    164.7914    187.1964   1.0288743860e+02   1.4225178613e+01    0.2095486    0.1777404  51.34 0.0006180287    1.082    0.075
        25  -9.7632    145.0195    235.0342   1.1253049390e+02   1.0717267151e+01     0.117249    0.1009225  54.86 0.0003642261    1.157    0.135
        26 -12.6025     38.9433    183.5318   1.2649498054e+02   3.3490682691e+01    0.2037524    0.1661143  78.22  0.001022152    1.162    0.140
        27 -19.1880     50.1695     98.3463   1.1403128243e+02   5.0246126480e+01     16.05422     0.872858 -63.20   0.02664196   15.713    0.936
        28 -10.9244    185.8206    169.1321   9.5973612286e+01   1.3120443835e+01    0.2521254    0.2191519 -49.37 0.0008635636    1.354    0.261
        29 -11.9860    189.3008    178.4954   9.7004204205e+01   1.1105867373e+01    0.4129164    0.3138127  65.21  0.001397958    1.632    0.387
        30 -11.2486    188.3798    174.1704   9.6411661143e+01   1.1898461940e+01     0.308111    0.2444247 -88.83  0.001158702    1.916    0.478
        31 -10.3214    226.3255    178.6837   9.0677102368e+01   4.4360062455e+00     0.109864   0.09925666  81.81 0.0005108286    1.671    0.402
        32 -10.3531    167.7957    177.5350   1.0077961139e+02   1.5171205245e+01    0.1888372    0.1083883  54.98 0.0009459776    1.776    0.437
        33 -10.5079    203.5798    174.3035   9.3732645304e+01   9.0786974882e+00     0.219733     0.120631 -40.86  0.001120835    2.094    0.523
        34 -11.0238    195.4378    172.8209   9.4901625283e+01   1.0785950545e+01    0.2682226     0.239908 -35.38 0.0009957741    1.282    0.220
        35 -10.2574    207.5452    171.0389   9.2442813834e+01   8.7940513207e+00     0.302411    0.1693466 -53.17  0.001383475    2.892    0.654
        36 -10.2982    240.3121    169.3008   8.6666399173e+01   3.1127583387e+00    0.1287161   0.08226978  15.85 0.0002551251    1.607    0.378
        37 -11.6654    230.5031    167.5224   8.7905112555e+01   5.0641958703e+00    0.3410098   0.09674884 -40.03  0.001214614    4.328    0.769
        38 -12.0752     25.1535    165.7419   1.2789044990e+02   3.8337447307e+01    0.2004914    0.1702516  37.99 0.0008223151    1.556    0.357
        39 -14.6881    147.1507    147.3100   9.9474263651e+01   2.4193450998e+01     1.624165     0.972386  88.32  0.005716142    4.141    0.758
        40 -14.3742    133.8016    145.7250   1.0200778881e+02   2.7020092153e+01      1.44811     0.529829 -58.67  0.004865072    3.987    0.749
        41 -13.8137    135.3879    126.5187   9.7817802060e+01   3.0476113500e+01     1.876447    0.3917981 -51.55  0.004603405    6.349    0.842
        42 -11.9569    134.6657    109.3713   9.4071065406e+01   3.4059526263e+01      1.12794    0.1697566 -45.42  0.002568368    6.611    0.849
        43 -11.5369    188.6046    154.1519   9.2611043456e+01   1.4876915413e+01     0.589439    0.3191243  39.69  0.002788397    1.750    0.429
        44 -11.2486    174.5110    148.9365   9.4259875218e+01   1.8520884268e+01    0.2729469    0.2517721  75.79 0.0006267834    1.201    0.167
        45 -11.1533    161.6743    149.6507   9.6946999150e+01   2.0944945589e+01    0.2632196    0.1911143  86.01   0.00105501    2.008    0.502
        46 -11.9672    160.8415    128.0402   9.2605166987e+01   2.4995317759e+01    0.4008609    0.3181762 -76.79  0.001923963    1.575    0.365
        47 -10.9298    231.2655    113.6985   7.6172873410e+01   1.2124471888e+01    0.2547925    0.2188934  11.71 0.0007568351    1.116    0.104
        48 -11.7244    167.8287    112.7189   8.7545087440e+01   2.6291004387e+01    0.4069487    0.3138261 -74.17   0.00158214    1.685    0.406
        49 -17.2394     69.5630    227.3279   1.2424995080e+02   2.2331642336e+01     7.806886     4.940165  85.12   0.05221041    1.502    0.334
        50 -12.9097    121.3412    111.6907   9.7807078350e+01   3.6238810563e+01    0.4224492    0.2871169 -69.30  0.001999675    1.732    0.422
        51 -12.9274    117.3952    109.1974   9.8195983707e+01   3.7516022180e+01     0.379904    0.3136672 -72.15  0.002018633    1.243    0.196
        52 -11.1082    205.5384    110.2420   7.9656873591e+01   1.8248175561e+01     0.376395    0.2425379  38.99   0.00105664    1.586    0.369
        53 -12.1631    129.9789    109.8174   9.5287318144e+01   3.4922318596e+01    0.3236649    0.2786228 -31.24 0.0008595278    1.288    0.224
        54 -12.7870    125.0676    242.9589   1.1653812000e+02   1.2599231352e+01    0.3578512    0.1441651 -55.18  0.001837675    3.237    0.691
        55  -9.7628    124.7803     92.1894   9.2076326509e+01   3.9587085132e+01    0.1925334    0.1745275   2.40 0.0004183787    1.288    0.224
        56 -11.4362     82.1848     91.6520   1.0340941010e+02   4.7447005190e+01    0.3395145    0.1474685  51.27  0.001347275    2.806    0.644
        57 -11.0003     75.5033     86.3851   1.0408339407e+02   4.9629293324e+01    0.2374263    0.2074894  63.57  0.001072943    1.235    0.190
        58 -11.6930    156.0645     80.1062   8.1253081197e+01   3.4963607870e+01    0.7528272    0.4307081  86.10  0.002118415    4.983    0.799
        59 -10.6554    148.5694     81.7364   8.3407239041e+01   3.6419272606e+01    0.2716069    0.1832557  40.66 0.0007182758    1.581    0.367
        60 -11.2886     88.2086     77.9987   9.8133591273e+01   4.9452014984e+01    0.2505355     0.201919  46.92 0.0005113772    1.355    0.262
        61 -10.7774    111.5824     75.7702   9.0848304090e+01   4.5613665822e+01    0.5101113     0.228325  58.45  0.001756959    3.266    0.694
        62 -11.7253    113.4680    207.7087   1.1496700564e+02   1.9423439248e+01     0.259253    0.1694861  65.81  0.001657022    1.457    0.314
        63  -9.7565    160.0000    245.8753   1.1129080466e+02   7.1584169931e+00    0.1313609   0.06196516 -47.95 0.0007961903    2.899    0.655
        64 -13.0654    177.3588     36.2916   6.3118586543e+01   3.6529130796e+01     0.463841    0.4046459 -18.90 0.0008727869    1.155    0.134
        65 -11.4253     14.4152     59.0458   1.1811275965e+02   6.2310213167e+01    0.3061071    0.2019351 -33.33  0.001564692    1.749    0.428
