#   1 NUMBER                 Running object number                                     
#   2 MAG_AUTO               Kron-like elliptical aperture magnitude                    [mag]
#   3 X_IMAGE                Object position along x                                    [pixel]
#   4 Y_IMAGE                Object position along y                                    [pixel]
#   5 X_WORLD                Barycenter position along world x axis                     [deg]
#   6 Y_WORLD                Barycenter position along world y axis                     [deg]
#   7 A_WORLD                Profile RMS along major axis (world units)                 [deg]
#   8 B_WORLD                Profile RMS along minor axis (world units)                 [deg]
#   9 THETA_WORLD            Position angle (CCW/world-x)                               [deg]
#  10 FWHM_WORLD             FWHM assuming a gaussian core                              [deg]
#  11 ELONGATION             A_IMAGE/B_IMAGE                                           
#  12 ELLIPTICITY            1 - B_IMAGE/A_IMAGE                                       
         1 -13.2701    199.6033     28.3217   5.9159301626e+01   3.2440967210e+01    0.6236697    0.5570685 -79.66  0.004310752    1.151    0.131
         2 -11.9417    207.1112     19.5666   5.6514171780e+01   3.1841267478e+01    0.3967208    0.2945201  30.86  0.001132883    2.286    0.563
         3 -12.2890     10.6021     14.1427   1.0241682849e+02   6.9776342295e+01    0.6387362     0.532419  48.23  0.004615997    2.404    0.584
         4 -12.7926      4.4632     21.4108   1.0823333437e+02   6.9339021353e+01    0.6624553    0.5391572 -49.91  0.005004854    1.851    0.460
         5 -12.2968      2.3331      5.6817   1.0284024565e+02   7.1557862413e+01    0.5965074    0.1615441 -37.93  0.002964385    3.256    0.693
         6 -13.1370      8.8347      2.7914   9.8353350186e+01   7.1285757118e+01     1.107685    0.2767444  33.38  0.005186447    3.795    0.736
         7 -11.8055     51.2575     23.5074   8.9243254989e+01   6.3683961005e+01     0.444915    0.2798479 -11.79  0.002719192    1.609    0.378
         8 -12.2242    136.3612     16.0574   6.4938393932e+01   4.7951812525e+01    0.3519626    0.2588115  64.45  0.002195319    1.150    0.131
         9 -10.9611     33.6831     12.1537   9.1407770883e+01   6.7411159483e+01     0.307146    0.1993005  -0.65  0.002072008    1.384    0.277
        10 -13.0336    214.1567     10.6589   5.4064236779e+01   3.1340021308e+01    0.6143501     0.454561 -83.67  0.003332686    1.064    0.060
        11 -11.3660     47.0880      4.3874   8.3044113256e+01   6.6267281241e+01    0.3269356    0.1604593  33.94  0.001935441    1.685    0.406
        12 -10.8809     94.2883      3.1151   6.9159898708e+01   5.7956679550e+01    0.3874285    0.1606518  52.98  0.002004667    1.855    0.461
        13 -10.8786    119.0123      2.4770   6.4044888459e+01   5.2892650154e+01    0.1940484   0.09683845  62.47  0.001045202    1.630    0.386
        14 -11.6758    118.1876    230.7661   1.2005693853e+02   8.8042735894e+00    0.3850515    0.3517356  26.88   0.00125598    1.175    0.149
        15 -14.1415    182.2503    246.0461   1.0874000255e+02  -4.6851835894e+00     1.037796    0.6730276  32.34  0.005668359    1.408    0.290
        16 -12.0804    102.5457    227.9303   1.2311841451e+02   1.1977482590e+01    0.7384095     0.551475  18.97  0.003076591    1.706    0.414
        17 -15.5203    123.4538    241.0200   1.2037635614e+02   5.8036909976e+00     3.031143     1.929129  21.70   0.01393008    1.976    0.494
        18  -9.4241     82.7556    244.4892   1.2944266096e+02   1.1468719900e+01    0.2913929     0.221793  69.93 0.0008850605    1.218    0.179
        19 -10.0411     83.4020    249.8852   1.2991059838e+02   1.0250892828e+01    0.4575854    0.2150317  45.01  0.002201573    1.841    0.457
        20 -10.5666     87.7254    247.8134   1.2879232269e+02   1.0033884729e+01    0.4102922    0.2243346  88.81  0.001816429    2.647    0.622
        21  99.0000     97.1527    193.6587   1.1922421042e+02   2.0850722193e+01     4.458486     3.108383  18.45   0.02058183    1.914    0.478
        22 -14.4287     75.1096    182.9139   1.2297995735e+02   2.6988830792e+01     1.925972     1.279191  17.48   0.00782145    2.087    0.521
        23 -15.6326     63.8844    168.0212   1.2349271911e+02   3.2358768933e+01     4.598279     2.449629 -42.11   0.01927163    2.217    0.549
        24 -14.5199     62.7308    246.7883   1.3376197694e+02   1.3850347737e+01     1.954121     1.428099   4.25    0.0103447    2.538    0.606
        25 -16.0583     60.3228    221.5519   1.3161585458e+02   1.9749354608e+01     4.822648     3.093385 -27.06   0.02127682    3.154    0.683
        26 -14.9403      4.6398    247.8577   1.4473897593e+02   2.0612700224e+01    0.9541463    0.4306056  44.69  0.005539184    1.952    0.488
        27 -15.5782     10.6187    239.4069   1.4314259865e+02   2.1755813291e+01     1.712719    0.7716387  59.64  0.009237769    1.957    0.489
        28 -10.8628    121.5468    198.2910   1.1409763014e+02   1.5536231656e+01    0.4633425    0.3539587   8.17  0.002195445    1.765    0.434
        29 -11.5180      1.5553    197.3679   1.4184775637e+02   3.2004080890e+01    0.4154323    0.1267009 -76.21  0.001593981    2.708    0.631
        30 -12.1773    139.2590    189.8810   1.0832910621e+02   1.4270897851e+01     1.016603     0.764547  13.06  0.004156851    1.703    0.413
        31 -11.6580    151.5543    186.1169   1.0470060855e+02   1.2817382561e+01    0.7181339    0.5175086 -73.95  0.003231802    1.786    0.440
        32 -12.0097    163.0685    189.4180   1.0270700776e+02   9.8901845512e+00    0.5046684    0.3596444 -44.59   0.00241555    1.388    0.280
        33 -12.9236      5.6461    187.8846   1.4017315849e+02   3.3873722272e+01    0.6618585    0.5541722   7.65   0.00322764    1.711    0.415
        34 -10.9830     14.8347    176.7184   1.3699955375e+02   3.5740446682e+01     0.471158    0.2904474 -76.34  0.001746818    1.329    0.248
        35 -12.6163    150.9943    167.7495   1.0106447430e+02   1.7174130125e+01    0.8831437    0.6865056 -47.52  0.003561107    1.256    0.204
        36 -12.1225    127.8836    178.5159   1.0888835729e+02   1.9097315182e+01     1.134733     0.818557  -0.97  0.004810264    2.140    0.533
        37 -12.3864    141.9329    175.9339   1.0493969945e+02   1.7032672522e+01    0.9628813    0.6663523  26.69  0.004277224    1.684    0.406
        38 -14.2381      4.5112    224.1453   1.4324519379e+02   2.5669906913e+01    0.9846172    0.6046636 -87.17  0.006149109    1.299    0.230
        39 -12.8413    171.4521    175.4042   9.7971100536e+01   1.1391550833e+01     0.541123    0.3163496 -36.81   0.00226222    1.816    0.449
        40 -11.0428     96.2684    173.0884   1.1587611403e+02   2.6101029828e+01    0.4973652    0.3836557  35.67  0.002157988    1.378    0.274
        41 -10.4193     35.1931    170.6956   1.3131465774e+02   3.5206486996e+01    0.3003316    0.2245542  71.86   0.00156406    1.369    0.270
        42 -12.1734     24.0135    167.2640   1.3368938865e+02   3.7200755199e+01    0.6115894    0.4568217 -69.80  0.002286066    1.117    0.105
        43 -11.9238      3.6928    157.9745   1.3768039775e+02   4.1196901408e+01    0.5845646    0.3778671 -75.41  0.002668819    1.232    0.188
        44 -10.9693     34.7777    158.7229   1.2977818084e+02   3.8241409847e+01    0.3485474    0.2994351  53.08  0.001527365    1.278    0.218
        45 -11.4899    155.6715    155.1627   9.7215515898e+01   1.9150550878e+01    0.6807189    0.3701651 -48.62   0.00271631    1.785    0.440
        46 -12.4718     98.4295    151.9364   1.1114853659e+02   3.1036927498e+01     1.298895    0.5356182 -45.19  0.004528574    2.510    0.602
        47 -10.9558     46.3563    150.9581   1.2544044854e+02   3.8904800185e+01    0.8492385    0.5178253 -89.68  0.003849077    2.051    0.513
        48 -12.4877     39.2250    150.5241   1.2734405647e+02   3.9816263994e+01    0.9049406    0.6108449  56.71  0.004714255    1.704    0.413
        49 -11.6632    163.6511    144.3172   9.2909280333e+01   1.9961636635e+01    0.7304064    0.3063698 -47.92  0.002565366    2.311    0.567
        50 -14.2893      7.0708    134.2698   1.3389309849e+02   4.6653252368e+01     1.609434    0.8431197 -54.72  0.007342892    1.550    0.355
        51 -10.9728    118.9854    143.7218   1.0380703577e+02   2.9263526423e+01    0.4352456    0.4202799  16.40  0.002311153    1.104    0.095
        52 -11.2233     90.0820    144.5878   1.1190956129e+02   3.4293741744e+01    0.2756317    0.2472099 -42.75 0.0004195388    1.110    0.099
        53 -12.5847    177.3542    138.1321   8.8462845110e+01   1.8427965330e+01     1.116386    0.3792873 -36.09  0.003034084    4.261    0.765
        54 -11.0371     35.7209    137.6603   1.2623592560e+02   4.3377769523e+01    0.3631071    0.2765277  33.99  0.002075297    1.507    0.336
        55 -12.1195     85.3883    129.3948   1.0990380411e+02   3.8797695198e+01    0.7184376    0.4776788 -58.40   0.00333024    1.474    0.321
        56 -12.2760     82.2989    117.0310   1.0790021006e+02   4.2231302598e+01    0.8643869    0.6128015  51.91   0.00416447    1.645    0.392
        57 -11.9041     69.7967    112.2443   1.1058780508e+02   4.5271317576e+01      1.02938     0.458171  48.87  0.003774516    3.113    0.679
        58  -9.6940     98.9741    129.6504   1.0603838667e+02   3.6400040990e+01    0.2697431    0.1995171 -26.54 0.0008288309    1.591    0.372
        59 -13.0349     27.3792    120.7393   1.2576132856e+02   4.8272198561e+01      1.34663    0.6376597 -66.39  0.005388245    1.930    0.482
        60 -11.5001     33.5658    106.3832   1.2095239490e+02   5.1037156422e+01    0.6960536    0.5355057  30.48  0.003920984    1.497    0.332
        61 -13.1154     37.1063     94.7594   1.1713020354e+02   5.3272721651e+01     1.487648    0.8654217 -72.73  0.006847844    2.420    0.587
        62 -11.3856     42.0587    124.5693   1.2196213739e+02   4.5898222940e+01    0.4688042     0.363628  42.12  0.002503747    1.482    0.325
        63 -12.6157     27.1831    218.6099   1.3833317444e+02   2.4548086372e+01    0.6676136    0.4217656  50.96  0.003017333    1.489    0.328
        64 -13.3079     10.2476    106.7051   1.2862871914e+02   5.2875660517e+01      1.39094    0.6453073 -56.05  0.006445264    1.638    0.390
        65 -11.8304      2.6581     99.9981   1.2990236399e+02   5.4853598436e+01    0.6731854    0.2796285 -63.32  0.003314701    1.905    0.475
        66  -9.4835    167.6460    112.3313   8.4392144122e+01   2.6008598359e+01    0.1620107    0.1184247 -83.11 0.0007045584    1.783    0.439
        67 -10.8780     72.4682     98.0245   1.0611837171e+02   4.8036208789e+01    0.2934774    0.2230443  30.37  0.001561117    1.379    0.275
        68 -11.5199     54.0519     89.9838   1.1008460617e+02   5.2335125094e+01    0.8565999    0.6899372 -27.16  0.005023969    1.144    0.126
        69 -11.1315     16.0214     89.3889   1.2325855092e+02   5.6293547972e+01    0.4460243    0.2808324 -25.88  0.002569934    1.599    0.375
        70 -10.3873      6.0931     79.1257   1.2456933790e+02   5.9118631363e+01     0.227755    0.1520237   0.25    0.0014292    1.661    0.398
        71 -10.5192     17.2658     71.9790   1.1866915607e+02   5.9783357750e+01     1.120171    0.3668785  23.64  0.004968153    3.275    0.695
        72 -11.8637     40.3592     58.3712   1.0582231779e+02   6.0071382633e+01    0.6962019    0.5893217 -18.40  0.004681907    1.063    0.059
        73 -12.4644     41.2674     71.8544   1.0958612653e+02   5.7511189451e+01    0.7333856    0.4706697 -52.98  0.002990238    1.621    0.383
        74 -12.7735     34.0878     72.2594   1.1237411827e+02   5.8210839630e+01     0.674886     0.593348  17.84  0.003106806    1.280    0.219
        75 -11.6383     57.4886     64.6155   1.0148331023e+02   5.6773400003e+01    0.4873296    0.3406488 -48.58  0.002743694    1.576    0.366
        76 -11.8412    105.2430     54.6538   8.3304599200e+01   5.0045540693e+01    0.3165302    0.2612899  55.96  0.001839297    1.259    0.206
        77 -10.8937     48.6783     42.7512   9.7371377090e+01   6.1521111255e+01    0.2869246    0.2036303 -27.10  0.001653244    1.312    0.238
        78 -11.0061     81.9308     41.7517   8.5716686685e+01   5.6341836254e+01    0.3169022    0.1877499  29.15  0.001645851    1.706    0.414
        79 -12.6436    192.1371     33.8041   6.1256101516e+01   3.3420500078e+01    0.5830997     0.294111  57.22    0.0029385    1.901    0.474
        80 -13.7106     42.3130    217.6754   1.3507780695e+02   2.2986054092e+01     2.109389     1.107922 -39.16  0.008718847    3.574    0.720
        81  -9.7679     93.9330    246.9370   1.2740422195e+02   9.2743219341e+00    0.4011791    0.2362595  62.25  0.001789561    1.811    0.448
        82 -12.6774     95.3678    239.3291   1.2617653043e+02   1.0645259535e+01    0.9903198    0.5639407  34.50  0.004515077    1.772    0.436
        83 -11.5882      3.2372     32.1277   1.1269512674e+02   6.7846715028e+01    0.4525772    0.3082831 -48.52  0.003157055    1.607    0.378
        84 -13.5774    147.4640    216.9268   1.1132112033e+02   6.7432859531e+00     1.201306    0.7933474  59.19  0.005058561    1.846    0.458
        85 -10.5148     26.6854    227.4486   1.3919236248e+02   2.2608803777e+01     0.280041    0.1800847 -75.41  0.001023948    1.372    0.271
        86  -9.9770    113.3318    222.8588   1.1997775796e+02   1.1330149529e+01    0.2489967    0.1772599  51.34 0.0009295815    1.344    0.256
        87 -11.7176     40.8421     26.8340   9.4472297124e+01   6.4750962940e+01    0.3672241    0.2948108  25.89  0.002152859    1.295    0.228
        88 -10.2426    123.6645    213.1819   1.1611176488e+02   1.1733822974e+01    0.2780007    0.2638671  81.85  0.001281582    1.045    0.043
        89 -11.3736     58.2988     23.1184   8.6605951393e+01   6.2643325565e+01    0.2782531    0.2370138  -4.35  0.001596057    1.175    0.149
        90 -14.5106     52.1212    202.2699   1.3120777026e+02   2.5397440096e+01     1.214579    0.8526279 -55.40  0.005082634    1.480    0.324
        91  99.0000     23.9226    202.7395   1.3756134533e+02   2.8595625725e+01       1.9464          nan  37.92    0.0053072    7.222    0.862
        92 -12.6230      6.3061    207.5080   1.4167194133e+02   2.9237237998e+01    0.5957386    0.3408274 -86.54  0.002636581    1.440    0.305
        93 -12.7591     12.3554    204.1357   1.4015024795e+02   2.9440238362e+01    0.5224875    0.4222753  85.58  0.002309331    1.048    0.046
        94 -10.6654    132.7227    205.6292   1.1273900366e+02   1.1845336488e+01    0.5671834    0.2300842 -45.25  0.002050777    2.679    0.627
