#   1 NUMBER                 Running object number                                     
#   2 MAG_AUTO               Kron-like elliptical aperture magnitude                    [mag]
#   3 X_IMAGE                Object position along x                                    [pixel]
#   4 Y_IMAGE                Object position along y                                    [pixel]
#   5 X_WORLD                Barycenter position along world x axis                     [deg]
#   6 Y_WORLD                Barycenter position along world y axis                     [deg]
#   7 A_WORLD                Profile RMS along major axis (world units)                 [deg]
#   8 B_WORLD                Profile RMS along minor axis (world units)                 [deg]
#   9 THETA_WORLD            Position angle (CCW/world-x)                               [deg]
#  10 FWHM_WORLD             FWHM assuming a gaussian core                              [deg]
#  11 ELONGATION             A_IMAGE/B_IMAGE                                           
#  12 ELLIPTICITY            1 - B_IMAGE/A_IMAGE                                       
         1 -14.2233     68.7271    144.4431   9.8638569029e+01   3.7610225079e+01     3.473476     1.876692  82.43  0.009074935    3.691    0.729
         2 -13.3234    200.4958     42.4559   4.1722846386e+01   3.0135982109e+01      1.07598     1.009684 -71.04  0.003671169    1.154    0.133
         3 -13.5719    210.7861     32.5271   3.8248082494e+01   2.9107783237e+01    0.8940008     0.768711  39.57  0.001728691    1.573    0.364
         4 -12.8949    236.2077      6.7041   3.0643781000e+01   2.6701205057e+01    0.8211727    0.6110885 -79.62  0.004938493    1.078    0.072
         5  -9.3975     43.6848      6.3177   6.5405903275e+01   6.8684651673e+01   0.09831262   0.09570513 -89.42 0.0007038051    1.650    0.394
         6 -10.5630    107.5568    204.2030   9.8093331961e+01   1.7207395002e+01    0.2521712    0.2064154  72.07  0.000885479    1.283    0.221
         7 -10.4634    140.0080    249.6822   9.7204897395e+01   3.1818059564e+00     0.315798     0.182062  48.36  0.001593848    1.696    0.410
         8 -11.4275    129.3563    248.8415   9.9295870464e+01   4.9369468819e+00    0.4944007    0.3665514 -82.14  0.002904428    1.848    0.459
         9 -11.1669    124.9980    248.7670   1.0018955580e+02   5.6074096539e+00      0.50542     0.296143 -38.68  0.002628119    2.277    0.561
        10 -11.4419    115.5027    245.1481   1.0173187391e+02   7.6898017410e+00    0.5407891    0.3457301 -70.15  0.002970164    1.980    0.495
        11 -11.2359    119.9852    245.2737   1.0080769853e+02   6.9907762357e+00    0.3424948    0.2929721  83.77  0.001625841    1.349    0.259
        12 -13.9414     54.4537    186.0184   1.0861056492e+02   2.9226048969e+01      6.52829     2.736887  83.11   0.01748509    6.345    0.842
        13 -17.1520     14.2876    242.6132   1.2193270000e+02   2.1330511346e+01     8.376245     6.035007  88.18   0.05972582    1.232    0.189
        14 -10.1301    111.1537    203.4774   9.7136064435e+01   1.6779512589e+01    0.2616757    0.2013862  70.81 0.0003305001    1.442    0.307
        15 -11.4010    196.5208    203.8219   7.8310055655e+01   2.2300373797e+00    0.4331171    0.2359636  35.44  0.002094184    1.773    0.436
        16 -10.7438    203.2917    200.5828   7.6379562097e+01   1.7001058719e+00    0.2331467    0.2071536   3.58   0.00144337    1.028    0.027
        17 -10.2865    183.9978    212.1780   8.2333227968e+01   2.7925487937e+00    0.2300666    0.1461182   9.41  0.001090433    2.000    0.500
        18 -10.3511    122.3007    198.6900   9.3755045313e+01   1.5959664499e+01    0.3763887    0.2593085 -77.11  0.001255267    1.869    0.465
        19 -10.8710    191.8682    192.9563   7.7241322465e+01   4.9559317868e+00    0.7171894    0.3620771 -58.23  0.002697172    3.367    0.703
        20 -10.5751    110.7194    197.8687   9.6388664851e+01   1.8090186308e+01    0.3832819    0.2526014  -7.39  0.001549802    2.884    0.653
        21  -9.3310     21.1933    195.2308   1.1744465689e+02   3.0797439263e+01    0.2461201    0.1435768  47.76  0.001275486    1.579    0.367
        22  -8.1710     82.9465    195.0000   1.0271549350e+02   2.3145623207e+01    0.2270681   0.07563702  34.40 0.0005264764    2.908    0.656
        23  -9.1122     89.0393    210.5388   1.0330623062e+02   1.8710921535e+01    0.2149096    0.1749831  89.33  0.001233525    1.258    0.205
        24  -9.8008    148.3038    189.6286   8.6101500234e+01   1.3328846146e+01    0.3113856    0.1851729  55.56  0.001325398    2.062    0.515
        25  -9.7268    146.4113    186.2021   8.5913623143e+01   1.4398579901e+01    0.2940191    0.2585028  75.86 0.0007910597    1.315    0.240
        26  -9.8567    118.4417    190.7707   9.3387386452e+01   1.8372262900e+01    0.2627753    0.1450256 -61.66 0.0009297466    2.034    0.508
        27  -9.6290     80.6581    182.5993   1.0154136358e+02   2.6419329589e+01    0.4026113    0.2608575  45.01  0.001977491    1.476    0.322
        28 -15.3165      9.3378    207.4599   1.2089633211e+02   2.9177231735e+01     2.167556     1.132023 -89.72   0.00710462    1.678    0.404
        29  -9.8635     99.2070    180.7691   9.6524734903e+01   2.3932633470e+01    0.2752965    0.2435074  23.29  0.000796522    1.243    0.196
        30 -10.9404     41.3352    177.2038   1.1088907345e+02   3.2934654559e+01    0.7692146     0.440293 -19.90  0.002977266    3.937    0.746
        31 -15.4580     40.8687    195.2124   1.1289160782e+02   2.8692197537e+01     10.34543     4.049934  74.05   0.01765811    5.151    0.806
        32 -10.3122    239.1596    177.7250   6.5493861977e+01  -7.8126200546e-02    0.2806073    0.1102192  38.38  0.001208902    2.809    0.644
        33 -10.4785    186.8120    174.9272   7.4775361250e+01   9.2698494483e+00    0.3876585    0.3201969 -52.13  0.001259485    1.319    0.242
        34  -8.5513     91.3048    176.6685   9.7890592616e+01   2.6195506963e+01    0.1527632    0.1072467  71.62 0.0005263761    1.658    0.397
        35 -11.2337    112.6370    173.3476   9.1819860327e+01   2.3394935151e+01    0.6164729    0.3285541  44.51  0.002575777    1.832    0.454
        36 -13.6781     53.2885    147.3832   1.0364562154e+02   3.8927894822e+01     7.782225     1.643422  47.75    0.0151673   10.738    0.907
        37 -12.5187     80.9494    158.8152   9.7686160939e+01   3.2199179576e+01     1.490644    0.7820553  63.49 0.0008188511    2.889    0.654
        38 -12.8615     69.4656    153.6842   1.0002846382e+02   3.5185487929e+01    0.5921143    0.4159716 -48.66  0.001257187    1.456    0.313
        39  -9.9831     92.5867    249.2538   1.0695025695e+02   1.0291862491e+01    0.2928472    0.1165947  39.41  0.001354417    2.032    0.508
        40 -10.6464    239.5061    169.6811   6.3877243494e+01   1.2004419473e+00    0.3140053    0.1114101  36.32   0.00122179    3.426    0.708
        41  -8.6410    110.5308    167.9688   9.1380452106e+01   2.5040098086e+01    0.2895548      0.14878 -60.81 0.0008505058    2.112    0.527
        42 -11.3841    134.2878    211.5638   9.3017002195e+01   1.1218413862e+01    0.4115809    0.3417748 -75.29  0.002315626    1.424    0.298
        43 -11.4804     88.3966    152.1680   9.4412014195e+01   3.2667909266e+01    0.6520849    0.4565955 -22.64  0.001830178    2.038    0.509
        44 -10.6080    133.7016    145.1772   8.0722137934e+01   2.6024857365e+01     1.203517    0.3087896 -54.54  0.002824739    5.603    0.822
        45  -8.6472    111.0029    149.4719   8.7630239511e+01   2.9390820096e+01    0.3121924    0.1895644  83.17  0.001037044    3.368    0.703
        46  -9.1252    174.8669    149.1845   7.1895107864e+01   1.6771573674e+01    0.2261073    0.2078088 -86.96 0.0006635436    1.235    0.190
        47  -9.7870     37.5545    145.8817   1.0798599535e+02   4.1107652957e+01    0.2772023    0.1539236  50.33  0.001165823    1.956    0.489
        48 -10.2680    102.0598    138.5131   8.7788510721e+01   3.3675243738e+01    0.5573524    0.3668416 -17.46  0.002176488    2.510    0.602
        49 -10.1257    106.0244    131.1708   8.5028037654e+01   3.4716273767e+01    0.4225625    0.3278808 -61.29   0.00151027    1.321    0.243
        50 -11.5721     89.6394    137.7633   9.1204673564e+01   3.6025575618e+01    0.2932589    0.2604728 -39.70 0.0004914598    1.170    0.145
        51 -10.2208    134.8993    128.8267   7.6639308067e+01   2.9513306791e+01    0.4132168    0.3092384 -61.93   0.00190421    1.463    0.316
        52 -11.2870     43.9592    129.0956   1.0345775368e+02   4.4617742763e+01    0.3916726    0.2410067 -64.18  0.001938583    1.458    0.314
        53  -9.6005    111.5990    129.2273   8.3002652244e+01   3.4119208372e+01    0.3200312    0.2490978  23.52 0.0008687202    1.463    0.317
        54  -9.2485    161.3121    128.6638   7.0200785709e+01   2.3921620574e+01    0.1577238    0.1223708 -84.08 0.0007045392    1.686    0.407
        55 -10.6832     38.9820    125.7463   1.0445800794e+02   4.5990018479e+01    0.3379296     0.186198 -64.34  0.001605305    1.606    0.377
        56 -10.1401     98.7877    124.9480   8.5684650714e+01   3.7540722048e+01    0.3187552    0.2703882  -1.40  0.001413429    1.404    0.288
        57 -10.0341    118.0865    123.1725   7.9748354055e+01   3.4256101764e+01     0.498223    0.2975801  17.74  0.001755591    2.897    0.655
        58  -8.7989    163.4039    121.2252   6.7934271113e+01   2.5030036344e+01    0.2174897    0.1419175 -53.77 0.0007193795    1.611    0.379
        59  -9.2770     87.1163    120.5062   8.8158899322e+01   4.0661251356e+01    0.3501196    0.2285434  61.35  0.001488985    1.996    0.499
        60 -11.6372     32.9614    118.5455   1.0517507068e+02   4.8374662919e+01    0.4700118    0.2895533 -55.81  0.001933406    1.409    0.290
        61 -11.3150     33.2753    109.4185   1.0344060890e+02   5.0571598237e+01    0.4569731    0.2490555 -74.33  0.002107236    1.954    0.488
        62 -11.5375     68.5779    171.6311   1.0308257240e+02   3.0844511212e+01    0.5493034    0.3432995 -29.44  0.002358729    2.508    0.601
        63  -9.9640    231.2475    113.7072   5.3669075627e+01   1.2282067091e+01    0.2572463    0.2390656 -68.90 0.0007225872    1.116    0.104
        64  -9.2498    107.8645    118.3453   8.1447057380e+01   3.7391768706e+01    0.2282135    0.2065453 -64.53 0.0002963686    1.129    0.114
        65  -9.4230    205.5299    110.2070   5.7004227644e+01   1.8061942881e+01    0.2477867    0.2041502  55.84 0.0006608644    1.301    0.231
        66 -10.3160    245.8093    108.6244   5.0535762562e+01   1.0429372198e+01    0.2603815   0.09048229 -37.35  0.001017131    2.601    0.616
        67 -10.2130    115.6326    108.7052   7.6768633967e+01   3.8034039875e+01    0.3213261    0.2447721  -5.06  0.001438376    1.793    0.442
        68  -9.1821     59.6769    108.6730   9.4280579443e+01   4.7705636044e+01    0.1500403     0.103454 -27.70 0.0007048726    1.691    0.408
        69 -11.2624     72.8533    166.9685   1.0123651451e+02   3.1386346066e+01    0.3166139    0.2707238 -44.21  0.001744164    1.291    0.226
        70  -9.3465    134.6794    106.1498   7.0970671645e+01   3.4538760317e+01     0.318056    0.1369112 -50.85  0.001091726    2.536    0.606
        71 -11.3876     41.5068    103.6545   9.9442202742e+01   5.1117070887e+01     0.424392    0.2895603  39.87  0.001824286    1.634    0.388
        72  -8.6105    137.4225    104.1958   6.9755891838e+01   3.4345504314e+01    0.2100663     0.145877 -55.46 0.0005125835    1.544    0.352
        73 -10.0595    241.2241    102.3939   4.9852345575e+01   1.2304238727e+01    0.1715424     0.124617  76.22 0.0009544578    1.673    0.402
        74 -11.2632     32.7772     99.8055   1.0174023353e+02   5.2921110597e+01    0.4427321    0.2319947  31.79  0.002141757    2.079    0.519
        75  -9.0322    120.6591     98.3365   7.2575939416e+01   3.9228023486e+01    0.1593667    0.1227514  89.75 0.0007050665    1.761    0.432
        76 -13.3943     20.5777    220.8791   1.1942692493e+02   2.5156224988e+01    0.8208063    0.4824994  62.77  0.003020694    1.441    0.306
        77 -10.4153     15.2641     89.6056   1.0614639265e+02   5.6748456162e+01    0.3885854    0.1409569  34.11   0.00167745    3.079    0.675
        78  -8.9853     74.9309     85.1498   8.2975335124e+01   5.0792698435e+01    0.2060705     0.191879  71.69  0.000444504    1.262    0.207
        79  -8.6966    150.9944     82.9536   6.0744914938e+01   3.5422869077e+01    0.2279543    0.1760316 -79.19 0.0004227537    1.569    0.363
        80  -9.5484    112.4555     82.1751   7.0236302544e+01   4.4266677422e+01    0.4141269    0.2567983  70.76  0.001586639    2.659    0.624
        81  -8.7591     69.9302     81.7274   8.3733547716e+01   5.2327283640e+01    0.1892763    0.1751156  28.68 0.0004517835    1.129    0.114
        82  -8.6475    159.0208     82.7679   5.8963307149e+01   3.3574329586e+01     0.195539    0.1221675  55.41  0.000377699    1.584    0.369
        83  -9.2267     55.5365     66.0319   8.4309537935e+01   5.7694936246e+01    0.1914507    0.1707705   2.04 0.0003162413    1.075    0.070
        84 -10.8658     12.9993     59.9094   1.0044226026e+02   6.3412706158e+01    0.3608944    0.2232858   2.88 0.0007727678    1.766    0.434
        85 -12.7690    189.7040     50.4042   4.5087236313e+01   3.1531491617e+01    0.8996142    0.7539126  44.38 0.0009842644    1.412    0.292
        86 -11.0630    139.7380    243.0027   9.6379700396e+01   4.3780322759e+00    0.3455021    0.2302573 -67.79  0.001874237    2.068    0.516
        87  -9.7835     14.9671     31.9999   9.0767499866e+01   6.8574640742e+01    0.1447381    0.1144495  -9.78 0.0004984458    1.095    0.087
        88  -9.9430    142.0693    208.5190   9.0774001039e+01   1.0520429816e+01    0.2182786    0.1280062  37.65 0.0006570404    1.564    0.361
        89  -8.8950    189.6750     14.9631   3.6390453841e+01   3.5966129248e+01    0.1731481    0.1486643 -69.64 0.0005390898    1.108    0.097
        90 -10.7215    154.5266    228.0175   9.1110588138e+01   4.7269683219e+00    0.3295098     0.158026  31.25  0.001471503    1.992    0.498
