#   1 NUMBER                 Running object number                                     
#   2 MAG_AUTO               Kron-like elliptical aperture magnitude                    [mag]
#   3 X_IMAGE                Object position along x                                    [pixel]
#   4 Y_IMAGE                Object position along y                                    [pixel]
#   5 X_WORLD                Barycenter position along world x axis                     [deg]
#   6 Y_WORLD                Barycenter position along world y axis                     [deg]
#   7 A_WORLD                Profile RMS along major axis (world units)                 [deg]
#   8 B_WORLD                Profile RMS along minor axis (world units)                 [deg]
#   9 THETA_WORLD            Position angle (CCW/world-x)                               [deg]
#  10 FWHM_WORLD             FWHM assuming a gaussian core                              [deg]
#  11 ELONGATION             A_IMAGE/B_IMAGE                                           
#  12 ELLIPTICITY            1 - B_IMAGE/A_IMAGE                                       
         1 -14.4831     69.1889    145.5250   1.0820402584e+02   3.6730333938e+01     3.947231     1.783698  66.11  0.003931829    5.026    0.801
         2 -14.3659    202.4545     34.8952   4.6847621094e+01   3.0056936854e+01     2.081372     1.450726  31.52  0.008216992    1.897    0.473
         3 -14.1776    216.9193     19.6876   4.1213235442e+01   2.8369522802e+01     1.096447    0.9752983   1.28  0.003181115    1.433    0.302
         4 -11.0220      2.2200      5.9467   9.6888511603e+01   7.3469293105e+01    0.5788786    0.0407876 -49.30  0.001722121    6.983    0.857
         5 -11.2393     58.0721      6.8287   6.9289256427e+01   6.6753164421e+01    0.2276773    0.1916994  55.42 0.0008980209    1.699    0.412
         6 -10.9137     53.8594      4.8305   6.9950936079e+01   6.7670028863e+01    0.1686122    0.1533213 -45.74 0.0004447157    1.701    0.412
         7 -11.1324    239.5875      1.5829   3.5019294593e+01   2.5104973952e+01    0.5702991    0.1336232  74.46  0.002034509    4.055    0.753
         8  -9.6088    147.3077    184.6944   9.5855065641e+01   1.4667245627e+01    0.1420073    0.1099933  72.81 0.0002295266    1.608    0.378
         9 -11.3903    138.6900    247.6451   1.0692282136e+02   4.9009535173e+00    0.2402947    0.2126673 -10.38  0.001687627    1.457    0.313
        10 -10.5941    139.0236    250.4948   1.0719816475e+02   4.4113865495e+00    0.2844491    0.1451692  39.62  0.001234106    1.561    0.359
        11 -10.8787    134.6527    250.3244   1.0799589643e+02   5.1131590532e+00    0.2913853    0.2009976  58.58  0.001490682    1.451    0.311
        12 -14.9580     86.3776    226.9987   1.1471195758e+02   1.6403656643e+01     3.280488     1.172118  52.07  0.002093803    2.619    0.618
        13 -14.6319     46.6398    223.1035   1.2197799184e+02   2.2388374826e+01     1.351359     1.171319  55.90  0.001826751    1.285    0.222
        14 -15.7315     69.8956    248.2872   1.1966408651e+02   1.4816869363e+01     8.577094     2.631208  30.78   0.01809928    7.947    0.874
        15  -9.4193     99.3796    180.8991   1.0623116540e+02   2.3909696429e+01    0.1872004     0.167538 -73.96 0.0005990723    1.128    0.113
        16 -12.1117     66.5380    178.7708   1.1356984180e+02   2.9248271643e+01     0.416226     0.275439 -42.16  0.002165684    2.023    0.506
        17 -11.9635     71.2000    173.5210   1.1181358708e+02   2.9815134915e+01    0.3312069    0.2585835 -43.54 0.0008328873    1.573    0.364
        18 -13.8765     57.4597    129.5344   1.0874632485e+02   4.2151374467e+01     2.482446    0.8136557 -73.00  0.006668691    5.490    0.818
        19 -12.5019     80.6658    163.6367   1.0811593229e+02   3.0763798951e+01    0.8044207    0.3448095  41.89 0.0005870362    2.263    0.558
        20 -13.4707     67.7540    159.8894   1.1077300496e+02   3.3474752763e+01    0.4939752    0.3406188 -50.30  0.001189227    1.552    0.355
        21 -10.3155    194.1495    249.6667   9.6818065213e+01  -4.0356408759e+00    0.2477229   0.08745845  43.67   0.00109574    2.578    0.612
        22 -10.5126    174.5096    149.0250   8.2427192914e+01   1.6492769275e+01    0.2829024    0.2689052  50.40  0.001011107    1.113    0.102
        23 -11.2812    133.5824    141.6335   9.0483128346e+01   2.6627231793e+01    0.8688338     0.262886 -53.56  0.002423529    3.993    0.750
        24 -11.7959     38.5914    145.9612   1.1628139427e+02   4.0275833369e+01    0.3449733    0.1645056  40.51  0.001685593    2.175    0.540
        25 -11.8769     26.8272    137.9957   1.1834861146e+02   4.3305546907e+01    0.3717006    0.1848879  46.24  0.001892519    2.149    0.535
        26 -11.9792     28.5301    143.6023   1.1856824140e+02   4.1816063068e+01    0.3144986     0.283435  65.57  0.002152822    1.208    0.172
        27 -11.6622     34.6170    139.5035   1.1649439732e+02   4.2222022865e+01     0.274497    0.2226728  80.84  0.000929034    1.161    0.139
        28 -12.3200     88.6343    141.5009   1.0227564309e+02   3.4833788814e+01    0.2952289    0.2526607 -48.23 0.0002533158    1.198    0.165
        29 -10.0055     83.1009    142.8537   1.0401895624e+02   3.5368337580e+01    0.2644399    0.1853803  58.34 0.0004643003    1.543    0.352
        30 -10.6736    101.4975    141.2345   9.8765369580e+01   3.2760761545e+01    0.5716472    0.3428358 -26.58  0.002159307    2.842    0.648
        31 -10.2519     40.3738    134.6189   1.1429649949e+02   4.2827164306e+01    0.2079158    0.1389583  75.22 0.0008893983    1.620    0.383
        32 -12.0857     69.5149    134.1309   1.0616204682e+02   3.9462744822e+01    0.5882759    0.2761633  48.39  0.002438567    2.397    0.583
        33 -11.2906     67.1815    125.1507   1.0515879792e+02   4.1977702724e+01    0.2579713    0.2288605 -61.10  0.001498056    1.044    0.042
        34 -10.2375    110.7914    131.1763   9.4105149853e+01   3.3485796096e+01    0.3708086    0.2477403  21.27  0.001020566    1.980    0.495
        35 -10.2123    105.9311    130.6909   9.5324200774e+01   3.4492806115e+01     0.344431    0.3000211 -70.56  0.001302079    1.159    0.137
        36  -9.6457    201.9737    168.6892   8.0928613465e+01   7.1630633156e+00    0.2405042    0.1040495  26.22 0.0007044676    4.249    0.765
        37 -10.0769    160.9952    128.0050   8.0513998800e+01   2.3797216438e+01    0.1962227    0.1913521 -18.39  0.001023109    1.010    0.010
        38  -9.6391    126.1102    127.9078   8.9232311394e+01   3.1274742097e+01    0.2626134    0.1817998 -77.79 0.0008247385    2.072    0.517
        39 -11.0104     98.0067    127.5442   9.6826695742e+01   3.6647987562e+01    0.2978764    0.2572961 -12.62 0.0006373705    1.385    0.278
        40 -12.2175     37.2715    126.4840   1.1397638351e+02   4.5110219623e+01    0.4057416    0.2149154 -56.37  0.002041847    1.629    0.386
        41 -13.7972     10.5039    188.6761   1.2653014806e+02   3.3232945816e+01    0.7260975    0.6070441  -2.41  0.001369171    1.971    0.493
        42 -10.6096    117.0291    125.5443   9.1102108241e+01   3.3623567280e+01    0.3604453    0.2139933 -51.12  0.001517428    1.650    0.394
        43 -11.3584    135.2828    121.4561   8.5234907900e+01   3.0841372114e+01    0.7805907    0.1363926 -49.41  0.001536111    7.349    0.864
        44  -9.8575    107.5730    119.8992   9.2365082542e+01   3.6750506944e+01    0.2249488    0.2046874  20.36 0.0003337934    1.195    0.163
        45  -9.4686    161.5138    166.0063   8.9042731575e+01   1.5710280151e+01    0.1982708    0.1336689 -73.05 0.0008078468    2.374    0.579
        46  -9.6526    126.0635    155.0628   9.5228122790e+01   2.5050072920e+01    0.2125857    0.2075573  77.71 -0.001320134    1.009    0.009
        47  -9.8844    168.3956    113.1897   7.4981328553e+01   2.5205881764e+01    0.3542729    0.2606421 -80.51  0.001223419    2.016    0.504
        48 -10.0199    205.6132    110.1529   6.6465682151e+01   1.7184710463e+01    0.2768807    0.2212372  40.50 0.0005908759    1.316    0.240
        49 -13.7539     40.4952    206.8896   1.2191468622e+02   2.6357224358e+01    0.6408386    0.5394843  83.72  0.001390029    1.148    0.129
        50 -10.0095    134.5924    106.2359   8.1397984026e+01   3.4366096693e+01    0.2306734    0.1490217 -33.89   0.00095467    1.645    0.392
        51 -13.4244     52.9745    147.0245   1.1270361728e+02   3.8431859034e+01    0.7606419    0.5410649  43.47  0.004290092    1.485    0.327
        52 -15.0573     50.4532    195.7370   1.1893448732e+02   2.7537835906e+01     1.864861     1.250111  77.52  0.008182045    1.337    0.252
        53 -12.3441     86.8800    156.9695   1.0549078930e+02   3.1399432482e+01    0.6921531    0.4636399 -33.63  0.001259272    2.051    0.512
        54 -10.4476     41.7475     91.9649   1.0635698595e+02   5.2979226583e+01    0.1999279    0.1919354 -18.74 0.0004400685    1.177    0.150
        55 -10.5531     53.1904     90.6838   1.0216879009e+02   5.2037664533e+01     0.250059    0.1835431 -52.61  0.001374346    1.171    0.146
        56  -8.8323     74.7111     85.2774   9.3436856946e+01   5.0389325121e+01    0.1331571    0.1130406  86.66 0.0002050878    1.519    0.341
        57  -8.8354    158.6707     81.2962   6.8205023745e+01   3.3821942851e+01    0.1595418    0.1253534 -78.10 0.0003759447    1.635    0.388
        58  -9.3077     69.9825     81.5515   9.3986957228e+01   5.1926328165e+01    0.1959866    0.1403276  33.16 0.0004953095    1.530    0.347
        59 -16.6903     11.2646    241.0990   1.2917976142e+02   2.2879924698e+01     3.107576      2.42803 -83.18   0.02391947    1.414    0.293
        60 -10.0328     13.5025     59.8668   1.0945502001e+02   6.2498578029e+01    0.1812771    0.1576261 -30.26 0.0003754036    1.183    0.155
        61 -12.8673    193.5145     41.3659   4.9870379738e+01   3.1445056168e+01    0.6786397    0.5692911  42.33  0.001054556    1.306    0.234
        62 -15.4436      9.3837    207.3911   1.2784496815e+02   2.9464948616e+01     2.327905      1.44703 -39.91  0.005121723    3.119    0.679
        63 -12.4370    211.2702     25.9704   4.3416413459e+01   2.8995646299e+01    0.4527415    0.3731219  37.67   0.00127549    1.473    0.321
        64 -15.9244      4.0814    179.6232   1.2724164422e+02   3.5717317829e+01     6.426969     1.105744 -71.59   0.02292723    3.916    0.745
        65 -10.9055    143.0096     48.1329   6.1215310049e+01   4.3330906163e+01    0.3938483    0.2559147 -72.18  0.001161824    2.485    0.598
        66 -10.1335    145.8005     42.4257   5.8679774373e+01   4.3466810644e+01    0.2648548    0.2186641 -64.34 0.0006422409    1.407    0.289
        67 -10.3630      2.1288     24.7160   1.0451620282e+02   7.0212504412e+01    0.1929668    0.1273255 -54.99 0.0006485037    1.385    0.278
        68  -9.7637    189.5193     15.0578   4.3029411730e+01   3.5645899020e+01    0.1930855    0.1337642 -30.09 0.0005556694    1.537    0.349
        69 -12.8099    184.5527    214.1361   9.3111971673e+01   2.6295165202e+00    0.6263486    0.3768048  23.50  0.003140442    1.752    0.429
        70 -11.8646    193.1806    194.3287   8.7845016912e+01   4.3573682006e+00    0.8994479    0.4827393 -58.74  0.003405175    3.669    0.727
        71  -9.4382     71.4947    185.9760   1.1331777429e+02   2.6956087381e+01    0.1840196    0.1192862 -72.15 0.0004248601    1.481    0.325
