#   1 NUMBER                 Running object number                                     
#   2 MAG_AUTO               Kron-like elliptical aperture magnitude                    [mag]
#   3 X_IMAGE                Object position along x                                    [pixel]
#   4 Y_IMAGE                Object position along y                                    [pixel]
#   5 X_WORLD                Barycenter position along world x axis                     [deg]
#   6 Y_WORLD                Barycenter position along world y axis                     [deg]
#   7 A_WORLD                Profile RMS along major axis (world units)                 [deg]
#   8 B_WORLD                Profile RMS along minor axis (world units)                 [deg]
#   9 THETA_WORLD            Position angle (CCW/world-x)                               [deg]
#  10 FWHM_WORLD             FWHM assuming a gaussian core                              [deg]
#  11 ELONGATION             A_IMAGE/B_IMAGE                                           
#  12 ELLIPTICITY            1 - B_IMAGE/A_IMAGE                                       
         1 -12.5311    230.8043     61.5960   7.6151468774e+01   1.9768403157e+01     3.797091    0.9104151 -38.81  0.006429571    4.169    0.760
         2 -10.1905    215.3228     22.9355   6.6843010244e+01   2.8002534391e+01     1.284626    0.5316151 -25.85  0.004333162    2.186    0.543
         3 -11.7694    214.7402     40.4486   7.2227047102e+01   2.6224478135e+01      1.12941    0.9280882  50.71  0.004525812    1.246    0.197
         4 -11.5528    161.2804     50.2456   8.4404094941e+01   3.8582302536e+01     1.936573     1.143209 -80.87  0.005997066    4.210    0.762
         5 -11.4668    224.1789     32.2781   6.8590328317e+01   2.4781738827e+01    0.9104707    0.5972109  42.11  0.004371195    1.596    0.374
         6  -9.0699    236.8221      3.2790   5.8990113728e+01   2.4473855442e+01    0.3188816     0.283974  71.86  0.001223957    1.181    0.153
         7 -11.8123    240.8857     14.9646   6.1888865657e+01   2.2442585764e+01     1.231537     0.531961 -58.42  0.002197525    3.239    0.691
         8 -11.6438    245.9440      4.9642   5.8729526802e+01   2.2144477315e+01    0.8768197    0.6990687  68.07  0.002897265    1.337    0.252
         9 -10.6332    128.8615     22.6572   8.1142498940e+01   5.0496559161e+01    0.7361265    0.2583453  36.65  0.002118314    4.153    0.759
        10  -9.2915    201.9779     16.9812   6.6582069977e+01   3.2064001276e+01    0.6836137    0.2792957 -52.22  0.002237781    3.424    0.708
        11  -9.4773    222.6562     15.0887   6.3680532820e+01   2.6916785002e+01    0.7403079    0.3904991 -57.39  0.002946823    2.326    0.570
        12 -10.2139    125.4974     14.7878   7.8594706166e+01   5.2284767542e+01    0.3519929    0.2132808  43.97  0.001603397    1.593    0.372
        13 -11.1116    119.3825     10.0781   7.7934660183e+01   5.4302680568e+01    0.7278611    0.5059026  35.81  0.003031091    1.390    0.280
        14 -10.2706    142.0672      9.4098   7.2904556476e+01   4.8705069684e+01     0.571054    0.2753628  30.02  0.002125019    2.485    0.598
        15  -9.6606    191.7616      6.2741   6.4316280515e+01   3.5777557787e+01    0.8602304    0.2962931 -37.46  0.003012395    2.797    0.642
        16 -10.8412    181.8774      3.8469   6.4690357625e+01   3.8636422860e+01    0.9729055    0.6193735  69.93   0.00434747    1.575    0.365
        17 -10.0578    211.4877      3.1689   6.1206632344e+01   3.0853154291e+01     0.612872    0.2192379 -42.90  0.001295932    2.850    0.649
        18  -8.8875      1.6241      8.2047   1.2448351662e+02   7.2860910928e+01    0.1733546   0.07072785 -52.21  0.000949983    1.659    0.397
        19  -9.9270    172.4931      2.8204   6.5536157782e+01   4.1247947239e+01    0.4512302    0.3336273  71.55  0.001474057    1.376    0.273
        20 -10.3998    195.0731    131.1509   1.0016484869e+02   1.8033548925e+01    0.3990826    0.3346339  47.85  0.002279226    1.248    0.199
        21  -9.6979    236.2794    109.2095   8.7810779880e+01   1.2526896174e+01    0.3388235    0.2804935  87.28  0.001828044    1.889    0.471
        22 -11.5361    240.7947    123.3057   9.0432292472e+01   9.8643711005e+00    0.6892565    0.4532526 -30.95 0.0009372422    1.543    0.352
        23  -8.6645    126.7515    126.0919   1.1341060938e+02   3.2367787016e+01    0.2106246    0.1808567  50.34 0.0002968047    1.133    0.117
        24  -9.5530    185.5141    120.1990   9.9482934656e+01   2.1701814952e+01    0.2744671    0.1951314  45.16  0.001394051    1.356    0.263
        25  -8.8922    213.8587    115.5356   9.3088990756e+01   1.6380519640e+01    0.2814372    0.1774155 -44.93  0.001316726    1.939    0.484
        26 -12.2369    243.2136    106.4510   8.6064210109e+01   1.1447332021e+01     1.510123    0.4531939 -25.78   0.00528817    3.150    0.683
        27  -9.2971    168.0182    113.9835   1.0154684143e+02   2.6431215734e+01    0.3103909    0.2729779 -77.14 0.0009713518    1.436    0.304
        28 -10.2039    186.1683    108.7015   9.6547872098e+01   2.3385733023e+01    0.5411202    0.2284856 -36.77   0.00143135    2.372    0.578
        29 -10.0235    189.2693    103.3787   9.4585026922e+01   2.3541437692e+01    0.4220879    0.3163284  79.38  0.001286349    1.998    0.499
        30  -8.5767    148.8997     95.8636   1.0113310865e+02   3.3735044155e+01    0.2317933    0.1956972  10.96 0.0006728816    1.297    0.229
        31  -8.0518    134.8227     94.0996   1.0398844691e+02   3.7020564426e+01    0.2225902     0.198986 -83.23   0.00107944    1.300    0.231
        32  -9.3737    231.2467     24.8380   6.5626398820e+01   2.3816265091e+01    0.3884109    0.3284564 -68.56  0.001753949    1.308    0.235
        33  -9.2912     63.3491    247.1963   1.3936518505e+02   2.1010339778e+01    0.1575221    0.1135792  51.03   0.00034289    1.189    0.159
        34  -7.5259    172.6979    243.6872   1.2229658878e+02   7.3375490932e+00    0.1000692    0.0650906  23.64  0.000319399    1.612    0.379
        35  -8.2152     88.4455    243.4785   1.3535998065e+02   1.8607800943e+01   0.09707762   0.06885635  55.20 0.0008077456    1.005    0.005
        36  -7.9237    157.4915     88.5058   9.7168823635e+01   3.3174446562e+01    0.2260015    0.1364531  37.89 0.0009671614    1.741    0.426
        37  -8.9519    160.4852     86.0523   9.5812104070e+01   3.2927318926e+01    0.3046773    0.2157277 -27.81 0.0009461772    1.425    0.298
        38  -9.4933    249.8086     86.2317   8.0066681423e+01   1.2534393041e+01    0.2792486    0.2364316 -44.61   0.00160319    1.398    0.285
        39 -11.3375    174.7115     56.4886   8.3803945435e+01   3.4287353251e+01    0.7152135    0.4218002  -3.56  0.001891082    2.284    0.562
        40  -8.1787    130.4717    234.4501   1.2801071527e+02   1.4332473804e+01     0.103901    0.0770697  46.32 -6.860992e-07    1.030    0.029
        41 -10.9322    175.6263     73.8927   8.9055289553e+01   3.1395928211e+01     0.951196    0.7770451  73.29  0.001610433    1.490    0.329
        42  -9.0869    142.4536     84.7674   9.9569537003e+01   3.7172113405e+01    0.3240475     0.263172 -44.78  0.000786263    1.248    0.199
        43  -8.9870    249.9973     80.8832   7.8674412100e+01   1.3131922290e+01    0.2242175    0.1990749  57.09 0.0008119174    1.340    0.254
        44  -8.0817    229.3348     77.9099   8.0846983796e+01   1.8056653999e+01    0.2421755    0.2053931  85.60 0.0006483647    1.561    0.359
        45 -10.3529    157.3362     76.1002   9.3583922614e+01   3.5369353948e+01    0.4011608    0.3002695 -37.29  0.001186548    1.322    0.244
        46  -9.1057    208.2087     67.2520   8.1170003757e+01   2.4443344059e+01    0.6794496    0.3611178 -65.46  0.001945381    5.096    0.804
        47  -9.4419    182.4436     67.4754   8.5777519999e+01   3.0727597683e+01    0.2904477    0.2695351   1.96 0.0002774779    1.011    0.011
        48  -7.8827    155.8718     64.8878   9.0412600625e+01   3.7603063157e+01     0.196839     0.175603 -53.93            0    1.251    0.201
        49  -8.9140    208.3067     61.6673   7.9519242663e+01   2.5170487327e+01    0.6877474    0.3083237 -55.92  0.001872255    5.198    0.808
        50  -9.0495    203.9459     57.2317   7.8893987222e+01   2.6838091436e+01    0.5582964    0.2654209 -52.97  0.001850851    3.330    0.700
        51  -9.9740    192.6037     59.4463   8.1463249087e+01   2.9370338499e+01    0.3623849    0.3445002   7.33  0.001015541    1.032    0.031
        52 -10.1745    197.7664     54.7379   7.9138961533e+01   2.8718089575e+01    0.5440718    0.3464516  17.51  0.001191823    1.929    0.482
        53  -8.7309    134.0848     50.1905   9.0508343184e+01   4.5174361300e+01    0.2678101    0.2046184 -36.34 0.0002435522    1.278    0.218
        54 -10.0433    248.6940     46.5261   6.9751799156e+01   1.7377328343e+01    0.4141982    0.2693962  -2.07  0.002021339    1.625    0.385
        55  -9.1758    239.5116     47.4958   7.1093036226e+01   1.9387908762e+01    0.2813565    0.1618883  11.78  0.001170676    2.263    0.558
        56  -9.3505    237.0395     42.8711   7.0099644925e+01   2.0489652085e+01    0.4172417    0.1682408  50.99  0.001637107    2.483    0.597
        57  -7.8449    189.4905     42.4734   7.6621607535e+01   3.2438099848e+01    0.1526105     0.144352   1.56 0.0001062864    1.006    0.006
        58 -10.9804    185.2660     85.2121   9.0450408989e+01   2.7315509729e+01     1.060158    0.3990772 -41.45  0.003610018    2.845    0.648
        59  -9.8927    237.4272     35.4707   6.7975572392e+01   2.1206931794e+01      0.50081    0.2728047  -8.69  0.001777497    1.997    0.499
        60  -9.2175    232.7773     36.0032   6.8657148641e+01   2.2267645515e+01    0.3982288    0.2148791 -49.03  0.001032649    2.100    0.524
        61 -10.3904    133.4992     38.0557   8.6168917955e+01   4.7225376722e+01    0.4174469    0.2862106  33.53  0.001713676    1.533    0.348
        62  -7.9183    242.7563     36.6149   6.7704674573e+01   1.9822849033e+01    0.1723356    0.1367859  87.41 0.0005392206    1.506    0.336
        63  -9.0772    248.9652     36.3072   6.6956150459e+01   1.8413538547e+01    0.2743023    0.2429728  68.21  0.001621169    1.268    0.211
        64  -7.4945    189.5760     34.7494   7.4084454332e+01   3.3373531764e+01    0.2204929    0.1327123 -34.08 0.0009492974    1.613    0.380
        65  -8.4981     41.0502    225.3385   1.4158939138e+02   2.6468973688e+01    0.1461826    0.1046805  76.92 0.0004888174    1.178    0.151
        66  -7.6835    181.9474     34.7918   7.5318123205e+01   3.5365418765e+01    0.1969283    0.1207709  59.68 0.0004116516    1.644    0.392
        67  -7.8352    161.5153     27.3327   7.6237927543e+01   4.1635395449e+01       0.2105    0.1438814  -2.82 0.0009346672    1.584    0.369
        68 -10.4625    143.4605     26.4684   7.9450453833e+01   4.6388837421e+01    0.3365028    0.2616159  45.04  0.001674707    1.259    0.206
        69  -8.3878    118.3199     26.3229   8.5248437227e+01   5.2495116652e+01     0.157116    0.1070296  17.04 0.0003495225    1.673    0.402
        70 -12.0800      7.3211    215.2170   1.4636098673e+02   3.1164856124e+01    0.6459627     0.437019  72.59  0.004152696    1.075    0.070
        71  -7.4818     60.2636    202.6620   1.3705524647e+02   2.7938348245e+01    0.1054788    0.0594133  68.00 0.0003574582    1.588    0.370
        72 -12.3947     38.5543    189.9475   1.4000080672e+02   3.2400715939e+01    0.5880113    0.5331478  52.06   0.00306598    1.413    0.292
        73  -8.3112    210.1728     22.9277   6.7455453054e+01   2.9326143478e+01    0.2326846    0.1908989 -45.71  0.001134854    1.252    0.201
        74 -11.9732     50.4083    179.4935   1.3708813014e+02   3.2995791819e+01    0.7305486    0.5982801  72.84  0.003394974    1.082    0.076
        75  -8.5104    232.7024     18.2210   6.3578920618e+01   2.4115879432e+01    0.2876042    0.2342036 -41.23  0.001594191    1.191    0.160
        76 -10.0194    184.3726    194.6443   1.1399353813e+02   1.1180629455e+01    0.2073182    0.1710001  37.77 0.0003197702    1.087    0.080
        77  -7.5512    185.0432    180.0087   1.1153987319e+02   1.2964540363e+01     0.144402    0.1194606  31.30  0.000946191    1.001    0.001
        78 -11.1846    227.4631     47.8697   7.2715239787e+01   2.2213574431e+01     1.041699    0.5889558 -40.18  0.004628502    1.770    0.435
        79  -7.7538     59.4910    161.5058   1.3369900165e+02   3.5306682971e+01    0.1130308   0.09161059  75.36 0.0008105737    1.011    0.011
        80  -7.2000    171.2940    154.7217   1.0962412907e+02   1.9089227861e+01    0.1214431    0.1016766  73.55 0.0002031242    1.529    0.346
        81  -8.1441     12.6770    153.0333   1.4257790602e+02   4.1507296672e+01    0.1438638     0.101295  85.85  0.000357052    1.090    0.082
        82  -9.4286     67.8714    144.5465   1.3000226063e+02   3.7629861636e+01    0.4903734    0.2509209  59.50  0.002547551    2.101    0.524
        83 -10.5659    240.7509    143.1492   9.4837696504e+01   7.5005091653e+00    0.2944529    0.2835585  13.98  0.001963796    1.368    0.269
        84  -7.1896    199.0000    143.0345   1.0201491255e+02   1.5514838727e+01    0.2050011   0.07564352 -33.98 0.0007912228    2.865    0.651
        85  -9.0670    129.4487    141.0916   1.1571482137e+02   2.9050708566e+01    0.2226669     0.176936  42.14 0.0003447157    1.201    0.168
