#   1 NUMBER                 Running object number                                     
#   2 MAG_AUTO               Kron-like elliptical aperture magnitude                    [mag]
#   3 X_IMAGE                Object position along x                                    [pixel]
#   4 Y_IMAGE                Object position along y                                    [pixel]
#   5 X_WORLD                Barycenter position along world x axis                     [deg]
#   6 Y_WORLD                Barycenter position along world y axis                     [deg]
#   7 A_WORLD                Profile RMS along major axis (world units)                 [deg]
#   8 B_WORLD                Profile RMS along minor axis (world units)                 [deg]
#   9 THETA_WORLD            Position angle (CCW/world-x)                               [deg]
#  10 FWHM_WORLD             FWHM assuming a gaussian core                              [deg]
#  11 ELONGATION             A_IMAGE/B_IMAGE                                           
#  12 ELLIPTICITY            1 - B_IMAGE/A_IMAGE                                       
         1 -17.2175    105.3976     98.7906   4.8124357738e+01   4.2484586904e+01     7.538898     4.551419 -55.60   0.03215789    1.776    0.437
         2 -15.1463     74.4869     60.0626   4.6217489638e+01   5.6078088104e+01     3.932066     1.808785 -20.57  0.009258118    8.439    0.882
         3 -15.5396     74.7054     42.3625   3.9802730850e+01   5.8976282553e+01     4.812429     2.009445 -20.53   0.01308021    6.797    0.853
         4 -15.2316     37.3157     76.8429   6.5459881677e+01   5.7935220435e+01     4.006364     1.845715 -13.64   0.01106144    7.088    0.859
         5 -16.0264     57.8439     38.9702   4.4722685565e+01   6.2348189740e+01     3.180578     2.076301 -20.99   0.01762767    1.593    0.372
         6 -13.7824     42.6131     41.4925   5.1965040751e+01   6.4129522390e+01      1.35562    0.5816246 -26.70   0.00537745    3.349    0.701
         7 -12.7277     94.1609     24.2596   2.6889764856e+01   5.7539453439e+01    0.5833763    0.2449571 -20.02  0.002340852    3.290    0.696
         8 -15.5284     33.8073     64.6799   6.3480545649e+01   6.0847456040e+01     2.885935     1.710946 -37.85   0.01562586    1.521    0.343
         9 -12.0925     99.2625     16.9279   2.2822977397e+01   5.7238376921e+01    0.2548195    0.1706905 -11.27 0.0009203178    1.772    0.436
        10 -11.9399     98.3162     12.1564   2.1277813088e+01   5.7911869536e+01    0.1928866    0.1470106  18.28 0.0009582088    1.416    0.294
        11 -13.6266    247.8759      9.7035   1.3211436993e+00   2.4001466616e+01    0.4457859    0.2830859 -74.66  0.002900242    1.255    0.203
        12 -10.8840     64.0640      9.4391   3.0027525643e+01   6.5040972040e+01    0.1759699    0.1473812   5.99 0.0006468698    1.136    0.120
        13 -11.7160    106.4922      6.6769   1.7424028714e+01   5.6604014551e+01    0.2492932     0.182424  33.82 0.0009825533    1.367    0.269
        14 -15.0282     15.9700     68.9249   7.2040281104e+01   6.1535398674e+01     2.811127    0.7286993 -47.48   0.01130891    2.860    0.650
        15 -14.1086     27.1716     49.3059   6.1567789055e+01   6.4506456791e+01     1.330995    0.6620954 -31.48  0.006720053    2.009    0.502
        16 -11.6661     98.9787      3.0928   1.7740238276e+01   5.8560751545e+01    0.5275757    0.1644175  42.80  0.002071459    3.128    0.680
        17 -10.8655     92.5072      2.2104   1.8884971916e+01   6.0027559565e+01    0.2656811    0.1542188  29.17  0.001173507    1.848    0.459
        18 -11.2448     82.4060      1.7175   2.1206496128e+01   6.2177798183e+01    0.2296221    0.1439687  56.16  0.001163031    1.392    0.282
        19 -10.3445     71.0530      1.8475   2.4453324939e+01   6.4424738917e+01    0.1656441    0.1537041  52.11 0.0006936606    1.252    0.201
        20 -11.3625      3.1141    200.8189   9.2646861809e+01   3.1442402900e+01    0.2383773    0.1551745  65.35  0.001153302    1.278    0.217
        21 -12.7230    212.6084    247.7355   5.3879985122e+01  -8.0600404504e+00    0.7150155    0.3488642  18.83   0.00340061    2.467    0.595
        22 -13.2260    226.5428    240.6503   5.0192714777e+01  -8.9633674695e+00    0.6238071    0.3808355 -12.21  0.002994518    1.773    0.436
        23 -13.3400    231.7780    234.4884   4.8236199850e+01  -8.7974091694e+00    0.5658831    0.3748405 -17.46  0.002396151    1.436    0.304
        24 -13.3311    237.2583    227.3598   4.6061205504e+01  -8.5141646070e+00    0.6238701    0.3741476   4.34  0.003206269    1.926    0.481
        25 -12.7301    225.8152    248.6504   5.1609773259e+01  -9.9683923766e+00    0.5302889    0.3036022  23.49  0.002568652    1.574    0.365
        26 -13.3074    248.6014    214.7304   4.1908418296e+01  -8.1969919284e+00    0.7538923    0.3738694 -28.63  0.003167076    1.901    0.474
        27 -15.0252    246.0391    242.5275   4.7069174122e+01  -1.1727524039e+01      1.55401    0.8882332 -30.41  0.009619372    1.627    0.386
        28 -12.8243    248.8355    224.6440   4.3595058437e+01  -9.6501929743e+00    0.5026819    0.3156878 -15.55  0.002046951    1.511    0.338
        29 -15.4421     82.7935    243.3226   7.9503326983e+01   1.2551256381e+01     1.832753     1.601858  79.26   0.01228839    1.144    0.126
        30 -11.8595      4.4764    185.0706   9.1309694393e+01   3.4931068923e+01    0.2401803     0.178455  29.83  0.001473119    1.641    0.391
        31 -13.2880      7.9948    127.5008   8.5051798666e+01   4.8521486710e+01    0.8202937    0.2827037 -86.50  0.002737233    4.211    0.763
        32 -13.0770      2.8600    167.6999   9.0380580497e+01   3.9161606010e+01    0.7671836     0.251993 -67.05  0.003418528    2.378    0.579
        33 -12.7117      9.3911    151.1988   8.7263918866e+01   4.2636847157e+01    0.3972885    0.2673264  15.62  0.002309443    1.953    0.488
        34 -13.1854      2.4070    180.3454   9.1439718179e+01   3.6208470836e+01    0.7082159    0.3002774  21.43  0.003373126    3.149    0.682
        35 -12.7563      5.6747    174.3541   9.0236586322e+01   3.7351414065e+01    0.3730325    0.2310496 -58.99  0.001807725    1.621    0.383
        36 -12.9961      3.8459    148.7301   8.8486666905e+01   4.3652859184e+01    0.6837685     0.364975 -34.35  0.003360725    2.682    0.627
        37 -13.3454      3.1326    126.1645   8.6330367121e+01   4.9165398809e+01     1.464959     0.300424 -48.68  0.004751752    4.814    0.792
        38 -11.8486      4.3329    132.4865   8.6694004763e+01   4.7559135161e+01    0.3379034    0.2491233 -46.60   0.00194329    1.420    0.296
        39 -11.5584      2.2976    143.9728   8.8443678935e+01   4.4913392190e+01    0.3942513    0.2199866 -64.46  0.001461518    1.482    0.325
        40 -13.6235      4.8677    138.2678   8.7165908560e+01   4.6119996213e+01     0.660343    0.5473996  57.99  0.004393842    1.299    0.230
        41 -11.9802     10.1798    168.1860   8.8646507402e+01   3.8449319011e+01    0.1890835    0.1510293 -73.25  0.001002125    1.166    0.142
        42 -11.7008     11.3343    162.5601   8.7854400993e+01   3.9712706933e+01     0.221962    0.1213992 -58.60  0.001038439    1.715    0.417
        43 -12.8462      9.2124    158.0445   8.7971524193e+01   4.0983863709e+01    0.4133279    0.2329172 -57.75  0.001571654    1.671    0.402
        44 -15.8786    208.3578    129.5325   3.1983574261e+01   1.3464832789e+01     3.049878     1.894649 -30.15   0.01376865    1.793    0.442
        45 -15.9811    102.9689    226.1325   7.3275117726e+01   1.2977622234e+01     2.117803     1.787985  74.40    0.0128287    1.150    0.131
        46 -11.6715      4.2686    111.3264   8.4129756973e+01   5.2651708176e+01    0.4906268    0.1831011 -43.99  0.002152456    2.681    0.627
        47 -11.3573     31.6700     97.3326   7.2410624952e+01   5.3879551387e+01     0.262217    0.2174545 -17.38  0.001067481    1.313    0.238
        48 -10.7932     54.5178     96.6606   6.4143078190e+01   5.1473782331e+01    0.3075695    0.1910456 -29.34  0.001163485    1.914    0.477
        49 -10.7053     43.0324     97.0375   6.8293753601e+01   5.2774915120e+01    0.2260027    0.1438819 -32.04  0.001120469    1.720    0.419
        50 -12.3870     10.2635    112.4121   8.2354948285e+01   5.2011433292e+01    0.5068009    0.1981396 -31.98  0.001909262    3.992    0.749
        51 -11.5168     37.8129     94.7462   6.9645651517e+01   5.3871828397e+01    0.2817322    0.1960386 -36.29  0.000923159    1.417    0.294
        52 -10.6153     49.3591     93.9972   6.5319989662e+01   5.2738405424e+01    0.2442728     0.178176 -22.46 0.0007316658    1.545    0.353
        53 -12.9348     66.1474     92.0167   5.8889467894e+01   5.0911375094e+01    0.4043624    0.2857649   0.31  0.001709246    1.867    0.464
        54 -10.6639     23.9319    117.2590   7.8690206042e+01   4.9795522601e+01    0.2115906    0.1295963 -31.91  0.001068767    1.948    0.487
        55 -13.4905    107.0007    244.6969   7.4645183583e+01   8.6436420293e+00    0.4990093    0.3455948  21.10  0.002718469    1.817    0.450
        56 -11.5804     44.4726     91.1784   6.6397747416e+01   5.3963452524e+01    0.2613713    0.1845569 -29.66 0.0007250395    1.487    0.327
        57 -11.5234     58.8336     89.9501   6.0909038091e+01   5.2424808105e+01    0.2198429    0.1737238 -27.63 0.0007234613    1.296    0.228
        58 -11.8960     54.4528     88.6928   6.2148441029e+01   5.3296552607e+01    0.2788598    0.1812817 -31.25 0.0009994149    1.662    0.398
        59 -13.1677     53.4269     81.5670   6.0604404750e+01   5.5000594955e+01    0.5186073    0.3329481 -27.05  0.001669756    1.757    0.431
        60 -12.0086     53.1892    243.1526   8.5470852648e+01   1.6678724648e+01    0.3293769     0.163086 -59.54  0.001724476    2.305    0.566
        61 -10.7334     18.5459    118.1556   8.0550010706e+01   5.0019296194e+01    0.2406436    0.1592177 -22.34   0.00116333    1.923    0.480
        62 -13.1636     71.6672     81.4552   5.3999853914e+01   5.2357321668e+01    0.3602418    0.2916788 -37.90  0.001519963    1.178    0.151
        63 -11.8828     18.5216    112.3167   7.9656938917e+01   5.1436280426e+01    0.4025492    0.1877462   5.78  0.001731519    3.263    0.694
        64 -10.1465    243.3383    199.3099   4.0023907038e+01  -5.1274627263e+00    0.1300572   0.08634318  -4.48 0.0005918519    1.686    0.407
        65 -11.7515     19.1719    105.6052   7.8335301671e+01   5.2995563444e+01    0.2910528    0.1784536 -27.24  0.001075394    1.943    0.485
        66 -11.5965    220.1562    238.3478   5.0980222460e+01  -7.7631022112e+00    0.2045675    0.1462625 -15.43 0.0008062323    1.337    0.252
        67 -12.8213     91.9244     58.3220   3.9821827924e+01   5.3138730121e+01    0.3817314    0.2737954 -24.33   0.00116041    1.522    0.343
        68 -11.0722      8.0547     57.2770   7.2506851755e+01   6.4480431938e+01    0.3217009    0.1655653 -32.94   0.00177065    1.789    0.441
        69 -10.6086     32.5706    109.2094   7.4446983317e+01   5.0967422107e+01    0.1922282    0.1650135  -3.96 0.0007045284    1.350    0.260
        70 -10.1547     23.5981    109.7059   7.7547368570e+01   5.1655768174e+01    0.1398529   0.08409353 -35.97 0.0006995086    1.811    0.448
        71 -12.3240     12.8193    103.5038   8.0143504634e+01   5.3958674352e+01    0.6906078    0.1760068 -45.35  0.002435181    3.784    0.736
        72 -13.3865    239.6767    218.0851   4.4032041581e+01  -7.4856641082e+00    0.8201443    0.4261808  -7.91  0.003496127    3.248    0.692
        73 -13.2569     91.0122     47.4204   3.6316527114e+01   5.5087278809e+01    0.4961868    0.3722043 -16.62  0.001696847    1.470    0.320
        74 -11.7421     17.5420     97.9307   7.7548731873e+01   5.4932033525e+01    0.2840706    0.1717348 -23.98 0.0009876335    1.980    0.495
        75 -11.8068     23.8116     97.5314   7.5251860501e+01   5.4531680703e+01    0.4582533    0.2486547 -28.08  0.002182469    2.271    0.560
        76 -12.8004     98.4902     46.5111   3.3757333677e+01   5.3688551930e+01     0.316101    0.2449492 -17.54  0.001103338    1.419    0.295
        77 -11.8613     27.3255    104.2740   7.5308189111e+01   5.2636546696e+01    0.3765077    0.2692516 -28.42  0.001424386    1.543    0.352
        78 -11.6940    101.8888     41.3764   3.0991058379e+01   5.3711208371e+01    0.2583278    0.2016163 -16.48  0.001048076    1.421    0.296
        79 -10.6228      2.4617    105.8939   8.3969883666e+01   5.4041725125e+01     0.228846     0.139286 -27.97  0.001011511    1.917    0.478
        80 -12.2833     96.9276     36.2517   3.0548751219e+01   5.5469336159e+01     0.274916     0.193337 -19.89 0.0009718915    1.590    0.371
        81 -10.7838    106.1513     28.5879   2.5340595531e+01   5.4439761058e+01    0.2485868    0.1942101 -10.04  0.001431165    1.464    0.317
        82 -11.9710      3.4795    191.7104   9.1985019063e+01   3.3481188284e+01    0.2387209     0.189776  80.93  0.001058744    1.052    0.050
        83 -11.1952     28.3242     26.3483   5.2465060390e+01   6.8276661790e+01     0.256828    0.1288476 -22.14  0.001295915    2.272    0.560
        84 -10.7654    106.5058     20.4609   2.2358474451e+01   5.5277600773e+01    0.2420739    0.1309604 -24.78  0.001193367    2.114    0.527
        85 -10.7970     16.2327    198.5938   8.9696935635e+01   3.0709746166e+01    0.1454366    0.1205923  22.09 0.0007154142    1.625    0.385
        86 -12.8702     10.1157    187.0594   9.0189433773e+01   3.3968798660e+01     0.424204    0.2196224 -45.78  0.002072622    2.721    0.633
        87 -10.6454     36.9535    104.0186   7.1934247365e+01   5.1778346078e+01    0.2223107    0.1408947 -35.74 0.0008017636    1.673    0.402
        88 -12.6237      3.0866    156.9011   8.9425058801e+01   4.1733728901e+01    0.7421373    0.1950516 -71.11  0.002945992    2.824    0.646
        89 -11.8640     15.8121    122.8969   8.2090335928e+01   4.9075643462e+01    0.3153825    0.1729885 -47.87  0.001621691    1.743    0.426
        90 -10.9199    217.8160    230.6576   5.0138281200e+01  -6.2969843739e+00    0.2408041    0.1465534 -13.60  0.001276728    1.909    0.476
        91 -12.2091    229.4689    226.3389   4.7273522323e+01  -7.2996577858e+00    0.3384914    0.1965734   2.10  0.001202651    2.239    0.553
        92 -10.2449     17.2956    192.3527   8.8984521969e+01   3.2050968548e+01    0.1211796   0.08499775 -53.57 0.0007033251    1.687    0.407
        93 -16.5613    134.8189    215.2414   6.4679432611e+01   9.9411977148e+00     3.851871     2.798678  -1.95   0.01865755    2.072    0.517
        94 -10.7432    227.7172    218.6480   4.6258118275e+01  -5.8903099244e+00    0.2310269    0.1365995 -25.40  0.001248889    1.682    0.405
        95 -12.3929      8.4297    101.6317   8.1338953371e+01   5.4688346798e+01    0.5186696    0.1844994 -57.92  0.002358461    2.080    0.519
        96 -13.3063    234.3445    244.6839   4.9453860150e+01  -1.0542589820e+01    0.6829878    0.3830192 -12.62  0.003663344    2.034    0.508
        97 -11.1603     11.5295    209.7901   9.1470042481e+01   2.8642584884e+01    0.2112352    0.1562027  46.36  0.001299801    1.368    0.269
        98 -10.6850     47.3556    101.9648   6.7888135688e+01   5.1119729489e+01    0.2519334    0.1816285 -20.70   0.00116348    1.645    0.392
        99 -11.7801      4.1062    116.5760   8.4871561209e+01   5.1409222427e+01    0.3941171     0.160041 -54.44   0.00153795    2.005    0.501
       100 -10.5730     17.6617    171.6679   8.7128720651e+01   3.6943253653e+01    0.1280211   0.08643784 -48.12 0.0005732449    1.742    0.426
       101 -12.2270    247.3855    204.9373   4.0363929748e+01  -6.5692571809e+00    0.2985073    0.1967968 -28.47 0.0009383015    1.328    0.247
       102 -11.5615    250.2428    200.3979   3.9060082462e+01  -6.2715794224e+00    0.2990779    0.1503988 -32.23  0.001206354    1.781    0.438
