#   1 NUMBER                 Running object number                                     
#   2 MAG_AUTO               Kron-like elliptical aperture magnitude                    [mag]
#   3 X_IMAGE                Object position along x                                    [pixel]
#   4 Y_IMAGE                Object position along y                                    [pixel]
#   5 X_WORLD                Barycenter position along world x axis                     [deg]
#   6 Y_WORLD                Barycenter position along world y axis                     [deg]
#   7 A_WORLD                Profile RMS along major axis (world units)                 [deg]
#   8 B_WORLD                Profile RMS along minor axis (world units)                 [deg]
#   9 THETA_WORLD            Position angle (CCW/world-x)                               [deg]
#  10 FWHM_WORLD             FWHM assuming a gaussian core                              [deg]
#  11 ELONGATION             A_IMAGE/B_IMAGE                                           
#  12 ELLIPTICITY            1 - B_IMAGE/A_IMAGE                                       
         1 -14.8335    157.8351     44.5977   8.4663358528e+01   4.0348508212e+01     1.483667     1.018508 -25.06  0.003869502    1.416    0.294
         2 -14.6641    169.7028     12.1887   7.1532074597e+01   4.1074735507e+01     1.266693     1.017254  44.04   0.00449511    1.259    0.205
         3 -12.8476    188.9423     13.7960   6.9813686920e+01   3.6049259028e+01    0.5401785    0.3013961 -53.98  0.001829614    1.986    0.496
         4  -9.8057     15.5995    246.8483   1.5208152069e+02   2.4202703950e+01    0.1644009   0.06948359  82.28  0.001111408    2.388    0.581
         5 -19.8590     94.8977    231.5430   1.3735443594e+02   1.8423565244e+01     7.266911     5.027789  47.90   0.05101428    1.179    0.152
         6 -13.1700    210.1310    187.2665   1.1009144720e+02   8.5141756017e+00    0.5496518    0.2714236 -49.59  0.002284952    4.572    0.781
         7 -13.5628    206.9771    177.8515   1.0898718047e+02   1.0169703259e+01    0.5503146    0.3663924  18.06   0.00276054    1.340    0.254
         8 -12.5098    203.5584    172.5493   1.0863118521e+02   1.1395771411e+01     0.531877    0.3603747 -17.72  0.002729854    1.448    0.309
         9 -10.8465     28.4611    239.0192   1.4967573805e+02   2.4250893075e+01    0.1228527   0.08096807  84.69 0.0009995108    1.504    0.335
        10 -11.8547    129.7748    181.5173   1.2474876579e+02   2.1716572185e+01    0.2332341    0.2045376  35.58 0.0006426394    1.026    0.025
        11 -11.1086    200.0099    179.5060   1.1052678949e+02   1.1039360951e+01    0.1841001    0.1504644  -8.00 0.0004882152    1.166    0.142
        12 -13.7708    195.2406    169.9916   1.0967435762e+02   1.3078388226e+01    0.6779134    0.3954227 -44.05  0.002507385    2.165    0.538
        13 -12.0990     21.7396    237.3233   1.5075826278e+02   2.5103902122e+01    0.1630491    0.1198719  75.59  0.001424163    1.257    0.204
        14 -19.1686     77.4982     95.8599   1.2257731598e+02   4.7345611102e+01     18.75746    0.8630257 -55.46   0.02569493   19.095    0.948
        15 -13.5387    177.8934    171.3029   1.1320940169e+02   1.5722036263e+01    0.4834075    0.3783199 -36.37  0.002995993    1.435    0.303
        16 -11.6911    167.0917    173.6825   1.1576374343e+02   1.7123860121e+01    0.1944476    0.1786664 -39.85 0.0007939492    1.327    0.246
        17 -10.7990     27.6804    172.8815   1.4656966286e+02   3.5901599099e+01    0.1557707    0.1449292  42.47 0.0003419436    1.262    0.208
        18 -11.0011     18.2633    220.6630   1.5077302474e+02   2.8045133444e+01    0.1214462   0.09040055  88.31 0.0002826706    1.342    0.255
        19 -11.7932    201.0679    164.6253   1.0759414505e+02   1.2863793304e+01    0.3552904    0.2679786 -43.43   0.00162506    1.714    0.416
        20 -10.3734    218.2677    219.6441   1.1389584095e+02   3.7328190741e+00   0.09007156   0.08300009  24.27 0.0003211022    1.634    0.388
        21 -11.1201    222.3533    161.5039   1.0325798628e+02   9.8195204159e+00    0.2548961    0.1862151 -47.90  0.001053509    2.106    0.525
        22 -11.4843     23.9416    217.0512   1.4959900045e+02   2.8151611443e+01    0.1410127    0.1133563  61.53 0.0005174465    1.095    0.087
        23 -12.7272    163.9386    157.9927   1.1355640801e+02   2.0134346915e+01    0.3825752    0.1930147  41.60  0.001688898    1.855    0.461
        24 -11.6020     29.5404    156.7698   1.4502369496e+02   3.9038073193e+01    0.2276624    0.1855813 -70.52  0.000718724    1.267    0.211
        25 -12.2352    207.5339    211.1748   1.1441082662e+02   6.0882160248e+00    0.2048751    0.1663505  38.18  0.001211621    1.514    0.339
        26 -14.5566    133.8185    146.0492   1.1789424463e+02   2.7425826110e+01     1.374312    0.4768544 -56.08  0.004306826    4.731    0.789
        27 -14.3362    143.4678    143.9877   1.1527372447e+02   2.6128840455e+01    0.9237058    0.4655161 -57.95  0.003691216    2.989    0.665
        28 -11.1352     31.1246    205.6475   1.4771372410e+02   2.9456653967e+01     0.188429    0.1695332 -28.72   0.00114412    1.627    0.385
        29 -10.8966     17.8714    153.9669   1.4764065414e+02   4.0603096107e+01    0.1837259    0.1420644 -72.27 0.0004565874    1.291    0.226
        30 -10.9841     18.3876    149.2297   1.4720597238e+02   4.1569612580e+01     0.255845    0.1844902 -61.47  0.001312168    1.468    0.319
        31 -10.7633    192.3909    153.2079   1.0696239488e+02   1.5947104500e+01    0.1728885     0.119289 -40.22 0.0005372194    1.641    0.391
        32 -12.7606    174.2342    148.6669   1.0960261426e+02   1.9840781790e+01    0.3669677    0.2796212 -40.13  0.001435012    1.442    0.306
        33 -13.5701    152.7063    145.4482   1.1350230717e+02   2.4228064304e+01    0.4695432    0.3773449  64.10  0.002291359    1.611    0.379
        34 -11.9911     27.7741    145.0311   1.4453686301e+02   4.1708439044e+01     0.350276    0.3045619  62.90   0.00198566    1.097    0.088
        35 -10.7813     26.5325    138.8174   1.4433666297e+02   4.3180398220e+01    0.1962501    0.1811978 -73.07 0.0005998394    1.191    0.160
        36 -13.0271     11.9305    205.8994   1.5140266173e+02   3.1070345006e+01    0.4674814     0.224557  23.08  0.002898259    2.406    0.584
        37 -12.8785    134.7810    112.5256   1.1038919033e+02   3.3722068965e+01     0.714402     0.166735 -42.44  0.002016472    4.354    0.770
        38 -13.9797    135.7896    127.7357   1.1366787662e+02   3.0569596435e+01     1.270351    0.2929203 -50.03  0.003272031    5.901    0.831
        39 -11.0481      3.0972    135.0984   1.5019584598e+02   4.5708635081e+01    0.1662581     0.136249 -67.80 0.0005673416    1.277    0.217
        40 -12.9931    160.4808    128.2204   1.0810417979e+02   2.5825360190e+01    0.4195238    0.3708185 -32.87  0.002010411    1.171    0.146
        41 -13.1378     38.3620    124.2211   1.3958765582e+02   4.5431333421e+01    0.5017313    0.2545187  24.07  0.002512136    2.247    0.555
        42 -11.3338     12.9351    242.3817   1.5238987378e+02   2.5087551337e+01    0.1202661    0.1123704  31.66  0.001173124    1.509    0.337
        43 -12.8575    168.5592    240.1274   1.2502097118e+02   8.0118268403e+00    0.3251745    0.1405324  38.17 0.0004276662    1.787    0.440
        44 -12.6282    140.2580    149.3641   1.1704997838e+02   2.5706850433e+01    0.4536697    0.2887819  59.85  0.001189015    2.168    0.539
        45 -10.5588    167.3364    112.6410   1.0291124109e+02   2.7183289491e+01    0.1439552    0.1172876 -75.86  0.000703932    1.812    0.448
        46 -12.2475    139.6199    201.2988   1.2549388254e+02   1.7099018041e+01    0.2871482    0.2201316  28.45 0.0007956859    1.117    0.105
        47 -10.8052    205.4923    110.1777   9.4922786392e+01   1.9851552782e+01    0.2419141    0.1876666  36.24 0.0006302076    1.298    0.230
        48 -12.7113    136.6623    197.3472   1.2555246627e+02   1.8130862514e+01    0.4216693      0.26648  37.74  0.001867936    1.329    0.248
        49 -11.9772     29.5690    105.0432   1.3986296152e+02   5.0715470032e+01    0.3510429     0.224706   1.30 0.0006085786    2.185    0.542
        50 -11.3794    150.7726    240.0648   1.2810219614e+02   1.0305282182e+01    0.1813594    0.1711158  46.22 0.0006350093    1.367    0.268
        51 -11.8402     41.8788     92.5221   1.3381632934e+02   5.2584171608e+01    0.2959304    0.2055831 -79.84 0.0007294599    1.412    0.292
        52 -12.2457     51.3790     91.6666   1.3036615460e+02   5.1771067240e+01    0.3008051    0.2544021   3.01 0.0009003168    1.409    0.291
        53 -11.4521      4.4620     89.5388   1.4641440747e+02   5.6101112188e+01    0.2597125    0.1507976  -9.73  0.001420306    2.399    0.583
        54 -10.3065    105.9664     82.3360   1.1011194457e+02   4.5466595001e+01    0.1991172    0.1849872  31.98 0.0003257495    1.108    0.097
        55 -10.7026    142.2501     80.7594   9.9865965553e+01   3.8211579205e+01    0.2101385    0.1726014   2.96 0.0005507326    1.326    0.246
        56 -14.4565    147.2586     59.2575   9.1836173555e+01   4.0742980524e+01     1.221137    0.9189324 -14.12 0.0009270157    1.393    0.282
        57 -11.5775     26.7082    194.7884   1.4803097542e+02   3.1801403272e+01    0.2180185     0.140183  67.86 0.0009055824    1.313    0.239
        58 -13.1928    161.5658     35.7615   8.0933632053e+01   4.0576723219e+01    0.4653258    0.4279915   1.01 0.0009526013    1.067    0.063
        59 -11.0546     13.4205     59.8786   1.3885303292e+02   6.2733880501e+01    0.1838055    0.1685061  64.77 0.0004528656    1.252    0.201
        60 -10.5822      6.3438     55.3128   1.4117687233e+02   6.4202898670e+01    0.1337248   0.07194933 -44.94 0.0007046729    1.707    0.414
        61 -12.5370    161.3871    239.3951   1.2617508067e+02   9.0209871824e+00    0.3185758    0.1539429  30.94   0.00129775    1.625    0.385
