#   1 NUMBER                 Running object number                                     
#   2 MAG_AUTO               Kron-like elliptical aperture magnitude                    [mag]
#   3 X_IMAGE                Object position along x                                    [pixel]
#   4 Y_IMAGE                Object position along y                                    [pixel]
#   5 X_WORLD                Barycenter position along world x axis                     [deg]
#   6 Y_WORLD                Barycenter position along world y axis                     [deg]
#   7 A_WORLD                Profile RMS along major axis (world units)                 [deg]
#   8 B_WORLD                Profile RMS along minor axis (world units)                 [deg]
#   9 THETA_WORLD            Position angle (CCW/world-x)                               [deg]
#  10 FWHM_WORLD             FWHM assuming a gaussian core                              [deg]
#  11 ELONGATION             A_IMAGE/B_IMAGE                                           
#  12 ELLIPTICITY            1 - B_IMAGE/A_IMAGE                                       
         1 -13.7748    248.7207     30.3051   2.1361791188e+01   1.8744808442e+01    0.7947772    0.4324114 -30.70  0.003704643    1.771    0.435
         2 -13.6694     12.2143     23.2374   7.8423401049e+01   6.8294840708e+01    0.6514016      0.22045 -40.39  0.003297836    2.325    0.570
         3 -13.6125    247.1969      6.4744   1.5659176913e+01   2.1959580524e+01     1.071258    0.5569372 -41.08  0.005227148    1.726    0.421
         4 -11.9054     26.2119     16.2846   6.9754753943e+01   6.8421646245e+01    0.2988074    0.1049291 -37.00  0.001424502    2.422    0.587
         5 -12.3611     13.3744     12.6721   7.4092066782e+01   7.0055911442e+01    0.3059179    0.1526985 -36.45   0.00151669    1.543    0.352
         6 -12.6654     15.5754      6.8721   7.0689121645e+01   7.0840221655e+01     0.458659    0.2333423 -26.47  0.002439182    1.794    0.443
         7 -13.3879      6.3825     10.9462   7.6689023737e+01   7.0811305520e+01    0.7693123    0.3379272 -39.38  0.004662848    1.676    0.403
         8 -12.5560     10.1405      2.0866   7.1237356448e+01   7.2003097381e+01    0.7779399    0.2011494  22.71  0.003458544    4.834    0.793
         9 -12.4309     19.8525     13.8402   7.1598945441e+01   6.9368230861e+01    0.3678201    0.1328916 -38.86  0.001880968    2.170    0.539
        10 -12.9085     25.1943      4.0285   6.4898823147e+01   7.0443052648e+01    0.4592794    0.2725166  -7.44  0.002859323    1.808    0.447
        11 -12.2877     16.0854    240.4234   1.0461621242e+02   2.4637883651e+01    0.4623751    0.1748685  59.23  0.002591259    1.849    0.459
        12 -12.9582    234.3227    244.3466   7.0032384788e+01  -8.0336025551e+00    0.3809057    0.2125088  21.35  0.002281555    1.823    0.452
        13 -13.1333    241.5490    237.8127   6.7887007255e+01  -8.5027724303e+00    0.6863449    0.3168609  15.58  0.002874271    4.034    0.752
        14 -12.0346    249.8984    232.8764   6.5773396397e+01  -9.3012325760e+00     0.283123    0.1854167 -12.68  0.001538119    1.636    0.389
        15 -11.3595    249.2036    249.7854   6.8473002213e+01  -1.0802379120e+01    0.4150548    0.1793882  37.72  0.002425259    1.726    0.421
        16 -11.3190    248.8754    244.8875   6.7794400361e+01  -1.0303185935e+01     0.286233    0.1844081  20.69  0.001978306    1.295    0.228
        17 -12.4362    247.3590    239.0090   6.7139351978e+01  -9.5147097956e+00    0.4015208       0.2357   4.99  0.002437278    1.981    0.495
        18 -11.8189     88.4800    249.8279   9.4410416373e+01   1.4299392818e+01     0.283917    0.1754943  35.02  0.001812378    2.185    0.542
        19 -11.5357     74.2948    250.3872   9.6630498931e+01   1.6152296207e+01    0.3436979   0.06631364  48.85  0.001515438    3.375    0.704
        20 -11.9857     65.3376    249.1152   9.7897783551e+01   1.7523672625e+01    0.3530547    0.1563331  55.37  0.002258351    1.631    0.387
        21 -11.4506     50.6852    250.1083   1.0013368952e+02   1.9202893090e+01    0.3632987     0.100155  45.87  0.001953229    2.651    0.623
        22 -11.9005     36.9447    248.7412   1.0204758141e+02   2.1037706231e+01    0.3644451    0.1556286  63.65  0.002419088    1.733    0.423
        23 -10.7717     27.3204    248.6900   1.0341085815e+02   2.2122739279e+01    0.2495192    0.1040297  62.99  0.001685661    1.714    0.417
        24 -11.7887     20.3434    249.0702   1.0440126843e+02   2.2814019094e+01    0.3132202    0.1390837  57.58  0.001766807    1.540    0.351
        25 -11.8153     12.1442    248.9233   1.0552011353e+02   2.3688252518e+01    0.3055209    0.1338283  57.39  0.001682525    1.548    0.354
        26 -11.2357      3.4163    250.2777   1.0674477226e+02   2.4346783330e+01    0.2324775   0.09811005  45.61  0.001687205    2.023    0.506
        27 -12.0179     72.9359    240.5896   9.6133403234e+01   1.7875812782e+01    0.3375224    0.1533244  64.16  0.001993489    1.915    0.478
        28 -11.6557    107.9056    240.3828   9.0501762812e+01   1.2922283965e+01     0.254344     0.116457  61.23  0.001369713    2.077    0.519
        29 -10.7759     38.3411    240.6095   1.0140824900e+02   2.2179629569e+01    0.2303418    0.1035843  67.64  0.001272211    1.751    0.429
        30 -10.6621     64.7568    239.8788   9.7358502190e+01   1.9067596343e+01    0.2187944   0.08928122  61.67  0.001240874    2.068    0.517
        31 -11.6447      6.6327    236.4846   1.0578006896e+02   2.6228241755e+01     0.314759    0.1417619  77.35  0.001586729    1.647    0.393
        32 -11.5435     81.8635    236.2637   9.4378189949e+01   1.7357781529e+01     0.278421    0.1200567  60.04  0.001552321    1.985    0.496
        33 -11.3988     95.7714    235.8605   9.2079575484e+01   1.5437965786e+01    0.2330223    0.1038724  61.25  0.001250647    2.079    0.519
        34 -12.0198    231.8498    234.2751   6.8921283231e+01  -6.6058659868e+00    0.2231474    0.1325465   6.62  0.001261258    2.175    0.540
        35 -11.4974     14.2229    232.0504   1.0450703522e+02   2.6203434512e+01    0.3088204    0.1418328  69.52  0.001813116    1.592    0.372
        36 -11.1741     11.1996    225.7490   1.0466041730e+02   2.7566641512e+01    0.2991507    0.1363949  67.33  0.001420948    1.599    0.375
        37 -11.1442     59.5341    231.9933   9.7624091094e+01   2.1039944293e+01    0.2259806    0.1037768  57.99  0.001393573    1.670    0.401
        38 -11.0549     39.7646    230.9274   1.0063701969e+02   2.3620693528e+01    0.2488475     0.133876  78.07   0.00172503    1.493    0.330
        39 -12.0664     25.6994    228.6685   1.0264649832e+02   2.5573391820e+01    0.4390072    0.1944469  77.47  0.002794996    1.908    0.476
        40 -12.8748    242.4410    246.7636   6.9092511185e+01  -9.5124933903e+00    0.5919366    0.3355055   1.92  0.003508457    2.291    0.563
        41 -10.8803     48.6401    230.2967   9.9223185841e+01   2.2677400297e+01    0.2456893    0.1165752  68.60  0.001534589    1.764    0.433
        42 -10.4096     32.5105    229.4770   1.0166075773e+02   2.4690391287e+01    0.1925608   0.08952329  67.75 0.0009555593    1.678    0.404
        43 -11.8494      4.8226    228.2166   1.0569662869e+02   2.7771506327e+01    0.3297352    0.1467273  70.97  0.001699482    1.630    0.386
        44 -11.7782      2.2461    220.7689   1.0575693766e+02   2.9277925682e+01    0.3172894    0.1306548 -89.40  0.001382493    1.905    0.475
        45 -11.0797     45.0495    237.3571   1.0021703985e+02   2.1927826326e+01    0.2442063    0.1102105  66.49  0.001543181    1.786    0.440
        46 -10.4956     33.1194    236.2277   1.0194187091e+02   2.3491809657e+01    0.2024674   0.08491933  73.26  0.001225616    2.091    0.522
        47 -12.4076    248.9858    225.1191   6.4668965349e+01  -8.3701094400e+00    0.3268997    0.1707956 -22.14  0.001878556    2.163    0.538
        48 -11.2449     18.6480    221.7989   1.0335476426e+02   2.7492482804e+01    0.2543914    0.1241122  75.57  0.001547083    1.576    0.365
        49 -10.7922     43.7496    221.6144   9.9428326314e+01   2.4756998567e+01    0.1954892    0.1007003  56.13  0.001297453    1.495    0.331
        50 -11.2912     34.7146    217.5257   1.0061015396e+02   2.6516088459e+01    0.2623801     0.128986  76.89   0.00166946    1.720    0.419
        51 -11.9078     12.1495    216.9591   1.0410052002e+02   2.8988805642e+01    0.3699969    0.1673568  64.32  0.002268099    1.650    0.394
        52 -10.3588     24.7001    217.5467   1.0219365759e+02   2.7603721365e+01    0.1875011   0.08720483  77.96  0.001185229    1.791    0.442
        53 -12.0060    248.2610    215.0499   6.3102438733e+01  -7.1760661163e+00    0.2653359    0.1554228 -22.60  0.001569619    1.847    0.459
        54 -11.6523      2.5500    212.4321   1.0534621534e+02   3.0697826324e+01    0.3032778    0.1427518  85.34  0.001697467    1.593    0.372
        55 -11.1466      1.4773    205.4853   1.0519166732e+02   3.2030430527e+01    0.2978347   0.07093271 -77.55  0.001457647    3.282    0.695
        56 -10.8643     28.7252    211.3499   1.0119051655e+02   2.8279108316e+01     0.196635   0.09581272  87.45   0.00114272    1.731    0.422
        57 -10.7723     21.3944    211.2271   1.0235792883e+02   2.9074132358e+01    0.2132219    0.1214239  82.45   0.00153077    1.319    0.242
        58 -12.5869     12.4763    205.4387   1.0345890704e+02   3.1011410750e+01    0.4612179    0.1986717  65.35  0.002746777    1.840    0.457
        59  -9.9741     36.0091    207.5084   9.9749843873e+01   2.8178025718e+01    0.1571469   0.05537068  59.01 0.0008093347    2.443    0.591
        60 -12.2715      3.3906    196.8535   1.0446786813e+02   3.3429387693e+01    0.3549582    0.1604361  75.20  0.002099565    1.745    0.427
        61 -12.2443      4.2953    188.8149   1.0389571358e+02   3.4849032340e+01     0.473035    0.1746086  70.47  0.002594994    2.466    0.595
        62 -11.5361      9.4985    198.0129   1.0353846688e+02   3.2656440701e+01    0.2056016     0.103718  81.12 0.0008591049    1.518    0.341
        63 -11.7972     17.4564    195.8322   1.0209839183e+02   3.2300571318e+01    0.2402703    0.1131292  53.19  0.001565077    1.764    0.433
        64 -12.3436     17.2134    189.5388   1.0175011792e+02   3.3517072754e+01    0.2418186    0.1656452  74.08 0.0009588315    1.086    0.080
        65 -11.5392     11.1661    190.8786   1.0285998270e+02   3.3836288532e+01    0.1719864    0.1003402  73.58   0.00100973    1.282    0.220
        66 -11.5557     24.1278    186.4297   1.0033910730e+02   3.3432670664e+01    0.2316274    0.1065892  83.94  0.001328819    1.952    0.488
        67 -11.9057     11.7192    184.4662   1.0238061600e+02   3.5009691873e+01    0.2849461    0.1236824  88.44  0.001678269    1.923    0.480
        68 -11.8917     17.3733    181.2205   1.0117893855e+02   3.5110748887e+01    0.2821766    0.1220095  81.56  0.001567636    2.135    0.532
        69 -10.8022      5.3298    182.9140   1.0338926810e+02   3.5881400326e+01     0.176146   0.09131984  80.43  0.001134144    1.480    0.325
        70 -11.7672      1.8773    178.1613   1.0371149996e+02   3.7092665632e+01    0.2871475    0.1131447 -83.87  0.001684963    1.964    0.491
        71 -11.6343      6.4657    171.2000   1.0247619981e+02   3.8065961316e+01    0.2556683   0.08097139 -80.80   0.00128333    2.556    0.609
        72 -11.1432     11.0012    166.9763   1.0136021273e+02   3.8517165395e+01    0.1839747   0.09309058  72.23  0.001138977    1.708    0.414
        73 -11.4197      2.8385    165.5713   1.0277682440e+02   3.9484284079e+01    0.3079986   0.07548049  53.84  0.001420213    3.676    0.728
        74 -10.9387      5.4191    161.1954   1.0200631297e+02   4.0151657429e+01    0.1580915   0.07500568  89.30 0.0009506987    1.682    0.406
        75 -11.5235     10.1422    154.8849   1.0063960051e+02   4.1048250716e+01    0.1804633    0.1128242  78.54  0.001244929    1.287    0.223
        76 -11.9728      3.9359    153.1591   1.0172656536e+02   4.1901747249e+01    0.2527149    0.1138197 -74.37  0.001537544    1.676    0.403
        77 -11.7909      4.2328    136.8869   1.0040818934e+02   4.5249214450e+01    0.2528597    0.1010303 -80.46   0.00137505    1.946    0.486
        78 -11.3768      3.1517    127.9649   9.9874341151e+01   4.7204259061e+01    0.2780336    0.1192047 -87.39  0.001307741    2.024    0.506
        79 -11.2398      5.9153    122.5603   9.8752971004e+01   4.8160432309e+01    0.2369157    0.1122321  88.29  0.001315314    1.957    0.489
        80 -11.4790    248.6750    118.4784   4.3255601397e+01   5.7994964347e+00    0.2593878     0.123776 -32.10  0.001080113    1.975    0.494
        81 -10.9131    249.3830     98.1475   3.8254870243e+01   8.7838563784e+00    0.2172894    0.1197264 -41.52 0.0008217573    1.747    0.428
        82 -10.7323    248.3355     73.6704   3.2324264206e+01   1.2760404875e+01    0.1534795    0.1045457 -62.10 0.0007052061    1.728    0.421
        83  -9.7732      9.3216     68.3287   9.0641365772e+01   5.9557133395e+01    0.1193491   0.06277134 -45.60 0.0007048643    1.691    0.409
        84  -9.8751    212.9368     55.9731   3.2832259936e+01   2.4162635472e+01    0.1801903    0.1747417 -63.20 0.0004662346    1.007    0.007
        85 -12.4117      3.0317     49.8675   8.9157375953e+01   6.3696362844e+01     0.486382    0.1601314 -60.26  0.002524917    2.031    0.508
        86 -10.0715    194.2443     51.8478   3.4701720047e+01   2.9665415004e+01    0.2151903    0.1771616  29.50 0.0006082545    1.361    0.265
        87 -10.5734    221.9350     50.2887   2.9911721606e+01   2.2691049411e+01    0.2074817    0.1896767  65.58  0.000508801    1.110    0.099
        88 -11.3119      8.3951     43.9853   8.5874673503e+01   6.4588490482e+01    0.2587991    0.0823366 -61.66  0.001239112    2.368    0.578
        89 -11.8992     12.2000     37.1030   8.2638215897e+01   6.5709240104e+01    0.3189775   0.08873916 -51.17  0.001523585    2.331    0.571
        90 -12.1529    225.8567    248.1906   7.1949825214e+01  -7.1007837740e+00    0.2827871     0.154453  29.87  0.001737631    1.556    0.357
        91 -11.9680      3.0757     33.7463   8.5346492581e+01   6.6863203514e+01    0.3065827   0.09675396 -51.89  0.001612091    2.034    0.508
        92 -11.4879     18.9863     30.4868   7.7945699386e+01   6.6505520589e+01    0.2449571     0.112226 -42.29  0.001389624    1.675    0.403
        93 -11.9754      1.6649     25.2948   8.3587818132e+01   6.8524120813e+01    0.4226587    0.1035034 -58.98  0.001898444    2.966    0.663
        94 -12.1921    213.2154    247.4454   7.3891600693e+01  -5.0234803006e+00    0.3931951    0.1686059  29.77  0.001906618    2.610    0.617
        95 -11.4529     45.0716    245.1076   1.0066861191e+02   2.0667373347e+01    0.3166679     0.143933  64.11  0.001699884    1.667    0.400
        96 -12.4323     98.2758    244.8457   9.2459806373e+01   1.3662031998e+01    0.3314295    0.1590641  61.32  0.001948616    1.808    0.447
        97 -10.9766     77.2718    246.4291   9.5889350094e+01   1.6366508902e+01    0.1554315    0.0701251  54.43 0.0009501494    1.629    0.386
        98 -12.3220      3.3129    243.1856   1.0649942115e+02   2.5471399718e+01     0.361252    0.1649808  75.23  0.002259454    1.553    0.356
        99 -12.3359     85.0355    244.3264   9.4517505591e+01   1.5629198456e+01    0.3167842    0.1395349  56.27  0.001878247    1.744    0.427
       100 -12.2297     56.6734    241.7749   9.8728364499e+01   1.9789366695e+01    0.4247703    0.1491879  58.08  0.002359111    2.246    0.555
       101 -11.8576     29.6562    240.6536   1.0268296631e+02   2.3151662051e+01    0.3425702     0.160593  71.68  0.001645144    1.650    0.394
