#   1 NUMBER                 Running object number                                     
#   2 MAG_AUTO               Kron-like elliptical aperture magnitude                    [mag]
#   3 X_IMAGE                Object position along x                                    [pixel]
#   4 Y_IMAGE                Object position along y                                    [pixel]
#   5 X_WORLD                Barycenter position along world x axis                     [deg]
#   6 Y_WORLD                Barycenter position along world y axis                     [deg]
#   7 A_WORLD                Profile RMS along major axis (world units)                 [deg]
#   8 B_WORLD                Profile RMS along minor axis (world units)                 [deg]
#   9 THETA_WORLD            Position angle (CCW/world-x)                               [deg]
#  10 FWHM_WORLD             FWHM assuming a gaussian core                              [deg]
#  11 ELONGATION             A_IMAGE/B_IMAGE                                           
#  12 ELLIPTICITY            1 - B_IMAGE/A_IMAGE                                       
         1 -14.8326      6.5309    136.1393   1.1415912068e+02   4.5774231090e+01     3.754179     1.375303 -79.46   0.01222994    2.631    0.620
         2 -13.0113      5.8714     53.7360   9.9662445017e+01   6.5195377744e+01     1.201964    0.5236638 -52.88  0.005121454    1.798    0.444
         3 -13.5724     14.4241     42.0742   9.1820790310e+01   6.6886414903e+01     1.193283    0.9104737  25.87  0.005450849    1.540    0.350
         4 -12.8804    234.1479     31.2993   3.3021389364e+01   2.4476356420e+01    0.8492828    0.6163519  84.92  0.005591828    1.298    0.229
         5 -13.2188    219.6035     39.0806   3.6003991905e+01   2.6477587343e+01     1.550019    0.9298656 -83.40  0.008397531    1.752    0.429
         6 -12.2954     82.5190     35.9803   6.0560914198e+01   5.8026820101e+01    0.9127209    0.6822484 -41.93  0.005141034    1.573    0.364
         7 -12.1012     29.7689     31.0187   7.9853791430e+01   6.7277073745e+01    0.6671615    0.4766114 -28.31  0.003818412    1.248    0.199
         8 -13.0269     51.5606     29.3724   6.9223925936e+01   6.4495208352e+01     1.099508    0.9671535  19.79  0.007322335    1.201    0.168
         9 -12.1002     61.9345     26.3460   6.3809339841e+01   6.3157742625e+01     1.075955    0.5601107  27.02  0.005173063    2.041    0.510
        10 -11.9024    124.7988     19.6201   4.4010980444e+01   5.0609904043e+01    0.3884974    0.2916983 -25.78  0.002275842    1.518    0.341
        11 -12.6500    149.4545     12.0688   3.7664069149e+01   4.5533930052e+01    0.7778207    0.5581899 -38.72  0.003791705    1.530    0.346
        12 -12.7958    129.7910      8.1467   3.9466260632e+01   5.0511273516e+01    0.9259602    0.3381216  63.11  0.004040775    2.206    0.547
        13 -10.8379     96.4988      4.5078   4.4579778995e+01   5.8395248169e+01    0.3014177    0.1491871  39.34  0.001508315    1.903    0.475
        14 -10.6214     99.9908      6.4948   4.4545240730e+01   5.7465234913e+01    0.3405435     0.172085  66.59  0.001673516    1.909    0.476
        15  -9.7716      1.8814      1.8652   8.1728723317e+01   7.4397183222e+01     0.177217    0.1129852  -9.68  0.001142162    1.232    0.189
        16 -12.1443     60.2102    218.4049   1.0922125369e+02   2.0103100231e+01    0.7932284    0.3674507  42.49  0.003719539    1.913    0.477
        17 -11.9456     55.9873    211.4958   1.0947570625e+02   2.2213533512e+01     0.668011    0.4912843  81.18  0.002965411    1.320    0.242
        18 -11.3301     41.1938    213.5375   1.1305651208e+02   2.3529132378e+01     0.617277    0.2893063  62.24  0.002779926    2.318    0.569
        19 -14.2916     11.9616    203.3573   1.1874962997e+02   2.8896713698e+01     1.633255     1.184932 -81.74   0.01038436    1.200    0.167
        20 -12.4618     28.0518    191.0295   1.1405580919e+02   3.0259998031e+01     1.176045    0.5707198 -82.15  0.005501464    1.982    0.496
        21 -11.7333    132.9470    247.5914   9.6558439733e+01   3.7107178427e+00    0.3014448    0.1997766  46.33  0.001336888    1.459    0.315
        22 -13.1570     10.3623    122.3157   1.1126661203e+02   4.8997543644e+01     1.328829    0.6217772 -55.03  0.006129317    1.739    0.425
        23 -10.3156     58.7788    240.5098   1.1163810140e+02   1.5524271851e+01      0.32672    0.2453334 -46.99  0.001692493    1.721    0.419
        24 -12.1424     47.4127    198.7054   1.1015881785e+02   2.6272533845e+01    0.7467958     0.503342  41.66  0.002762357    1.436    0.304
        25 -11.2514     41.6154    180.0070   1.0953432767e+02   3.1525068123e+01    0.2724048    0.2354334 -53.53 0.0004939329    1.250    0.200
        26 -11.4678     49.6175    173.4179   1.0662060976e+02   3.2259425925e+01    0.2660773     0.249278 -44.57 0.0003830261    1.202    0.168
        27 -13.3754     16.2875    130.6169   1.1052405635e+02   4.6489052456e+01     1.445512    0.4885247 -64.26  0.005879477    2.269    0.559
        28 -10.3614     62.8077    163.3852   1.0155782735e+02   3.3163633034e+01    0.2531125    0.2255936 -66.73 0.0003107953    1.060    0.056
        29 -13.2446     47.3545    157.1702   1.0500489629e+02   3.6690134994e+01     1.325666    0.5750161 -70.10   0.00526455    2.234    0.552
        30 -11.1050     76.0274    157.7223   9.6853222574e+01   3.2766926139e+01    0.4793196    0.3859519  74.39  0.002428582    1.371    0.271
        31 -11.1182     71.1110    157.3130   9.8194447687e+01   3.3585417973e+01    0.6068435    0.3536929 -46.72  0.001363879    1.747    0.428
        32  -8.7984    132.4569    158.5603   8.1483973174e+01   2.2823684212e+01    0.1529091    0.1515656  89.82 0.0003549637    1.052    0.049
        33 -10.7549    246.1226    156.1059   5.7383430326e+01   2.5422309235e+00    0.2115547    0.1618201 -16.45  0.001256082    1.292    0.226
        34 -10.3909     32.5633    151.2341   1.0842675295e+02   3.9803375306e+01    0.3532253    0.1115583 -65.72  0.001296518    2.610    0.617
        35 -12.0864     67.9117    143.5215   9.6652975458e+01   3.7601959255e+01    0.7919062    0.4688261  61.87  0.003167247    2.321    0.569
        36 -10.8898     88.6986    143.7118   9.0454991318e+01   3.4380149086e+01    0.3341778    0.2876647  -8.90  0.001020891    1.334    0.250
        37 -11.8807     93.4446    141.2197   8.8525067896e+01   3.4217458103e+01    0.6544151    0.4718753  47.48  0.002866768    1.475    0.322
        38 -11.5129     96.3014    136.5818   8.6660367262e+01   3.4890128544e+01     0.582121    0.4322565  55.79  0.002687124    1.533    0.348
        39 -11.4630     76.0555    141.5719   9.3805153699e+01   3.6919801192e+01    0.3428681    0.2779296 -52.15 0.0003630363    1.167    0.143
        40 -12.1403     32.7154    139.6734   1.0675437386e+02   4.2767782580e+01    0.5565186    0.4066556 -45.77  0.002287431    1.355    0.262
        41 -12.1082    240.8787    138.8392   5.4685703232e+01   6.3713107056e+00    0.5225012    0.3828298 -12.68   0.00289312    1.605    0.377
        42 -11.8952    247.2329    134.6949   5.2882042128e+01   6.0407306732e+00    0.4411722    0.3450942 -83.82  0.002537722    1.851    0.460
        43 -11.1166     68.2128    128.6107   9.3582753606e+01   4.1390530105e+01     0.730366    0.4169335 -78.59  0.002774419    2.555    0.609
        44 -10.6929    104.9640    131.3906   8.2910746029e+01   3.4615836942e+01    0.5515761    0.3594547  25.62  0.002333574    1.775    0.437
        45 -11.8934     90.0638    128.1971   8.6627955557e+01   3.8060606437e+01    0.6122505    0.3696903 -61.39 0.0005735389    1.764    0.433
        46 -11.2838     34.5650    121.2870   1.0317824747e+02   4.7302125988e+01    0.3971472    0.3012431 -24.41  0.001524468    1.470    0.320
        47 -12.8409     37.3043    115.9221   1.0126300507e+02   4.8388580115e+01     0.842645     0.686619 -40.68  0.003968647    1.165    0.142
        48 -11.1955     26.3384    112.5450   1.0441000334e+02   5.0252137448e+01    0.4374777     0.243099 -66.79  0.001928895    1.602    0.376
        49 -10.3530     24.6681    105.4387   1.0369214674e+02   5.2153665111e+01    0.3639579    0.2249262 -71.23  0.001839682    1.564    0.360
        50  -9.1698    102.7200    119.7400   8.0725189292e+01   3.7856492252e+01    0.2005506    0.1803052  79.21  0.000381596    1.278    0.218
        51 -10.2224     53.9124    105.6870   9.3274815979e+01   4.9047780039e+01    0.2311689    0.1794356  -9.18  0.001194375    1.448    0.309
        52 -11.0395     38.5105    103.5377   9.8312933599e+01   5.1340496693e+01    0.3078001     0.264405 -45.25  0.001796112    1.022    0.022
        53 -13.1663    241.3905     93.8389   4.5208964750e+01   1.3954811989e+01    0.8898121     0.499846 -48.15  0.004623743    1.514    0.339
        54 -10.8003     37.2065     96.6056   9.7246633011e+01   5.3150340748e+01    0.5524727    0.3028491  -4.08  0.002337278    2.634    0.620
        55 -10.7828     52.4894     91.4066   9.0223752854e+01   5.2621249814e+01    0.3913791    0.1309955 -54.93  0.001379107    2.775    0.640
        56 -10.1320     37.7030     93.0000   9.6215862165e+01   5.3956403790e+01    0.3891945     0.264024 -28.27  0.002018647    1.499    0.333
        57 -12.5209     35.0695     79.0895   9.3734583465e+01   5.7422949288e+01     1.205718    0.7563756 -47.17  0.005019393    1.369    0.270
        58 -10.8776     30.7703     67.4422   9.2270353730e+01   6.0384099589e+01    0.5009914    0.3220475 -30.41  0.002721532    1.424    0.298
        59 -10.6298     11.6809     78.9791   1.0329898834e+02   5.9375206095e+01    0.4096294     0.271947 -48.31  0.001747589    1.206    0.171
        60 -10.2096     11.1796     72.9320   1.0214538643e+02   6.0768355738e+01    0.2611139    0.1768921  -2.28  0.001529947    1.596    0.373
        61 -11.3543     54.8483     76.8399   8.5193900023e+01   5.5549292917e+01    0.4925383     0.366035  73.93  0.002346663    2.339    0.572
        62 -10.5871     49.9184     69.9559   8.5023920922e+01   5.7654853429e+01    0.4165226    0.2663069  -0.65  0.002008227    1.900    0.474
        63  -8.4322     37.4894    247.4950   1.1651417601e+02   1.6665352534e+01    0.1189535   0.09533118  64.28 0.0008105176    1.017    0.017
        64 -12.1630     15.3257     50.9112   9.4289800009e+01   6.5119289160e+01     0.647279     0.416999 -50.76  0.003211862    1.412    0.292
        65  -9.0911     59.5971    245.8630   1.1193235058e+02   1.4331606550e+01    0.1677284    0.1041166  85.34 0.0005987042    1.741    0.426
        66 -11.4754     57.4977     50.3205   7.5180789101e+01   6.0296479126e+01    0.7650689    0.4426579  39.39  0.003832145    1.787    0.441
        67 -11.8201     46.1947     45.9230   7.8241442091e+01   6.2711534748e+01    0.9485517    0.3617831  29.80  0.003938994    2.719    0.632
        68 -14.6263    112.7953    230.4765   9.8695064432e+01   1.0016838013e+01     2.670543    0.9697687  34.33  0.009701904    2.489    0.598
        69 -12.2973    213.4966     47.4806   3.8511168488e+01   2.6652957815e+01    0.5705419    0.4324043  89.53  0.002652934    1.256    0.204
        70 -11.5046     78.6457    223.0177   1.0552121027e+02   1.6602395278e+01    0.7183542    0.4260287  51.34  0.003272253    1.589    0.371
        71 -12.3284     75.6973    233.8040   1.0736295347e+02   1.4697955947e+01    0.8628411    0.5079497  81.74  0.004140079    2.170    0.539
        72 -13.2796     85.2057    231.5839   1.0501972223e+02   1.3844769333e+01     1.242584    0.6913673  52.20  0.006168503    1.737    0.424
        73  -9.5686     68.8662    240.7479   1.0953114661e+02   1.4173870369e+01    0.2439199    0.1410193  51.67  0.001118627    1.534    0.348
        74 -10.7079     85.9960    223.6266   1.0391349196e+02   1.5429587429e+01    0.4257158     0.271634 -70.70  0.001231209    1.709    0.415
        75 -10.0818     41.0689    238.6728   1.1515784968e+02   1.8054891639e+01    0.2819178    0.1653846  55.43  0.001091033    1.460    0.315
        76 -11.1421     46.6645    234.9073   1.1370214597e+02   1.8184375057e+01    0.4303871    0.2715842  74.53  0.001569465    1.539    0.350
        77 -10.8609     30.3146    230.2047   1.1674430146e+02   2.1057459872e+01    0.5063545    0.2334851  56.37  0.002571972    1.959    0.490
        78  -9.8644     64.1778    230.9315   1.0959372735e+02   1.6841736525e+01    0.3242198    0.1660523  39.38  0.001628698    1.716    0.417
        79 -10.2376     66.8419     45.0014   6.9523808622e+01   5.9638676643e+01    0.2470005    0.1868128  32.20  0.001405305    1.247    0.198
        80 -10.9805     63.3256    223.8483   1.0907545702e+02   1.8489080036e+01    0.5909267     0.296322  54.49  0.002794553    1.965    0.491
