#   1 NUMBER                 Running object number                                     
#   2 MAG_AUTO               Kron-like elliptical aperture magnitude                    [mag]
#   3 X_IMAGE                Object position along x                                    [pixel]
#   4 Y_IMAGE                Object position along y                                    [pixel]
#   5 X_WORLD                Barycenter position along world x axis                     [deg]
#   6 Y_WORLD                Barycenter position along world y axis                     [deg]
#   7 A_WORLD                Profile RMS along major axis (world units)                 [deg]
#   8 B_WORLD                Profile RMS along minor axis (world units)                 [deg]
#   9 THETA_WORLD            Position angle (CCW/world-x)                               [deg]
#  10 FWHM_WORLD             FWHM assuming a gaussian core                              [deg]
#  11 ELONGATION             A_IMAGE/B_IMAGE                                           
#  12 ELLIPTICITY            1 - B_IMAGE/A_IMAGE                                       
         1 -13.0879     60.5414     45.5036   1.0291162610e+02   6.0802859897e+01    0.9805151    0.4572555 -47.84  0.003856012    1.967    0.492
         2 -13.5754    120.5695     39.2556   7.9448786901e+01   5.0376355185e+01    0.9185931    0.7487404 -60.46  0.002543462    1.577    0.366
         3 -12.1105    106.1156     32.5225   8.0922568302e+01   5.4721048642e+01     1.196218     0.610821   3.35  0.003293956    5.267    0.810
         4 -12.0434    105.9034     20.1109   7.5640224062e+01   5.6494404534e+01    0.4981403     0.298275 -24.35 0.0004299122    1.674    0.403
         5 -11.7571    177.8538     22.0482   6.1331926195e+01   3.7866921117e+01    0.7178744    0.3940671  21.91  0.002786553    2.584    0.613
         6 -12.1348     26.7925     27.9375   1.1218324152e+02   6.8162559301e+01    0.4507592    0.3823038 -67.90  0.002958448    1.442    0.307
         7 -13.0831     23.0480     10.7399   1.0702233211e+02   7.1818662001e+01     0.959875    0.4064146  25.66   0.00480395    2.581    0.613
         8 -12.2366     12.8132     18.1594   1.1624042743e+02   7.1159590776e+01    0.4577019    0.2552401   2.47  0.002625524    2.045    0.511
         9 -12.4984     16.7715     13.6014   1.1207892551e+02   7.1791723300e+01    0.4566487    0.2816642 -60.15  0.001928235    1.738    0.425
        10 -12.0796    154.0289     24.9500   6.6318173008e+01   4.3844301403e+01    0.5355344    0.4182839  47.03  0.002717833    1.203    0.169
        11 -11.3766     88.0640      7.3417   7.5073476812e+01   6.2022316432e+01    0.5010136     0.276841  26.88  0.002044373    1.923    0.480
        12 -12.6722     90.7031     20.1995   8.0424594550e+01   5.9846120744e+01    0.6061543    0.5264962 -15.54  0.002446728    1.136    0.119
        13 -11.4690     87.5495     12.7477   7.7925159031e+01   6.1490476461e+01    0.8197749    0.2904472  41.95  0.003066768    2.685    0.628
        14 -11.7165     47.0667     19.0444   9.7941179886e+01   6.7643568118e+01    0.3699444    0.2637523 -29.03  0.001274713    1.197    0.164
        15 -12.1513     35.4046     18.5430   1.0371035434e+02   6.9153941976e+01    0.6062713    0.2592245 -39.45  0.002546346    1.971    0.493
        16 -13.4769     45.5216     11.9140   9.5136450769e+01   6.9050968473e+01      1.06563    0.4503398  41.66  0.004738672    2.847    0.649
        17 -13.2202     69.1353     18.2939   8.7554391028e+01   6.4320636006e+01    0.7514985    0.5601148  44.98  0.003929608    1.528    0.346
        18 -11.8899     65.5947     10.4320   8.5009175558e+01   6.6089946105e+01    0.3615714    0.2626788  38.49  0.001445514    1.407    0.289
        19 -10.8672     63.0662      6.1782   8.3780919528e+01   6.7113903637e+01    0.2703036     0.168898  -8.70  0.001051855    1.621    0.383
        20 -12.8376    236.4118     16.8067   5.3087405093e+01   2.3761308890e+01    0.7462716    0.4919781  32.93  0.003874362    1.916    0.478
        21 -12.3482    244.3987     16.0685   5.2222458956e+01   2.2023161921e+01     0.426161    0.3086748  33.20  0.002407151    1.702    0.413
        22 -12.3824    236.3422      8.0437   5.0875341925e+01   2.4635293125e+01    0.5272992    0.3969752  10.87  0.003010502    1.656    0.396
        23 -12.7375    246.8076      7.0673   4.9840476795e+01   2.2364266861e+01    0.4979922    0.3540085 -82.05   0.00207998    1.446    0.308
        24 -11.6885    241.4677      4.3146   4.9559729437e+01   2.3815806576e+01    0.2854204    0.1761185  64.91  0.001238645    1.665    0.399
        25 -11.1638    206.9301     18.1370   5.6376612406e+01   3.0749350861e+01      0.41159    0.1879297 -38.72   0.00174308    2.079    0.519
        26 -11.5966    165.5096     17.3208   6.1644437480e+01   4.1641868507e+01    0.4357811    0.2395755  43.62  0.001363425    1.815    0.449
        27 -10.9308    225.9804     16.7085   5.4015912041e+01   2.6217463976e+01    0.3390286    0.1787407 -28.55  0.001609785    1.775    0.437
        28 -11.4623    223.6046     11.5873   5.2876689445e+01   2.7293765030e+01    0.3433289    0.2380463  68.80  0.001035849    1.440    0.305
        29 -12.7085    104.7782     12.6146   7.2583751446e+01   5.7659403565e+01    0.6543263    0.3724869  -9.75  0.002610306    1.952    0.488
        30 -12.7584    107.1746      2.1509   6.7121609531e+01   5.8161607315e+01     1.960817    0.3424933  62.26  0.004883255    5.983    0.833
        31 -13.4490    130.4001     14.0745   6.6924468541e+01   5.1202420065e+01     1.314144    0.8167259  87.26  0.005479226    2.370    0.578
        32 -11.1069    114.8811     16.2717   7.1506262442e+01   5.4833351876e+01    0.4157662    0.1963574 -34.63  0.001702205    2.212    0.548
        33 -11.0666    186.4108     15.2433   5.7973944518e+01   3.6323581141e+01    0.3094676    0.2200596  42.17 0.0006760439    1.448    0.309
        34 -12.4669    186.6035      9.3426   5.6108100641e+01   3.6843320410e+01    0.6589334    0.3357262 -63.65  0.002328655    2.633    0.620
        35 -12.4106    193.4012      6.6383   5.4498448851e+01   3.5321720117e+01    0.7659101     0.430118  37.22  0.003262777    2.072    0.517
        36 -11.7702    211.3015     10.6810   5.3801184016e+01   3.0393164656e+01    0.4430622    0.3022645   1.83  0.001731759    1.795    0.443
        37 -12.3628    121.0069      7.8142   6.6382565397e+01   5.4219128805e+01    0.5152507    0.3388266  64.64  0.001723741    1.537    0.350
        38 -10.6887    157.5007     10.9447   6.0685688839e+01   4.4409553008e+01    0.3083031    0.1257215 -28.60  0.001183552    2.425    0.588
        39 -13.0162     18.9487     22.7102   1.1445598032e+02   6.9833797013e+01     0.895115    0.6034909  43.35  0.005265551    2.114    0.527
        40 -12.2131      3.1552      1.7048   1.1561597686e+02   7.4915036688e+01    0.3800295    0.2038633  -0.12  0.002269156    2.034    0.508
        41 -10.9923      5.3716      9.2945   1.1735952019e+02   7.3339889787e+01    0.3617586    0.1356078 -35.63  0.001618536    2.238    0.553
        42 -10.9521      5.2915      5.4787   1.1583197110e+02   7.4084019617e+01    0.2788347    0.1223721 -51.03  0.001099138    1.692    0.409
        43 -10.2754    168.7485     10.2072   5.8729724766e+01   4.1483782539e+01    0.2467555    0.1364499  36.52  0.001045251    1.995    0.499
        44 -12.0461     76.9392      5.5390   7.7958607359e+01   6.4556012170e+01    0.5171495    0.3660235 -29.29  0.001750378    1.464    0.317
        45 -11.9799     72.2545      2.5717   7.8093599484e+01   6.5833085576e+01    0.5956645    0.2418766  31.43  0.002285865    2.910    0.656
        46 -10.9027    153.2220      6.9032   5.9911403026e+01   4.5923472656e+01    0.2621828    0.1940369  61.71 0.0006843455    1.245    0.197
        47 -10.5500      1.3009      7.2351   1.1918441802e+02   7.3937842809e+01    0.1490238   0.08698668 -60.85  0.000364277    1.536    0.349
        48 -11.8878    203.1248      2.9214   5.2404661473e+01   3.3161546194e+01    0.4345257    0.3839933  36.14  0.001766105    1.226    0.185
        49 -12.1531    225.9108      2.5347   5.0297385428e+01   2.7587933135e+01    0.6282551    0.3169749 -78.05  0.002790718    2.377    0.579
        50 -11.7869    219.0419      2.6444   5.0890801697e+01   2.9230944762e+01    0.3497591    0.2680691 -77.34  0.002009894    1.292    0.226
        51 -10.8559    174.6773      4.6121   5.6068922898e+01   4.0415109390e+01    0.2595603    0.2120422  61.19 0.0009156931    1.140    0.123
        52 -11.2225    141.9295      3.7770   6.0611492218e+01   4.9188868813e+01    0.3329566    0.2799497  84.00  0.001814386    1.277    0.217
        53 -11.8917     43.1559      2.7718   9.1299226554e+01   7.0789370368e+01    0.3770532    0.2368184   1.97  0.002054975    1.686    0.407
        54 -11.1752     29.8749      3.6367   9.9244533499e+01   7.2359531126e+01    0.2808401    0.2170699 -64.35  0.001627138    2.320    0.569
        55 -12.0066    157.7469      2.7361   5.7722619208e+01   4.5081596624e+01    0.3462469    0.3097201 -77.77  0.001110347    1.196    0.164
        56 -12.1519    133.8689      2.4890   6.1542890603e+01   5.1409862459e+01    0.3330375    0.2467876  61.13 0.0004510832    1.250    0.200
        57 -10.7791    182.7082      1.7611   5.4191673804e+01   3.8539258110e+01    0.2366698    0.1880395 -76.76  0.001283869    1.305    0.234
        58 -10.8875     14.7505      1.7329   1.0773532814e+02   7.4144596189e+01    0.2611322    0.1350578  -1.83  0.001376802    2.308    0.567
        59  -9.8249    204.3289    141.6735   8.9939575564e+01   1.3725792604e+01    0.1315174    0.1170847 -80.68  0.000705062    1.704    0.413
        60 -10.4916    133.8459    139.7510   1.0518764508e+02   2.8020945203e+01    0.2490779     0.160039  -3.28 0.0009605353    2.872    0.652
        61 -10.1208    186.5344    139.5170   9.3058689729e+01   1.7634641252e+01    0.1469289    0.1301568  13.61 4.963559e-05    1.005    0.005
        62 -10.1153     33.2870    138.6394   1.3125854568e+02   4.2432230271e+01    0.1283274   0.07676015  69.57 0.0007023123    1.686    0.407
        63 -12.4161     23.1563    135.4212   1.3356057590e+02   4.4001221356e+01    0.4428909    0.2689506  41.18  0.002701744    1.660    0.397
        64 -12.3572     29.7846    132.9453   1.3160388670e+02   4.4013706922e+01    0.3602937    0.2127997 -66.00  0.000882477    1.502    0.334
        65  -9.9781     47.4949    134.4912   1.2706406972e+02   4.1999525627e+01    0.1242221    0.1099155 -87.57 0.0008105256    1.020    0.020
        66 -11.8889    175.7441    129.0012   9.2951374467e+01   2.1679189106e+01    0.4122461    0.2789151   2.72  0.001812087    1.948    0.487
        67 -11.4483     10.5124    127.2074   1.3614853247e+02   4.6739008845e+01    0.3985441    0.1267567 -61.46   0.00158024    2.616    0.618
        68 -12.6106    240.6573    122.7758   7.9108203002e+01   9.4072958936e+00    0.6519797    0.4309452 -29.66  0.002873797    1.415    0.293
        69 -11.2323    187.8825    128.1906   9.0159577202e+01   1.9272579209e+01    0.3554186    0.1859586  38.13  0.001488817    1.862    0.463
        70 -10.2005     92.3461    128.6900   1.1385708632e+02   3.7550661521e+01    0.1452976    0.1039675  69.89 0.0007045063    1.705    0.414
        71 -11.1466    223.9155    125.7832   8.2644055200e+01   1.2243328306e+01    0.3784965    0.1809479 -41.28  0.001576049    2.336    0.572
        72 -11.2435    221.9505    120.9386   8.1848567069e+01   1.3352143284e+01    0.3779124    0.2830988  81.83  0.001551399    2.422    0.587
        73 -10.1775     18.5832    124.2651   1.3375803999e+02   4.6849524080e+01    0.1686859   0.08914842 -65.45 0.0009393871    1.618    0.382
        74 -12.0915    104.6859    121.3028   1.0895494467e+02   3.7192928615e+01     0.442992    0.4197034 -51.22  0.001668931    1.060    0.056
        75 -10.9795    203.9931    121.0000   8.5188900252e+01   1.7062486528e+01    0.2379918    0.2089784   3.92  0.001315324    1.028    0.027
        76 -10.9415     45.8167    120.4610   1.2570032789e+02   4.5393451159e+01    0.2555686     0.153605  53.74  0.001350617    1.781    0.439
        77 -11.2664      3.9272    120.5704   1.3738091997e+02   4.8618007121e+01    0.2171711    0.1394843 -80.74 0.0005494472    1.248    0.198
        78 -10.3659    211.6531    119.3355   8.3332471312e+01   1.5715778549e+01    0.1404926    0.1170064 -68.87 0.0005365312    1.774    0.436
        79 -10.9961    186.6168    118.5806   8.8092436500e+01   2.1181073620e+01    0.4485474    0.2624381  63.96  0.001714148    2.714    0.632
        80 -12.0787     18.8148    106.1358   1.3184642753e+02   5.0987447366e+01    0.2480136    0.1710065 -68.30  0.000249944    1.212    0.175
        81 -11.9023     23.6241     99.8734   1.2960743004e+02   5.2112526208e+01    0.4927464    0.1593269 -62.34   0.00188385    2.345    0.574
        82 -11.5350     21.4790    114.2240   1.3195216182e+02   4.8933824978e+01    0.2795535    0.2092532  -9.34  0.001046126    1.808    0.447
        83 -11.4928     27.9044    113.0964   1.2995765399e+02   4.8710050854e+01    0.3484705    0.2240949  21.90  0.001810704    1.854    0.461
        84 -11.0007     66.9062    111.6572   1.1802582170e+02   4.5056070196e+01    0.3696395    0.1838688 -63.11  0.001449419    1.914    0.477
        85 -11.5533      2.3693    112.1358   1.3716944382e+02   5.0592906551e+01    0.3178687    0.1708562 -75.91 0.0008543986    1.472    0.321
        86 -12.3316      3.6861    105.6265   1.3626501925e+02   5.1997328266e+01    0.3930413    0.3256225  80.31   0.00194649    1.135    0.119
        87 -12.2325    170.3522    110.4227   8.9556202858e+01   2.6191627944e+01    0.4620197    0.4025986 -12.55  0.001808116    1.138    0.121
        88 -10.4187     56.4870    122.4994   1.2292652236e+02   4.3780322776e+01    0.1291137    0.1169638 -79.81 -1.944196e-06    1.012    0.012
        89 -10.6342     48.9041    112.1668   1.2356821878e+02   4.7014098521e+01    0.2027467    0.1648306  74.95  0.001226492    1.262    0.208
        90 -11.5241    249.1914    108.2788   7.4401710641e+01   9.7379869379e+00    0.2926576    0.2065061  -4.26   0.00157905    1.391    0.281
        91 -11.7462    246.2983    104.0172   7.3825349971e+01   1.0871593688e+01    0.2451271    0.2123686  55.53   0.00125091    1.409    0.290
        92 -12.0234    157.1638    106.6448   9.1630316055e+01   2.9816386389e+01    0.4907517    0.3334535 -10.93  0.002087209    1.924    0.480
        93 -11.3302     78.8301    107.6290   1.1359564256e+02   4.4378998830e+01    0.3193258    0.2358028 -13.10  0.001239543    1.824    0.452
        94 -12.6740     25.5423    107.3649   1.2996502493e+02   5.0223921354e+01    0.6984668    0.3484553 -42.34   0.00347921    2.307    0.567
        95 -12.5801    144.4108    103.7339   9.4001540624e+01   3.3171334737e+01    0.8006368    0.4013837 -26.85  0.002795268    2.766    0.638
        96 -11.5653    181.5227    103.7083   8.5349690033e+01   2.4874562027e+01     0.650605     0.428254 -38.88  0.002959599    1.552    0.356
        97 -10.4207     86.1598    104.5423   1.1067950070e+02   4.3996982124e+01    0.2437645    0.1617108 -49.74 0.0007595942    1.442    0.307
        98 -11.3264     37.6268    103.2186   1.2566676043e+02   5.0205570866e+01     0.459707    0.2373036  21.87  0.002294922    2.308    0.567
        99 -10.7206     48.0799    103.1486   1.2235047868e+02   4.9220248019e+01    0.1894023     0.157736 -46.42 0.0003183186    1.207    0.172
       100 -10.7438    194.9604    101.8446   8.2108964320e+01   2.2141453624e+01     0.271564    0.2148937 -25.86 0.0008790315    1.229    0.186
       101 -10.5199     57.5195    102.4988   1.1923175788e+02   4.8343549307e+01    0.1331207    0.1206684 -74.64 0.0008099973    1.043    0.041
       102 -12.8238      7.2357     88.5865   1.3349186907e+02   5.5727881627e+01    0.6806219    0.4006943 -76.29   0.00228227    1.369    0.270
       103 -12.2690     10.9239     98.9047   1.3345434087e+02   5.3148283911e+01    0.4023663    0.3034045  65.91  0.002679598    1.365    0.268
       104 -11.6902     10.2173     94.7490   1.3322286331e+02   5.4147916800e+01    0.2062277    0.1431564 -29.69 0.0006658849    1.739    0.425
       105 -11.4568     23.2476     94.6399   1.2902602888e+02   5.3363963252e+01    0.2384384    0.2085497  40.16 0.0007855846    1.319    0.242
       106 -12.4107     18.9554     95.5640   1.3053559723e+02   5.3436994376e+01      0.28125    0.2201124 -80.45 0.0007729173    1.097    0.088
       107 -12.6856     18.1814     90.3390   1.3010386419e+02   5.4706304873e+01    0.3599003    0.2615238 -64.38 0.0006164105    1.141    0.124
       108 -11.2854    236.4811     99.3783   7.4197349760e+01   1.3482135518e+01    0.3092673     0.215628 -28.03  0.001617709    1.309    0.236
       109 -10.7561     67.2098     99.3885   1.1550720182e+02   4.7886251524e+01    0.3017637    0.1648254  42.98  0.001399245    1.978    0.494
       110 -11.2248     68.3229     95.8545   1.1438555764e+02   4.8565878138e+01    0.3410598    0.2545035 -25.06  0.000772987    1.582    0.368
       111 -10.9754    210.1086     97.1631   7.8034552924e+01   1.9476938034e+01    0.3313812    0.2356894  14.97  0.001447109    1.587    0.370
       112 -10.7821    190.7946     96.5653   8.1527538971e+01   2.3960615429e+01    0.2851945    0.2111157 -28.63  0.001375872    1.323    0.244
       113 -11.2023     30.3112     96.1087   1.2693729572e+02   5.2493540332e+01    0.2669745    0.2122193  84.62   0.00168199    1.258    0.205
       114 -11.6061    126.3332     93.1157   9.5889446874e+01   3.9166420357e+01    0.3751439    0.2410521  36.91 0.0009238243    1.581    0.368
       115 -11.6809     35.1925     92.6622   1.2478082250e+02   5.2905057211e+01    0.3519181    0.2549693 -87.04  0.002057806    1.394    0.283
       116 -12.5387    236.3281     92.1024   7.2421068459e+01   1.4524687300e+01    0.4454969    0.3295215 -48.47  0.001801771    1.563    0.360
       117 -11.4220    117.6741     92.8622   9.8270014150e+01   4.0987087573e+01    0.3059364    0.1750479  28.87   0.00121794    2.095    0.523
       118 -11.3539     82.2599     93.5446   1.0931666496e+02   4.7114418354e+01    0.3222893    0.1442333  31.49  0.001226046    2.490    0.598
       119 -11.4550    152.7279     91.6359   8.8572455053e+01   3.3656911038e+01     0.432968    0.2489421  45.04  0.001789401    1.707    0.414
       120 -11.6502     89.3072     90.1707   1.0619294192e+02   4.6760558960e+01    0.3775702    0.2664275 -52.11  0.001227724    1.370    0.270
       121 -11.3430    101.9531     90.1023   1.0219580459e+02   4.4583828979e+01    0.4162478    0.2762096 -19.76  0.001323165    2.039    0.510
       122 -12.0591    183.8300     86.2538   8.0079705038e+01   2.7296847376e+01    0.7430725    0.3780777 -42.45  0.002905125    2.084    0.520
       123 -11.7128    123.5994     88.2515   9.5265447725e+01   4.0735808276e+01    0.2179358     0.143291 -31.93 0.0008833688    1.601    0.375
       124 -10.4817    212.3565     87.3142   7.5046094299e+01   2.0462482840e+01    0.1580964    0.1075103  18.16 0.0005515208    1.742    0.426
       125 -11.6183     37.4128     85.9509   1.2284418307e+02   5.4294527021e+01    0.2758205    0.2436192  24.44 0.0005111889    1.310    0.237
       126 -11.4235     43.2925     85.5615   1.2071117943e+02   5.3843922704e+01    0.3654882     0.133752  24.19   0.00148167    3.194    0.687
       127 -11.4758     24.2665     85.7012   1.2737174922e+02   5.5388976260e+01    0.2367837    0.2009198 -41.96 0.0008637608    1.222    0.182
       128 -11.4705    143.4454     84.0367   8.8666512362e+01   3.7216575939e+01    0.3425345    0.2809406 -20.55 0.0009408483    1.249    0.199
       129 -11.9310     79.3595     82.6504   1.0747640905e+02   5.0031938151e+01    0.6619077    0.4918842 -85.08  0.003207374    1.877    0.467
       130 -11.7821     73.0858     77.7902   1.0832308729e+02   5.2061534194e+01    0.5883883    0.3798374 -26.95  0.002756461    1.852    0.460
       131 -11.3851    165.6497     83.0981   8.3052287826e+01   3.2178111588e+01    0.3836748    0.3045575 -33.20  0.001475557    1.260    0.206
       132 -10.9298    113.4080     83.2689   9.6762818666e+01   4.3851511333e+01    0.2752655    0.1960112 -50.96 0.0009455961    1.483    0.326
       133 -11.1091    239.6772     82.7004   6.9579567824e+01   1.5103149349e+01    0.2552109    0.1565006  40.26  0.001083135    1.746    0.427
       134 -11.4394     66.6282     81.9633   1.1168698477e+02   5.2009256311e+01    0.3568103    0.2998953  11.41  0.002039611    1.327    0.246
       135 -10.6769    109.0338     80.8628   9.7364472012e+01   4.5221182552e+01    0.2365186    0.2210821  -6.32  0.001149568    1.042    0.040
       136 -12.1635     52.9509     75.9809   1.1511883345e+02   5.5071015205e+01    0.5986185    0.2984579 -60.96  0.002733104    1.865    0.464
       137 -13.0189    241.7080     76.5473   6.7753102209e+01   1.5493078397e+01    0.6600047    0.4159704  70.40  0.002569998    2.101    0.524
       138 -12.3617     13.8908     74.3931   1.2930906339e+02   5.8674377293e+01    0.4150528    0.3212421 -74.45  0.001965891    1.108    0.098
       139 -12.4521      2.0608     71.5127   1.3322784491e+02   5.9891598627e+01     0.537499    0.1611959 -73.19   0.00231299    2.548    0.608
       140 -11.4978     14.4532     67.1002   1.2791259533e+02   6.0332731343e+01    0.3295452    0.2089648 -69.64  0.001145911    1.300    0.231
       141 -12.5699      6.2592     62.1292   1.3029698714e+02   6.1872586425e+01    0.5997984     0.276121 -46.08  0.003206685    1.883    0.469
       142 -11.2688     94.8749     76.2624   1.0045903871e+02   4.8858256732e+01    0.4049149    0.2811512  58.36  0.001861906    1.873    0.466
       143 -12.2739     85.2138     73.7844   1.0295286150e+02   5.1062333185e+01    0.6055247    0.4201676  49.17  0.002948986    1.668    0.400
       144 -12.0928     78.6895     67.4299   1.0329626249e+02   5.3497042724e+01    0.5267302    0.3964303 -78.80  0.002555571    1.928    0.481
       145 -11.0737     58.4584     78.2122   1.1365624112e+02   5.3911592430e+01     0.232429    0.1921049  25.25 0.0006784819    1.338    0.252
       146 -11.2263    184.3104     60.9615   7.2551926119e+01   3.1157248080e+01    0.3013572    0.2669784  -1.54  0.001117414    1.136    0.120
       147 -13.4316    186.1557     69.4393   7.4748862477e+01   2.9418759384e+01     1.029994    0.6791566 -50.63  0.004361551    1.780    0.438
       148 -11.0182    230.0482     73.2473   6.8543771180e+01   1.8473101019e+01    0.2954575     0.215831 -70.31  0.001229122    1.896    0.473
       149 -11.5531    192.2687     65.6369   7.2502176318e+01   2.8481045553e+01     0.471086     0.330065 -81.58  0.002015777    2.158    0.537
       150 -11.3469     40.4710     71.9520   1.1884988247e+02   5.7291561018e+01    0.4798662     0.248377 -38.67  0.002285843    1.994    0.498
       151 -11.7246     33.6809     71.8731   1.2142338669e+02   5.7908883864e+01    0.4149858    0.2455414  31.45  0.002153866    1.926    0.481
       152 -11.9961    162.2027     70.5021   8.0004943711e+01   3.5172458449e+01    0.4301552    0.3800641 -82.41  0.001622171    1.391    0.281
       153 -10.7410     20.7830     71.6594   1.2628790802e+02   5.8902573766e+01    0.1772713    0.1485812  -1.38 0.0006193717    1.423    0.297
       154 -11.2953    239.9082     68.6345   6.5995292406e+01   1.6916193740e+01    0.4963841    0.1446786 -35.18  0.001757462    2.882    0.653
       155 -12.5216    122.4463     68.4989   8.9465100750e+01   4.4897688091e+01    0.5917035    0.3813444  48.21  0.002042803    1.590    0.371
       156 -11.4972    209.3119     67.6881   7.0201581655e+01   2.4037004823e+01    0.4792763    0.2300136  39.21  0.001837571    2.418    0.586
       157 -13.0541    219.1973     66.2581   6.8277573229e+01   2.1901394309e+01    0.9016386    0.3986083  54.21  0.003000078    2.274    0.560
       158 -11.3226    172.2304     68.0838   7.7098177408e+01   3.3086682387e+01    0.3765448     0.283131 -32.20  0.001122456    1.323    0.244
       159 -11.0351    197.7959     62.9656   7.0758741210e+01   2.7505762315e+01    0.4737615    0.3124552 -63.00  0.002023287    2.103    0.525
       160 -10.9881     58.3486     62.2284   1.0934694060e+02   5.7539594399e+01    0.4133297    0.2652509 -79.14  0.001828998    2.531    0.605
       161 -11.0840    105.1412     62.2683   9.2591900812e+01   4.9759720236e+01    0.2846418      0.20169 -65.39  0.001097133    2.071    0.517
       162 -11.6994     91.3420     62.2753   9.7162040434e+01   5.2417299589e+01    0.4620677    0.3411852 -38.28  0.001674858    1.284    0.221
       163 -10.9056     91.2040     57.6168   9.5597301435e+01   5.3376669823e+01    0.3218223    0.2244166  27.53  0.001043688    1.526    0.345
       164 -11.1197     87.5839     56.7653   9.6563772402e+01   5.4206078042e+01    0.4582121    0.2013755 -46.07  0.001711842    2.248    0.555
       165  -9.7063    205.3185     62.3184   6.9330844020e+01   2.5755544358e+01    0.1550774    0.1097171  21.29 0.0007041231    1.660    0.397
       166 -11.6914    159.2402     61.5412   7.7815137574e+01   3.7378553745e+01     0.477928    0.2749812  44.18  0.001953349    1.712    0.416
       167 -10.7566    113.5410     61.2354   8.9626718887e+01   4.8204985786e+01    0.3775884    0.1472411 -36.49  0.001302292    2.581    0.613
       168 -11.8009     39.9149     55.6547   1.1495207922e+02   6.1055497375e+01    0.6121516    0.3513748  64.12  0.002508845    3.607    0.723
       169 -12.1146     50.5677     61.0512   1.1209215175e+02   5.8734244962e+01    0.4459943     0.338819 -64.16  0.001193231    1.355    0.262
       170 -11.9520     46.3864     58.2190   1.1298056748e+02   5.9825997002e+01    0.4284033    0.2191148 -57.31  0.001452979    1.762    0.433
       171 -11.4581    249.7665     60.1283   6.2631391887e+01   1.5879439712e+01    0.3256719    0.2027458 -49.41  0.001053356    1.716    0.417
       172 -12.2240    122.6161     58.8971   8.6146021569e+01   4.6633379004e+01    0.5600736    0.4307872  63.20  0.002629232    1.566    0.361
       173 -11.0767    118.0055     56.3271   8.6566965560e+01   4.8128758596e+01    0.2825835    0.2158227  60.44  0.001131769    1.545    0.353
       174 -11.0267     25.9583     59.9734   1.2189147325e+02   6.1249628449e+01     0.308888    0.2159752  38.43  0.001672398    1.724    0.420
       175 -12.5300     26.5458     54.3246   1.2031127194e+02   6.2489465601e+01    0.6069158    0.3542758  -8.24   0.00317819    2.193    0.544
       176 -12.1769    219.6119     57.2427   6.5761459819e+01   2.3012905900e+01    0.4740282      0.31774  82.42  0.002005032    1.953    0.488
       177 -11.7999    136.7970     55.9368   8.1278133032e+01   4.3826096705e+01    0.5856081    0.4247557   3.66  0.001761975    1.658    0.397
       178 -10.9847    144.7613     52.1656   7.7997339661e+01   4.2487011703e+01    0.4242516    0.2677037  22.85  0.001720966    2.006    0.501
       179 -12.2614    145.6195     45.4980   7.5455710274e+01   4.3293604214e+01    0.5981237    0.4323829 -17.71   0.00279602    1.451    0.311
       180 -11.1253    161.7608     56.7584   7.5708985265e+01   3.7498108073e+01    0.3565164    0.2471448  75.73  0.001262661    1.879    0.468
       181 -12.3534    156.0653     52.6668   7.5584354407e+01   3.9569203542e+01     0.819971      0.52137 -46.22  0.003301675    1.766    0.434
       182 -10.5647     81.5298     50.5147   9.6492015940e+01   5.6509961377e+01    0.2517864    0.2252008 -14.94 0.0008020881    1.010    0.010
       183 -11.4768     73.4090     49.1325   9.9059146297e+01   5.8141162742e+01    0.9742092    0.3674023 -54.96  0.002995408    4.284    0.767
       184 -11.1569     78.1682     51.3575   9.8056491982e+01   5.6917747818e+01    0.4412875    0.2256845 -48.97  0.001880444    2.010    0.502
       185 -12.0182     12.4913     62.1749   1.2782402771e+02   6.1570264913e+01    0.2331045    0.1922871  -6.16 0.0003472379    1.440    0.306
       186 -11.1961     66.6390     54.9418   1.0376399276e+02   5.7986632136e+01    0.2501479    0.2039455  37.67 0.0007620211    1.376    0.273
       187  -9.7787    242.6639    249.3333   1.0235802313e+02  -5.5534202117e+00   0.09258746   0.07536447  34.98  0.000705211    1.739    0.425
       188 -11.0178     60.8347     36.9174   9.9475074476e+01   6.2453750132e+01    0.2417091    0.1735495 -37.30  0.000694556    1.248    0.199
       189 -11.7466    247.3663     51.7279   6.0817312502e+01   1.7415670272e+01    0.5672245    0.3145697  88.71  0.002418073    2.916    0.657
       190 -11.7367    240.2184     50.0132   6.1201229861e+01   1.9189905681e+01    0.3678844    0.3130071 -81.14   0.00143712    1.336    0.252
       191 -10.7562    206.7431     53.1676   6.6496706652e+01   2.6655438292e+01    0.2490172    0.2044003  82.59   0.00116687    1.393    0.282
       192 -10.7364    215.5813     51.6001   6.4771326706e+01   2.4709349978e+01    0.3857573    0.1311844 -27.93  0.001348411    2.755    0.637
       193 -12.1108     93.8615     41.2072   8.8472699385e+01   5.5917933893e+01     1.900114    0.3891001  49.60  0.004459473    6.728    0.851
       194 -11.3166    100.8528     43.5826   8.7082074933e+01   5.4076451860e+01    0.5879382    0.2837467  45.91  0.002382403    2.087    0.521
       195 -11.5536    113.7167     49.6221   8.5384816078e+01   5.0260949784e+01    0.6663339    0.3877451  22.06  0.002341599    2.395    0.583
       196 -13.1698    116.8127     42.8703   8.1909506917e+01   5.0685842680e+01     1.233388    0.7669356  75.08   0.00461681    2.951    0.661
       197 -11.0989    142.9699    249.5130   1.1948400545e+02   8.2018881684e+00    0.1802857   0.08180965  38.33  0.001038481    1.607    0.378
       198 -12.3072     45.5886     48.9736   1.1050738384e+02   6.1936891172e+01    0.4898407    0.3750576 -36.92  0.001997378    1.129    0.114
       199 -12.2708     41.7311     45.3890   1.1104632653e+02   6.3116893496e+01    0.3380171    0.2263319  28.63  0.001070095    1.684    0.406
       200 -10.5634    228.5499     49.9436   6.2597177693e+01   2.1851000685e+01    0.2385386    0.1813733 -70.63 0.0009637219    1.562    0.360
       201 -11.1724    231.0808     46.2040   6.1292908482e+01   2.1724031224e+01    0.3548327    0.1525939  38.54  0.001285799    3.269    0.694
       202 -11.7443    202.2958     47.3299   6.5475686442e+01   2.8524032301e+01    0.4998765    0.3372053  -9.70  0.002194501    1.669    0.401
       203 -11.8039    176.2504     37.9084   6.6748532124e+01   3.6415810138e+01    0.5050466    0.3129102  -2.53  0.001915916    2.059    0.514
       204 -12.3473    173.9198     47.5176   7.0274055105e+01   3.5739952307e+01    0.7265102    0.4313222  61.31  0.002562963    1.716    0.417
       205 -11.3935    176.9894     43.4836   6.8418733384e+01   3.5495373043e+01    0.3553835    0.2999572  69.88  0.001677669    1.244    0.196
       206 -10.5856     52.0492     47.6553   1.0727755056e+02   6.1469223126e+01    0.2942173    0.1286207 -33.92  0.001162388    2.630    0.620
       207 -11.5607     21.4486     47.5366   1.2085943554e+02   6.4366716013e+01    0.2657155    0.2108014 -70.61 0.0008590504    1.267    0.211
       208 -10.4235      2.7657     48.6336   1.2945300283e+02   6.5070552684e+01    0.1449899    0.1057405  28.33 0.0007825617    1.727    0.421
       209 -11.5887    247.5063     46.5175   5.9500664194e+01   1.8005244955e+01    0.2439678     0.212541  10.34 0.0005100567    1.249    0.199
       210 -11.3362    194.4029     46.1813   6.6347273345e+01   3.0662579295e+01    0.5157268    0.2941461 -86.82  0.001861432    3.066    0.674
       211 -11.0438    162.5156     43.7567   7.1229241265e+01   3.9214516068e+01    0.2943032    0.2103229  56.08  0.001286998    1.367    0.268
       212 -11.6463     33.8082     43.8760   1.1416367024e+02   6.4208959778e+01    0.2318918    0.1851478 -41.34 0.0008673155    1.028    0.028
       213 -11.3381    153.0594     36.0474   7.0476919742e+01   4.2715507680e+01     0.291855    0.2372332  39.64 0.0003926225    1.182    0.154
       214  -9.7520     26.2869     43.3638   1.1749820584e+02   6.4943175105e+01      0.13791   0.07364529 -37.76 0.0007022411    1.693    0.409
       215 -10.9661    188.9444     42.1660   6.5991513141e+01   3.2578434489e+01    0.2253373    0.1938905 -58.20  0.000433664    1.258    0.205
       216 -11.0762    217.9991     39.2078   6.1007622437e+01   2.5663348350e+01    0.2586091     0.228434  68.92 0.0009589813    1.176    0.150
       217 -12.1948    205.6880     37.0990   6.2011491289e+01   2.8951100675e+01    0.6788495    0.3202022  57.51  0.002489054    2.044    0.511
       218 -11.5402    199.3608     35.4754   6.2404903236e+01   3.0743080088e+01    0.4126272    0.2959404  49.30  0.001773797    1.396    0.284
       219 -10.7818     86.8756     31.4812   8.6848767981e+01   5.8934828234e+01    0.3345268    0.2349087 -49.94  0.001633059    1.793    0.442
       220 -11.7594     80.9446     39.4471   9.2399690093e+01   5.8692180222e+01    0.4916019    0.3474081  64.74  0.001913543    2.301    0.565
       221 -11.4562     77.4469     34.4765   9.1657933008e+01   6.0200617343e+01    0.3863432    0.2567296  39.72   0.00114273    1.567    0.362
       222 -11.4983     82.3498     31.3568   8.8447826371e+01   5.9828489120e+01    0.3320945    0.3141565  37.01  0.001549394    1.257    0.204
       223 -12.3050    155.7733     41.7368   7.1910910937e+01   4.1239670465e+01    0.4240905    0.3818077 -34.92  0.001074822    1.160    0.138
       224 -10.3666    231.2384     39.4532   5.9491513647e+01   2.2491680120e+01    0.1968252    0.1371168  70.12  0.000595475    1.547    0.354
       225 -11.6728    225.8983     36.7890   5.9395400708e+01   2.4054873050e+01    0.4247535    0.2392683  68.23   0.00157534    1.888    0.470
       226 -10.0801    184.6698     39.3325   6.5798728733e+01   3.4043696044e+01     0.157609    0.1110742 -61.83 0.0007052013    1.722    0.419
       227 -11.2298    133.6271     37.7227   7.5461767509e+01   4.7435075695e+01      0.43202    0.3138642 -68.26  0.001914613    2.001    0.500
       228 -11.9084     21.7403     36.1328   1.1752859316e+02   6.6838895323e+01    0.3675747    0.2553065  42.04  0.001639901    1.903    0.475
       229 -11.5835      4.2441     35.9949   1.2615818673e+02   6.7818075885e+01    0.2082837     0.169606 -50.51 0.0003830843    1.071    0.066
       230 -10.5959    187.1879     36.3862   6.4478065582e+01   3.3759436907e+01    0.2014614    0.1412422  80.20 0.0003729379    1.629    0.386
       231 -10.9965    248.8201     33.2061   5.6061005108e+01   1.9237448128e+01    0.3608824    0.1381654 -31.85  0.001544333    2.186    0.543
       232 -11.7919    171.0433     33.7282   6.6275525467e+01   3.8305795616e+01    0.4490741    0.1855963  46.42  0.001623837    2.403    0.584
       233 -11.4703    162.3676     32.3563   6.7367883261e+01   4.0756802206e+01    0.5984079    0.3031848  35.37  0.002261812    2.342    0.573
       234 -11.3283    159.9297     30.0259   6.7012317777e+01   4.1685258470e+01    0.4026314    0.2563253  34.36  0.001070746    1.684    0.406
       235 -10.9742    163.9322     27.6113   6.5450970840e+01   4.0919635598e+01    0.2949362      0.24767 -10.72 0.0005614397    1.240    0.194
       236 -10.4875    199.5326    244.5376   1.0890790925e+02   7.6225012144e-01      0.11393   0.08141105  26.91 8.166199e-05    1.029    0.028
       237 -12.1702    127.6406    242.6384   1.2153412835e+02   1.1247110914e+01    0.2630426    0.1707074 -82.74  0.001636777    2.550    0.608
       238 -12.0514    115.2209     24.6157   7.4980166134e+01   5.3724206658e+01    0.4729041    0.2545142  44.10  0.001443215    1.739    0.425
       239 -11.7155    109.9767     23.4725   7.5944027606e+01   5.5112829054e+01    0.3606894     0.291451  72.82  0.001854423    1.556    0.357
       240 -11.5382    211.4357     31.2235   5.9583724701e+01   2.8204582226e+01    0.4803731    0.2691675 -29.75  0.001616206    1.697    0.411
       241 -12.0307    141.7142     31.6223   7.1284202001e+01   4.6226168877e+01    0.6597048    0.3000374 -44.86  0.002381399    2.691    0.628
       242 -12.3078    133.3490     23.8497   7.0176631660e+01   4.9341175071e+01     0.574079    0.4067648 -87.09   0.00256918    2.025    0.506
       243 -12.2134    143.9651     24.6315   6.8183947095e+01   4.6515884047e+01    0.5093452    0.3603566  63.66  0.001480892    1.420    0.296
       244 -12.2633    140.1890     20.5789   6.7424342535e+01   4.7967227123e+01    0.6524431    0.3038294  48.29  0.002074528    1.956    0.489
       245 -11.0508    239.1145     31.8119   5.6661522785e+01   2.1552615398e+01    0.3912073    0.3174879  22.00   0.00226719    1.433    0.302
       246 -10.5806    221.8791     31.6755   5.8472803018e+01   2.5600393707e+01    0.2464622    0.1876986  -8.05   0.00131282    1.429    0.300
       247 -10.0882    216.6207     32.1249   5.9209512996e+01   2.6825055742e+01    0.1926794    0.1303924  -7.16 0.0004817963    1.696    0.410
       248 -11.2294    182.3298     32.0785   6.3878392363e+01   3.5546549224e+01    0.3152065    0.2212923  79.22 0.0008327262    1.589    0.371
       249 -12.0943    181.9820     25.4565   6.1818816041e+01   3.6404139812e+01    0.6338742    0.3227531  36.36  0.002189426    2.358    0.576
       250 -11.1292    150.4200    237.7668   1.1684613331e+02   8.6716227878e+00    0.1346356    0.1060619 -21.63  0.000952744    1.661    0.398
       251 -10.6305    181.4381     16.4507   5.9014831889e+01   3.7508806726e+01    0.2250716    0.1821172 -34.57 0.0005876291    1.265    0.210
       252 -11.5791     56.0259     30.9799   9.9121260117e+01   6.4263993203e+01     0.267968    0.2130059   7.88 0.0003316971    1.249    0.199
       253 -12.8264     48.6472     30.4581   1.0229959362e+02   6.5353000853e+01    0.6946318    0.3401654  24.54  0.002806329    2.330    0.571
       254 -10.4460     15.1946    233.8225   1.4071063354e+02   2.5719658267e+01     0.116674    0.1023144  77.82  0.001074712    1.364    0.267
       255 -11.6754    242.6902    231.6294   9.9729007652e+01  -3.9355442385e+00    0.2168207    0.1589535  44.54  0.001475571    1.985    0.496
       256 -11.2775    197.7611    231.8363   1.0747592511e+02   2.4292547302e+00    0.1999135    0.1036027  11.21 0.0009554043    2.844    0.648
       257 -10.3600     23.2568    231.6170   1.3928817493e+02   2.5337161613e+01    0.1221933   0.08119176  34.55 0.0007186215    1.570    0.363
       258 -10.9437    188.5228     30.5358   6.2456057059e+01   3.4114433172e+01    0.2460726    0.2133354  -4.14 0.0006175538    1.214    0.176
       259 -10.5920    189.3804     27.2985   6.1327983467e+01   3.4263322149e+01    0.2810564    0.1663054  16.88  0.001139858    2.365    0.577
       260  -9.6741    147.6679     31.7211   7.0039674362e+01   4.4678456207e+01    0.1603204    0.1069777  30.73 0.0007000277    1.605    0.377
       261 -11.1536    135.1494     31.3409   7.2669529612e+01   4.7933978205e+01    0.3087324    0.1916515 -89.46  0.001130089    2.969    0.663
       262 -10.7238     99.4556     30.3213   8.2073533612e+01   5.6516710591e+01    0.2693181    0.2292824  85.94  0.001384253    1.685    0.406
       263 -10.5200      6.5744     30.6041   1.2363305007e+02   6.8890101633e+01    0.2731155    0.1160749 -17.45  0.001295357    2.933    0.659
       264 -12.1395    198.5323     27.4570   6.0127959374e+01   3.1883845742e+01    0.5496696    0.3655382  -0.16  0.002421023    1.833    0.454
       265 -12.7731    124.4760     27.4905   7.3747459344e+01   5.1103863285e+01    0.6351493    0.4597996  38.95  0.001694179    1.304    0.233
       266 -11.5533    229.7907     26.8939   5.6333344444e+01   2.4246704895e+01    0.3411521    0.2158608 -38.00  0.001135531    1.457    0.314
       267 -11.0125    250.1814     25.9477   5.4154176119e+01   1.9725897550e+01    0.3088967    0.1751822 -12.79  0.001500666    2.018    0.504
       268  -9.7903    117.4954    227.4935   1.2187398878e+02   1.4861297316e+01    0.1169011   0.08967756  45.83 -3.13476e-05    1.041    0.039
       269 -11.0625    155.8540     19.5039   6.4027848316e+01   4.3974238432e+01    0.4818476    0.2790738  80.69  0.001977241    2.153    0.535
       270 -12.0296    214.1185     24.1889   5.7284501040e+01   2.8319539927e+01    0.3617676    0.3513039  28.14  0.001197462    1.085    0.078
       271 -11.7114    223.1749     21.6877   5.5624199184e+01   2.6376846717e+01    0.4012749    0.2507969 -75.62  0.001930359    1.903    0.475
       272 -10.0036    169.3443     23.3146   6.3071699428e+01   3.9979363116e+01    0.1612547    0.1031512  33.55 0.0006754044    1.712    0.416
       273 -10.3872      9.4493    227.4713   1.4144350862e+02   2.7253930883e+01   0.09725741   0.06811218  63.34 5.355982e-05    1.007    0.007
       274 -10.8077    234.5321    222.5452   9.9669134522e+01  -1.9012634147e+00    0.1176166   0.08420587  17.20 4.426067e-05    1.010    0.010
       275 -10.4632    144.6655    214.6874   1.1510626637e+02   1.2800259328e+01     0.120438   0.08597743  12.52 0.0007045228    1.683    0.406
       276 -10.8874    166.0319    213.0156   1.1069845345e+02   9.7065997616e+00    0.1810089    0.1383056  60.19 0.0004832792    1.703    0.413
       277 -10.9088     38.5323     22.0358   1.0364973380e+02   6.8158419538e+01    0.3335909    0.1704512 -35.65  0.001135617    1.705    0.414
       278 -10.0445     90.0023    210.7705   1.2555437154e+02   2.1352886727e+01    0.1562676   0.08048073  38.55 0.0006639039    1.620    0.383
       279 -10.6930    153.1748    208.3983   1.1257127394e+02   1.2421000758e+01    0.1867709   0.09524446  45.85 0.0009483049    1.763    0.433
       280 -10.4263    246.0455     22.4911   5.3667926922e+01   2.0999047436e+01    0.1819483    0.1262508  75.77 0.0006855779    1.542    0.351
       281 -11.6823    238.5599    204.6017   9.6015583926e+01  -5.6987936670e-01    0.2735405    0.1511796   5.63  0.001481853    1.944    0.486
       282 -10.7591      4.5382    204.7898   1.4151816631e+02   3.1537707397e+01     0.178421   0.07769763 -77.30  0.001132498    2.123    0.529
       283 -11.3266    234.8011    197.0837   9.5347182684e+01   8.4646576962e-01    0.4101541    0.2212623  15.72  0.002094245    1.889    0.470
       284 -11.2624    169.8775    191.4887   1.0663249685e+02   1.2262211817e+01    0.3387792    0.1830732  27.40  0.001149734    1.857    0.461
       285 -10.3135    161.8476    190.5982   1.0813121805e+02   1.3762381048e+01    0.1877123    0.1059265  46.63  0.000911442    1.692    0.409
       286 -12.5802      4.0824    184.1992   1.4082301299e+02   3.5364462223e+01    0.4722414     0.246491  88.87  0.003132383    1.605    0.377
       287 -11.2083    240.0165    184.8350   9.2216427707e+01   1.4700460825e+00    0.2105161    0.1556342  -8.23 0.0005999355    1.207    0.171
       288 -11.6378    213.2034    182.4892   9.6573227876e+01   6.1552772398e+00    0.3073285    0.2834212  21.70  0.002039306    1.327    0.246
       289 -10.6472     57.1313    175.1506   1.2908325199e+02   3.2168180663e+01    0.1617713    0.1520322  75.81 0.0004552742    1.171    0.146
       290 -11.1364    248.0115    173.8974   8.8774815324e+01   1.5067843232e+00    0.4189076    0.1276839  32.27    0.0015348    3.680    0.728
       291 -10.7376     80.1656     19.2782   8.3715661880e+01   6.2117928304e+01      0.24277    0.1615061  37.39 0.0007657904    1.451    0.311
       292 -10.7152     51.6792    173.3174   1.3013417238e+02   3.3151079546e+01    0.1265148   0.07346098  63.76 0.0004066652    1.663    0.399
       293 -10.7860     39.5253    173.5082   1.3284809803e+02   3.4383210172e+01    0.1146485   0.09435403  72.74 9.346687e-06    1.007    0.007
       294 -10.8567    191.6024     16.4171   5.7678963653e+01   3.4850566572e+01    0.2897544    0.2179514  12.30  0.001477348    1.548    0.354
       295 -11.0205    145.6016     16.5493   6.4818362749e+01   4.6995795454e+01    0.2804326    0.1882147 -61.60 0.0006613521    1.957    0.489
       296 -10.7032    197.9846    168.0524   9.6729212880e+01   1.0879895567e+01    0.2078355    0.1792537  15.98 0.0005575783    1.052    0.050
       297 -10.1830    149.4661    168.5098   1.0703839761e+02   1.9655226507e+01     0.137718    0.1220255  31.81  0.000809618    1.007    0.007
       298 -11.9590     10.0308    165.5422   1.3873427153e+02   3.8587395112e+01     0.380537    0.1947398 -59.48  0.002293355    2.100    0.524
       299 -11.2609    188.8554    164.3582   9.7830161493e+01   1.3126478193e+01    0.2601301    0.1929332 -16.76 0.0009049885    1.414    0.293
       300 -10.6164     18.9874    165.0104   1.3676040301e+02   3.7990895643e+01    0.1652135    0.1231476 -50.28  0.001140913    1.687    0.407
       301 -11.8622    205.8980    163.0025   9.4173861262e+01   1.0186529491e+01    0.4676817    0.2731338  27.83  0.001288114    1.638    0.390
       302 -11.0305     27.8400    163.5554   1.3469332479e+02   3.7535656044e+01    0.1925213    0.1182862 -88.34 0.0008433561    1.442    0.306
       303 -11.2307     13.7469    157.3927   1.3745031550e+02   3.9984701259e+01    0.2578953    0.1110679 -84.25  0.001265954    2.036    0.509
       304 -10.7940    224.4923    157.3569   8.9528358189e+01   7.6157568603e+00    0.2560772     0.196493 -43.25  0.001437262    1.710    0.415
       305 -10.4969      8.8444    156.1590   1.3847597300e+02   4.0605317608e+01    0.1448236    0.1173675 -66.17 0.0007548096    1.352    0.260
       306 -11.6586    104.7601    153.8871   1.1503661351e+02   3.0132931479e+01    0.2667801    0.2246765  80.11  0.001550067    1.284    0.221
       307 -11.0584     31.7709    154.1600   1.3304884691e+02   3.9169661639e+01    0.3291095    0.1725312  51.12  0.001865994    1.770    0.435
       308 -11.5765     30.4708    149.1295   1.3293280648e+02   4.0372134204e+01    0.2540041    0.1716723  72.86 0.0007572572    1.348    0.258
       309 -10.5252    209.6492    153.6949   9.1522915541e+01   1.0869687458e+01    0.1479559    0.0955377  12.34 0.0007041552    1.705    0.413
       310 -11.1361    215.0041    151.7213   9.0088373110e+01   1.0156957150e+01    0.2000167     0.166857  18.64 0.0006881093    1.062    0.058
       311 -10.7077     48.2599    151.7677   1.2883196002e+02   3.8073421777e+01    0.1549655     0.135276 -50.17 0.0005897474    1.342    0.255
       312 -12.2594     23.0997    149.0995   1.3470647087e+02   4.1006724648e+01    0.3671186    0.2339865 -34.90  0.002142175    2.319    0.569
       313 -10.6092     85.4566    149.9729   1.1926095076e+02   3.3868824055e+01    0.1947179    0.1260734 -63.58 0.0006811323    1.566    0.361
       314 -11.0517     63.7823    150.3866   1.2480350845e+02   3.6622745762e+01     0.167647    0.1210212  19.59 0.0009491404    1.703    0.413
       315 -10.4600     44.4304    150.5460   1.2964932295e+02   3.8736546925e+01    0.1202913     0.102572  81.26 1.957548e-05    1.008    0.008
       316 -10.9475     16.0270    147.9883   1.3630777425e+02   4.1802906678e+01    0.2620917    0.1389062  39.56  0.001160572    1.829    0.453
       317 -12.0359      5.0411    147.2488   1.3883121536e+02   4.2740416042e+01    0.3112382    0.2451659   6.00  0.002266843    1.772    0.436
       318 -12.0367    249.7549    143.6193   8.2278282606e+01   4.9783113253e+00    0.6084822    0.2204739 -30.63  0.002553155    2.525    0.604
       319 -10.9331    240.0813    146.8065   8.4561101483e+01   6.2596695539e+00    0.2283641    0.1883999   7.19 0.0006797721    1.036    0.035
       320 -11.5116     33.0792    144.1494   1.3184225563e+02   4.1228873677e+01    0.2499057    0.1917879  61.55 0.0007552904    1.210    0.173
       321 -10.1933    234.3322    143.6737   8.4864656810e+01   7.7174559918e+00    0.1223242    0.1092424 -59.66 0.0004914428    1.711    0.416
       322 -12.1682     14.4002    141.4159   1.3623201251e+02   4.3343364367e+01    0.2713968    0.1779803 -83.48  0.001769485    1.270    0.213
       323 -12.0131      3.5163    141.5320   1.3885656647e+02   4.4056988711e+01    0.2920763    0.2386071  19.70    0.0021923    1.570    0.363
       324 -11.8270      3.9962    136.5592   1.3844102352e+02   4.5097788139e+01    0.2161488    0.1810617 -72.70 0.0004005267    1.215    0.177
