#   1 NUMBER                 Running object number                                     
#   2 MAG_AUTO               Kron-like elliptical aperture magnitude                    [mag]
#   3 X_IMAGE                Object position along x                                    [pixel]
#   4 Y_IMAGE                Object position along y                                    [pixel]
#   5 X_WORLD                Barycenter position along world x axis                     [deg]
#   6 Y_WORLD                Barycenter position along world y axis                     [deg]
#   7 A_WORLD                Profile RMS along major axis (world units)                 [deg]
#   8 B_WORLD                Profile RMS along minor axis (world units)                 [deg]
#   9 THETA_WORLD            Position angle (CCW/world-x)                               [deg]
#  10 FWHM_WORLD             FWHM assuming a gaussian core                              [deg]
#  11 ELONGATION             A_IMAGE/B_IMAGE                                           
#  12 ELLIPTICITY            1 - B_IMAGE/A_IMAGE                                       
         1 -11.0933    190.0488     32.0473   6.1884998064e+01   3.3590784217e+01    0.8874205    0.8315731  -8.82   0.00487673    1.069    0.065
         2 -11.4515    198.8653     19.3318   5.6602533576e+01   3.2725205100e+01    0.9327146    0.6851007  -8.18  0.003440753    1.470    0.320
         3  -7.6120    171.1170     16.0889   5.9469908014e+01   4.0487507969e+01    0.2224209    0.1840326  31.07            0    1.233    0.189
         4  -8.7767    120.1144    249.4509   1.1918239615e+02   1.3167756662e+01    0.1728415    0.1500865 -71.96  0.000837177    1.532    0.347
         5  -8.8455     97.9126    250.1417   1.2262414566e+02   1.6031906919e+01    0.1840064   0.09392679  52.78 0.0008017856    1.397    0.284
         6  -9.8835     61.8572    249.1500   1.2794948447e+02   2.0571564247e+01    0.3431033     0.220777  78.90  0.002208687    1.389    0.280
         7 -10.2407     71.3071    249.8994   1.2659723283e+02   1.9365031380e+01    0.4599183    0.1626386  41.02  0.002404912    2.309    0.567
         8 -10.2568     56.3259    224.6929   1.2737662237e+02   2.4761996510e+01    0.4923998    0.1751486  63.08  0.002341181    2.806    0.644
         9 -10.2917     54.7799    230.8878   1.2798899407e+02   2.4000522587e+01    0.3228644    0.1910938  68.65  0.001285986    1.323    0.244
        10 -11.1936     52.3951    238.3531   1.2877127729e+02   2.3169756194e+01    0.4869939    0.3332944  65.12  0.003047968    1.039    0.038
        11 -11.3522     35.3246    229.8594   1.3092536103e+02   2.6270817180e+01    0.5463942     0.451881 -50.13  0.002867204    2.186    0.543
        12 -11.0462     45.6768    229.8029   1.2933784119e+02   2.5176883629e+01     0.607492    0.3518409 -54.19  0.004255024    2.841    0.648
        13 -11.3371     27.6096    249.5151   1.3289031600e+02   2.4199555081e+01    0.4414081    0.1836947  42.93 0.0008816599    1.903    0.474
        14 -14.0980     13.5227    242.5917   1.3462005866e+02   2.6544310506e+01     2.418246     1.426497 -73.63   0.01197123    1.949    0.487
        15  -7.8784    101.3004    234.8517   1.2091977390e+02   1.7644314736e+01    0.1673959   0.07780935  66.38 0.0009243441    2.599    0.615
        16  -7.9127     66.9782    234.9818   1.2634156519e+02   2.1977331756e+01    0.1584649   0.08062948  62.89 0.0004444299    1.586    0.369
        17  -9.0714    119.2326    229.6666   1.1756419148e+02   1.5880304932e+01     0.340848    0.2691559 -10.10   0.00237172    2.446    0.591
        18  -9.2676    111.5953    230.8049   1.1891433278e+02   1.6799152936e+01    0.2114702    0.1176453  46.60  0.001424021    1.357    0.263
        19  -7.6960     82.8277    231.0952   1.2357932002e+02   2.0593880604e+01    0.1242812    0.1050159  55.53  0.001054735    1.298    0.229
        20  -9.9350     96.6994    227.0836   1.2102199968e+02   1.9366178335e+01     0.307745    0.1969534  33.74  0.002103133    1.828    0.453
        21  -9.1312    110.4172    224.9899   1.1857921083e+02   1.7783806906e+01    0.2083114    0.1572838  55.46 0.0008682363    1.020    0.020
        22  -9.4508     87.2157    225.0076   1.2240534297e+02   2.0925474855e+01    0.1927244     0.118698  49.23  0.001161297    1.255    0.203
        23  -9.3099     77.4552    210.6956   1.2289323935e+02   2.4396815929e+01     0.265251    0.2144067 -64.39    0.0020937    1.585    0.369
        24 -11.0818     76.2621    217.9695   1.2366686031e+02   2.3400572060e+01    0.6311232    0.3453414  67.63  0.001709505    1.667    0.400
        25 -12.2846     56.9685    211.4969   1.2642203888e+02   2.6767395603e+01     1.347483    0.5224074  56.65   0.00785809    2.104    0.525
        26 -11.9881    241.6574    242.6699   9.9867944841e+01  -3.7221747435e+00    0.2157634     0.159121  28.63 0.0009260584    1.114    0.103
        27 -10.0719    154.0323    220.2109   1.1078084114e+02   1.1943483022e+01    0.1767602    0.1499078  50.15 0.0002601711    1.113    0.101
        28  -9.9324     47.2821    217.8794   1.2841716224e+02   2.6843108361e+01    0.3456422    0.1641057  59.09  0.001554426    1.603    0.376
        29  -9.6033     39.1579    213.9776   1.2950814771e+02   2.8345894913e+01    0.2545587    0.1114556  41.87 0.0009721479    1.957    0.489
        30  -7.7822    168.8859    213.7605   1.0747503287e+02   1.0417342956e+01    0.1517495    0.1112955  55.94 0.0005971107    1.328    0.247
        31  -8.9673      3.7009    213.1049   1.3506289262e+02   3.1905236426e+01    0.2017663    0.1142154  68.97 0.0006573859    1.206    0.171
        32 -11.4162     11.1205    207.1661   1.3368273451e+02   3.2207644248e+01    0.4965265    0.2682039  35.01  0.001939774    2.106    0.525
        33  -8.7709     68.8989    245.8213   1.2671331860e+02   2.0209642936e+01    0.2120249    0.1369133  51.93  0.001039816    1.166    0.142
        34  -9.1443     35.9426    207.6407   1.2968134100e+02   2.9716581104e+01     0.248352     0.111522  56.00  0.001305542    1.673    0.402
        35  -7.3827    155.8158    205.6010   1.0865720757e+02   1.3624499003e+01    0.1565956   0.08979498  50.92 0.0002820528    1.487    0.327
        36  -9.0659    197.2571    199.4403   1.0062841524e+02   7.5005873321e+00    0.2960517    0.2239166  49.45  0.001964789    1.295    0.228
        37 -11.0226     65.1823    200.2519   1.2418866620e+02   2.7648670496e+01     0.560869    0.4438245  76.16  0.002964027    1.107    0.096
        38  -8.1592      8.5627    195.5868   1.3361680755e+02   3.4368008611e+01    0.1725639   0.09383103  78.86 0.0001858394    1.389    0.280
        39  -8.2476     13.6918    194.1061   1.3269588431e+02   3.4164868967e+01    0.1584752   0.09312493  57.52  0.000362443    1.296    0.229
        40  -9.3232     77.1489    183.7861   1.2054316878e+02   2.8993644217e+01    0.2724366    0.2164621 -42.80   0.00138631    1.896    0.473
        41  -9.1686     81.0051    178.1782   1.1922945000e+02   2.9490374677e+01    0.2183528     0.200615 -65.28 0.0005612378    1.393    0.282
        42  -8.3105     30.9438    174.2822   1.2850374164e+02   3.6070851104e+01      0.14107    0.1084031  66.68 0.0001791176    1.118    0.105
        43  -9.1143     36.0987    172.0045   1.2736449549e+02   3.5974951507e+01    0.3018855    0.1615726 -64.39  0.001939184    1.911    0.477
        44  -7.8520     81.7637    171.1864   1.1831698385e+02   3.0674117536e+01    0.1793601    0.1318729  68.78 0.0005985497    1.179    0.152
        45  -9.1229     87.5556    242.2345   1.2364074426e+02   1.8416906075e+01    0.1866692     0.127982  61.02 0.0009432267    1.083    0.077
        46  -9.2798     88.7529    167.9376   1.1652891221e+02   3.0306700625e+01    0.2958756    0.1859314  61.24 0.0004481274    1.471    0.320
        47 -10.6663     77.0688    163.5964   1.1840550636e+02   3.2744164486e+01    0.3564683    0.2392581 -47.79  0.001696008    1.959    0.489
        48  -9.1852    247.0757    165.0116   8.6394513449e+01   2.8642093941e+00    0.2972512    0.1726769  44.87 0.0006990504    1.637    0.389
        49  -9.3056    247.5160    160.1425   8.5377198500e+01   3.3332596931e+00    0.2506736     0.183442  30.61  0.001551098    1.183    0.154
        50  -7.0879    172.4977    170.5899   1.0036330033e+02   1.5827766538e+01    0.1290648    0.1096452  41.34  9.74139e-05    1.017    0.016
        51  -9.2204    102.9908    162.0142   1.1283616452e+02   2.9307126021e+01    0.1770875    0.1538582  67.93  0.001185204    1.023    0.023
        52  -8.6422     93.1816    161.6749   1.1482962120e+02   3.0848604135e+01    0.2204082     0.180769 -88.93 0.0005593419    1.150    0.130
        53  -8.7678     38.5469    161.9921   1.2610411932e+02   3.7626847210e+01    0.1829031    0.1612783  18.33  0.001398899    1.715    0.417
        54  -8.9431      9.2971    162.1343   1.3185210022e+02   4.0312924900e+01    0.1478089    0.1370091  53.45  0.000464306    1.481    0.325
        55  -8.5272    169.0035    158.0076   9.8800691085e+01   1.8446253905e+01    0.1908613    0.1702671  36.52  0.001185634    1.039    0.037
        56  -8.8507    247.5304    155.0555   8.4364159114e+01   3.9110986738e+00    0.2249856    0.1644915  38.96 0.0002993513    1.293    0.227
        57 -10.3229    215.6431    153.2501   8.9275032970e+01   1.0105617108e+01    0.2462323    0.2098997  36.09 0.0004024364    1.113    0.102
        58  -7.3929     28.1522    152.8561   1.2748165300e+02   4.0440759018e+01    0.1293423    0.1074669 -79.52 -0.000430966    1.262    0.208
        59 -10.3609     68.2728    144.9162   1.1803389839e+02   3.7593697511e+01    0.6007274    0.3338462  68.93   0.00317352    2.004    0.501
        60  -8.1039     29.0189    148.0758   1.2691276963e+02   4.1307636150e+01    0.1617094    0.1211108  80.39  0.001187826    1.039    0.038
        61  -8.1903    101.8335    146.8512   1.1086206390e+02   3.2404039307e+01    0.2117412     0.174254  32.68 0.0003653018    1.420    0.296
        62  -8.0761    105.4630    145.1086   1.0978757201e+02   3.2168858434e+01     0.219466     0.159187 -56.62  0.000953168    1.433    0.302
        63  -7.4645    107.1591    237.4011   1.2019751483e+02   1.6502957256e+01    0.1549468   0.06778335  51.21 0.0005385083    1.713    0.416
        64  -8.9037    234.7590    135.4292   8.2308016583e+01   8.7155320803e+00     0.230577    0.2011276   9.37 0.0003247168    1.023    0.022
        65  -7.4812    220.4555    134.4663   8.4495541942e+01   1.1710130507e+01    0.1339158    0.1236848  16.70 0.0001087419    1.083    0.077
        66  -7.8202    114.4496    133.5048   1.0577795267e+02   3.2969012148e+01    0.2267993    0.1261403  32.61 0.0009421103    2.223    0.550
        67  -7.2517    167.4966    130.5445   9.3621602129e+01   2.3335977657e+01    0.1399839    0.1307961  40.49 9.984605e-05    1.006    0.006
        68  -7.4707    101.4942    130.0595   1.0815217296e+02   3.5833074434e+01    0.1878954    0.1231033 -55.05 0.0005543134    1.526    0.345
        69  -7.3728     26.8125    127.8071   1.2556944753e+02   4.5656041738e+01    0.1667603   0.06292447  43.03 0.0008628011    2.525    0.604
        70  -9.0826      6.0075    116.8484   1.2949005699e+02   4.9586690422e+01    0.1849568    0.1764528  74.77  0.001009076    1.356    0.263
        71  -7.9381    167.7871    113.2175   8.9605815674e+01   2.6304732305e+01    0.2350592    0.1588365 -82.22 0.0009392977    2.700    0.630
        72  -7.3230    196.5379    107.5560   8.2509009298e+01   2.0847061335e+01    0.1428034    0.1385252  20.14 0.0001574359    1.061    0.058
        73  -9.5450    231.3536     80.0138   6.9511032420e+01   1.6887447177e+01    0.2560079    0.2364736 -13.65 0.0002007699    1.032    0.031
        74  -8.2854    235.9933     76.0043   6.7780440099e+01   1.6355829802e+01    0.2907765    0.2006731  19.97  0.001017429    1.668    0.401
        75  -7.1037    240.6436     69.7355   6.5486761527e+01   1.6104393533e+01    0.1466169    0.1013961  26.08 0.0006984876    1.628    0.386
        76  -7.3779     82.5169     53.4516   9.4754536943e+01   5.4937311290e+01    0.1361725    0.1233277 -40.01  2.45524e-05    1.016    0.016
        77  -8.9525    130.0445     49.8021   7.9897037912e+01   4.6182229248e+01    0.2448069    0.2061649 -22.33 0.0002590957    1.174    0.148
        78 -10.1052    180.6527     38.9677   6.5638781869e+01   3.5180354966e+01    0.4752625    0.4555712  84.79  0.002040721    1.097    0.088
        79  -8.1688    138.4683    249.0000   1.1631555234e+02   1.0669042505e+01     0.237545   0.04289563  43.20  0.000938456    3.965    0.748
        80  -8.0105    110.5077    247.4703   1.2049707014e+02   1.4719463505e+01    0.1014963   0.07259035  52.30 0.0008094615    1.046    0.044
        81  -9.1280    225.5300     31.4873   5.6937067449e+01   2.4455332047e+01    0.3938875      0.24881 -25.30  0.001295553    1.514    0.340
