#   1 NUMBER                 Running object number                                     
#   2 MAG_AUTO               Kron-like elliptical aperture magnitude                    [mag]
#   3 X_IMAGE                Object position along x                                    [pixel]
#   4 Y_IMAGE                Object position along y                                    [pixel]
#   5 X_WORLD                Barycenter position along world x axis                     [deg]
#   6 Y_WORLD                Barycenter position along world y axis                     [deg]
#   7 A_WORLD                Profile RMS along major axis (world units)                 [deg]
#   8 B_WORLD                Profile RMS along minor axis (world units)                 [deg]
#   9 THETA_WORLD            Position angle (CCW/world-x)                               [deg]
#  10 FWHM_WORLD             FWHM assuming a gaussian core                              [deg]
#  11 ELONGATION             A_IMAGE/B_IMAGE                                           
#  12 ELLIPTICITY            1 - B_IMAGE/A_IMAGE                                       
         1 -12.2986     96.5287     21.9958   3.5694001032e+01   5.7283649433e+01    0.3203563    0.2818095  59.79 0.0005073355    1.320    0.242
         2 -10.8004     66.0160     16.5135   4.3255508230e+01   6.3736141568e+01    0.2900276    0.2021095  -5.59 0.0009542354    1.368    0.269
         3 -10.9120     20.1160     17.1035   6.3377253323e+01   6.9657492894e+01    0.2752139    0.1923922 -24.05  0.001097428    1.104    0.094
         4 -11.0501     49.3675     13.8203   4.8512411514e+01   6.6689079817e+01    0.2705777    0.2065284 -13.82  0.001033015    1.127    0.113
         5 -11.2201     45.1653     12.1033   4.9479333377e+01   6.7506223529e+01    0.2454597    0.1790262   5.56 0.0008708749    1.180    0.152
         6 -10.3548    203.5904     13.0617   1.3254164416e+01   3.2112508897e+01    0.4232601    0.2166546 -68.58  0.001431717    2.336    0.572
         7 -10.1932     35.2377     13.2745   5.4438934265e+01   6.8632982426e+01    0.2349547    0.1632507  -3.70 0.0009330002    1.261    0.207
         8  -9.7757     32.4817     10.5224   5.4421836813e+01   6.9341840132e+01    0.1522414   0.09937429 -38.02 8.823171e-05    1.596    0.373
         9  -9.6645    119.6929     12.6948   2.6230313343e+01   5.3131403651e+01    0.2894111    0.1654338  13.99  0.001012537    2.333    0.571
        10 -11.6567    122.8321      6.8435   2.3408636276e+01   5.2939701821e+01    0.4812516    0.2398106  45.59  0.001588028    1.769    0.435
        11 -11.3265     72.0356      9.8783   3.8144559007e+01   6.3449970904e+01    0.6121776    0.2483147  56.78  0.001250774    3.469    0.712
        12  -9.7213     78.0735      8.2444   3.5432289528e+01   6.2496300348e+01     0.202958    0.1703529  -4.67 0.0004929111    1.163    0.140
        13 -11.9938     56.3575      9.0475   4.3450790714e+01   6.6217445507e+01    0.4044302    0.2731448  30.18  0.001981305    1.338    0.253
        14  -9.9981      3.6100      8.4772   6.8205657727e+01   7.2311000005e+01    0.1773532    0.1395109 -12.90 0.0007486794    1.177    0.150
        15  -9.3955    213.5024      8.4830   1.1095111841e+01   3.0171826219e+01    0.1330217    0.1123861 -81.89 7.102668e-05    1.014    0.013
        16 -10.4924     98.3382      7.7127   2.9384494433e+01   5.8422212795e+01     0.309819    0.2244983  81.24  0.001657623    1.958    0.489
        17 -11.5688     86.0620      7.2311   3.2558026477e+01   6.1029015694e+01    0.3615722    0.2239313  28.08 0.0008289293    1.521    0.343
        18  -9.8707    242.5091      5.9810   8.0227777599e+00   2.3665045325e+01    0.1549664    0.1093546  10.84 0.0008103712    2.553    0.608
        19  -9.5336    203.2576      4.7913   1.1190479426e+01   3.3058794599e+01      0.17531    0.1415382  52.75 0.0005440117    1.355    0.262
        20 -10.1354     22.7648      5.0126   5.6476294978e+01   7.1173462207e+01       0.1546    0.1131563 -13.82 0.0002034349    1.032    0.031
        21  -9.7270    131.3989      3.7344   2.0643147899e+01   5.1153039065e+01    0.1888663     0.146629  54.62  0.000342127    1.107    0.096
        22 -10.6053     37.8760      2.3695   4.7900408564e+01   6.9703576473e+01    0.2492335    0.1817923  21.73  0.001151944    1.257    0.204
        23 -11.1967    114.3068      1.8148   2.3300098128e+01   5.5366791580e+01    0.3931179    0.1632651  59.72  0.001301454    2.055    0.513
        24 -10.2146     27.3463     10.8739   5.7037967062e+01   6.9872652496e+01    0.1702092    0.1271595 -37.00  0.001164996    1.462    0.316
        25  -9.2715    230.1862      1.6334   8.0303931606e+00   2.6935572164e+01    0.1730461   0.09994854  66.12  0.000491165    1.653    0.395
        26  -9.3980    143.7057      1.3996   1.7751431548e+01   4.8325794970e+01    0.1921455    0.1029878  55.92 0.0006282312    1.564    0.361
        27 -11.5681     74.6631    159.3521   8.0281360596e+01   3.2901963483e+01    0.2862615     0.182594  64.94 0.0007235764    1.709    0.415
        28 -10.8582     65.8456    249.3265   9.1886487702e+01   1.5560181716e+01    0.2408922    0.2096933  58.62  0.001374279    1.313    0.238
        29 -16.1429     20.2304    214.8660   9.7549485037e+01   2.7462059135e+01     3.623001      2.35605  72.65   0.02535073    1.171    0.146
        30 -11.3838     63.0053    154.7498   8.2491631204e+01   3.5596349243e+01    0.3075005    0.2076169  79.46  0.001190046    1.587    0.370
        31 -11.8252    243.1211    148.6455   4.0611603728e+01   2.2901538101e+00    0.3444568    0.2141548  35.25  0.001709617    1.713    0.416
        32 -10.3583     52.4878    148.5013   8.4242347205e+01   3.8397385314e+01    0.1321661    0.1138447 -80.34 -0.0004977752    1.030    0.030
        33 -12.7779     53.3672    161.5343   8.5777021242e+01   3.5239777355e+01    0.4126516    0.2863853  45.10  0.002375328    1.471    0.320
        34 -14.7480     38.1314    236.3352   9.5764574254e+01   2.1376467655e+01     1.842538    0.9321083  57.04  0.008401366    1.537    0.349
        35  -9.1826     66.6692    134.2976   7.8254777035e+01   3.9966166465e+01     0.141614   0.09960413  73.84 0.0007028863    1.641    0.391
        36 -11.3964    241.4554    133.2820   3.7486280877e+01   5.1340830034e+00    0.2850744    0.1610633  35.71  0.001145919    2.035    0.509
        37  -9.8572     18.8622    131.6781   9.0689565804e+01   4.5723374616e+01    0.1690937    0.1464259 -38.16 0.0006020516    1.410    0.291
        38 -11.3661     47.0310    130.6789   8.3023777112e+01   4.3258380366e+01    0.2938197    0.1656437 -57.71 0.0005161974    1.550    0.355
        39 -11.5439     59.2348    129.0804   7.9387385203e+01   4.2187748578e+01    0.3376624    0.1857832  39.88  0.001158286    1.941    0.485
        40 -11.0310     55.4250    126.2854   7.9964832799e+01   4.3327180908e+01    0.2557774    0.1566439  62.60  0.001009415    2.015    0.504
        41  -9.8185     77.8778    128.1888   7.4011392568e+01   3.9826912198e+01    0.2021877    0.1800501  88.76            0    1.119    0.106
        42  -9.0360     41.3472    128.6395   8.4265359399e+01   4.4357407602e+01    0.1396323   0.08871383  73.66 -8.956511e-05    1.850    0.459
        43  -9.8738     39.6926    125.4143   8.4226472776e+01   4.5292316949e+01    0.2274696    0.1183885  35.79  0.001138296    2.121    0.529
        44 -11.4433    246.5103    122.9731   3.4338445529e+01   5.8410469805e+00    0.2362404    0.1745332 -14.17  0.001229506    1.462    0.316
        45  -8.9476     17.4594    123.4639   9.0055142264e+01   4.7736410493e+01    0.1233215   0.09811873 -80.65 4.083184e-05    1.055    0.052
        46  -9.5327      6.0312    121.3584   9.2863199556e+01   4.9031046500e+01    0.1512742    0.1272696 -82.02 0.0003956416    1.094    0.086
        47 -10.1826     69.1881    119.2577   7.4697419260e+01   4.3211272811e+01     0.257132    0.1724582 -49.71 0.0008450609    1.400    0.286
        48  -9.2053     57.5022    119.4255   7.8127535341e+01   4.4707192071e+01    0.1353101    0.1198669 -61.48 -0.0006494446    1.043    0.042
        49  -9.2556     53.5428    117.4641   7.8914787941e+01   4.5652906122e+01    0.1350257    0.1178044 -67.76 0.0001211568    1.009    0.009
        50  -9.8488     91.8312    116.2216   6.7471738167e+01   4.0432947568e+01    0.2083777    0.1946871  87.03 0.0004475599    1.104    0.094
        51  -9.0947    153.0556    113.9910   5.0556802698e+01   2.8458918593e+01    0.2489813    0.1937056 -88.61 0.0008886953    1.706    0.414
        52 -14.2556     20.9912    247.9314   9.9269311309e+01   2.1226295745e+01     2.066273      0.94959  35.96   0.01255741    2.392    0.582
        53 -11.1910      2.1580    111.9521   9.2833523060e+01   5.1406857379e+01    0.2432601     0.140858 -62.25 0.0003534223    1.355    0.262
        54 -10.8809     62.1484    112.2860   7.5347936594e+01   4.5811009323e+01    0.2442593    0.1770138   8.69  0.001258623    1.849    0.459
        55  -9.1596     79.3540    111.2303   6.9972228138e+01   4.3619793889e+01    0.1362588    0.1094521 -11.52 0.0002899913    1.567    0.362
        56 -10.1221    243.9838    109.0000   3.1529305634e+01   8.6544752714e+00    0.2176752   0.08139668  53.79 0.0008043671    2.956    0.662
        57  -9.5450     18.0192    108.4906   8.7857159848e+01   5.1156090657e+01    0.1497276    0.1247824  15.83 0.0007283962    1.522    0.343
        58 -11.1372     67.5412    102.4661   7.1548171798e+01   4.7387630071e+01    0.2983966    0.2407493  -8.25 0.0007000973    1.512    0.339
        59  -9.1731    108.2335    101.3636   5.9011726687e+01   4.0839737703e+01    0.1984929    0.1413177  52.33 0.0002425308    1.528    0.345
        60 -10.7440     47.9596    101.5103   7.7478627823e+01   5.0042534729e+01    0.1858286    0.1335169  28.33  0.001039517    1.610    0.379
        61  -9.4542    126.9684    100.5181   5.3572034135e+01   3.7169464796e+01    0.2306752      0.15334  43.83 0.0004431042    1.520    0.342
        62 -10.0291    102.9518     96.6720   5.9269934435e+01   4.2889988992e+01    0.3562932    0.2991059  13.12  0.001033505    1.356    0.263
        63 -10.7516     43.1367     96.2842   7.7926288145e+01   5.1766660193e+01    0.2832958    0.1169238 -48.57  0.001237161    2.102    0.524
        64  -9.9096     63.7199     95.9948   7.1227296614e+01   4.9395739893e+01    0.2536516    0.1842028 -69.22  0.001329591    1.463    0.316
        65  -9.2987      7.7156     95.3096   8.9002163701e+01   5.4843521348e+01    0.1424454    0.1198485  30.19  0.000229556    1.492    0.330
        66 -11.4319    132.1489     92.8173   5.0019409427e+01   3.7647591341e+01    0.3060851    0.2901576  49.05 0.0004406746    1.065    0.061
        67 -10.5796     37.5060     91.5003   7.8757017239e+01   5.3422233163e+01    0.2855424     0.110785 -61.51   0.00122187    2.207    0.547
        68  -9.5932      3.9445     96.2834   9.0299943233e+01   5.4840437003e+01    0.2133432    0.1261715 -33.30  0.001228073    1.933    0.483
        69 -10.8826     51.1705     91.0356   7.4137540396e+01   5.2085767215e+01    0.2349387     0.172654  -1.72  0.001283993    1.716    0.417
        70  -9.7803    108.1331     89.1446   5.5622803955e+01   4.3508820879e+01    0.2312021    0.2059619  -3.95 0.0007433051    1.202    0.168
        71 -10.1211     78.4796     88.0687   6.4436602314e+01   4.9033223906e+01    0.2141406     0.195507  24.32 0.0009524059    1.170    0.146
        72 -10.9768     28.3618     87.1011   8.0887981253e+01   5.5235544702e+01    0.2432265    0.1832062 -51.22 0.0004516261    1.106    0.096
        73  -9.4310     76.2846     83.3091   6.3824717876e+01   5.0413048354e+01    0.1422828    0.1036722 -21.16 0.0003029444    1.569    0.363
        74  -9.7033    111.4678     81.4871   5.2375563917e+01   4.4420706696e+01    0.1488233    0.1451289 -25.09 -5.022469e-05    1.034    0.033
        75 -11.2110     53.5013     77.7746   7.0020391735e+01   5.4753092972e+01    0.4285987    0.2909856  57.58  0.001645533    2.114    0.527
        76  -9.5932    216.0514     78.1909   2.8385819095e+01   2.0008049057e+01    0.2037857    0.1915226  18.32 0.0003227949    1.204    0.170
        77  -9.2351    197.3240     78.6539   3.1642775154e+01   2.4483916813e+01    0.1622695    0.1144191 -69.17 0.0007050013    1.741    0.426
        78 -10.5848     78.0018     78.0492   6.1738124798e+01   5.1265277585e+01    0.2083613     0.188968 -27.35  0.001208352    1.021    0.021
        79  -9.8101     72.7380     77.9955   6.3476906420e+01   5.2092773226e+01     0.195696    0.1675331 -38.08  0.000454348    1.059    0.056
        80  -9.0510     88.2799     76.3121   5.7864871194e+01   4.9906421224e+01     0.144587    0.1081242 -13.19 0.0002070354    1.566    0.362
        81  -9.8439    176.3007     75.6994   3.4785364501e+01   3.0246718259e+01    0.1564826    0.1194898 -73.42 0.0007000673    1.584    0.369
        82  -9.9139    159.2254     73.0031   3.7581546035e+01   3.4998486111e+01    0.2105534    0.1283797 -35.94 0.0008796544    1.672    0.402
        83 -10.3196     94.4420     70.7365   5.4155352828e+01   4.9910066804e+01    0.2105689    0.1320779 -31.73 0.0009556944    1.644    0.392
        84  -9.0920     64.4656     69.5132   6.3798429634e+01   5.5068134125e+01    0.1372685    0.1197384 -29.29 -7.331727e-06    1.020    0.019
        85  -9.9857      7.9409     68.7151   8.4290117828e+01   6.0682457383e+01    0.1510168    0.1269313 -50.13 0.0002662004    1.093    0.085
        86  -9.0627    192.2895     65.7437   2.9012057668e+01   2.7878952381e+01    0.1471411    0.1126103 -74.44 0.0001807306    1.486    0.327
        87 -10.0503    141.5980     65.2576   3.9258682863e+01   4.0681990418e+01    0.2103105    0.1480107 -21.50 0.0009419213    1.618    0.382
        88  -9.5997    126.6081     64.8446   4.2904015185e+01   4.4285420521e+01    0.2002459    0.1824845 -37.95 0.0004125689    1.127    0.113
        89  -9.2501     75.3876     64.7628   5.8494626897e+01   5.4383844523e+01    0.1888403    0.1199709 -35.35 0.0005142048    1.491    0.329
        90 -10.0319     67.0136     64.3647   6.1291625429e+01   5.5743292059e+01     0.333276    0.1260344 -47.24  0.001130607    2.435    0.589
        91  -9.5526      4.1645     64.2541   8.4774135138e+01   6.1829501699e+01    0.1762364    0.1160074 -45.97  0.000614977    1.221    0.181
        92 -10.5902     98.8247     61.1125   4.9605291293e+01   5.0889929773e+01    0.4239221    0.2908413 -66.80  0.001430284    2.350    0.575
        93  -9.9184     43.9903     62.6433   6.9221295872e+01   5.9031059696e+01    0.1777718    0.1548101 -15.30  0.001147888    1.130    0.115
        94  -9.5526    120.9811     61.7937   4.3407005321e+01   4.6095629082e+01    0.2043479    0.1798906  41.96  0.001082403    1.115    0.103
        95  -9.8966    115.6611     61.8750   4.4902399433e+01   4.7257590208e+01    0.2944416    0.1957999  64.05 0.0008577848    1.927    0.481
        96  -9.6399     85.8799     61.4483   5.3855174899e+01   5.3250455560e+01    0.2723643    0.1555462 -22.22 0.0006739517    2.267    0.559
        97 -10.2116     35.5804     60.9170   7.1934576436e+01   6.0247941776e+01    0.2703577    0.1713906   8.79 0.0006449322    1.876    0.467
        98 -10.3609     56.8072     59.9035   6.3564351722e+01   5.8041196641e+01     0.201597    0.1562399 -24.83 0.0002825461    1.193    0.162
        99 -10.2632      3.5605     59.5081   8.4006302559e+01   6.2853300993e+01    0.2525717    0.1655476 -33.55  0.001474997    1.418    0.295
       100  -9.8717     89.7070     58.9624   5.1754914607e+01   5.3017847006e+01    0.1935702      0.16634 -28.75 0.0002046083    1.110    0.099
       101  -9.7963     22.6400     57.8618   7.6146375769e+01   6.1992580655e+01    0.1916763    0.1439298 -20.34 0.0005754892    1.327    0.247
       102  -9.7160    228.3055     56.6775   2.1235329043e+01   2.0451476593e+01    0.1489395   0.09765539 -64.45 0.0003859552    1.639    0.390
       103  -9.8974    169.4675     56.4896   3.0525436918e+01   3.5150948486e+01    0.1499306    0.1442569  61.27 1.734478e-05    1.022    0.022
       104  -9.7426     96.8993     55.8673   4.8393275967e+01   5.2202903293e+01    0.2163506     0.180619   3.11 0.0004403223    1.218    0.179
       105 -11.4935     78.0980     55.7384   5.4516922922e+01   5.5649467074e+01    0.2565538    0.2350504  31.79 0.0004827692    1.201    0.168
       106 -12.0000     58.3366     51.3502   6.0127124574e+01   5.9471311290e+01    0.4554264    0.2437808 -36.01  0.001339544    1.718    0.418
       107  -9.4316    133.4135     55.5140   3.8100452421e+01   4.4275049175e+01     0.146534    0.1427223  25.47 9.402913e-05    1.026    0.025
       108 -11.7166     63.1848     52.5369   5.8726490986e+01   5.8568299870e+01    0.4010629    0.2299891 -41.36  0.002023953    1.591    0.371
       109  -9.7357     23.6513     51.0590   7.3836711525e+01   6.3283384146e+01    0.2323914    0.1045575 -62.31  0.001084698    2.435    0.589
       110  -9.0027    111.6426     51.6970   4.2548261229e+01   4.9859301802e+01    0.1541625    0.1079162  16.86 0.0007038838    1.716    0.417
       111 -11.2511     94.0269     48.6707   4.6724206491e+01   5.3987409062e+01    0.2433171    0.1936898 -29.09 0.0001836376    1.227    0.185
       112  -9.8203      7.0566     45.9267   7.9331084043e+01   6.5423336383e+01    0.1766536     0.124378 -44.05 0.0003711081    1.071    0.066
       113 -10.7281     38.9169     43.5049   6.5084367797e+01   6.3298045033e+01    0.3239072     0.233416  23.73  0.002016244    1.510    0.338
       114  -9.5777     20.6924     44.4461   7.3091032100e+01   6.4805839277e+01    0.1463547    0.1012619 -10.34 0.0009254066    1.491    0.329
       115 -10.4406    117.7067     43.1456   3.7863788284e+01   4.9842425503e+01    0.3032135     0.192288  46.63  0.001134396    1.486    0.327
       116 -10.4606     71.5762     41.8317   5.1734283560e+01   5.9146132191e+01    0.2605522    0.1184506 -33.85  0.001138269    2.141    0.533
       117  -9.9813     45.6606     42.1526   6.1828682545e+01   6.2774273912e+01     0.191036    0.1617657  25.12 0.0004840204    1.341    0.254
       118  -9.2482    151.8699     40.3799   2.9009656086e+01   4.1989131308e+01    0.1998282    0.1246275  48.73 0.0002788589    1.515    0.340
       119  -9.9333    133.9921     39.9759   3.2730818230e+01   4.6474059001e+01    0.1723964    0.1649174   4.47 0.0003732191    1.073    0.068
       120  -9.9594     84.5037     39.4266   4.6337965130e+01   5.7272998784e+01    0.2249443    0.1273413 -33.81 0.0006270402    1.729    0.422
       121 -10.2934     81.9485     35.9185   4.5822971183e+01   5.8276375786e+01    0.1994264    0.1783637   4.42 0.0003216932    1.046    0.044
       122  -8.9937    112.5480     38.5367   3.7578237411e+01   5.1667393307e+01    0.1415508    0.1302802  23.02 5.713904e-05    1.010    0.010
       123  -8.8411     96.3054     38.2682   4.2140770931e+01   5.5159676257e+01    0.1396267   0.09892057  16.66 0.0002490144    1.533    0.348
       124 -11.4299     59.2679     35.7438   5.3960287110e+01   6.2049620953e+01    0.3622896    0.2789767  28.22  0.002190561    1.327    0.246
       125 -10.3708     47.8868     37.0997   5.9029118488e+01   6.3380536944e+01    0.3087754    0.2271173 -79.52  0.001488746    3.261    0.693
       126 -10.7618     40.3489     36.2455   6.1843431124e+01   6.4433899772e+01     0.360773    0.1923486  20.17  0.001895549    2.093    0.522
       127 -10.0057     12.8671     36.2244   7.3942557753e+01   6.6926768801e+01    0.2908524    0.1248968 -53.89 0.0009336297    1.928    0.481
       128  -9.2126    174.1850     34.4144   2.3112276555e+01   3.7071781737e+01    0.1983892    0.1327745  79.23 0.0003934948    1.575    0.365
       129 -10.5105     51.3651     33.2814   5.6113152741e+01   6.3560279239e+01    0.2271934    0.1671055 -12.78 0.0007236522    1.235    0.190
       130 -10.3147     48.3709     32.3011   5.6945639386e+01   6.4115935028e+01        0.243    0.1590815  -1.67 0.0007380497    1.653    0.395
       131 -10.1814    154.0259     32.1257   2.5943451281e+01   4.2526704353e+01    0.2462581    0.2113905  16.87 0.0008875275    1.299    0.230
       132 -10.1396     83.5463     31.5624   4.3558396447e+01   5.8614625541e+01    0.3506604    0.1751668  31.25  0.001286333    2.196    0.545
       133 -10.1892     17.6858     31.4610   7.0136243387e+01   6.7445441530e+01    0.1905499    0.1425876 -39.15 0.0003072354    1.122    0.109
       134 -10.4099      3.9612     31.3123   7.6475850265e+01   6.8382872852e+01    0.1834092    0.1538195   9.86 0.0006316995    1.432    0.302
       135  -9.5734     92.4332     31.2335   4.0598419000e+01   5.6938171350e+01    0.1696424    0.1249295 -37.59 0.0002565742    1.484    0.326
       136  -9.6461     64.8454     29.6967   4.9377667730e+01   6.2132263843e+01    0.2165706    0.1517037 -18.83 0.0005754328    1.328    0.247
       137  -9.2544     59.3107     29.3431   5.1344828467e+01   6.3043095066e+01    0.1904225    0.1163108 -19.26 0.0008774959    1.643    0.391
       138  -9.4294     59.6791     26.0045   4.9797316503e+01   6.3480949547e+01    0.1816356    0.1734115  83.17  0.001198961    1.636    0.389
       139  -9.8059    153.1859     27.7909   2.4710820234e+01   4.3271258891e+01    0.2016845    0.1868396  85.24 0.0005205159    1.100    0.091
       140  -9.3935     42.0028     28.5386   5.8101825210e+01   6.5524124600e+01    0.1660778     0.111076  22.14 0.0004625542    1.511    0.338
       141  -9.4231    160.5473     26.9618   2.3138593669e+01   4.1494837288e+01    0.1924066    0.1418731 -29.01 0.0004597165    1.473    0.321
       142  -9.3769     46.8309     26.8423   5.5346373843e+01   6.5181873319e+01    0.1513579    0.1325624 -26.55 0.0002916882    1.272    0.214
       143  -9.4167    131.0730     26.4504   2.8699543160e+01   4.8924240005e+01    0.2070594    0.1289439  57.44 0.0003429301    1.478    0.323
       144 -10.0297    111.0531     24.6810   3.2801327395e+01   5.3812979228e+01    0.2633399    0.1742263  65.29  0.001300185    1.719    0.418
       145 -10.1401     88.4742     24.4751   3.9105219056e+01   5.8616380662e+01    0.2117353    0.1924004  17.42   0.00132725    1.093    0.085
       146 -10.8906     86.6810     21.3415   3.8370239284e+01   5.9359623597e+01    0.2995812    0.2504089 -88.49  0.001703952    1.892    0.471
       147  -8.8725    239.4628     24.4560   1.2370360188e+01   2.2208268372e+01    0.1299531    0.1118146 -72.18 0.0003455153    1.026    0.025
       148  -9.7214    195.8272     23.8749   1.7005121326e+01   3.2833126611e+01     0.257966    0.1658324 -10.37 0.0007389488    2.159    0.537
       149  -9.6484    136.0054     23.6724   2.6685148356e+01   4.8045777302e+01    0.1979708    0.1674017  54.94 0.0006679215    1.079    0.073
       150 -11.3568     81.9181    238.6100   8.8113089991e+01   1.5234659701e+01    0.3447711    0.1999485  34.53  0.001242632    1.896    0.473
       151  -9.0232     49.4987     24.4443   5.3214341723e+01   6.5188017028e+01    0.1248087     0.100937  -6.98 0.0001020242    1.007    0.007
       152  -9.6729    245.9792     23.3231   1.1521580394e+01   2.0877186133e+01    0.1754934    0.1437149 -85.62 0.0004026919    1.115    0.103
       153  -9.9414     30.2379     20.5395   6.0006572355e+01   6.8125242987e+01    0.3474543   0.09501751  35.44  0.001420654    4.082    0.755
       154 -11.1461     37.9808     22.7892   5.7451312668e+01   6.6908958774e+01    0.2424509     0.200728   6.72 0.0004957824    1.188    0.158
       155 -10.2211     35.4392     19.6106   5.7213964423e+01   6.7689833958e+01    0.2023558    0.1520129  -4.77 0.0007355734    1.132    0.117
       156  -9.1957      2.9775     23.7324   7.4447799704e+01   6.9804410212e+01    0.1175636   0.08529284  -4.93 0.0003477015    1.387    0.279
       157  -9.9322     72.9273     22.3607   4.3345898815e+01   6.1797658237e+01     0.180011    0.1443058  22.14 0.0004667465    1.116    0.104
       158  -9.3894     66.5070     20.5810   4.4875379192e+01   6.3134457884e+01    0.1897801    0.1145975 -27.28 0.0001055804    1.583    0.368
       159  -9.0268     90.3215    236.2745   8.6326382118e+01   1.4431009252e+01     0.104459   0.09242308  22.51 0.0002605103    1.575    0.365
       160  -9.6535     48.9794     19.5299   5.1278157988e+01   6.5970996474e+01    0.1682893    0.1102444  30.54 0.0004304858    1.510    0.338
       161  -9.5811      4.9791     19.4873   7.1919214941e+01   7.0421117943e+01    0.1458537   0.09846988   7.82 0.0008325971    1.566    0.361
       162  -9.7095    247.5690     18.5354   1.0335216850e+01   2.1101790875e+01     0.128356    0.1042938 -67.78 -2.093938e-05    1.021    0.021
       163  -9.4111     70.5454     18.4683   4.2495693573e+01   6.2713539188e+01    0.1273698    0.1083645   7.53 0.0006469631    1.042    0.040
       164 -11.5727     75.1220    229.3890   8.8530193043e+01   1.7897686273e+01    0.5134994    0.1931473 -53.31  0.002294077    3.500    0.714
       165  -9.9725     23.5315     16.5683   6.1475298918e+01   6.9420744750e+01    0.1885303    0.1518199 -29.82 0.0005779659    1.241    0.194
       166  -9.6538     11.9584     17.5371   6.7627249028e+01   7.0265405545e+01    0.1511401   0.09917463  11.19 0.0007009879    1.572    0.364
       167  -9.3062     86.3374     15.7428   3.6125422982e+01   6.0083263690e+01    0.1809718    0.1345828  29.79 0.0003591632    1.189    0.159
       168  -9.5108    183.5215     15.0050   1.6158317885e+01   3.6955480252e+01       0.2087    0.1656008  72.83 0.0003219474    1.127    0.113
       169 -11.4958     94.6691    227.8056   8.4624878549e+01   1.5330084812e+01    0.4697597    0.2983613  34.27  0.002278868    1.703    0.413
       170 -11.7757     65.7586    214.2482   8.8909620545e+01   2.2138411997e+01    0.3893813    0.2728222 -41.09  0.001904114    2.297    0.565
       171  -9.0195    212.5003     14.4245   1.2651734113e+01   2.9769256403e+01    0.1351363    0.1139304 -81.55 0.0001379569    1.036    0.035
       172 -10.9652    248.5911    212.4355   5.2455267205e+01  -8.0210883226e+00    0.1997922    0.1857296  86.55  0.001321545    1.930    0.482
       173 -10.2354     78.9548    213.4924   8.6206294842e+01   2.0437267024e+01    0.1885354   0.07771985  56.99  0.000486781    2.498    0.600
       174  -9.8662     39.4727     12.4695   5.2143075523e+01   6.8217012738e+01    0.1818942    0.1053587  31.05 8.749636e-05    1.715    0.417
       175 -14.3526     17.2583    228.6541   9.8870538094e+01   2.5120501708e+01     1.058708    0.5574496 -79.83  0.006664948    1.666    0.400
       176  -9.7896    116.1173     13.3274   2.7268057621e+01   5.3901879964e+01    0.2130174    0.1561237  66.07 0.0003309507    1.407    0.289
       177 -14.8839      5.4332    227.7619   1.0079822570e+02   2.6472920497e+01     1.232117    0.4539963 -86.12  0.006850098    2.361    0.576
       178 -11.7804    244.7566    199.4790   5.0717096365e+01  -5.6919524403e+00     0.357575     0.154827 -28.96  0.001637409    2.350    0.574
       179  -9.3429    162.4893     11.4999   1.8056320883e+01   4.2679830272e+01    0.1386544    0.1224041  66.69 5.854079e-06    1.017    0.017
       180 -10.8186    250.0011    208.6705   5.1521791496e+01  -7.7468968205e+00    0.2123515    0.1219255 -28.95  0.001183702    1.690    0.408
       181 -14.7197      3.1768    242.7895   1.0183140992e+02   2.3966413931e+01    0.9154534    0.4675643 -74.96   0.00639778    1.856    0.461
       182 -11.5132    238.6707    194.1386   5.0773520317e+01  -3.9443314565e+00    0.2199295     0.170019  38.17 0.0009103597    1.359    0.264
       183 -13.3275     10.2625    247.8444   1.0095099158e+02   2.2370814048e+01    0.3627386    0.2191782  70.25  0.001519102    1.154    0.133
       184 -11.9770    246.7157    182.4832   4.7065028923e+01  -3.5900051211e+00    0.6013141    0.4739066 -82.80  0.003083309    2.709    0.631
       185 -10.8955    248.3796    159.1923   4.1986399364e+01  -3.4784376579e-01    0.1930199    0.1145222 -41.22 0.0009499427    1.703    0.413
       186 -10.5226     37.5043    176.5100   9.1100668355e+01   3.3676794447e+01    0.2461623    0.1366158 -71.86  0.001018402    1.566    0.362
       187  -9.4064      6.4278     15.2373   6.9527800883e+01   7.1037663261e+01    0.1480827   0.09274397 -53.72 0.0009542909    1.726    0.421
       188 -11.1870     35.2057    173.6233   9.1320280065e+01   3.4570618376e+01    0.2316952    0.1841615  45.46  0.001361144    1.371    0.270
       189 -11.1908     68.6921    174.6625   8.3863632709e+01   3.0219360676e+01    0.2795045    0.1237808  55.49  0.001177063    2.466    0.594
       190 -12.3005     58.2410    173.9366   8.6176272437e+01   3.1781498066e+01    0.3425267    0.2106659 -46.34  0.001764643    2.060    0.514
       191 -12.1828     56.3741    169.2953   8.6041070721e+01   3.3076871413e+01    0.2860688    0.2493182  67.35 0.0007636265    1.122    0.109
       192 -11.6604     27.9686    170.5899   9.2620872743e+01   3.6000327872e+01    0.4019022    0.1540083  56.59  0.001799557    2.791    0.642
       193 -11.6287     45.3371    167.0168   8.8331015305e+01   3.4934578947e+01    0.2780992    0.2106819 -65.24  0.001049174    1.282    0.220
       194 -12.2474     26.2553    161.2408   9.2101424975e+01   3.8272869970e+01    0.5839582    0.4000719  60.62  0.002752443    1.397    0.284
       195 -14.4919     31.6566    240.6912   9.7133543294e+01   2.1330855984e+01     1.512864    0.6634433  77.45  0.004847016    2.233    0.552
