#   1 NUMBER                 Running object number                                     
#   2 MAG_AUTO               Kron-like elliptical aperture magnitude                    [mag]
#   3 X_IMAGE                Object position along x                                    [pixel]
#   4 Y_IMAGE                Object position along y                                    [pixel]
#   5 X_WORLD                Barycenter position along world x axis                     [deg]
#   6 Y_WORLD                Barycenter position along world y axis                     [deg]
#   7 A_WORLD                Profile RMS along major axis (world units)                 [deg]
#   8 B_WORLD                Profile RMS along minor axis (world units)                 [deg]
#   9 THETA_WORLD            Position angle (CCW/world-x)                               [deg]
#  10 FWHM_WORLD             FWHM assuming a gaussian core                              [deg]
#  11 ELONGATION             A_IMAGE/B_IMAGE                                           
#  12 ELLIPTICITY            1 - B_IMAGE/A_IMAGE                                       
         1 -12.3565     75.1853     51.3769   8.1319090385e+01   5.7412913805e+01     1.330545    0.8068038 -49.47  0.006412723    1.830    0.454
         2 -13.3955     42.4097     45.7707   9.2165898903e+01   6.3083747531e+01     1.067581    0.5741723  43.25 0.0006493473    2.511    0.602
         3 -12.1287    124.8407     27.9785   5.7665650440e+01   5.0649108978e+01    0.7718555    0.4688262  42.44  0.002449182    1.576    0.365
         4 -12.3259    120.3939     57.6763   6.9344027255e+01   4.7307662363e+01     2.376429     1.476057 -69.65   0.00868553    3.180    0.686
         5 -12.2427     60.6650     46.5502   8.4986416594e+01   6.0564325208e+01     1.159264    0.5200929 -46.71  0.005114531    2.212    0.548
         6 -10.9956      6.4137     34.1056   1.0468183522e+02   6.8380423814e+01     1.956433    0.3001857 -52.97  0.007635631    3.435    0.709
         7 -10.9192     14.1479     23.4932   9.7056683983e+01   6.9824476136e+01    0.3758484    0.2996304 -19.54  0.000305373    1.100    0.091
         8 -10.9801     22.2802      5.4127   8.4516252080e+01   7.1953431628e+01    0.2637477    0.1867636 -34.26 0.0007897916    1.399    0.285
         9 -11.8568     26.1996     28.0871   9.2849785573e+01   6.7993330877e+01    0.4974993    0.4037542   1.14  0.002492818    1.217    0.178
        10 -11.6922     20.2076     21.9498   9.3320057952e+01   6.9593987929e+01    0.6924872    0.2193582 -45.30  0.003194524    2.527    0.604
        11 -12.1747     22.7164     11.5125   8.7327797906e+01   7.1024464932e+01    0.5104266    0.3389806  -5.93  0.002156548    1.360    0.265
        12 -12.5528     17.0526     12.8947   9.1000416206e+01   7.1350478234e+01    0.7457185    0.4558032 -24.29   0.00369115    1.346    0.257
        13 -11.6762    137.6373     23.2181   5.3228762127e+01   4.8104846988e+01    0.8359696     0.550788  48.94  0.002600111    1.396    0.283
        14 -10.1199    147.6504     17.8047   4.9529565798e+01   4.6206228386e+01    0.7308699     0.458967 -19.17  0.003388495    1.827    0.453
        15 -10.9045    154.0464     25.3175   5.0865764292e+01   4.3754963084e+01     1.134271    0.6700169  44.96  0.005289857    1.707    0.414
        16 -10.9735    178.7281     21.1472   4.5754691790e+01   3.7963322927e+01    0.5682996    0.3191235  38.49  0.001980278    2.260    0.557
        17 -11.4179    106.0239     20.3335   5.9370123500e+01   5.5901658607e+01    0.3843024    0.2696348 -34.93 0.0006031518    1.556    0.357
        18 -10.7937     87.1396      7.3900   5.9123643033e+01   6.1326744583e+01    0.5703709    0.3176937  55.59  0.002622461    1.743    0.426
        19 -11.2818     90.8228     20.9859   6.3908809481e+01   5.9088021188e+01    0.6005582    0.3678466 -21.66  0.002545579    1.682    0.405
        20 -11.3003     86.1901     14.3389   6.2463520548e+01   6.0800987341e+01    0.7588146    0.4526734  11.01  0.002951905    2.024    0.506
        21 -11.0068     41.0216      5.2952   7.5107332135e+01   6.9654791318e+01    0.4586822    0.2343811 -11.11  0.002296684    2.329    0.571
        22 -10.3280     47.2243     18.9834   7.9067551364e+01   6.6967309238e+01    0.3236113    0.2542207   0.61  0.001255543    1.078    0.072
        23 -10.0881     32.0587     12.3299   8.2957455718e+01   6.9880075210e+01    0.1969413    0.1906943 -26.07 0.0005709006    1.607    0.378
        24 -12.2913     48.4941     12.9553   7.5638533098e+01   6.7611677109e+01    0.7147686    0.3066754  38.27  0.003522071    2.291    0.564
        25 -11.8668     35.9143     17.7229   8.3659425746e+01   6.8628681752e+01    0.6169599    0.2863707 -27.49  0.001776637    2.113    0.527
        26 -11.9901     68.2136     18.0396   7.0161083530e+01   6.3771406283e+01    0.5057489    0.4320773  14.09  0.001890263    1.060    0.057
        27 -12.1103    237.4561     15.9724   3.8104648403e+01   2.4380409180e+01    0.5899433    0.3931213  66.97  0.002357737    1.528    0.346
        28 -12.0225    131.8034     14.8972   5.1460667413e+01   5.0435454668e+01     1.266806    0.5501543  69.56  0.005003124    2.516    0.603
        29 -11.1469    165.0399     17.9111   4.6756276484e+01   4.1797656665e+01    0.4622244    0.2755736  39.76  0.001423733    1.910    0.477
        30 -10.3849    226.1487     15.4403   3.8965443559e+01   2.7018075306e+01    0.4093401    0.1794987 -42.60  0.001736249    2.010    0.503
        31  -9.5270    191.2308     16.9465   4.2974575423e+01   3.5285949916e+01     0.255327    0.1999306  30.72  0.001179542    1.612    0.380
        32  -9.3282    141.4435     12.2647   4.8756560789e+01   4.8322536657e+01    0.2189934    0.2071922 -27.46 0.0007354337    1.171    0.146
        33 -10.3513    186.3710     15.0097   4.3029094234e+01   3.6713925656e+01    0.2670115    0.1972356  66.10 0.0004115839    1.250    0.200
        34 -11.3933    192.6296      7.3464   4.0233797258e+01   3.5952287323e+01     0.605944     0.392689   8.09  0.002947196    2.445    0.591
        35 -12.2974    104.4685     12.6673   5.6690217431e+01   5.7074877234e+01    0.5122983    0.4650399 -34.73  0.001788466    1.271    0.213
        36 -10.0987     94.5238     12.1419   5.9095167063e+01   5.9301233808e+01    0.2293742    0.1949704  49.12 0.0004208119    1.174    0.148
        37 -11.3306    211.9226      9.6142   3.8877621672e+01   3.1015806310e+01    0.5055481      0.33614   7.56  0.001808187    2.532    0.605
        38  -8.1511      4.6930     11.3331   9.7174115891e+01   7.2562483016e+01    0.3320184    0.1390424 -42.81  0.001890291    1.787    0.441
        39 -11.0981    241.8046      3.9813   3.5126606494e+01   2.4757095224e+01    0.3122764    0.2406224  88.87  0.001518005    1.183    0.154
        40  -9.4792     71.5039     10.0764   6.5298722884e+01   6.4118482559e+01    0.5924928    0.2098819 -40.81  0.002241121    3.976    0.748
        41 -10.4268     65.9470     10.1639   6.7313852283e+01   6.5115580454e+01     0.418952    0.3132594  16.37  0.002607605    1.174    0.148
        42  -9.7728     62.9471      6.6363   6.6710892997e+01   6.6033239732e+01    0.2698945    0.1735107  22.11  0.001559196    1.447    0.309
        43  -9.6174     78.2134      7.4135   6.1837896493e+01   6.3120265957e+01    0.2950658    0.1617346  53.53  0.001513594    1.821    0.451
        44 -10.4094     76.5169      3.9120   6.0748670018e+01   6.3794502041e+01    0.3322473    0.2150974   7.07  0.001114922    1.592    0.372
        45 -10.1425     72.9948      2.7493   6.1328621086e+01   6.4584939239e+01    0.4042853    0.2131571  29.15   0.00176117    1.860    0.462
        46  -9.8106    168.8292      9.8303   4.3781810572e+01   4.1670944589e+01    0.3401478    0.1631853  50.41  0.001507282    2.035    0.509
        47  -8.9294    163.2139      9.9687   4.4594139217e+01   4.3076677439e+01     0.260236    0.1871145  -1.55  0.001089559    1.778    0.438
        48  -9.4016    163.3125      5.7274   4.3289387793e+01   4.3454643530e+01    0.3656122    0.1831788  32.53   0.00150096    2.854    0.650
        49 -11.3724    234.0282      6.9777   3.6364185022e+01   2.6161290980e+01    0.5374094    0.2966771  67.27  0.002902589    1.763    0.433
        50 -10.2019    228.3372      3.4947   3.6022584709e+01   2.7823844489e+01    0.3023813    0.2289228 -34.04  0.001879174    1.423    0.297
        51 -11.0363    218.7267      3.4247   3.6781883714e+01   3.0054128517e+01    0.3057143    0.2705512 -59.83 0.0009518011    1.141    0.123
        52 -10.4836    223.5226      1.9902   3.6056749873e+01   2.9085901041e+01    0.3418415    0.2186477  86.02  0.001142021    1.408    0.290
        53 -12.0303    246.8700      6.6759   3.5343543180e+01   2.3361082648e+01    0.5595151    0.4839181  32.87  0.003731424    1.676    0.403
        54 -10.5013    183.4407      4.8663   4.0567835382e+01   3.8480065694e+01    0.4042376    0.2204082 -32.15  0.001755089    1.917    0.478
        55  -9.5907    153.7125      7.1627   4.5094081283e+01   4.5738578605e+01    0.3794577    0.1180243  55.46  0.001431336    2.610    0.617
        56 -10.7529    176.5083      5.5570   4.1564617252e+01   4.0149497909e+01    0.4124086     0.229964  85.77 0.0009080443    1.831    0.454
        57 -11.0295    106.4481      1.8961   5.1856792234e+01   5.7617558612e+01    0.6857347    0.2712461  64.05  0.001788234    2.463    0.594
        58 -11.7940    133.7862      2.7284   4.6796692602e+01   5.1077213381e+01    0.4273884    0.2695919  56.12  0.001939761    1.357    0.263
        59 -10.6928    142.3459      2.8969   4.5444649110e+01   4.8954872029e+01    0.4572839    0.2460464  51.37  0.001856324    1.646    0.392
        60  -9.8682    207.7185      2.9181   3.7615596105e+01   3.2716404787e+01    0.2670934    0.1753066  77.95 0.0009815288    1.363    0.266
        61  -9.5944    204.4758      1.4783   3.7552195316e+01   3.3638944951e+01    0.3250777    0.1434028  63.20  0.001312042    2.049    0.512
        62 -10.6872    115.0899      3.4353   5.0593998357e+01   5.5497313504e+01    0.6687601    0.2303868  50.33 0.0008768435    2.337    0.572
        63  -9.6260    158.7636      2.1566   4.2809579411e+01   4.4918730842e+01    0.4496373    0.1504818  50.20  0.001717733    2.797    0.642
        64 -11.2198      3.0231      1.8474   9.3765287727e+01   7.4179805977e+01     0.373089    0.1658235   9.59  0.002096051    2.513    0.602
        65  -9.4970    122.3085      1.1916   4.8310547677e+01   5.3977260720e+01    0.3941514   0.07373077  62.24  0.001234025    3.920    0.745
        66 -10.3249     82.2362      1.3147   5.7809449662e+01   6.2891989609e+01    0.2000526    0.1011514  52.11  0.000317968    1.757    0.431
        67 -10.3957     12.8042      1.9118   8.7978137426e+01   7.3378646816e+01    0.2498269    0.1493203  12.30   0.00114211    1.612    0.380
        68 -11.1439     47.2908    146.9917   1.1316087280e+02   3.9325018929e+01    0.5771403    0.3384137 -68.00  0.002989138    1.482    0.325
        69 -10.1515    142.8907    249.6190   1.0517591943e+02   3.8510732730e+00    0.2005998    0.1793912  85.10 0.0009086028    1.347    0.257
        70 -11.1142     63.0860    150.3896   1.0950922908e+02   3.6571906350e+01    0.4325102    0.3974467  -5.31  0.002309805    1.402    0.287
        71  -9.7303    215.1076    150.9122   7.3448452824e+01   7.9080243117e+00    0.2131501    0.2006527 -51.04 0.0009334894    1.212    0.175
        72  -9.3631    234.2080    150.6187   6.9911686243e+01   4.2993049140e+00    0.1945228    0.1242955  32.12 0.0009527415    1.695    0.410
        73  -9.8369    239.8403    146.7110   6.8093116363e+01   3.9084741101e+00    0.2357397    0.1739082 -20.61 0.0006553874    1.285    0.222
        74 -10.6600    249.5777    142.8808   6.5656215833e+01   2.7670909907e+00    0.6428058    0.2291757 -35.57  0.002513061    2.491    0.599
        75 -10.7764     33.2123    144.6710   1.1653184619e+02   4.1369395392e+01    0.4483777    0.2834925  41.62  0.002241102    1.687    0.407
        76 -11.1749    133.3701    141.5304   8.9397800886e+01   2.6824287745e+01    0.3449112    0.2944431 -74.92  0.001686928    1.275    0.216
        77 -10.4605     22.9782    126.9969   1.1709042349e+02   4.6534312282e+01    0.2880018    0.1801963  39.23 0.0003121983    1.788    0.441
        78 -11.8604     23.2789    135.0541   1.1799472415e+02   4.4580088657e+01     0.894346    0.4137256  47.44  0.004401677    2.331    0.571
        79 -12.3386     30.0766    132.9277   1.1589652578e+02   4.4490636839e+01    0.4260748    0.2810489  88.29 0.0003016356    1.463    0.317
        80  -9.4649     82.3228    135.3094   1.0172340509e+02   3.7510557158e+01    0.2512442    0.2013704  -2.69 0.0006466936    1.708    0.414
        81 -10.6571     67.5746    135.7985   1.0592987251e+02   3.9530887957e+01    0.3519065    0.2536414 -42.26 0.0009390446    1.534    0.348
        82 -10.3813     47.3391    135.7521   1.1154770500e+02   4.2050079005e+01    0.4633976    0.1638906 -63.33  0.001366368    2.356    0.576
        83 -10.5228     39.6820    137.7175   1.1392312669e+02   4.2395860983e+01    0.2534744    0.2388529 -14.06 0.0009235023    1.346    0.257
        84  -9.3214    192.4483    136.4952   7.4624012452e+01   1.5284706049e+01    0.1503685    0.1444937 -18.85 0.0001277947    1.014    0.014
        85  -9.2888    216.6350    135.2367   6.9614370657e+01   1.0415587396e+01    0.2051811    0.1306169 -27.93 0.0005444267    1.592    0.372
        86 -10.7896     92.8600    129.4643   9.7588446273e+01   3.7236554479e+01    0.4292663    0.2760202 -63.22  0.001965275    1.557    0.358
        87  -9.9108     74.2172    132.6433   1.0349196336e+02   3.9371963092e+01    0.3009173    0.2221468 -38.68  0.001534077    1.536    0.349
        88 -10.0178     62.2707    131.9888   1.0675696842e+02   4.1169687004e+01    0.4404941    0.2936861 -44.06  0.002226533    1.611    0.379
        89  -9.4377     39.1014    132.8306   1.1339963104e+02   4.3641395103e+01    0.2022788    0.1588688  78.61 0.0006857157    1.256    0.204
        90 -10.9495     10.7725    126.9703   1.2043397165e+02   4.7467469996e+01     0.600794    0.1944819 -56.73  0.002247232    2.512    0.602
        91  -9.1601    224.0659    126.8243   6.6324948768e+01   1.0388932349e+01    0.2159812    0.1854099 -56.08 0.0004982181    1.280    0.219
        92 -11.5751      2.3146    112.0014   1.2112933161e+02   5.1514611699e+01    0.3871603    0.2839836  77.81  0.001029854    1.356    0.262
        93 -11.5662      3.9462    105.7079   1.1990875065e+02   5.2890883157e+01    0.4334748    0.3607921 -80.33  0.002154838    1.096    0.088
        94 -10.7017     55.1871    123.5068   1.0730786245e+02   4.4134355895e+01    0.5001076    0.3853672 -18.68  0.002284682    1.711    0.416
        95  -9.7069     49.7889    122.9795   1.0880261642e+02   4.4894830816e+01    0.2888061    0.2030438   1.03  0.001225688    2.056    0.514
        96 -11.2574     45.6576    120.1857   1.0954633678e+02   4.6034258606e+01    0.6405568    0.3293162 -87.27  0.002321635    2.733    0.634
        97  -9.5272     79.3883    138.1711   1.0307654371e+02   3.7258672286e+01    0.3352701     0.196545 -64.48  0.001262222    1.637    0.389
        98  -9.8541     18.7949    123.7950   1.1785486670e+02   4.7633576708e+01    0.4224654    0.1221059 -66.44  0.001729934    2.546    0.607
        99 -10.1932    239.5625    124.7182   6.3236541084e+01   7.6388992759e+00    0.2820264    0.1270549 -32.53  0.001146747    2.102    0.524
       100 -11.8769    104.2178    122.0008   9.2720436259e+01   3.7035546378e+01    0.4982185    0.4131097 -46.89  0.001679016    1.182    0.154
       101  -9.9036    107.2665    145.9677   9.7066531393e+01   3.0774688797e+01    0.2402259    0.2125172  47.89 0.0004572266    1.139    0.122
       102  -9.5037     71.8167    120.6226   1.0183466597e+02   4.2655482212e+01    0.2724886    0.1675205 -40.08 0.0007788712    1.805    0.446
       103 -11.2503     42.2152     93.9678   1.0564057240e+02   5.2696812462e+01    0.4134234    0.2923962 -86.17  0.001340515    1.672    0.402
       104 -11.8077     35.3282     93.2009   1.0781453742e+02   5.3546398669e+01     1.496691    0.8681195 -83.05  0.006791656    2.166    0.538
       105 -11.9799      6.8662     88.5535   1.1660612812e+02   5.6704749473e+01    0.5184916    0.4593556  35.40  0.002628011    1.412    0.292
       106 -11.7354     17.1058    100.9934   1.1519664434e+02   5.3175276930e+01    0.2727876    0.2497007 -41.77 0.0004136826    1.220    0.181
       107 -12.0106     18.7339    106.1328   1.1546590440e+02   5.1845166607e+01    0.2810102    0.2309813 -44.55 0.0002404326    1.260    0.206
       108 -13.0401     25.4421    106.9885   1.1351790428e+02   5.1128217787e+01     1.137445     1.008368  82.31  0.003491988    1.194    0.162
       109 -11.7184     22.4292     94.8969   1.1246614510e+02   5.4225028870e+01    0.6142948    0.3954072   0.98  0.002872805    2.073    0.518
       110 -12.5371     18.2777     89.7546   1.1295454766e+02   5.5723471227e+01    0.7321914    0.3644837 -37.00  0.001136239    2.169    0.539
       111 -11.9160     44.0567     85.2818   1.0304938922e+02   5.4527300889e+01    0.5627338    0.4155553  16.31   0.00218168    1.588    0.370
       112 -10.7953     37.6742     86.1281   1.0549749766e+02   5.4973922264e+01    0.2999335    0.2292872  54.94 0.0007252606    1.624    0.384
       113 -11.4338     22.8470    113.9717   1.1536638066e+02   4.9666345273e+01    0.4076653    0.2624634   0.29  0.001972416    2.226    0.551
       114 -11.3595     28.1547    113.1409   1.1365015036e+02   4.9429980808e+01    0.3715964    0.3054199  22.87  0.001744937    1.487    0.328
       115 -10.8352      4.5025    120.8748   1.2148601020e+02   4.9311700052e+01    0.7852462    0.1261538 -59.48  0.002887215    3.622    0.724
       116  -9.3758    148.1968    119.9994   8.0546003728e+01   2.8498347338e+01     0.262905    0.1864163 -13.91 0.0009992148    2.008    0.502
       117  -9.5993    185.6250    118.8183   7.1732656911e+01   2.0267070201e+01    0.2202592    0.2032547  26.98  0.001145316    1.123    0.110
       118 -10.4510     81.1318    126.1535   1.0024122128e+02   3.9926782083e+01    0.5425652    0.3304164 -24.27  0.001527828    2.816    0.645
       119  -9.6842    113.6912    115.8737   8.8577918068e+01   3.6680851450e+01    0.2546679    0.2182332  22.66 0.0005458438    1.302    0.232
       120  -9.5335     67.3875    114.3478   1.0186863637e+02   4.4800821428e+01    0.3307613    0.2431437  88.87  0.001664296    1.623    0.384
       121  -9.8056     66.9969    110.4958   1.0116668923e+02   4.5786597075e+01    0.3304953    0.2177474  32.87  0.001644386    1.684    0.406
       122  -9.1521    126.9611    113.5121   8.4341382306e+01   3.4529569510e+01    0.2343728    0.1551202  42.97 0.0007767185    1.541    0.351
       123 -11.0641    102.2410    109.5404   9.0255661820e+01   4.0333632656e+01    0.6649529    0.5088034  22.07  0.002855658    1.543    0.352
       124  -9.8430     48.7829    112.2922   1.0718666008e+02   4.7611091180e+01    0.2311955    0.1954253  79.28  0.001366533    1.267    0.211
       125 -11.0684    170.3020    110.4767   7.2886081685e+01   2.5467106676e+01    0.4572296    0.3787942 -32.50  0.001348109    1.221    0.181
       126 -10.2785     90.0112    104.4780   9.2628536696e+01   4.3687988274e+01    0.4646098    0.3293794  19.10  0.001497345    1.767    0.434
       127 -10.4506     85.9056    103.8667   9.3736528777e+01   4.4518711900e+01    0.4914792    0.3176503 -14.87  0.001302688    2.562    0.610
       128 -10.1887    107.3425    111.9978   8.9400613685e+01   3.8805750143e+01    0.3930715    0.2982023  61.66  0.001859873    1.524    0.344
       129 -10.2351    120.3514    109.4470   8.5079214190e+01   3.6819332610e+01    0.3188284    0.2387872 -37.81  0.001485815    1.364    0.267
       130 -11.3372     79.6323    108.4035   9.6778935639e+01   4.4446771177e+01    0.7251109    0.4094772  38.19  0.001808708    1.893    0.472
       131  -9.5189     58.4774    108.4870   1.0340326625e+02   4.7386345689e+01    0.2772287    0.1249556 -60.77  0.000727621    1.993    0.498
       132 -10.2638    157.4335    106.5794   7.4795423329e+01   2.9260062515e+01    0.4011436    0.2962351 -12.09   0.00172755    1.795    0.443
       133 -10.3854    143.4836    106.0920   7.8064585191e+01   3.2558921762e+01    0.3813658    0.3071485 -60.57  0.001341045    1.346    0.257
       134 -11.6144    145.4949    100.4829   7.6018311461e+01   3.3288024357e+01    0.5222408    0.4938624 -14.15   0.00184853    1.099    0.090
       135 -11.5276      9.1864     96.7725   1.1708562856e+02   5.4672344018e+01    0.5921735    0.4751682  89.72  0.001342259    1.241    0.194
       136  -9.7406     57.5164    102.8930   1.0251234108e+02   4.8849486484e+01    0.3659978    0.1237119 -59.20  0.001336471    2.628    0.619
       137  -8.8350     82.4201    102.5209   9.4483097937e+01   4.5400647498e+01    0.1472917    0.1333417 -43.60 9.645275e-05    1.051    0.048
       138  -9.4210     48.3182     90.6873   1.0282938818e+02   5.2814174241e+01    0.2454474    0.1652669 -44.47  0.001312061    1.345    0.256
       139  -9.7459     50.5831    101.7236   1.0450951101e+02   4.9953547487e+01    0.3383868    0.1831617 -50.85 0.0009938068    1.610    0.379
       140 -10.6627     52.1104     95.6502   1.0267829523e+02   5.1218870451e+01    0.5923737    0.2911819 -71.99  0.002121608    2.595    0.615
       141  -9.4036    120.7820    101.1931   8.2734096053e+01   3.8575945248e+01    0.2208655    0.1875584  -5.95  0.001073565    1.378    0.274
       142 -11.5562     67.1862     95.4044   9.7603074537e+01   4.9349341793e+01    0.5267811    0.4647214  14.01  0.001557974    1.266    0.210
       143 -10.6793     64.6942     75.2237   9.3004493000e+01   5.4252443652e+01    0.4182154     0.300769   2.89 0.0007150484    1.709    0.415
       144  -9.9630     66.5678     88.7051   9.6099426478e+01   5.0984186248e+01    0.3295279    0.2273452 -13.25  0.001271174    1.935    0.483
       145 -10.9845     89.8791     89.3732   8.8613435784e+01   4.7164796563e+01    0.8761767    0.4630472 -28.49  0.003196754    2.802    0.643
       146 -10.2528     77.3249     96.9665   9.4692176409e+01   4.7498656346e+01    0.5047579    0.3074308  45.95  0.001970502    1.848    0.459
       147 -10.4689     67.3816     81.9846   9.3998393118e+01   5.2386552481e+01    0.4437662    0.3733076 -18.05  0.002515075    1.239    0.193
       148 -10.6503     79.3965     82.7393   9.0123500746e+01   5.0393645957e+01     0.794808    0.5075294 -59.85  0.003690766    1.729    0.422
       149 -11.5753     73.5694     77.8244   9.0658411810e+01   5.2383708108e+01    0.7616574    0.4904247 -21.05  0.003478838    1.988    0.497
       150 -10.4649     82.9712     93.4693   9.1955649671e+01   4.7408535224e+01    0.3911602    0.2682321  37.11  0.001463083    1.561    0.360
       151 -10.6029     76.3049     92.8992   9.3963813623e+01   4.8595200376e+01    0.4887194    0.3132629  32.24  0.001501178    1.712    0.416
       152 -10.0849    210.6591     97.6293   6.1572498165e+01   1.8503525846e+01    0.3739499    0.3040787  22.36  0.001888982    1.478    0.323
       153 -10.0825     57.2793     97.9636   1.0148603884e+02   5.0050994084e+01    0.2089521    0.1905639  23.38 0.0006281819    1.238    0.192
       154  -9.6829    141.7712     96.0278   7.5699131465e+01   3.5070497330e+01    0.4222531    0.1828738  39.71  0.001288832    2.624    0.619
       155 -10.2440    117.3489     93.3185   8.1476151692e+01   4.1012537615e+01    0.5190061    0.4253525  15.01   0.00222557    1.420    0.296
       156 -10.6780    121.2289     89.0247   7.9128947636e+01   4.1105946035e+01    0.4198784    0.3016667  39.19  0.001454108    1.436    0.303
       157 -10.7831    120.5256     85.3187   7.8219076939e+01   4.2029492950e+01    0.4068105    0.3054309  45.38   0.00193582    1.355    0.262
       158 -10.3964    125.9750     93.5114   7.9129884779e+01   3.9132651134e+01    0.3836916    0.3241053  37.57  0.001012866    1.215    0.177
       159 -10.2674    122.3148     93.6732   8.0184223728e+01   3.9887386055e+01    0.3188369    0.2352802 -63.66  0.001129885    1.604    0.377
       160  -9.4634    160.7300     93.8216   7.0513398094e+01   3.1066725670e+01    0.3056808    0.2132329  82.55  0.001236643    2.088    0.521
       161 -11.3975    102.0295     89.8102   8.4961721208e+01   4.4843020423e+01    0.9225845    0.6460342 -17.83  0.004088604    1.874    0.466
       162  -9.4055    102.6411     80.1921   8.1896025457e+01   4.6778918659e+01    0.3467811    0.1657326 -38.19 0.0009331674    2.139    0.533
       163 -10.8399    113.6425     83.5580   7.9648603348e+01   4.3853113622e+01    0.4132831    0.3477294 -42.68  0.001411053    1.165    0.142
       164  -9.5983    103.4868     75.5196   8.0173466725e+01   4.7571512815e+01    0.2939684    0.2455643   9.70 0.0007538687    1.319    0.242
       165 -10.7199    152.1748     91.4731   7.1840673275e+01   3.3569733968e+01    0.5661613     0.432558  68.93  0.002440575    1.513    0.339
       166  -9.4069    138.3881     92.9237   7.5671527908e+01   3.6486780000e+01    0.3317206     0.208869  28.64  0.001314642    2.047    0.512
       167 -10.4460    199.9096     87.9342   6.0961342149e+01   2.2729407770e+01    0.3198619    0.2519124 -70.98 0.0009943845    1.449    0.310
       168 -10.4078    183.8732     86.3455   6.3528325825e+01   2.6878717703e+01    0.6376997     0.337092 -47.92  0.002509521    1.964    0.491
       169 -11.1193    108.2963     79.7108   8.0038085093e+01   4.5748889633e+01    0.5979534    0.4415274  88.12  0.001419896    2.157    0.536
       170  -9.2779     52.0365     87.7743   1.0085260753e+02   5.3064768735e+01    0.2495057    0.1384725 -46.67 0.0004673018    1.589    0.371
       171 -10.4797    165.7452     83.4759   6.6451826202e+01   3.1838907626e+01    0.4278123    0.3586368 -55.44  0.001381934    1.235    0.190
       172 -10.1490    127.4835     83.4814   7.5747478328e+01   4.0878748822e+01    0.3519492    0.3065273 -53.60  0.001424382    1.194    0.163
       173 -10.5971    127.5171     77.4958   7.3896097509e+01   4.2059125633e+01    0.5012898    0.2809464 -40.05  0.002064157    1.772    0.436
       174  -9.5717     60.3419     83.0962   9.6755650243e+01   5.3101069075e+01    0.2497216    0.1964698 -46.97 0.0009894329    1.124    0.110
       175 -12.8003     52.3821     73.6872   9.7036060303e+01   5.6193939259e+01    0.5977807    0.3130611 -59.23 0.0007809236    1.919    0.479
       176 -11.1089     57.9242     77.6957   9.6138195569e+01   5.4621280124e+01     0.324711    0.2538577 -59.96 0.0003928275    1.285    0.222
       177 -11.3041     47.0092     74.4841   9.9245949056e+01   5.6643094620e+01    0.3453585    0.2212169 -61.64  0.001803503    1.546    0.353
       178 -10.4978    232.9203     77.3308   5.3073224059e+01   1.6893308173e+01    0.3728629    0.2296591 -34.84  0.001547299    1.512    0.339
       179 -11.8456     13.9968     74.7351   1.1164669311e+02   5.9431492535e+01    0.4828791     0.337119 -51.87   0.00250716    1.140    0.123
       180 -11.8278      1.9797     71.3074   1.1545318026e+02   6.0842399427e+01    0.6482881    0.1501377 -66.27  0.002576536    3.045    0.672
       181 -12.3755      6.3406     62.5197   1.1206530767e+02   6.2555760630e+01    0.6870967     0.384551 -31.71   0.00330436    1.768    0.434
       182 -11.3957    142.8773     84.0512   7.1929726327e+01   3.7233091559e+01    0.4493945    0.3846587  44.03 0.0009047712    1.174    0.148
       183  -9.5505    174.7802    246.5538   9.8750109790e+01  -6.9643593879e-01    0.2493995   0.09835109  35.95  0.001153684    2.127    0.530
       184 -10.5766     91.1015     47.8537   7.4543896941e+01   5.5147375116e+01    0.3985785    0.2107955 -32.48  0.001064613    1.898    0.473
       185  -9.9661     98.9748     62.0223   7.7108132591e+01   5.1093495601e+01    0.3925669    0.2708899 -20.86  0.001856262    1.624    0.384
       186 -10.0003     94.1897     76.3361   8.3338766375e+01   4.9193590482e+01    0.6495087    0.3316892  33.66  0.002628068    2.206    0.547
       187 -11.6164     85.7712     73.6154   8.5226332121e+01   5.1273735324e+01    0.7170906    0.4936199  38.22  0.002852802    1.526    0.345
       188 -10.9651     79.7788     67.7392   8.5367157762e+01   5.3501530229e+01    0.5428094    0.4001476  42.08   0.00194247    1.475    0.322
       189 -10.5408     84.0612     64.3037   8.2760420089e+01   5.3451019467e+01    0.3578312    0.2228797 -32.89  0.000887998    1.599    0.375
       190 -11.1848     91.3432     62.5949   7.9750132864e+01   5.2458844283e+01    0.5435154    0.3510099  53.14  0.002034143    1.855    0.461
       191 -11.6045     90.1137     57.6767   7.8442357125e+01   5.3609132333e+01    0.6399153    0.5140914  44.43  0.002837912    1.327    0.247
       192  -8.4891     33.3041     78.3210   1.0528682066e+02   5.7163302208e+01    0.1362676   0.08165081 -36.63 0.0005472722    1.633    0.388
       193 -12.2007    186.4585     70.4637   5.8636965953e+01   2.9018764144e+01    0.9843928    0.6578501 -39.94  0.003415011    1.459    0.315
       194  -8.9529    112.7630     75.3987   7.7365228074e+01   4.5694680278e+01    0.2137135    0.1414116  35.07 0.0009497856    1.607    0.378
       195  -9.9184    184.1828     61.1758   5.6424104686e+01   3.1103051163e+01    0.3294634     0.254343 -69.22  0.001285489    1.426    0.299
       196 -11.0600     58.6766     62.7740   9.1390498751e+01   5.7705023488e+01    0.5360002    0.4640139  35.65  0.002988975    1.325    0.245
       197 -10.0235     13.2334     47.1505   1.0539175516e+02   6.5393940485e+01    0.3781453    0.1577013 -37.74  0.001893084    2.093    0.522
       198 -10.0970     17.8745     41.8648   1.0171767164e+02   6.6132440136e+01    0.2831495    0.1929544 -19.88  0.001038807    1.407    0.289
       199 -10.6346     22.0343     36.8223   9.8110466840e+01   6.6778652215e+01    0.5163182    0.2681625  45.08  0.002508081    3.278    0.695
       200  -9.0652    199.2676    244.4442   9.3880405493e+01  -4.1951633086e+00    0.1728934   0.09660441  43.55 0.0009555382    1.691    0.409
       201 -11.8388     21.4264     46.8944   1.0168138255e+02   6.4869041625e+01    0.5515728    0.4441888 -17.06  0.003153774    1.202    0.168
       202 -11.7797     40.7420     70.3303   1.0048291524e+02   5.8226996880e+01    0.6431559    0.2837665 -49.56  0.001526561    1.852    0.460
       203 -11.5471     32.3964     72.0088   1.0410294986e+02   5.8656721351e+01    0.5630876    0.2823925  23.86  0.001961285    2.311    0.567
       204 -12.2905     48.6462     60.4730   9.4531142164e+01   5.9448229882e+01    0.7351835    0.5316752  37.25  0.002679522    1.614    0.380
       205 -11.2427     41.0469     57.1112   9.6515879724e+01   6.0995074537e+01    0.4027153    0.3192968  52.96  0.001685576    1.741    0.425
       206 -11.4677     33.7181     58.1426   9.9821825116e+01   6.1518712629e+01    0.5910135    0.3190566  -9.57 0.0007561826    2.696    0.629
       207 -11.7136     27.8755     54.1488   1.0107349744e+02   6.2870962302e+01    0.8693661    0.5243509  -1.34  0.004764135    2.015    0.504
       208 -10.8866     20.5817     55.4480   1.0451622713e+02   6.3180982931e+01    0.7064897     0.446927  69.97  0.003151488    3.150    0.683
       209  -9.3803    152.0088     73.3260   6.6509158235e+01   3.7066183458e+01    0.4249378    0.1586342  41.05  0.001281044    3.381    0.704
       210  -9.7896    124.7054     73.1131   7.3273342357e+01   4.3537638063e+01    0.3072013    0.2523963  86.18  0.001002707    1.562    0.360
       211 -11.6813    122.6092     68.4474   7.2339435435e+01   4.4886221536e+01    0.6276255    0.3755684  40.79  0.002705087    1.709    0.415
       212 -10.3418     14.4893     67.3275   1.0990274020e+02   6.1044301384e+01    0.3193253    0.2591746  -1.11  0.002177795    1.432    0.302
       213  -9.8276    162.2619     70.9196   6.3517475795e+01   3.4968643259e+01    0.2945438    0.2567148 -89.56  0.001136981    1.255    0.203
       214  -9.8416    172.4701     68.4978   6.0712476581e+01   3.2839536487e+01    0.3343099    0.2758536  28.96  0.001037442    1.385    0.278
       215 -10.0574    172.0050     65.4769   5.9918955979e+01   3.3462937010e+01     0.444341    0.3859377 -77.86   0.00229751    1.227    0.185
       216 -11.4580    219.8882     66.3785   5.2193600209e+01   2.1585085510e+01    0.6307672    0.3786071  58.75  0.002510866    1.731    0.422
       217  -9.3902    207.8882     68.5610   5.4532288352e+01   2.4084697455e+01    0.2760342    0.1355526  55.42   0.00113166    2.067    0.516
       218 -10.2888     21.2703     65.6292   1.0685097179e+02   6.0957008911e+01     0.280858    0.2134541  81.09 0.0007377266    1.793    0.442
       219  -9.3415     25.6031     65.2849   1.0505151335e+02   6.0702182252e+01    0.1883979    0.1561277 -24.41  0.000484292    1.201    0.167
       220  -8.9429    111.4428     66.9628   7.5006283993e+01   4.7604590950e+01    0.1997847    0.1275791 -62.10 0.0005920313    2.295    0.564
       221  -9.6757    192.4106     65.7147   5.6276452092e+01   2.8323615682e+01    0.2874052    0.2202325 -75.61 0.0008227113    1.470    0.320
       222  -9.6937     52.9955     65.9720   9.4549229240e+01   5.7775864041e+01    0.2770967    0.1809683  44.67  0.001258108    1.902    0.474
       223 -10.2042    200.3412     63.7922   5.4450960098e+01   2.6676014308e+01    0.6411877    0.3349112  81.40  0.002293923    3.013    0.668
       224  -9.9505    105.9767     64.0482   7.5648770340e+01   4.9296464847e+01    0.3652128     0.295363 -52.80  0.001876102    1.374    0.272
       225 -10.3439    102.9777     58.9614   7.4809486564e+01   5.0845562820e+01    0.2915746    0.2121458 -26.52 0.0004114245    1.401    0.286
       226 -10.2658    106.1822     57.9971   7.3505228749e+01   5.0352811314e+01    0.3914602    0.2170925 -48.94  0.001639307    2.079    0.519
       227 -11.3735    234.1021     61.1569   4.9018345540e+01   1.9124866961e+01    0.6133999    0.4216154  70.87   0.00259731    1.552    0.356
       228 -10.2244    159.2002     62.2181   6.1530783571e+01   3.7214233324e+01    0.5522407    0.2552368  46.09     0.002065    2.228    0.551
       229 -11.3627    127.7475    241.7984   1.0713867778e+02   7.4735124149e+00     0.357545    0.3233909  70.02  0.002527879    1.180    0.152
       230  -8.5454    200.3230    241.3423   9.3218691384e+01  -3.9426983803e+00    0.1260775   0.08160325   9.17   0.00047164    1.729    0.422
       231 -12.3020    117.3991     43.4629   6.5148366699e+01   5.0272885925e+01    0.6865065    0.5322935  74.69  0.002767839    1.612    0.380
       232 -11.9067    113.9993     38.7012   6.4312904305e+01   5.1742813912e+01    0.5832793    0.3797309 -18.56  0.001066296    1.711    0.416
       233 -12.8459    119.3860     37.6881   6.2533692879e+01   5.0654283147e+01    0.8930269    0.6661096  79.87  0.003158921    1.762    0.432
       234  -9.4929    148.3860     60.8103   6.3444525784e+01   4.0133277116e+01    0.4429644    0.1739658  59.54  0.001475198    2.814    0.645
       235 -11.6053    145.7413     47.1101   5.9608356586e+01   4.2950137189e+01      1.08489    0.4193826 -26.03  0.003626131    3.227    0.690
       236 -10.5937    136.4901     56.4151   6.4795288802e+01   4.3757771040e+01      0.60523    0.4093997   0.49  0.002288764    2.147    0.534
       237 -10.2329    134.4696     50.2996   6.3236403826e+01   4.5222284040e+01    0.4139076    0.2823011 -60.28  0.001853165    1.910    0.476
       238 -10.9993    157.4400     55.2574   5.9744613710e+01   3.8780028191e+01    0.7009925    0.5413449 -67.39  0.003234291    1.510    0.338
       239 -10.5414    155.4992     49.9383   5.8472010054e+01   4.0087535568e+01    0.3925126    0.2659104 -19.07  0.001112841    1.737    0.424
       240  -9.7218    187.7959     55.6797   5.4253493878e+01   3.1052039638e+01    0.2363051    0.2245326  89.67 0.0006519883    1.019    0.019
       241 -10.2190     66.9268     54.3705   8.5434806382e+01   5.8179618205e+01    0.3576132    0.2154648 -51.67  0.001143231    1.814    0.449
       242  -8.9158     68.1153     32.9528   7.6718671723e+01   6.1688546181e+01    0.5592442    0.3282344  42.28  0.002732361    1.782    0.439
       243  -9.5638     65.4792     28.5020   7.5836239028e+01   6.2797878533e+01    0.2354457    0.1210724  40.25 0.0006637815    1.949    0.487
       244  -9.6836     68.0309    240.4827   1.1834760896e+02   1.6431831360e+01    0.1741274   0.09623264  41.85  0.000949525    1.572    0.364
       245 -11.1967     60.7071     36.1168   8.0895267163e+01   6.2362970821e+01    0.4164726    0.2452498 -38.49  0.001202986    1.607    0.378
       246 -11.4632     56.8695     30.7765   8.0221041917e+01   6.3799825633e+01    0.5184104     0.301103  18.52  0.001715477    1.973    0.493
       247 -11.2122     47.8440     30.6873   8.3977949831e+01   6.5085294101e+01    0.5587066    0.2511981  26.41  0.002103929    2.509    0.601
       248  -9.0645      6.8629     55.0819   1.1018909773e+02   6.4118683451e+01    0.1645469    0.1030928 -44.29 0.0003604514    1.262    0.208
       249 -10.8938    244.8420     51.1462   4.5412997340e+01   1.8203587941e+01    0.5332885    0.2451243  81.73  0.002122267    3.122    0.680
       250 -10.8944    240.4411     50.2736   4.5693603330e+01   1.9291849420e+01    0.3731857    0.2990085 -35.98   0.00169571    1.238    0.192
       251  -9.4831    211.8967     53.1187   4.9921622727e+01   2.5491539755e+01    0.2350509    0.1811889 -65.98  0.001237621    1.292    0.226
       252 -11.0926    201.5295     48.5108   5.0162832144e+01   2.8690895446e+01    0.3197169    0.2787677 -34.70   0.00106903    1.195    0.163
       253 -11.0588    200.5179     45.3202   4.9449846543e+01   2.9394797155e+01    0.5894728    0.3079613  73.04  0.002500372    2.069    0.517
       254  -9.4018    176.7371     43.5713   5.2606473807e+01   3.5624612042e+01    0.2943771    0.2005635 -86.41  0.001215824    1.761    0.432
       255  -8.6004    221.3287    239.3287   8.9074249851e+01  -6.8328145581e+00    0.1253849   0.07742758   8.66 0.0003011916    1.709    0.415
       256 -11.1226    148.5324    237.8854   1.0261057612e+02   4.8053693642e+00    0.3960786    0.1959059  43.32  0.002020529    1.668    0.400
       257 -10.7573    198.5438    232.6692   9.2210187035e+01  -2.4719922560e+00    0.3836292    0.2978535  26.76  0.002482712    1.059    0.055
       258  -9.6706     15.1601    233.6882   1.2731418242e+02   2.3907050272e+01    0.1953815    0.1254755 -83.85  0.001014987    1.400    0.286
       259 -10.2558    167.8047    237.6042   9.8827284700e+01   1.7323473833e+00    0.1828631   0.09844777  45.64 0.0009475538    1.662    0.398
       260 -10.0617    247.3492    231.5389   8.3229810140e+01  -9.5732103016e+00    0.2059321    0.1279896 -21.99  0.000828971    1.536    0.349
       261 -10.6173    242.7009    231.4675   8.4017187946e+01  -8.9209198105e+00    0.2467414    0.1636973  49.40  0.001435941    2.251    0.556
       262  -9.1096    161.7893     47.8442   5.6572938535e+01   3.8811133855e+01    0.2596726    0.2075973 -63.18 0.0004266601    1.370    0.270
       263  -9.9502    162.8452     43.8936   5.5149057654e+01   3.9113925021e+01     0.303183    0.2422004  48.75   0.00156878    1.237    0.192
       264 -10.9122    173.9202     48.0165   5.4401237370e+01   3.5705075669e+01    0.5533261    0.4439192 -75.73  0.002839284    1.352    0.260
       265 -10.6355    138.6326     44.4147   6.0281040213e+01   4.5099912218e+01    0.6267146     0.260493  40.58  0.002178733    2.844    0.648
       266  -9.2313    132.4664     45.4875   6.2074729373e+01   4.6437816118e+01    0.2652441    0.1218426  45.54 0.0007862187    2.129    0.530
       267  -8.8096    219.6510     45.3177   4.6925323113e+01   2.4754641279e+01    0.1513065   0.09465947 -66.18 0.0005528842    1.732    0.423
       268 -10.9434    137.8437     33.4025   5.6701573020e+01   4.6812381012e+01    0.5225154    0.3465089 -60.28  0.001705238    1.966    0.491
       269  -9.5750     23.5775    231.6571   1.2575463005e+02   2.3413804089e+01    0.1942044    0.1058404  47.72 0.0006663288    1.523    0.343
       270  -9.0371    190.1307    229.8387   9.3364012388e+01  -7.1867132268e-01    0.1766923     0.130206  15.38 0.0008017601    1.324    0.245
       271  -9.5164    108.4785    230.0042   1.0955259161e+02   1.2539220874e+01    0.1697392    0.1220201 -66.50 0.0007374345    1.577    0.366
       272 -10.0243    144.6404     25.6348   5.2689113224e+01   4.6084603339e+01    0.5485106    0.2438044  69.83  0.002091411    2.521    0.603
       273 -10.9434    155.8517     42.0327   5.5892992210e+01   4.1148514118e+01    0.5785874     0.430596  16.14  0.002644344    1.711    0.415
       274 -11.6605    153.0956     36.0112   5.4492698364e+01   4.2664012355e+01    0.3273593    0.3018256 -24.88 0.0003987118    1.159    0.137
       275 -12.1711    164.2233     27.7272   4.9901185325e+01   4.0884011000e+01    0.3024817    0.2781943 -31.73 0.0003092338    1.175    0.149
       276  -9.2344    101.3186     44.6449   7.0136942383e+01   5.3610089358e+01    0.2560785    0.1406338  53.23 0.0008549343    1.954    0.488
       277 -11.1489     94.5787     41.3788   7.0972295675e+01   5.5505686007e+01    0.7377169    0.3163593  49.03  0.002982137    2.362    0.577
       278 -10.2188    189.0488     42.1840   5.0259008879e+01   3.2698329650e+01     0.335984    0.1886895 -36.84 0.0007886835    1.755    0.430
       279 -10.3087     86.4170     30.5057   6.9261343819e+01   5.8731662217e+01     0.382958    0.2290233 -18.52  0.001858729    1.818    0.450
       280 -10.5696     81.5661     40.0302   7.4735410194e+01   5.8225632949e+01    0.6987777    0.3797933  40.07  0.002811862    1.821    0.451
       281 -10.7341     78.0143     34.6102   7.3795007233e+01   5.9715633103e+01    0.4166737    0.3134402  44.13  0.001439445    1.413    0.292
       282 -10.7131     82.0524     31.7058   7.1206752638e+01   5.9399211124e+01    0.4442298    0.3355763 -65.77   0.00184895    2.208    0.547
       283 -10.5058    230.8433     38.6830   4.4009206398e+01   2.3048979836e+01     0.592824    0.2898455 -70.95  0.002183121    2.833    0.647
       284  -9.6454    193.7576     39.0273   4.8694375054e+01   3.1945281436e+01    0.2263015    0.1898545  73.37 0.0003033077    1.140    0.123
       285 -11.1091    176.7766     36.4320   5.0500509040e+01   3.6585529656e+01    0.4384387     0.370845  -4.31    0.0022325    1.420    0.296
       286  -9.5887    133.4301     37.1420   5.8964520706e+01   4.7394902844e+01    0.3896541    0.2538523 -65.41  0.001692405    2.241    0.554
       287  -9.5205    206.9560     37.0733   4.6402325733e+01   2.8936005181e+01    0.2134581    0.1949946 -82.21 0.0006737905    1.029    0.028
       288  -9.5046     94.8151     36.1562   6.8866584454e+01   5.6244902892e+01    0.2349605    0.1789393  55.74  0.001256822    1.472    0.320
       289 -11.4450    159.9908     29.9483   5.1305712014e+01   4.1690146849e+01    0.4582908    0.3856142  28.26  0.001347167    1.326    0.246
       290 -12.2895    106.0542     32.7580   6.4235821543e+01   5.4341273706e+01    0.5092941     0.312748  18.06  0.001236504    2.123    0.529
       291 -12.3945    113.4223     25.1348   5.9350497287e+01   5.3665031503e+01    0.8840951    0.4075429  53.30  0.003065359    1.964    0.491
       292 -11.1168    240.0578     32.0862   4.1527448668e+01   2.1828713425e+01    0.4410288     0.382728 -43.16  0.002803837    1.188    0.159
       293  -9.5362    216.1617     32.9568   4.4240754551e+01   2.7245077607e+01    0.3066499    0.1903846   3.00  0.001262737    3.161    0.684
       294 -10.8182    198.2274     29.2129   4.5427271280e+01   3.2099671584e+01    0.5191162    0.4006742 -26.00  0.001918318    1.445    0.308
       295 -10.6803    189.1514     28.2924   4.6360795077e+01   3.4484159922e+01    0.5105214    0.3374113  10.12  0.002304181    2.425    0.588
       296  -9.2234    199.6960     24.6801   4.4037031016e+01   3.2288861279e+01    0.2180817    0.1582294  52.87 0.0006565417    1.458    0.314
       297  -9.2313    181.0003    228.2334   9.4877656465e+01   1.0121010875e+00    0.1762686   0.09130474  38.34  0.000880371    1.634    0.388
       298 -10.9834    177.0641     29.8136   4.8514210379e+01   3.7357775814e+01    0.4990664    0.2333387  52.10  0.001978839    2.077    0.519
       299 -11.3254    182.9719     25.2632   4.6350339146e+01   3.6410060111e+01    0.5960658    0.3010754  51.57  0.002624538    1.982    0.496
       300 -10.0519    234.1869    223.0536   8.4078345748e+01  -6.6364989401e+00    0.1955109    0.1379223   6.81 0.0007163513    1.271    0.213
       301  -9.0308     35.8472     31.6228   8.9716967807e+01   6.6388274481e+01    0.1539344    0.1090355  34.08 0.0005195844    1.677    0.404
       302  -9.5760    221.6738     29.6300   4.2807588144e+01   2.6359282266e+01    0.2154104    0.1607075 -23.04  0.000573397    1.566    0.362
       303  -9.4087     99.5100     30.3430   6.5155680792e+01   5.6080303435e+01    0.2553664     0.186221  61.23  0.001106461    1.576    0.365
       304  -9.5205     97.7738     26.4806   6.4114480626e+01   5.6954358841e+01    0.2765344    0.2244778 -47.36  0.001560693    1.498    0.332
       305 -10.1332    230.6137     26.9931   4.1261082977e+01   2.4608667802e+01    0.3258789    0.1946787 -42.22  0.001351583    1.515    0.340
       306  -8.6278     40.6108     29.7392   8.6776391161e+01   6.6158294558e+01    0.1285534   0.08189577  -7.09 0.0006973792    1.694    0.410
       307  -9.7987    250.5129     26.5108   3.9336682864e+01   2.0247308052e+01    0.2590181    0.1121586 -33.63 0.0009545462    2.155    0.536
       308 -10.8920    214.4283     22.8886   4.1914195846e+01   2.8911210914e+01    0.3978278     0.338871   6.15  0.002142875    1.584    0.368
       309 -10.8869    211.3611     18.8397   4.1224384416e+01   3.0124600610e+01    0.2299105     0.196883 -89.83 0.0002890191    1.060    0.056
       310  -8.6320    206.2572     25.6476   4.3517587509e+01   3.0557831834e+01    0.1435501   0.08988645 -60.08 0.0003423843    1.606    0.377
       311  -9.3195     44.9800     24.4046   8.2523015365e+01   6.6464736581e+01    0.1949105    0.1532037 -34.55 0.0006094482    1.307    0.235
       312  -9.5825    168.8226     23.9006   4.8004156735e+01   4.0165081311e+01    0.2186219    0.1819572  40.34 0.0007476341    1.291    0.226
       313  -8.8903    209.3681    223.3116   8.8654517532e+01  -2.8609233310e+00    0.1341597   0.08531136   9.88 0.0007036881    1.767    0.434
       314 -10.4029     86.0522     23.9421   6.6640025979e+01   5.9683535703e+01     0.195108    0.1670025  16.16  0.001182269    1.030    0.029
       315  -9.7132     10.0264    217.9722   1.2742022357e+02   2.7433930809e+01    0.1720172    0.1249488  75.98 0.0006799439    1.029    0.028
       316 -10.2485    164.9818    212.3599   9.5576637365e+01   6.3197012636e+00    0.2680263    0.1752037  52.55  0.001252564    1.612    0.380
       317  -9.6386     59.5176     24.0031   7.6201047779e+01   6.4415232919e+01    0.1784946    0.1394173 -18.15 0.0004448112    1.150    0.130
       318 -10.1028     60.3460     19.9126   7.4021449714e+01   6.4854044326e+01    0.2968498    0.2169662 -44.01  0.001152775    1.729    0.422
       319  -9.2568    204.5132    208.5128   8.7027257165e+01   1.3203883063e-01    0.1313397    0.1132506  17.35 2.403754e-05    1.029    0.028
       320  -9.7515    153.2701    207.8673   9.7291143544e+01   9.1735371318e+00    0.2464713    0.1692322  48.25  0.001051408    1.360    0.265
       321  -9.7378     60.9402    206.9417   1.1679262133e+02   2.3954535354e+01    0.2060951    0.1562272  54.42 0.0005328538    1.172    0.147
       322 -10.0373    238.3849    204.5494   8.0031700188e+01  -4.7665969175e+00    0.2468459    0.1432858 -28.52   0.00134679    1.661    0.398
       323 -11.3463      6.9168    195.1059   1.2675377424e+02   3.2378897689e+01    0.7540223    0.1406025 -68.30  0.003020552    3.916    0.745
       324  -9.1640    223.5279     22.0535   4.0782166825e+01   2.6854559387e+01    0.2025577    0.1559497  83.62 0.0005071434    1.214    0.177
       325 -12.0566      4.8088    184.3243   1.2652989104e+02   3.4855962458e+01    0.5893592    0.4015763  76.05  0.003093004    1.143    0.125
       326  -9.6750     74.5059     19.5446   6.8585913526e+01   6.2449353359e+01    0.2330263    0.1745963  31.58   0.00074674    1.217    0.178
       327  -9.5025    124.2180     20.4098   5.5035097485e+01   5.1682774279e+01    0.2750688    0.1973715  88.12  0.001371112    1.810    0.448
       328 -10.2258     16.6162    204.2409   1.2543067406e+02   2.9568745035e+01    0.1578142   0.08577562 -71.94 0.0009548716    1.679    0.404
       329 -10.8639    245.7768    200.3049   7.7947507748e+01  -5.3068339589e+00    0.2942917    0.1571994 -31.72  0.001559679    1.778    0.438
       330  -8.7942    207.2719    201.3438   8.5201075546e+01   7.8565036294e-01    0.1349936    0.0942543   0.57 0.0004333151    1.616    0.381
       331 -10.3767    234.3759    197.0173   7.9338826882e+01  -3.0587401856e+00    0.4099924    0.2632408  14.92  0.001829067    1.616    0.381
       332  -9.1026    205.4682     17.5092   4.1510453354e+01   3.1706020844e+01    0.1340606    0.1182451 -82.71 1.199902e-05    1.017    0.017
       333  -8.8665     83.5383    195.9868   1.1076465592e+02   2.3150765267e+01    0.1848151    0.1227664 -68.91 0.0005249103    1.511    0.338
       334  -9.7938    169.8531    191.4890   9.0985572410e+01   9.1979277361e+00    0.3551574     0.210697  27.76  0.001184546    1.853    0.460
       335 -10.5715    249.9142     16.0880   3.7129612973e+01   2.1634906606e+01    0.2041666    0.1416482 -65.50  0.001176053    1.230    0.187
       336  -9.8443    239.8357    184.6460   7.5977930837e+01  -2.1073073892e+00    0.2240575    0.1711858   1.65 0.0006435292    1.216    0.178
       337 -10.1028    250.1525    179.3296   7.3145029593e+01  -2.9814374061e+00    0.3768188     0.160038 -30.22   0.00167791    2.243    0.554
       338  -9.4838    213.0145    181.3240   8.0256693601e+01   3.0334261274e+00    0.2312323   0.09864821  25.19 0.0007051119    4.352    0.770
       339  -9.7228     27.8491    176.1702   1.2105341722e+02   3.4542365217e+01    0.2493473    0.1742285  89.03  0.001565556    1.176    0.150
       340 -10.0134     51.7212    172.9686   1.1528618499e+02   3.2639998778e+01    0.2918031    0.1627178  89.96  0.001022257    1.878    0.468
       341  -8.8713    224.6524    175.6798   7.6922030924e+01   1.8835991945e+00    0.1447266   0.09798107   4.41 -9.87519e-06    1.735    0.424
       342  -9.2701    230.6573    175.4390   7.5773957148e+01   8.6776521976e-01    0.1799025    0.1196953  27.09 0.0009367564    1.514    0.340
       343  -9.7002    247.6909    173.9055   7.2474387818e+01  -1.7727036761e+00    0.4551875    0.1646689  29.55  0.001490301    4.596    0.782
       344  -9.7171     39.4913    173.4837   1.1817756890e+02   3.3933020918e+01    0.2104841    0.1705321  76.48 0.0008611127    1.062    0.059
       345 -10.7436     35.5381    170.3277   1.1877106620e+02   3.5085559465e+01    0.3743682    0.2272601 -89.60  0.001978945    1.487    0.328
       346 -10.4957      8.6092    157.3668   1.2382162840e+02   4.0542959964e+01    0.3076981    0.1860459 -64.47 0.0007536791    1.495    0.331
       347 -11.7383      9.4995    166.9723   1.2436548828e+02   3.8291495366e+01    0.5065016    0.3456426  73.77  0.002280326    1.242    0.195
       348 -11.4644     13.6183    159.5623   1.2284664860e+02   3.9635981927e+01    0.4672868    0.2414482 -71.33  0.001403907    1.576    0.366
       349  -9.1156    198.0096    167.7529   8.0442996064e+01   8.2173770663e+00    0.1998632    0.1829041  12.83 0.0007993575    1.025    0.024
       350  -8.6902    156.4788    166.4674   8.9137506588e+01   1.6713296678e+01    0.1475086    0.1414628  39.52 0.0001265793    1.009    0.009
       351  -8.7406    152.4367    166.5172   9.0073714565e+01   1.7504268435e+01    0.1466718    0.1415487  28.49 8.278144e-05    1.030    0.029
       352 -10.2963     18.7639    164.9675   1.2212523664e+02   3.7953031758e+01    0.2771691    0.2351956 -56.75  0.001694893    1.401    0.286
       353 -10.1282    205.6219    162.6506   7.7840249258e+01   7.6616366115e+00    0.4809441    0.2689318  23.32  0.001414471    2.449    0.592
       354  -9.5801    188.9366    164.0255   8.1523730405e+01   1.0699132057e+01    0.2356774    0.1743508   0.84 0.0007836196    1.674    0.403
       355  -9.4026     39.8823    162.1793   1.1688962154e+02   3.6519349680e+01    0.3756978    0.1378029 -85.67   0.00125944    4.088    0.755
       356 -10.2957     28.0477    161.8316   1.1968077038e+02   3.7813415503e+01    0.4123179    0.1597473 -65.06  0.001928576    2.147    0.534
       357  -9.3719     79.2664    160.4394   1.0687850658e+02   3.1894506789e+01     0.247587    0.1613331  89.37  0.001176463    1.764    0.433
       358  -9.2988    215.3132    158.1758   7.4999507826e+01   6.5809251805e+00    0.2849171    0.1224532 -31.24  0.001066822    2.550    0.608
       359  -9.0692    224.1115    156.8261   7.3064918000e+01   5.1378680748e+00    0.1999302    0.1576033   1.55 0.0007193547    1.325    0.245
       360 -10.5916    104.5545    154.0875   9.9334907683e+01   2.9331183786e+01    0.3849889    0.3326762 -62.45  0.002089642    1.139    0.122
       361 -10.4042     38.5925     21.7943   8.4261331013e+01   6.7682301677e+01    0.2689921    0.1695639 -27.03  0.001260682    1.371    0.271
       362 -12.2468     22.5367    149.7405   1.1980020933e+02   4.1156726151e+01     0.645281    0.3593533 -50.53  0.001624798    1.950    0.487
       363 -10.5786     15.6469    147.7298   1.2130008547e+02   4.2212807131e+01    0.2998797     0.228964  57.34 0.0009976369    1.335    0.251
       364 -11.8266     12.9603    138.8078   1.2109818184e+02   4.4517597348e+01    0.7539574    0.4034981 -87.60  0.004061963    1.665    0.399
       365 -10.7715     31.8105    153.1427   1.1786447531e+02   3.9487385183e+01    0.4560938    0.2914754  83.11  0.002559882    1.481    0.325
       366  -9.6418     71.5731    151.2471   1.0741904282e+02   3.5212244402e+01    0.2772099    0.2025193  23.58  0.001442969    1.699    0.411
       367 -11.9378      3.7856    147.1237   1.2412208157e+02   4.3251398592e+01    0.7245851    0.3780584 -78.31  0.003240622    1.494    0.331
       368 -12.0633      3.4762    138.7678   1.2348698934e+02   4.5203122334e+01    0.5753546    0.2553983 -75.15  0.003023353    1.737    0.424
       369  -9.2157     41.7225    149.1410   1.1488696116e+02   3.9422206085e+01    0.2290427     0.181777  24.69  0.001379888    1.565    0.361
       370  -9.6504     46.7995    151.6818   1.1390934840e+02   3.8250247857e+01    0.3198959    0.2383163  25.24  0.001714682    1.657    0.396
