#   1 NUMBER                 Running object number                                     
#   2 MAG_AUTO               Kron-like elliptical aperture magnitude                    [mag]
#   3 X_IMAGE                Object position along x                                    [pixel]
#   4 Y_IMAGE                Object position along y                                    [pixel]
#   5 X_WORLD                Barycenter position along world x axis                     [deg]
#   6 Y_WORLD                Barycenter position along world y axis                     [deg]
#   7 A_WORLD                Profile RMS along major axis (world units)                 [deg]
#   8 B_WORLD                Profile RMS along minor axis (world units)                 [deg]
#   9 THETA_WORLD            Position angle (CCW/world-x)                               [deg]
#  10 FWHM_WORLD             FWHM assuming a gaussian core                              [deg]
#  11 ELONGATION             A_IMAGE/B_IMAGE                                           
#  12 ELLIPTICITY            1 - B_IMAGE/A_IMAGE                                       
         1 -11.7078     80.0335     23.4952   7.9887834760e+01   6.1427280080e+01    0.7710493     0.318778  35.03  0.002968225    2.991    0.666
         2  -9.4496     61.4111     27.3939   8.8658551477e+01   6.3899399854e+01    0.3500275    0.2048189 -14.39 0.0009099553    2.465    0.594
         3  -8.8769    144.6150     23.4265   6.2354552645e+01   4.6765587840e+01    0.2801056    0.2299085  32.91 0.0001849722    1.226    0.184
         4  -8.9135     45.8903     20.6881   9.2359912551e+01   6.7233164958e+01    0.3515673    0.2188606 -52.75  0.001855029    1.746    0.427
         5  -8.8461     10.2137     19.3238   1.0940020981e+02   7.0843656498e+01    0.3975334    0.1810618 -21.62   0.00196522    2.947    0.661
         6 -10.2850     77.1257     13.2781   7.6140618588e+01   6.3481047136e+01    0.7526318    0.2921211  41.61  0.002718763    2.640    0.621
         7  -8.7989    131.2545      5.7456   5.8073855450e+01   5.2180839692e+01    0.3596968    0.1532859  46.25   0.00141087    2.201    0.546
         8  -9.8116    133.8573     13.6221   6.0745008095e+01   5.0688431324e+01    0.3445686    0.2425423  43.06 0.0003261485    1.361    0.265
         9  -9.1195    130.4615     10.1714   6.0050182683e+01   5.1926956964e+01     0.291675    0.2544959   0.62 0.0006527863    1.159    0.137
        10  -9.6086     64.2877     14.0608   8.1362964189e+01   6.5630838066e+01    0.3462953    0.2304521  12.54  0.001135671    1.746    0.427
        11  -8.5987     87.6819     13.2781   7.2573814636e+01   6.1420571038e+01    0.2891833    0.1858227   6.42  0.001244149    1.881    0.468
        12  -8.5244     97.1127     12.2914   6.9221305089e+01   5.9566278126e+01     0.356389     0.188089  31.92  0.001155258    2.151    0.535
        13  -9.3468     31.1015     11.0944   9.5070493703e+01   7.0635983302e+01    0.4671939     0.285847   1.54 0.0007147494    2.058    0.514
        14  -9.2651     32.1729      6.2363   9.2105068143e+01   7.1339215277e+01    0.2664703    0.2123214 -10.48 0.0002857056    1.146    0.127
        15  -8.5189    125.2803     10.1615   6.1147887851e+01   5.3227385753e+01    0.2361012    0.1791821  43.44 0.0003611037    1.237    0.192
        16  -9.6336     70.8065      9.2422   7.6430308884e+01   6.5196609129e+01    0.4536861    0.2110035  38.64  0.002001507    2.220    0.550
        17  -8.0952    144.5153      8.2131   5.6567616482e+01   4.8504006069e+01    0.2846881    0.1922919  27.40  0.001343394    1.620    0.383
        18  -9.1932    119.3091      6.9768   6.1115393838e+01   5.5037592799e+01    0.2534056    0.2113242  38.21 0.0002121974    1.115    0.103
        19  -9.3126     46.6837      6.2409   8.4939073739e+01   6.9500708264e+01    0.2589883    0.2086291 -12.56  0.001119062    1.047    0.045
        20  -9.0391     41.1059      5.6773   8.7297384407e+01   7.0342378784e+01    0.3589745    0.2004173 -17.42  0.001074384    2.071    0.517
        21 -10.0173      8.0206      5.3926   1.0525086006e+02   7.3634899208e+01    0.4656929    0.2240169  -8.01  0.001468063    2.934    0.659
        22  -8.7477    156.2455      7.0432   5.4159335581e+01   4.5509205919e+01    0.1954331    0.1884539  24.97 0.0004261579    1.057    0.054
        23  -9.7934     84.8404      5.3942   6.9632635710e+01   6.2985623093e+01    0.3073192    0.2331743 -13.39  0.001756403    1.241    0.194
        24  -9.3445     92.4923      5.2001   6.7198697435e+01   6.1405069132e+01      0.43426    0.2093727  44.74  0.001693175    1.951    0.487
        25  -8.8656     76.3489      3.4388   7.1443813100e+01   6.4904573887e+01    0.3394088    0.1860509 -16.12  0.001099105    1.878    0.468
        26  -9.4797    110.7072      3.2274   6.1445580576e+01   5.7491900164e+01     0.427516     0.274503 -34.56  0.002131423    1.646    0.393
        27  -8.5871    105.8245      1.7350   6.1944742241e+01   5.8787219555e+01    0.3521281    0.1644047  48.91  0.001480721    1.926    0.481
        28  -8.5693     57.5139      3.3782   7.8591898546e+01   6.8267730935e+01    0.2570581    0.1794064  13.43 0.0008483947    1.465    0.318
        29  -8.4825    100.4212      6.6191   6.5637062303e+01   5.9506305639e+01     0.260527    0.1556079  51.75 0.0006078784    1.602    0.376
        30  -7.6034    125.8278      3.5278   5.8240113377e+01   5.3768882274e+01    0.2082084    0.1311716  59.30 0.0009943811    1.489    0.328
        31  -8.0680    143.0988      2.0740   5.4432167603e+01   4.9463646368e+01    0.2077818    0.1951443  42.30 0.0003480306    1.018    0.018
        32  -7.6697      2.8323      1.3849   1.0665409766e+02   7.4685770168e+01    0.1411342   0.08830024 -13.22 0.0005580126    1.690    0.408
        33  -8.3316    133.8739    107.3071   9.1654496961e+01   3.4643214275e+01    0.5012687    0.1910509 -41.89   0.00174732    2.778    0.640
        34  -9.9158    229.0053    250.3602   9.8691329640e+01  -3.9294053843e+00    0.4584325    0.1065464  45.21  0.001856572    4.114    0.757
        35  -7.4358    123.6784    107.6339   9.4292611088e+01   3.6651579317e+01    0.1496707    0.1174811  -6.54 0.0007038485    1.789    0.441
        36  -7.7764    109.4313    106.6915   9.7781255337e+01   3.9583698495e+01    0.2444003    0.1845486  16.70  0.001188606    1.808    0.447
        37  -8.0128     61.2182    106.3393   1.1112690319e+02   4.7146382654e+01    0.1762257     0.111383  47.09 0.0009397873    1.661    0.398
        38  -8.9962     14.8396    105.1883   1.2414445475e+02   5.1915771814e+01    0.3725632    0.1673823 -35.65  0.001639413    4.003    0.750
        39  -7.6612     66.3438    105.3180   1.0947152377e+02   4.6720578068e+01    0.1312312   0.09803794 -32.55 0.0007049043    1.719    0.418
        40  -7.6113     93.9934    103.4756   1.0124896317e+02   4.3002468347e+01    0.1865909    0.1274381   9.60 0.0008089286    2.516    0.602
        41  -7.0163    167.3545     99.3004   8.1801141600e+01   2.8764188859e+01    0.1589688     0.117714  17.52  0.000703752    1.703    0.413
        42  -7.4235    129.5082     97.4521   9.0246418829e+01   3.7569794976e+01    0.1465154    0.1439128  10.26 0.0001810365    1.066    0.062
        43 -10.1809     12.3308     94.3323   1.2365262566e+02   5.4503905947e+01    0.5781069    0.3103489  -1.01  0.003054027    3.211    0.689
        44  -8.5046     43.3836     91.9789   1.1387271650e+02   5.2445492292e+01    0.2637688    0.2013258 -41.07  0.001385195    1.458    0.314
        45  -8.2393     96.4330     90.2893   9.7394469866e+01   4.5482615869e+01    0.2988054    0.2161655   9.46  0.001396855    2.087    0.521
        46  -7.3994    109.6822     90.6906   9.3739871668e+01   4.2967355519e+01    0.1443671    0.1162986  -7.21  0.000703269    1.638    0.389
        47  -8.5840      1.6347     90.1700   1.2636404469e+02   5.6065622103e+01       0.1707    0.0749301 -67.29 0.0005785012    1.719    0.418
        48  -9.5569    223.8790     92.0921   6.9248027880e+01   1.6682456594e+01    0.2734247    0.2219829  42.52 0.0004599178    1.245    0.197
        49 -10.2535     37.4301     81.0983   1.1377589704e+02   5.5501968362e+01    0.6367368    0.3404853 -27.43   0.00287241    3.128    0.680
        50  -8.2603     19.5655     85.5329   1.2029736746e+02   5.5978091197e+01    0.2976691     0.129169 -41.90  0.001403995    2.824    0.646
        51  -7.9467     65.9492     84.3356   1.0520332467e+02   5.1521909946e+01    0.1733116    0.1700855  79.05 0.0004308855    1.122    0.109
        52  -7.7124    126.2388     83.6408   8.7301839917e+01   4.1066926851e+01    0.2169936    0.1371084  37.08 0.0009417607    1.734    0.423
        53  -8.7241     88.5190     78.7496   9.6697587125e+01   4.9345390931e+01    0.4620511    0.2682307  21.39  0.001674811    2.732    0.634
        54  -9.7724      7.3344     77.8796   1.2316867512e+02   5.8474245278e+01    0.4663278    0.1910315 -42.72  0.002197231    2.785    0.641
        55  -7.7949    184.0323     77.7481   7.2384405664e+01   2.8490298923e+01    0.2139438    0.2013155  49.10 0.0007128231    1.063    0.060
        56  -9.0130     49.4056     76.9598   1.0892725502e+02   5.5209420622e+01    0.4396256    0.2545231   4.32  0.001972634    3.135    0.681
        57  -9.0911     23.7454     74.2501   1.1711944463e+02   5.8207980203e+01    0.3531236    0.1378997 -55.18  0.001720458    2.042    0.510
        58  -9.6151     24.1192     69.9304   1.1620451901e+02   5.9147763987e+01    0.5232282    0.2826633  19.51  0.002583758    2.372    0.578
        59  -8.1580     74.8894     74.4267   9.9829726758e+01   5.2452981910e+01    0.2197968    0.1744835 -36.09 0.0005910411    1.294    0.227
        60  -7.9305     47.3243     71.2886   1.0834011903e+02   5.6709067431e+01    0.1279669   0.08862425 -34.45 0.0002839124    1.608    0.378
        61  -7.1391    116.3491     68.3157   8.5353083304e+01   4.6210840472e+01    0.1536545    0.1173991   5.56 0.0005781075    1.727    0.421
        62  -7.8093    105.7981     67.3787   8.8087957064e+01   4.8552674212e+01    0.2120807    0.1358187  33.58 0.0009541097    1.779    0.438
        63  -8.5978     83.8763     64.2415   9.3923258801e+01   5.3202759848e+01    0.3591805    0.2402111   8.54  0.001608027    2.363    0.577
        64  -9.3145     16.2321     63.4037   1.1782657184e+02   6.1155131320e+01    0.4278319    0.2375026 -16.99  0.002286357    2.684    0.627
        65  -9.5946     62.5984     61.3738   1.0032834067e+02   5.7026386457e+01    0.6902191    0.2997727  23.90  0.002613398    3.681    0.728
        66  -9.4687     37.2036     59.2576   1.0909458923e+02   6.0402524876e+01    0.3734255    0.1458972 -42.12   0.00157301    2.700    0.630
        67  -8.4223     97.2326     58.5709   8.7807131975e+01   5.1959882031e+01    0.4530173    0.2443944 -18.15  0.001436299    4.179    0.761
        68  -7.5557     27.6543     60.3071   1.1294767144e+02   6.1010662920e+01    0.1192777   0.08637983  75.09 0.0007043169    1.697    0.411
        69  -8.2969     11.9178     61.0000   1.1898199206e+02   6.1953286749e+01    0.1539249   0.06802271  18.40 0.0007948108    2.890    0.654
        70  -7.9720    111.4151     58.1813   8.3417193582e+01   4.9193515772e+01    0.3224037    0.1531314  35.13  0.001141845    2.693    0.629
        71  -7.5805     49.4902     58.4899   1.0427697404e+02   5.9281829623e+01    0.1296775    0.1107761 -50.46 0.0008105169    1.008    0.008
        72 -10.0494     74.7496     50.2966   9.2446129593e+01   5.7531585279e+01    0.4430102    0.3080516 -36.06 0.0004119477    1.357    0.263
        73  -7.6906     88.5289     54.4624   8.9190322716e+01   5.4374072369e+01    0.1416536    0.1289869 -23.13 0.0002265397    1.062    0.058
        74  -8.4188    118.3850     50.9781   7.8932074637e+01   4.8995877247e+01    0.2622613    0.2073196  39.71 0.0004884121    1.286    0.223
        75  -9.0987     45.3184     48.9438   1.0308887072e+02   6.1786506407e+01    0.3892637    0.2207906 -32.00  0.001570202    2.004    0.501
        76  -8.2345    106.9613     48.5353   8.1312974775e+01   5.1898655705e+01    0.3095908    0.2095074  23.74 0.0009973311    1.839    0.456
        77  -8.8361     10.5953     47.2194   1.1680220168e+02   6.5036285646e+01    0.2822059    0.2046654 -68.41 0.0005931495    1.142    0.124
        78  -9.1898     13.5392     45.5756   1.1521376805e+02   6.5217109822e+01    0.4416457     0.173906 -46.57  0.001287613    2.127    0.530
        79  -9.2289     56.0087     43.4744   9.7065743990e+01   6.1618784292e+01    0.5110474    0.2220465 -31.08  0.001862329    3.568    0.720
        80  -9.1311      3.1234     43.8016   1.1920257268e+02   6.6153594762e+01    0.5389227    0.2231704 -65.77  0.002918137    1.775    0.437
        81  -8.6915     81.3313     44.2804   8.7965286325e+01   5.7599421956e+01    0.2856519    0.2068918 -18.73  0.000576984    1.538    0.350
        82 -11.0418     83.4355     39.9060   8.5567649147e+01   5.8034273451e+01    0.4623351    0.2885547  25.49  0.002179571    1.973    0.493
        83  -8.1685    220.3386     43.6489   5.6684591678e+01   2.4290620386e+01    0.2736191    0.1749373 -22.47 0.0006870888    1.582    0.368
        84  -8.2921    113.3089     42.2444   7.7134793560e+01   5.1619097864e+01    0.3451662    0.1955012  13.65  0.001124334    3.790    0.736
        85  -7.7657    123.9728     39.9783   7.3394983565e+01   4.9553813191e+01     0.234292    0.1718358  17.03 0.0004607069    1.621    0.383
        86  -8.7179     93.1027     37.9244   8.1558870737e+01   5.6570002420e+01    0.4008839    0.3163206 -48.07  0.001909855    1.353    0.261
        87  -9.5022     68.5474     37.1860   8.9880727144e+01   6.1033357279e+01    0.4280124    0.2985713 -10.62  0.002220764    1.760    0.432
        88  -8.8096     35.5099     37.9998   1.0367541268e+02   6.5077963321e+01    0.3779049    0.1554484 -54.14  0.001660947    2.001    0.500
        89  -8.4068     38.5039     35.5010   1.0152675891e+02   6.5280104011e+01    0.2305552    0.1720692 -25.58 0.0005845429    1.334    0.250
        90  -8.3575    105.9545     36.9763   7.7214476693e+01   5.4090404464e+01    0.2378606    0.1702025  10.70 0.0007046328    1.729    0.422
        91  -8.0428     73.8064     34.4017   8.6806199225e+01   6.0690746113e+01    0.2440917    0.1833715  13.47 0.0007520854    1.514    0.339
        92  -8.9510     23.3792     35.8634   1.0835492088e+02   6.6586095663e+01    0.3200084    0.1996055  51.01  0.001706063    2.302    0.566
        93  -7.7676     18.9840     36.0000   1.1037497547e+02   6.6885432790e+01    0.1933386   0.09717981  19.75 0.0006534393    2.442    0.591
        94  -9.1860     21.9865     32.0069   1.0779390540e+02   6.7485642902e+01    0.2481027    0.1740409 -38.08            0    1.249    0.200
        95  -8.9035     55.8550     35.8283   9.4331426345e+01   6.3138736961e+01     0.189427    0.1552088 -23.60 0.0002944297    1.148    0.129
        96  -9.3146      6.0155     34.1553   1.1578453957e+02   6.8057207843e+01    0.3577623    0.2536845 -25.54  0.002478496    1.519    0.342
        97  -8.3004      3.4653     30.5829   1.1607885167e+02   6.8926050506e+01     0.423516     0.107424 -56.61  0.001115062    2.423    0.587
        98  -8.4034      1.2403     28.7318   1.1667156272e+02   6.9410657224e+01    0.4654397   0.07064369 -52.96  0.001925355    3.166    0.684
        99  -9.9538    199.8364    249.1683   1.0310447743e+02   3.8048261899e-01    0.2523372    0.1218077  40.97  0.001351012    1.501    0.334
       100  -8.7147      2.5581    109.4317   1.2786957620e+02   5.1792774409e+01    0.2944438     0.133446 -42.52  0.001509158    3.082    0.676
       101  -8.4700     25.4853     26.0032   1.0410381422e+02   6.8403574562e+01    0.3076691    0.1426059 -41.50  0.001350519    1.817    0.450
       102  -8.5850     28.5347     21.6436   1.0096711490e+02   6.8972641766e+01    0.3515518    0.2275459 -28.52  0.002139834    1.466    0.318
       103  -7.7075    102.0523     25.4604   7.3634415210e+01   5.6712569234e+01    0.2096471    0.1345867  47.22 0.0004810127    1.553    0.356
       104 -10.7741    186.8701    247.1290   1.0493957179e+02   2.5111495318e+00    0.3316384    0.2664218  16.05  0.002626298    1.320    0.243
       105  -8.9604     42.1880     27.5001   9.6903791823e+01   6.6434527067e+01    0.2910573    0.1951212 -42.24   0.00113599    1.248    0.199
       106  -7.9305     69.6718    244.6713   1.2395780588e+02   1.9361882100e+01   0.08432097   0.07620493  30.16  0.000567307    1.707    0.414
       107  -9.1319     92.4972     20.4929   7.4373947724e+01   5.9444136474e+01    0.2639989    0.2347749  -3.91 0.0006758773    1.030    0.029
       108  -8.5158    140.4351     20.0383   6.1913860780e+01   4.8259699002e+01    0.2729042    0.1824166  43.16 0.0003349364    1.463    0.316
       109  -9.1699    248.0318    242.2480   9.4686557970e+01  -5.8829889853e+00    0.1595032    0.1265476  12.66 0.0003693226    1.229    0.186
       110  -8.1033      5.1246     18.6655   1.1185117639e+02   7.1264817405e+01    0.1811822    0.1380728 -33.49 0.0003490096    1.210    0.174
       111  -7.9008    128.9685     22.6296   6.5419939893e+01   5.0835205785e+01    0.2116395    0.1778731  48.14 0.0008849557    1.147    0.128
       112  -8.2174    127.5464     16.8292   6.3402649038e+01   5.1905953977e+01    0.2449289    0.1940549  57.59 0.0004585506    1.243    0.196
       113  -7.4049    106.5522    236.4775   1.1724435479e+02   1.5722656875e+01    0.1092901    0.0803186  53.66 5.978222e-05    1.010    0.010
       114  -9.9161    188.3242    233.8771   1.0305584805e+02   3.7526637068e+00    0.2130318    0.1963221  37.87  0.000949282    1.288    0.224
       115 -10.1541    142.0406    229.2415   1.1040933056e+02   1.1528000149e+01    0.1834589    0.1470266  51.08 0.0002311643    1.082    0.076
       116  -7.5690      6.3436    213.3158   1.3269612637e+02   3.1146633191e+01   0.08047356   0.06979398 -69.54 0.0007048195    1.714    0.416
       117  -7.6363    120.6906     15.6715   6.4506087875e+01   5.3727077702e+01    0.1538808    0.1022912  25.08 0.0002939575    1.662    0.398
       118  -7.3799    250.5609    199.4791   8.7643845780e+01  -2.2883412178e+00    0.1184297   0.08827331  16.97 8.462927e-05    1.035    0.034
       119  -8.0560    105.5085     14.0276   6.7649189151e+01   5.7490041969e+01     0.200063    0.1147143   6.30 0.0005965394    2.444    0.591
       120  -8.3592    248.7166    181.5016   8.4756059031e+01  -8.0132736429e-02    0.2031424    0.1817752  24.11 0.0007741088    1.299    0.230
       121  -7.4072     19.5086    178.4148   1.2877497164e+02   3.6222089280e+01     0.107432   0.07792487  72.57 -6.133301e-06    1.019    0.018
       122  -8.6490    236.4794    176.4351   8.5807494737e+01   2.5647191943e+00     0.208758    0.1678905  20.77 0.0002127128    1.028    0.027
       123 -10.5101    101.0023    176.0035   1.1190272167e+02   2.6656737810e+01    0.1775631    0.1491679  63.79            0    1.001    0.001
       124  -8.7250    237.4518    171.6702   8.4748405544e+01   2.9700991663e+00    0.2120089    0.1674958  23.23 0.0001971338    1.064    0.060
       125  -8.2723    158.8004    167.6094   9.8562988157e+01   1.8199182622e+01    0.1949184    0.1784139 -10.01 0.0004967256    1.256    0.204
       126  -8.1694    237.7878    166.9986   8.3794532584e+01   3.4821841656e+00    0.1722372    0.1615283   2.38 0.0004383126    1.265    0.209
       127  -9.8507    205.6072    164.3478   8.8885665826e+01   9.7698991211e+00    0.2581615    0.2121962  40.45 0.0004962652    1.150    0.130
       128  -8.5094     91.3142    153.8494   1.1102509737e+02   3.2531848543e+01    0.1911216    0.1529954  63.41 0.0003130463    1.122    0.108
       129  -7.6256    157.7932    153.2085   9.6141977933e+01   2.0904131158e+01    0.2183147    0.1562798   8.48  0.001041151    2.061    0.515
       130  -7.8523    133.5179    147.9839   1.0043792616e+02   2.6537680640e+01    0.1865991    0.1196914 -25.66 0.0008101828    2.540    0.606
       131  -9.0217     67.3418    144.7057   1.1537900648e+02   3.7846066633e+01    0.4191205    0.2332472  68.18  0.002105256    2.015    0.504
       132  -7.2441    108.3716    137.2600   1.0432431416e+02   3.3235014544e+01    0.1295711    0.1088388   5.34  0.000697732    1.652    0.395
       133  -7.3155    144.3355    126.3060   9.3587715779e+01   2.8666617242e+01    0.1455641    0.1151813   8.83 0.0007040344    1.670    0.401
       134  -7.4182    153.2941    124.3609   9.1110787582e+01   2.7178464554e+01    0.1481453    0.1158667   2.28 0.0007030754    1.703    0.413
       135  -8.1790     12.4025    121.7538   1.2637660835e+02   4.8453840869e+01    0.1643762   0.08126194 -68.15 0.0009487087    1.671    0.401
       136  -8.2884    243.1988    121.3949   7.3259640819e+01   8.3930466283e+00    0.1739587    0.1311672  58.71 0.0004394852    1.596    0.373
       137  -7.3102    180.6539    120.6771   8.4361952772e+01   2.1910899857e+01    0.1553617    0.1125377  14.94 0.0007049899    1.738    0.425
       138  -7.9284    119.8974    118.5997   9.7765844797e+01   3.5083368442e+01    0.1999254     0.125771  20.57 0.0008020464    2.600    0.615
       139  -7.5882    100.0114    118.5025   1.0283339575e+02   3.8684137422e+01    0.1849229    0.1266666  11.87 0.0006534212    2.503    0.600
       140  -7.4387    142.5283    111.5140   9.0585637168e+01   3.1974030029e+01     0.146343    0.1428999  44.59 0.0002644849    1.027    0.026
