#   1 NUMBER                 Running object number                                     
#   2 MAG_AUTO               Kron-like elliptical aperture magnitude                    [mag]
#   3 X_IMAGE                Object position along x                                    [pixel]
#   4 Y_IMAGE                Object position along y                                    [pixel]
#   5 X_WORLD                Barycenter position along world x axis                     [deg]
#   6 Y_WORLD                Barycenter position along world y axis                     [deg]
#   7 A_WORLD                Profile RMS along major axis (world units)                 [deg]
#   8 B_WORLD                Profile RMS along minor axis (world units)                 [deg]
#   9 THETA_WORLD            Position angle (CCW/world-x)                               [deg]
#  10 FWHM_WORLD             FWHM assuming a gaussian core                              [deg]
#  11 ELONGATION             A_IMAGE/B_IMAGE                                           
#  12 ELLIPTICITY            1 - B_IMAGE/A_IMAGE                                       
         1 -10.3732    186.0445     36.2662   6.9531941945e+01   3.4351543499e+01    0.8321626    0.3198178 -31.67  0.003245097    2.904    0.656
         2 -11.3728    201.3468     38.3100   6.7834765600e+01   3.0280408315e+01    0.6680728    0.5404161  67.57  0.003837118    1.151    0.131
         3  -9.0898    145.7874     25.0805   7.3248701035e+01   4.5679786358e+01    0.2578597     0.180692 -49.68  0.001001428    1.681    0.405
         4  -9.5480    221.7004     14.5312   5.9950074349e+01   2.8314824065e+01    0.3712426    0.1961444 -31.45  0.001586914    2.207    0.547
         5  -8.5481    230.6686     15.4942   5.9289761343e+01   2.6133594975e+01    0.1929117    0.1108447 -37.95 0.0007507018    1.831    0.454
         6  -8.7250    200.4763     14.5044   6.2212466322e+01   3.3372027230e+01    0.3632193    0.2283937  33.51  0.001784741    2.447    0.591
         7  -9.0492    212.8191      9.7799   5.9799328655e+01   3.0928904728e+01    0.3539285    0.1854372 -75.73  0.001698209    2.074    0.518
         8  -8.5072    198.3593     10.8007   6.1580960873e+01   3.4281593981e+01    0.1560066    0.1275071 -12.20 0.0006780669    1.691    0.409
         9  -8.8988    185.8968      8.2452   6.2427498649e+01   3.7574240744e+01    0.3073325    0.1530305 -73.23  0.001302996    2.687    0.628
        10  -8.0547    155.0000      8.9951   6.6903656648e+01   4.5061117912e+01      0.18828   0.07707184 -24.61 0.0008021737    2.941    0.660
        11  -8.9534    172.8170      5.3450   6.3345250058e+01   4.1048655169e+01    0.4278025    0.1806684  55.15  0.001952841    2.026    0.506
        12  -8.2505    116.5147      6.5014   7.3209085156e+01   5.4298592631e+01    0.1302666    0.1052868  45.67 0.0008104181    1.021    0.021
        13  -8.5730     60.0331      5.4764   8.8668410632e+01   6.5367180807e+01    0.1740055   0.09716824  39.97  0.001022399    1.562    0.360
        14  -8.2892    190.5024      2.2543   6.0433137987e+01   3.7035513795e+01    0.1481489    0.1268245   9.60 0.0009352796    1.636    0.389
        15  -8.0901    194.3566      1.6807   5.9875921654e+01   3.6161129118e+01     0.137535   0.08139368 -72.98 0.0005960344    1.756    0.431
        16  -7.8363     84.7081      1.6904   7.9247784320e+01   6.1323981703e+01    0.1265842   0.07354133  27.88  0.000263746    1.584    0.369
        17  -8.5812    146.4879    157.9781   1.0951356176e+02   2.0746915523e+01    0.2371288    0.1560463 -49.49  0.001022735    1.560    0.359
        18  -9.0170    222.2151    153.9062   9.1937944135e+01   5.2673149326e+00    0.3120755     0.166861 -57.29  0.001163326    2.725    0.633
        19  -8.7297    118.4890    153.5066   1.1563416010e+02   2.7499111621e+01    0.1535556    0.1468592  82.32 8.597603e-05    1.004    0.004
        20  -8.1226    229.4686    152.5135   9.0264927276e+01   4.0599649784e+00    0.1434127    0.1352472 -32.08 0.0001298033    1.048    0.046
        21  -8.1561    224.6204    147.1882   8.9992604118e+01   6.0410051509e+00    0.2171733    0.1334402 -30.24 0.0009563639    1.711    0.415
        22  -9.3404    196.5821    144.7859   9.5023088086e+01   1.2544125333e+01    0.2262265    0.1440197 -52.38 0.0009554735    1.705    0.413
        23  -8.1966    232.4740    142.0489   8.7408354687e+01   5.3909012869e+00    0.2222004    0.1350923 -38.07  0.001016284    1.549    0.354
        24  -8.2624    124.6219    142.3090   1.1160895574e+02   2.8931881099e+01     0.166361    0.1214485  77.22 0.0006143851    1.787    0.440
        25  -9.8925    215.7773    135.5421   8.9029362853e+01   1.0144807709e+01    0.4630146    0.2972938 -76.86   0.00173318    2.886    0.653
        26  -7.9631    249.5508    136.5098   8.3268843307e+01   3.0078575445e+00    0.1395215    0.1251584 -31.85 8.028662e-05    1.029    0.028
        27  -8.3850    164.8238    136.6079   1.0018077281e+02   2.1479421128e+01    0.2320347    0.1496906  56.50    0.0007011    1.666    0.400
        28  -8.1559    243.9567    135.2149   8.3911699616e+01   4.3310390084e+00      0.18015    0.1162726  50.51 0.0008714137    1.702    0.413
        29  -9.5385    169.8962    134.4722   9.8478108798e+01   2.0779264829e+01      0.27888    0.2291218 -43.78 0.0006027458    1.233    0.189
        30  -7.7653    249.9716    131.0000   8.2008648501e+01   3.9006411493e+00    0.2106283   0.08059499  50.60 0.0007963349    2.900    0.655
        31  -9.0124    213.5267    124.0219   8.6773185251e+01   1.2869755194e+01    0.3479363    0.2128271  51.37  0.001527117    1.690    0.408
        32  -9.7413    206.5463    127.4821   8.8934475585e+01   1.3772756808e+01    0.2719446    0.2296053 -50.57 0.0008072177    1.175    0.149
        33  -9.8136    196.0306    122.0263   8.9730141537e+01   1.7278289610e+01    0.4526701    0.2799231  31.76  0.001808996    2.094    0.522
        34  -9.5054    193.1749    126.8096   9.1482025972e+01   1.6979838763e+01    0.4627352    0.2364573 -51.61  0.001724018    2.176    0.540
        35  -9.6860    189.0598    124.5320   9.1793264462e+01   1.8403153445e+01     0.362647    0.2643592 -83.07  0.001153196    1.922    0.480
        36  -8.8537    242.7201    125.1670   8.1905706013e+01   6.3854296569e+00     0.259903    0.1647469  39.04  0.001228775    1.853    0.460
        37  -8.3735    161.6908    124.6018   9.7977142446e+01   2.4811217548e+01    0.2197621    0.1516036  57.52 0.0006594225    1.533    0.348
        38  -8.7108    235.8115    117.9251   8.1423544807e+01   9.1310670272e+00    0.2775656    0.1981542 -39.59  0.001396436    1.309    0.236
        39  -8.7761    230.5672    116.3534   8.1943683682e+01   1.0543460760e+01    0.5078893    0.2804349  69.65   0.00198667    2.662    0.624
        40  -9.4334    183.0033    116.3340   9.1053712202e+01   2.1505531813e+01    0.3560201    0.2726533  57.33  0.001039684    1.324    0.245
        41  -8.4945    218.8172    116.0082   8.3912614909e+01   1.3206150488e+01    0.3877209    0.1707887  44.08   0.00142703    2.549    0.608
        42  -8.0727    212.3405    116.2870   8.5162605351e+01   1.4623838446e+01    0.1505449    0.1201341  14.45 0.0007019604    1.640    0.390
        43  -8.2589    203.9799    116.4786   8.6797409034e+01   1.6518083171e+01    0.2294559    0.1512564  52.21 0.0008624238    1.542    0.352
        44  -8.5043    194.5936    114.7747   8.8242481855e+01   1.9059212868e+01    0.2275569    0.1418953 -51.56 0.0009481937    1.682    0.405
        45  -8.2840    248.9159    113.4949   7.8359298279e+01   7.1970000959e+00    0.1936354    0.1392356  55.79 0.0008548204    1.532    0.347
        46  -9.3298    104.6612    111.9301   1.0985370252e+02   3.9889879407e+01    0.2514667    0.2080919  20.93 0.0005845976    1.334    0.250
        47  -9.3257    184.1765    110.2233   8.9258896036e+01   2.2454281561e+01    0.2831839    0.2648803  50.75  0.001344053    1.075    0.070
        48  -9.5394    163.4846    110.7527   9.4005563638e+01   2.7321217813e+01    0.4336188     0.240577  67.73  0.001473375    2.744    0.636
        49  -9.6916    190.3408    109.3475   8.7754676062e+01   2.1144496899e+01    0.3027143    0.2397616   9.54  0.001380055    1.704    0.413
        50  -9.3420    153.3150    110.3442   9.6334242577e+01   2.9813385026e+01    0.2597567    0.2003169   7.10  0.001125611    1.771    0.435
        51  -9.4824    215.4303    107.9100   8.2600441347e+01   1.5495942480e+01    0.4359053    0.2863361  51.74  0.002013465    1.568    0.362
        52  -8.3584    197.7726    108.3924   8.6025789672e+01   1.9551099244e+01    0.2174634    0.1431051  43.98 0.0005735151    1.603    0.376
        53  -9.0204     15.1955    112.0322   1.3689227601e+02   5.1165420624e+01    0.1823908    0.1696624 -56.69 0.0005847932    1.168    0.144
        54  -8.3885    147.9918    107.5051   9.6898120420e+01   3.1653063987e+01    0.2272884    0.1362176  26.00 0.0006297043    2.470    0.595
        55  -8.6199    248.9533    106.5184   7.6826533158e+01   8.4062945435e+00    0.3269366    0.1380562  55.08  0.001327599    2.595    0.615
        56  -8.2367    248.3731    103.1036   7.6163766568e+01   9.1175297169e+00    0.2078363     0.112016 -49.39 0.0009337619    1.745    0.427
        57  -9.8980    185.8192    102.7957   8.7018802920e+01   2.3517967225e+01    0.2726629    0.2707224 -48.69 0.0009329736    1.061    0.058
        58  -9.2746    218.5064    100.2317   8.0232177796e+01   1.6199730568e+01    0.4652309    0.2535197  62.66  0.001933882    2.036    0.509
        59  -9.9619    160.5586     99.4891   9.1697304714e+01   3.0315418032e+01    0.3698774     0.197272 -48.87  0.001416579    2.005    0.501
        60  -9.3058    129.3815     98.6868   9.9332116251e+01   3.7714898543e+01    0.2405939    0.1896189 -89.41 0.0006746969    1.702    0.412
        61  -8.7918    196.5343    103.6705   8.5090657200e+01   2.0755248610e+01    0.3553592    0.1574677  60.33  0.001103066    2.628    0.620
        62  -9.1886    196.3015     98.3189   8.3790747620e+01   2.1824833053e+01     0.631481    0.3244598  78.29  0.001731286    4.821    0.793
        63 -11.0030    171.5210     93.2004   8.7528821695e+01   2.8869075216e+01    0.5131543    0.3198161 -34.57  0.002169628    1.732    0.423
        64  -9.1892    146.3931     96.2568   9.4232852644e+01   3.4337491648e+01    0.2190111    0.1478192 -51.54 0.0007572803    1.596    0.373
        65  -8.5914    216.4362     95.2461   7.9393414476e+01   1.7582444051e+01    0.2124384    0.1312422 -50.63 0.0007355644    1.603    0.376
        66  -8.2142    208.1895     95.2146   8.0818624702e+01   1.9537549018e+01    0.2097338    0.1706762 -74.22  0.000835645    1.307    0.235
        67  -9.1327    141.4533     97.7649   9.5899765613e+01   3.5182589163e+01    0.3114108     0.150951 -47.04  0.001037822    2.166    0.538
        68  -8.6104    132.6571     95.3403   9.7517004203e+01   3.7676143298e+01    0.1613341    0.1248212 -87.87 0.0007048658    1.777    0.437
        69  -8.5111    243.3005     93.3959   7.4758859658e+01   1.1858470331e+01    0.2486299    0.1307434  54.09  0.001116688    2.034    0.508
        70  -9.0452    151.1691     93.4804   9.2286175382e+01   3.3758483098e+01    0.3078541    0.1483407  46.42    0.0011404    2.025    0.506
        71  -9.0539    103.2401     93.0039   1.0518518579e+02   4.4280111927e+01    0.2032902    0.1223924 -44.67 0.0008899282    1.636    0.389
        72  -9.2973    195.3850     91.1959   8.2161186722e+01   2.3367562110e+01    0.2631421    0.1879272 -79.07  0.001160994    1.764    0.433
        73 -10.2875    225.2415     86.8137   7.5963016619e+01   1.7018595325e+01    0.6213955    0.4153222  15.69  0.002477213    3.031    0.670
        74  -8.5311    150.6538    103.3191   9.5111086383e+01   3.1901030246e+01    0.1648285    0.1264175 -88.19 0.0007049066    1.728    0.421
        75 -10.6072    165.8853     88.3819   8.7459853822e+01   3.1167004323e+01    0.5190654    0.3463829 -64.41  0.002172732    1.922    0.480
        76  -8.1779    236.2979     89.6318   7.4936563024e+01   1.4031999353e+01    0.1525747    0.1000413 -66.89 0.0007031051    1.731    0.422
        77  -9.5225    214.9772     88.6392   7.8049451182e+01   1.9100814483e+01    0.2971598    0.2505304 -14.48   0.00125114    1.478    0.323
        78  -7.9824    131.3324     89.2992   9.6149654166e+01   3.9183354170e+01    0.1574516    0.1208108  11.33 0.0003531971    1.648    0.393
        79  -8.1353    124.6811     89.3312   9.7959705914e+01   4.0646566778e+01    0.1541729    0.1232432 -86.82 0.0007048094    1.690    0.408
        80  -9.0219    209.9689     87.8113   7.8693702940e+01   2.0439798432e+01    0.2420957      0.16572 -88.86 0.0009753699    1.855    0.461
        81 -10.2953    180.2339     86.1366   8.3809691081e+01   2.8030943201e+01     0.328576    0.2489098 -43.06  0.001571589    1.346    0.257
        82  -8.8409    139.7696     87.2326   9.3355179768e+01   3.7659642677e+01    0.2706392    0.1953207 -42.35 0.0008888618    1.428    0.300
        83 -10.5961    142.7353     83.0515   9.1401929361e+01   3.7760198522e+01    0.4636123    0.3687143 -73.21  0.002203693    1.567    0.362
        84  -8.3105    232.6670     85.3346   7.4495016893e+01   1.5576265474e+01    0.2816413     0.189175 -67.52  0.001151367    1.648    0.393
        85  -9.1398    231.8516     82.1842   7.3894071107e+01   1.6292295127e+01    0.2867602    0.2343991  71.14 0.0009950704    1.236    0.191
        86  -8.4968    203.3172     86.6725   7.9569946970e+01   2.2246880565e+01    0.1585015    0.1126652 -74.21  0.000704571    1.678    0.404
        87  -8.4489    157.0021     85.9959   8.8812115775e+01   3.3788536441e+01    0.1878424     0.180825 -47.32 0.0006719571    1.076    0.071
        88  -9.7057    116.9968     85.1650   9.8892140363e+01   4.3112562090e+01    0.2546051    0.2210738 -40.11 0.0007540195    1.171    0.146
        89  -8.5648    237.1786     83.5607   7.3437308650e+01   1.4863302459e+01     0.280177    0.1398937 -57.83  0.001131546    2.316    0.568
        90  -8.7412    194.3703     84.1233   8.0544739236e+01   2.4890169674e+01    0.2569359    0.1703359  63.14 0.0008669345    1.513    0.339
        91  -9.3131    111.1819     82.9175   9.9900951062e+01   4.4753882265e+01     0.223192    0.2062171 -87.92 0.0007128193    1.286    0.223
        92  -8.5260    241.4930     81.4056   7.2351098815e+01   1.4266962396e+01    0.2162668    0.1831514 -41.03 0.0007902329    1.202    0.168
        93  -9.2905    244.6879     79.1301   7.1416360205e+01   1.3941683750e+01    0.4988317    0.2418825 -61.99  0.001955523    2.718    0.632
        94 -10.6464    158.1357     80.4116   8.6981172288e+01   3.4539212211e+01    0.5194013    0.2271598  48.48  0.001894534    2.185    0.542
        95  -9.6133    152.8303     80.7111   8.8289146576e+01   3.5778196060e+01     0.262978    0.2152088 -24.52  0.001005516    1.361    0.265
        96  -8.9279    197.2055     80.4248   7.9083633831e+01   2.4839625902e+01      0.25925    0.1720175 -85.39   0.00109182    2.015    0.504
        97  -8.9859    194.3984     76.5882   7.8605254494e+01   2.6193920388e+01     0.332073    0.1922436 -56.77  0.001374608    1.981    0.495
        98 -10.7918    176.4932     78.2565   8.2453455771e+01   3.0370494255e+01    0.5460851     0.353952 -68.23  0.002071596    2.068    0.516
        99  -9.4454    176.6303     71.8863   8.0699090620e+01   3.1430237864e+01     0.332059    0.1978596 -50.96  0.001416737    1.828    0.453
       100  -9.9799    119.1226     79.4714   9.6594505127e+01   4.3757347705e+01    0.2977854    0.2583081 -24.58  0.001001668    1.182    0.154
       101  -9.7474    135.5523     78.0756   9.1760984295e+01   4.0356329893e+01    0.3875251    0.2578574  79.16  0.001374998    2.412    0.585
       102  -9.5521    131.1551     78.6406   9.3072559890e+01   4.1258829076e+01    0.3010331    0.2042105 -50.76  0.001363154    1.648    0.393
       103 -10.2020    214.9142     76.1237   7.5040310980e+01   2.1262707272e+01    0.4099738    0.3623784  27.64  0.002243081    1.420    0.296
       104  -9.4064    225.6427     75.4759   7.3255354019e+01   1.8836134022e+01    0.3899092    0.2621316 -36.26  0.001931134    1.536    0.349
       105 -10.1099    126.2910     75.6415   9.3466295257e+01   4.2901289236e+01    0.4074118    0.3418339  44.14  0.002121849    1.146    0.128
       106  -9.2955    235.6709     73.2931   7.1335995955e+01   1.6890980813e+01    0.5172591    0.2644392 -57.83  0.002205116    2.147    0.534
       107  -9.9247    151.7565     74.0348   8.6618635290e+01   3.7229992890e+01    0.3293059    0.2769912 -59.40  0.001628847    1.306    0.234
       108  -8.6274    141.0599     73.7690   8.9096279090e+01   3.9842497127e+01    0.3156032    0.1860428 -62.15  0.001183162    2.650    0.623
       109  -9.5686    201.9730     72.0058   7.6128006080e+01   2.5091428722e+01    0.4289855    0.2929563  83.22  0.001988872    1.660    0.398
       110 -10.0134    180.8877     70.2873   7.9444201555e+01   3.0629726185e+01     0.550212    0.1621099 -43.63  0.001697854    3.493    0.714
       111  -8.7160    181.8764     65.4138   7.7951886080e+01   3.1178238745e+01    0.3581452     0.110865  50.46  0.001139474    3.089    0.676
       112  -9.4240    190.7005     78.4022   7.9747356553e+01   2.6800665282e+01    0.3539025    0.2094505 -61.32  0.001214575    2.112    0.526
       113 -10.1386    157.7244     70.0158   8.4111642597e+01   3.6457726821e+01    0.4590422    0.2264514 -51.45  0.001708604    2.506    0.601
       114  -8.5285    207.7523     69.5375   7.4570268233e+01   2.4079616138e+01    0.3766518    0.1894089 -65.09   0.00131751    3.103    0.678
       115  -9.1124    190.7953     66.8046   7.6713707509e+01   2.8717187644e+01    0.2530501    0.1791179 -45.86  0.001226567    1.435    0.303
       116  -8.3025    162.7871     70.6157   8.3184689529e+01   3.5103222713e+01    0.2132635    0.1402803  66.56 0.0009347932    1.606    0.377
       117  -8.8420      6.0706     70.5032   1.3241366909e+02   6.0623905505e+01    0.1473196    0.1093099   4.56 0.0005935167    1.570    0.363
       118  -9.7605    218.1273     68.3087   7.2678303963e+01   2.1773600834e+01    0.3568653    0.2289583  86.69  0.001643049    1.821    0.451
       119  -8.8428    220.8881     53.5108   6.8810566743e+01   2.3397058008e+01    0.4024363    0.3193412  55.21  0.002252341    1.365    0.267
       120 -10.3256    214.2166     57.6596   7.0710060651e+01   2.4375199641e+01    0.6314775     0.372114  72.38  0.002948321    1.706    0.414
       121  -9.9394    224.4213     66.9024   7.1436963143e+01   2.0507740217e+01    0.6175494    0.3534568  84.06  0.002654968    2.207    0.547
       122  -9.3747    221.1364     61.1488   7.0556954098e+01   2.2183665679e+01    0.3810057    0.2593949 -53.49  0.001451701    1.405    0.288
       123  -8.8735    140.3962     67.7425   8.7457577372e+01   4.1038198230e+01    0.3042726    0.2009589  51.79  0.001402415    1.430    0.301
       124  -8.3648    211.3346     67.6400   7.3544447776e+01   2.3514872878e+01    0.1588026    0.1029005 -71.32 0.0007039401    1.809    0.447
       125  -8.6462    250.1531     65.4557   6.7771515756e+01   1.4928460419e+01    0.2238779    0.1406146 -48.36  0.001175885    1.414    0.293
       126  -9.4871    192.5088     40.9449   6.9762020564e+01   3.2120372672e+01     0.252536      0.18035  82.25 0.0008423114    1.354    0.261
       127  -9.7291    197.6441     63.9422   7.4811006102e+01   2.7467572378e+01    0.4116905    0.2345381 -31.58  0.001793487    1.987    0.497
       128 -10.6592    198.9952     59.4907   7.3463433568e+01   2.7826734204e+01    0.9010839    0.3624884  70.06  0.003065192    3.085    0.676
       129 -10.9111    202.6634     57.8302   7.2470191952e+01   2.7172630156e+01    0.5119073     0.484737 -58.21  0.003009002    1.141    0.124
       130 -11.2084    197.5742     44.9255   7.0014742784e+01   3.0314527398e+01    0.8684036    0.4013277 -62.69  0.003076244    3.319    0.699
       131 -10.1435    201.5774     53.2454   7.1494678084e+01   2.8128368376e+01     0.428938    0.3184791  -1.58  0.002067938    2.111    0.526
       132  -9.5768    198.4860     51.4968   7.1528166016e+01   2.9151377722e+01    0.3097453     0.253485  77.96  0.001112026    1.119    0.107
       133  -8.7821    236.5968     61.1790   6.8508938783e+01   1.8587437277e+01    0.5482747     0.333814 -78.99  0.002593406    1.932    0.483
       134 -10.1764    158.4882     62.5771   8.1803935051e+01   3.7489437473e+01    0.3543251    0.2554931 -27.83  0.001281417    1.567    0.362
       135 -10.6311    127.0746     60.0582   8.8437643599e+01   4.5392978292e+01     0.433152    0.3231639 -60.50  0.001951852    1.730    0.422
       136  -9.7291    148.7441     60.8289   8.3427512040e+01   4.0161372867e+01    0.4951368    0.2596752  55.91  0.002063297    1.795    0.443
       137 -10.4520    172.2903     57.4031   7.7563892889e+01   3.4845015221e+01    0.5869123    0.3890519  42.46  0.002743919    1.610    0.379
       138  -8.0948    118.4562     60.4805   9.0868560096e+01   4.7241229482e+01    0.1446833    0.1337035  25.55 0.0001400117    1.006    0.006
       139  -8.5175     95.2304     60.2030   9.7591250959e+01   5.2016452612e+01    0.2186719    0.1068378 -48.35 0.0008847095    2.511    0.602
       140  -9.9387    231.0107     52.7289   6.7328441312e+01   2.1136723706e+01    0.5046077    0.2582625 -49.11  0.002352897    1.834    0.455
       141  -8.5547    106.0000     54.9982   9.2599919777e+01   5.0749501239e+01    0.2175781   0.07921617 -36.20 0.0005825215    2.859    0.650
       142  -9.8734    163.3562     53.3955   7.8166128634e+01   3.7687101716e+01    0.2940424    0.2422258 -60.94  0.001089983    1.324    0.245
       143  -7.9922    250.4872     53.4866   6.5210711666e+01   1.6658396211e+01    0.1321145    0.1112408 -71.47 0.0001791877    1.019    0.018
       144  -9.2278    245.1949     52.0074   6.5490146272e+01   1.8033099309e+01    0.3541364    0.2285309 -81.51  0.001865206    1.601    0.375
       145 -10.3003    148.1944     51.9154   8.0882418792e+01   4.1652658753e+01    0.4596263    0.2301977  41.21  0.001851578    2.128    0.530
       146 -10.3794    145.4266     49.2167   8.0672994907e+01   4.2715736592e+01    0.3233934    0.2278693 -51.28  0.001102326    1.646    0.393
       147  -8.9784    182.0150     32.2009   6.9081557280e+01   3.5872591042e+01     0.424788    0.1894096 -22.95  0.001656458    3.169    0.684
       148 -10.2383    189.5941     44.7806   7.1191907852e+01   3.2325222383e+01    0.4609572    0.2782001 -39.20  0.002212003    1.739    0.425
       149  -9.4135    237.1660    248.3769   1.0748756620e+02  -1.2702571070e+01    0.1689694   0.09877044  40.86 0.0009500628    1.714    0.417
       150  -9.9110    158.5604     48.8178   7.7800476033e+01   3.9545384788e+01    0.3778296    0.2332584 -49.55  0.001735167    1.842    0.457
       151  -8.0462     99.3169     49.6687   9.2782291786e+01   5.2914757508e+01    0.1297948    0.1119843 -82.07 0.0005226262    1.686    0.407
       152  -8.2400    248.7602     48.3793   6.4333495316e+01   1.7774932104e+01    0.1738941    0.1115777  60.71 0.0007329753    1.642    0.391
       153  -9.0078    163.1562     46.9616   7.6366614397e+01   3.8661292741e+01    0.3594759    0.2115794 -70.86  0.001413241    2.698    0.629
       154  -9.1666    113.1249     46.7209   8.7811209536e+01   5.0501394669e+01    0.3455438    0.1565931 -22.90  0.001034169    2.974    0.664
       155  -9.2309    215.7987     42.7338   6.6968659118e+01   2.6158321141e+01    0.4495744    0.2846465 -12.40  0.002001514    2.755    0.637
       156 -10.5246    131.5748     55.2999   8.5796860327e+01   4.5105906013e+01    0.4093803    0.2410323 -27.84  0.001319086    1.916    0.478
       157  -9.0030    153.6484     41.2920   7.6572973271e+01   4.1792908146e+01    0.2893388    0.1675242 -46.40  0.001315752    1.967    0.492
       158  -8.0399    222.6892     44.0070   6.6392542760e+01   2.4337236942e+01    0.2289992   0.06909023 -52.42 0.0007034059    4.159    0.760
       159 -10.9865    176.8056     40.7538   7.2194153030e+01   3.6081877550e+01      0.72012    0.5088455  72.56  0.003703627    1.325    0.245
       160  -9.0014    244.5104     41.9051   6.3434840028e+01   1.9623928215e+01    0.3003566    0.2786941  70.13  0.001975858    1.312    0.238
       161  -8.3436     76.4922     44.0455   9.8157361169e+01   5.7920334272e+01    0.1867177    0.1212353 -33.59 0.0007997385    1.531    0.347
       162  -8.7804    191.2025     51.4179   7.2652180214e+01   3.0979682928e+01    0.2511302    0.1645263 -69.22 0.0006317814    1.783    0.439
       163  -8.2413    133.8296     42.6420   8.1249675107e+01   4.6396905819e+01    0.2067736    0.1268941  64.52 0.0009473743    1.720    0.419
       164  -9.0243    168.8930     45.1819   7.4792943623e+01   3.7471056816e+01    0.3978578    0.2413233  26.76  0.001642981    2.559    0.609
       165  -8.7709    164.5296    228.5343   1.1855987274e+02   2.5569834740e+00    0.1384941    0.1191009  39.83 0.0001649028    1.002    0.002
       166  -9.6483    165.5333     39.9823   7.3939983048e+01   3.9011191162e+01    0.5010878    0.2202868  65.79  0.001968957    2.234    0.552
       167  -8.9829    162.4429     37.5818   7.3818653653e+01   4.0093379856e+01    0.5381373    0.2898543  -8.97  0.002026553    3.448    0.710
       168  -8.9087    125.0002     40.0133   8.2505444816e+01   4.8790302279e+01    0.2399073    0.1456456   2.52 0.0008772717    2.559    0.609
       169  -9.0227     10.1490     39.7159   1.2298231487e+02   6.6208040763e+01    0.1548879    0.1359641  17.90  0.001200684    1.475    0.322
       170  -8.7496    238.4988     38.8032   6.3420978977e+01   2.1396613080e+01    0.2323977    0.1686262  78.61 0.0009462742    1.267    0.211
       171  -8.4844     43.6828     38.6713   1.0848758623e+02   6.3397486217e+01    0.1277474   0.07834592 -12.04 0.0004464701    1.680    0.405
       172  -9.2747    227.2607     34.7857   6.3785842160e+01   2.4517882242e+01    0.4136766    0.2055201 -69.63  0.001768559    2.474    0.596
       173  -9.8647    191.2811     33.5793   6.8070144701e+01   3.3388210816e+01    0.2988967    0.1983375 -18.37   0.00147538    2.055    0.513
       174  -9.7670    173.0512     25.1980   6.8589234838e+01   3.8943859403e+01    0.2920824     0.195249  -2.54    0.0012355    2.278    0.561
       175  -9.2151    169.4892     33.4906   7.1433065570e+01   3.8847559667e+01    0.2363654    0.2193506  79.39  0.001269237    1.066    0.062
       176 -10.1989    170.5290     29.9968   7.0297157940e+01   3.9012140199e+01    0.4358218    0.2777818 -57.18  0.001870331    1.811    0.448
       177  -8.9991    247.8217     31.6455   6.0986813966e+01   2.0281160888e+01    0.4206046    0.1961056 -76.29  0.001786109    2.769    0.639
       178  -8.8196    117.1189     32.4951   8.1950679359e+01   5.1510732464e+01     0.211904    0.1921939 -60.83  0.001277788    1.366    0.268
       179  -9.0395    221.1788     31.4812   6.3740058292e+01   2.6377798025e+01    0.4322866    0.2772774 -67.03  0.002296282    1.526    0.345
       180  -8.4515    209.3600     31.7133   6.5201262663e+01   2.9178999381e+01    0.2413644    0.1747777  68.56  0.001172181    1.251    0.201
       181  -9.3818    212.9489     30.6918   6.4524512741e+01   2.8442142192e+01    0.3747738    0.2164601 -58.85  0.001855583    1.764    0.433
       182  -9.1885    216.3166     30.3422   6.4044672487e+01   2.7679184884e+01    0.2826022    0.2091731  42.51  0.001558686    1.746    0.427
       183  -9.6747    110.0504     30.9730   8.3244762723e+01   5.3235409298e+01    0.2135768    0.1834707  32.04  0.000752287    1.017    0.017
       184  -8.6357    194.5092    221.5198   1.1115731009e+02  -1.6930650856e+00    0.1376371    0.1201485  27.53 0.0008101869    1.022    0.022
       185  -9.1363    118.4615     25.0763   7.9101513310e+01   5.2069196534e+01    0.2634436    0.2147081 -71.62  0.001180002    1.661    0.398
       186  -8.9130    203.2318     31.9713   6.6041301268e+01   3.0639786714e+01    0.2320552    0.2057101 -50.37 0.0008604819    1.231    0.188
       187  -9.4200    225.7067     23.8867   6.1569234971e+01   2.6271435375e+01    0.3996423    0.2404706  89.55  0.002108342    1.579    0.367
       188  -8.5822    132.2091     23.5601   7.5506771539e+01   4.9083175832e+01    0.4188081    0.1045717 -28.24  0.001394231    4.379    0.772
       189  -8.1005    183.2224     19.9645   6.5728704868e+01   3.7004750320e+01     0.158886    0.1109144 -34.47  0.000825699    1.627    0.385
       190  -9.2084    172.2041     19.8060   6.7264383516e+01   3.9753433940e+01    0.3380493    0.1601914  52.52  0.001528284    1.913    0.477
       191  -8.4715    241.0286     18.7068   5.8997421011e+01   2.3416159599e+01     0.182288     0.139485 -88.05  0.001158114    1.084    0.077
       192  -8.1690    238.0346     15.3376   5.8583149739e+01   2.4486967670e+01    0.2067828    0.1381987 -67.54 0.0007278928    1.300    0.231
       193  -8.3475    226.5726     17.7036   6.0150287369e+01   2.6815221073e+01    0.1667968    0.1048626 -52.77 0.0007945179    1.493    0.330
       194  -8.2952    212.1902    219.8356   1.0728469530e+02  -4.5562540635e+00    0.1894005    0.1400476  16.26 0.0006122635    1.316    0.240
       195  -9.3423    206.3300     24.3221   6.3834330478e+01   3.0827772717e+01    0.4355581     0.283088 -84.46  0.002297089    1.520    0.342
       196  -8.3230     55.9883    217.0056   1.3978415567e+02   2.2902577650e+01    0.1491451    0.1178157  80.15 0.0009568943    1.036    0.035
       197  -8.3521     65.0080    203.5152   1.3649411945e+02   2.4616585742e+01    0.1864189    0.1185754  43.48 0.0007724499    1.532    0.347
       198  -8.4011    162.4048     15.1872   6.7492670225e+01   4.2655640994e+01    0.1723296    0.1196265 -46.06 0.0009391807    1.622    0.383
       199  -8.0289    244.5143     14.0184   5.7756270144e+01   2.3207674639e+01    0.1812912   0.07121944 -56.61 0.0008092715    2.447    0.591
       200  -8.2361     16.2102    201.8427   1.4631659111e+02   3.0773572245e+01    0.1485064    0.1182167 -74.39 0.0005970889    1.295    0.228
       201  -8.8469    239.0098    193.1450   9.6985860822e+01  -4.8603196142e+00    0.2584377     0.165272  31.25  0.000819412    1.552    0.356
       202  -7.6127    168.3101     10.2937   6.5273236049e+01   4.1685942494e+01     0.133358   0.08730122  44.85 0.0002618295    1.589    0.371
       203  -8.4923    117.5275     10.4808   7.4345944052e+01   5.3729257703e+01    0.1306002    0.1083511  46.28 0.0008097269    1.005    0.005
       204  -8.6679    194.3105    188.8454   1.0504250750e+02   4.2407845216e+00    0.2948595     0.162207  53.50  0.001206759    2.132    0.531
       205  -8.5503    158.3807    178.8378   1.1101744202e+02   1.3619199464e+01    0.2170415    0.1434446 -36.91 0.0009510072    1.722    0.419
       206  -8.0401    235.5090    175.5124   9.4052535527e+01  -1.2479761215e+00    0.1411205    0.1247529  -6.19 0.0008100112    1.049    0.047
       207  -8.5137    213.0382    170.4844   9.7345972071e+01   3.9906924993e+00    0.2204913    0.1420438  44.03  0.000907517    1.561    0.359
       208  -8.4184    192.6813    166.6995   1.0076823258e+02   8.9358653836e+00    0.1543067    0.1187166   5.34 0.0007023067    1.621    0.383
       209  -8.8303    236.5472     53.7021   6.6865921835e+01   1.9723196311e+01    0.2999483    0.1740261  65.27  0.001501347    1.685    0.406
       210  -8.2040    147.4587    168.4815   1.1149531068e+02   1.8167820721e+01    0.1556961    0.1469336  66.17 0.0001506216    1.040    0.039
       211  -7.8606    247.7076    158.6451   8.8314528924e+01  -5.4043674990e-01    0.1424386     0.102204  -5.82 0.0003139626    1.685    0.406
