#   1 NUMBER                 Running object number                                     
#   2 MAG_AUTO               Kron-like elliptical aperture magnitude                    [mag]
#   3 X_IMAGE                Object position along x                                    [pixel]
#   4 Y_IMAGE                Object position along y                                    [pixel]
#   5 X_WORLD                Barycenter position along world x axis                     [deg]
#   6 Y_WORLD                Barycenter position along world y axis                     [deg]
#   7 A_WORLD                Profile RMS along major axis (world units)                 [deg]
#   8 B_WORLD                Profile RMS along minor axis (world units)                 [deg]
#   9 THETA_WORLD            Position angle (CCW/world-x)                               [deg]
#  10 FWHM_WORLD             FWHM assuming a gaussian core                              [deg]
#  11 ELONGATION             A_IMAGE/B_IMAGE                                           
#  12 ELLIPTICITY            1 - B_IMAGE/A_IMAGE                                       
         1 -14.3439    157.6195    104.3263   4.0215960537e+01   2.9679554046e+01     6.847736     3.592612 -24.57   0.01688796    2.932    0.659
         2 -16.0684    207.9978    106.4777   3.2585895387e+01   1.9787860051e+01      8.01932     3.053503 -49.95   0.02831629    3.004    0.667
         3 -11.2868     68.1601    143.0185   7.3379480770e+01   3.7693849884e+01     5.241647     1.150489 -64.89   0.01299986    5.183    0.807
         4 -14.8470    171.7291    103.6204   3.7448787491e+01   2.6957020043e+01     9.474635     3.576718 -31.01   0.02888756    3.449    0.710
         5 -15.8216    224.7790    101.2049   2.9358891460e+01   1.7804368917e+01     7.909687     1.964041 -32.43   0.02687218    4.035    0.752
         6 -15.8040    245.5654     60.4310   1.8813707035e+01   1.9938635530e+01     5.364033     1.966052 -54.94   0.02507608    2.876    0.652
         7 -14.9521    232.5744     81.5337   2.4348853635e+01   1.9305810133e+01     3.653094     1.238097 -27.24   0.01376997    3.692    0.729
         8 -10.0918    220.9427     14.5384   1.0295468928e+01   2.9603527739e+01    0.2133543    0.1899051  73.02  0.001173976    1.480    0.324
         9 -10.0810    218.0034     12.4844   9.9566491160e+00   3.0381278613e+01     0.351864    0.2616625  82.71  0.001495146    1.506    0.336
        10 -12.0816    241.5256      4.1367   7.2751524316e+00   2.6891409440e+01    0.5026297    0.2105974  61.27  0.001120915    3.392    0.705
        11 -10.1284    226.7261      6.2967   8.2169723852e+00   2.9347927896e+01    0.4344293    0.1878672  53.25  0.002084217    3.924    0.745
        12 -11.2303    233.4500      3.1163   7.3042008656e+00   2.8423897689e+01    0.8408913    0.2411461  61.79  0.003625521    4.966    0.799
        13 -10.1533    120.1897      9.3161   1.6034554793e+01   5.3401226110e+01    0.3450969    0.2765796 -48.16  0.001005789    1.205    0.170
        14 -10.6513    210.7176      7.2879   9.0569332424e+00   3.2339785434e+01    0.2141553    0.1794905 -49.54 0.0004892658    1.181    0.153
        15  -9.4775    247.8593    211.5905   4.6330865697e+01   7.9013463992e-02    0.1728698     0.100819 -20.88  0.001017886    1.269    0.212
        16 -10.3345    249.5193    249.2679   5.1447162718e+01  -4.1137010105e+00    0.2690898    0.1517735   8.68  0.002162576    1.426    0.299
        17 -10.6727    248.9150    244.5852   5.0902715074e+01  -3.5938326975e+00    0.2453843    0.1283497   1.66  0.001810927    1.640    0.390
        18  -9.9700    207.8492    206.6564   5.1556755614e+01   4.6895123337e+00    0.3826061    0.2712663  57.07  0.002127426    3.474    0.712
        19  -9.4039    186.5072    215.9870   5.6636877850e+01   5.7676625164e+00    0.2405683    0.1177361  -2.91   0.00104302    3.436    0.709
        20  -9.1772    240.8428    206.7006   4.6558075135e+01   1.3049775221e+00    0.1940859    0.1217515 -13.84 0.0008498351    1.239    0.193
        21  -8.4937    227.0342    206.2506   4.8492058329e+01   2.7194228857e+00    0.1406361    0.1069286  -3.36 0.0003296039    1.110    0.099
        22  -8.8742    249.9371    202.9762   4.4732882704e+01   8.8924222286e-01    0.1593683    0.1315448  -4.50 0.0006604589    1.354    0.262
        23 -10.2218    242.7829    199.4776   4.5161798583e+01   1.9895273548e+00    0.5483865    0.2460937  44.42  0.002836435    4.302    0.768
        24 -10.4180    200.4023    199.2057   5.1607195876e+01   6.5673305241e+00    0.2924916     0.282322 -56.18  0.001460737    1.685    0.407
        25 -11.0958    193.8095    194.9869   5.2048257548e+01   7.9678206797e+00    0.8309738    0.7001875  87.07  0.005114599    2.534    0.605
        26  -8.6346    232.7745    201.0954   4.6836106047e+01   2.7860006315e+00    0.1506176    0.1171742 -23.66 0.0005880925    1.269    0.212
        27  -9.2226    118.8097    197.9218   6.7906537550e+01   1.7419066915e+01    0.1884315    0.1692908   1.66 0.0004545143    1.074    0.069
        28  -9.3233    230.2096    195.5090   4.6317583537e+01   3.7614461623e+00    0.2635284    0.1750489  12.58   0.00187696    1.460    0.315
        29  -9.7025    237.5106    249.0432   5.3116179042e+01  -3.1503128359e+00    0.1412471   0.07348464 -28.63   0.00104275    1.620    0.383
        30  -9.3988    149.6810    177.5651   5.7623705802e+01   1.6880297660e+01    0.2988548    0.2167983 -62.30  0.001219338    1.825    0.452
        31  -8.9515    172.3438    177.6695   5.3014225936e+01   1.3556545672e+01    0.2352151    0.2113536  80.07  0.001075593    1.690    0.408
        32  -9.0438    101.0197    175.9967   6.9060123458e+01   2.4589484888e+01    0.1954442    0.1828262  25.18  0.001133968    1.018    0.017
        33  -9.5804    192.5938    171.3981   4.8171673356e+01   1.1762532852e+01    0.2250582    0.1451426  29.13  0.001313793    1.631    0.387
        34 -10.7873    185.9795    169.0533   4.8908476086e+01   1.3065137892e+01    0.6001161    0.3360396  20.23  0.003003865    2.198    0.545
        35 -11.2102    198.7322    163.2548   4.5624690569e+01   1.2206025686e+01     0.696061    0.5194992 -30.67  0.003816004    1.147    0.128
        36 -11.6105    190.1565    161.3638   4.6728131365e+01   1.3730475018e+01    0.6415869    0.3135259 -44.89  0.003087624    2.000    0.500
        37 -11.8758    193.0588    155.7306   4.5146448389e+01   1.4230016778e+01    0.8673776    0.4117298 -47.97  0.003693235    2.284    0.562
        38  -9.5708    133.3034    247.4112   7.1031868973e+01   7.1243366280e+00    0.3276438    0.1993414  51.71  0.001848086    2.468    0.595
        39  -9.5202    238.7325    181.4083   4.2786030403e+01   4.6751730081e+00    0.1770034    0.1643081 -18.00 0.0006549066    1.516    0.340
        40  -7.7931    110.4772    167.4514   6.5166711264e+01   2.5043031533e+01    0.1421788    0.1350269  28.21 0.0001140063    1.014    0.014
        41 -13.7048    226.2679     78.8241   2.4378734813e+01   2.0728104563e+01     1.322323    0.6410545 -44.12 0.0005269554    1.608    0.378
        42  -8.4384    140.5015    162.8968   5.6981646930e+01   2.1163138969e+01    0.1970123    0.1332117 -45.63 0.0003436385    1.470    0.320
        43  -9.6547    182.3240    152.3588   4.6365764672e+01   1.6423426776e+01    0.2875803    0.1924671 -52.37 0.0007909937    1.711    0.416
        44 -10.0714    174.1217    149.6141   4.7329285490e+01   1.8207337948e+01    0.3236301      0.23309  11.38  0.001512855    1.652    0.395
        45  -8.7470     96.6892    149.9418   6.5796221193e+01   3.1371802099e+01    0.2616896    0.1957147 -70.62 0.0007632701    1.479    0.324
        46  -8.6282     95.6158    145.7183   6.5303987647e+01   3.2582090280e+01    0.2088932    0.1758933  73.16 0.0004262432    1.308    0.235
        47  -8.7503     61.0748    149.8862   7.6809962511e+01   3.6897902885e+01    0.2463157    0.1937691  65.40  0.001219489    1.282    0.220
        48  -8.5653    103.4685    248.1931   7.7341578055e+01   1.0290949891e+01    0.1344213    0.1170261 -46.15 0.0005120877    1.426    0.299
        49 -13.4767     48.0873    120.8862   7.6712203063e+01   4.6623964723e+01     1.597927     1.242099   3.51  0.004892642    1.573    0.364
        50 -11.7651     38.7383    121.8379   8.0549347456e+01   4.7546431750e+01    0.5936081    0.4026504  27.70 0.0009027758    1.505    0.336
        51 -11.2406    157.6112    142.4986   4.9122450946e+01   2.2311938364e+01    0.4829972    0.3835177  -6.14  0.002167457    1.430    0.300
        52  -8.8275    100.0721    145.0044   6.3870879341e+01   3.1992801027e+01    0.2193584    0.2144531  87.24 0.0003274474    1.029    0.029
        53  -9.1670     19.8174    137.1857   8.9731404653e+01   4.5159478063e+01    0.2195809    0.1777558  64.34 0.0003132794    1.134    0.118
        54  -8.4099     62.0579    182.2554   8.0709108207e+01   2.8551937903e+01    0.1938666    0.1594056  35.51 0.0003285271    1.109    0.099
        55 -13.1520      8.6806    124.8239   9.2946607401e+01   4.9528826364e+01     1.173351    0.9232606 -88.60  0.003740515    1.162    0.139
        56  -8.6503     93.5355    116.6536   5.9614461618e+01   4.0172256995e+01    0.2020469    0.1522827 -68.58 0.0007786023    1.415    0.293
        57 -10.7024    147.7236    111.1249   4.3952073045e+01   3.0390998616e+01    0.4087275    0.3419539 -31.08  0.001151538    1.215    0.177
        58 -10.6375     32.6720    111.4532   8.1385880115e+01   5.1199389564e+01    0.3296113    0.2533591  59.86  0.001462058    1.301    0.231
        59 -11.3986    125.7230    105.5708   4.7604599371e+01   3.6157409579e+01    0.6927565    0.4367636 -54.86   0.00301498    1.622    0.383
        60 -11.6279     20.5316    120.5796   8.7741851204e+01   4.9803689748e+01    0.8050581    0.2992189 -88.79  0.002586793    3.192    0.687
        61  -9.0379    108.1082    106.7959   5.2674391295e+01   3.9614653148e+01    0.3043419    0.2523983  72.52  0.001062787    1.323    0.244
        62  -9.9090    141.6519    102.3149   4.2991947139e+01   3.3425611904e+01    0.3292673    0.2641452  89.51 0.0007707089    1.490    0.329
        63 -10.0050    120.5353     91.9889   4.5123645122e+01   4.0201617684e+01    0.3391026    0.2749073 -44.76 0.0004840125    1.209    0.173
        64 -10.7268     41.8357    124.8300   7.9805111632e+01   4.6324757271e+01    0.3096787    0.2838176  62.99 0.0002813584    1.041    0.039
        65  -8.3800     28.4539    242.7163   9.3765183028e+01   1.9089424571e+01    0.1309087    0.1103293 -65.77 0.0007305397    1.514    0.340
        66 -11.6765    231.6433    239.5674   5.2691186018e+01  -1.6486210416e+00    0.3998004    0.1561466  32.81  0.002409613    2.823    0.646
        67  -8.7784    148.4699     82.9893   3.6265498839e+01   3.5638840522e+01    0.2113136    0.1991405 -89.58 0.0005754227    1.088    0.081
        68  -9.3198    139.8395     78.8977   3.6798341550e+01   3.8368733939e+01     0.223226    0.2058057 -14.25 0.0006653352    1.275    0.216
        69  -8.5684    187.3077    236.6881   5.9448081400e+01   2.8638838371e+00   0.09295343   0.08136842  29.31 0.0003072518    1.621    0.383
        70  -7.9964     87.5877     78.5046   5.0631376810e+01   5.0565212734e+01    0.1558973    0.1508891 -70.78  8.82705e-05    1.043    0.041
        71  -8.7563    123.1145     73.4055   3.8782959520e+01   4.3351618259e+01    0.2393944     0.203681 -36.33  0.001216054    1.235    0.190
        72  -8.1890     51.2621     74.0247   6.3886460041e+01   5.8849378553e+01    0.1994156    0.1312318 -56.37 0.0005075043    1.492    0.330
        73 -15.3648    240.4436    116.4671   3.0690689131e+01   1.3285834275e+01     2.747548    0.6849191 -42.45   0.00168118    3.304    0.697
        74 -15.3779    243.7671    106.8325   2.8425966041e+01   1.4136127143e+01     1.421594     0.885197  34.72   0.00881051    2.302    0.566
        75  -8.7300    161.0048     69.2379   3.0153036583e+01   3.5176529096e+01    0.2412251     0.185187 -42.29 0.0009676622    1.188    0.158
        76  -9.1897     89.0776     68.2596   4.6550626818e+01   5.2464886177e+01    0.2530418    0.2217298 -47.98 0.0004677601    1.152    0.132
        77  -9.8945    134.0010     64.0910   3.3414472380e+01   4.2414929613e+01    0.2787616    0.2506424 -35.45 0.0007119981    1.194    0.162
        78  -8.0915    102.5953     61.1720   3.9833537586e+01   5.0659986700e+01    0.2086452    0.1493513 -28.73 0.0007532692    1.635    0.389
        79  -9.7417    153.0404     59.0010   2.8429186935e+01   3.8671057227e+01    0.2745722    0.2034366 -31.55 0.0007296879    1.399    0.285
        80 -12.0850    154.4074     53.2275   2.6476221502e+01   3.9235189841e+01    0.8664866    0.3394682 -45.58  0.003364944    2.283    0.562
        81  -9.8745    144.4225     59.6234   3.0051941846e+01   4.0634634602e+01    0.2621199    0.2385094 -47.15 0.0006189804    1.116    0.104
        82  -9.5874    137.7802     59.3271   3.1153914391e+01   4.2297961453e+01    0.2456402    0.2024679 -43.17 0.0006048402    1.177    0.150
        83 -12.0582     55.6967    122.3941   7.4075704035e+01   4.5135605031e+01    0.7104461    0.6415545 -58.09  0.001491842    1.135    0.119
        84 -10.9073    165.8866     50.0579   2.3951546583e+01   3.6998547928e+01    0.3368857    0.2472762 -83.28  0.001316725    1.383    0.277
        85  -8.7044    222.2936    235.6492   5.3557460562e+01  -3.8282164531e-01   0.08458401   0.07576359 -11.05 0.0004804811    1.677    0.404
        86 -10.4787    139.7769     44.1325   2.5842374369e+01   4.4158381878e+01    0.3275315    0.1942984 -25.01  0.001456444    1.952    0.488
        87 -10.1680    163.6201     42.8354   2.2125014547e+01   3.8537586299e+01    0.2678123     0.223776 -41.21 0.0005302132    1.170    0.146
        88 -10.4304    148.5786     41.5709   2.3696383526e+01   4.2336854860e+01    0.3252726    0.2070458  29.32  0.001390493    2.657    0.624
        89  -8.8783    202.0200     35.7008   1.6470692773e+01   3.0972625669e+01    0.1702898    0.1398199 -69.38 0.0004380194    1.142    0.125
        90 -10.6067    168.4853     32.4141   1.8530412223e+01   3.8749677550e+01    0.3907648    0.2928744  -2.82  0.001376902    1.914    0.478
        91  -9.4356    171.4832     29.4964   1.7396674569e+01   3.8407629874e+01    0.2230898    0.1639895 -57.08 0.0001793838    1.138    0.122
        92  -9.4239    148.9186     33.4764   2.1058680482e+01   4.3333209536e+01    0.2208379     0.176176 -46.07  0.001074902    1.164    0.141
        93  -9.4150    144.0183     32.9503   2.1519157208e+01   4.4621545741e+01    0.2111782    0.1656774  36.89 0.0004518778    1.670    0.401
        94  -9.8393    187.4718     29.8946   1.6121895664e+01   3.4755190124e+01    0.3028834    0.2209193  19.56  0.001629052    2.272    0.560
        95  -8.5659    184.4980     28.4464   1.5974156347e+01   3.5581231451e+01    0.1707909    0.1196286 -23.81 5.406918e-05    1.579    0.367
        96 -14.4692    249.6704     85.7070   2.3640118645e+01   1.6087603809e+01     1.213349    0.6429675 -29.40  0.003076086    1.593    0.372
        97  -8.7613    181.0000    184.0171   5.2493417921e+01   1.1307607617e+01    0.3322324    0.1038834 -44.17    0.0013297    3.140    0.681
        98 -10.1037    178.5844     24.0823   1.5255808964e+01   3.7413658621e+01    0.4321471    0.3009879 -55.45  0.002521578    1.175    0.149
        99  -8.8653    107.0161     24.5224   2.4205940829e+01   5.5247083471e+01    0.2690416    0.2058264  -0.10  0.001353918    1.741    0.426
       100  -8.7189    149.5235     22.1644   1.7336270918e+01   4.4550058459e+01    0.1931092    0.1282664 -31.51 0.0005613951    1.506    0.336
       101 -10.9279    244.3572    231.6553   4.9750397974e+01  -1.8620840436e+00      0.33187    0.1152117 -40.53  0.001803833    3.268    0.694
       102  -8.7057    234.4910    225.9777   5.0351885324e+01  -3.6962744714e-01    0.1463179   0.07849418 -29.98 0.0004465973    1.548    0.354
       103 -10.4988     31.8092    218.4852   9.1802222774e+01   2.3648450369e+01    0.3569313    0.2297113  -4.70  0.001860129    2.170    0.539
       104  -9.4033    237.1150    217.1786   4.8677931863e+01   4.1253020082e-01    0.1956187     0.151595 -17.14 0.0007737595    1.271    0.213
       105 -10.5438    236.4564    211.1306   4.7861038909e+01   1.1920648646e+00     0.239261    0.1983309  34.65 0.0008757347    1.935    0.483
       106 -10.5977    180.3007    174.5948   5.0956973145e+01   1.2950319404e+01    0.5205536    0.3378798 -50.26  0.002872903    1.794    0.443
       107  -7.9596    102.7567     15.6563   2.1166552087e+01   5.7376411789e+01     0.134852    0.1048103  32.75  0.000322012    1.566    0.361
       108  -9.5086    192.3058    213.0117   5.5164774807e+01   5.5357698612e+00    0.1878977    0.1445356  18.77  0.000508729    1.265    0.210
       109 -10.3550    177.0889    169.0366   5.0539344246e+01   1.4348123414e+01    0.4425753     0.226159 -52.36  0.002018763    2.483    0.597
