#   1 NUMBER                 Running object number                                     
#   2 MAG_AUTO               Kron-like elliptical aperture magnitude                    [mag]
#   3 X_IMAGE                Object position along x                                    [pixel]
#   4 Y_IMAGE                Object position along y                                    [pixel]
#   5 X_WORLD                Barycenter position along world x axis                     [deg]
#   6 Y_WORLD                Barycenter position along world y axis                     [deg]
#   7 A_WORLD                Profile RMS along major axis (world units)                 [deg]
#   8 B_WORLD                Profile RMS along minor axis (world units)                 [deg]
#   9 THETA_WORLD            Position angle (CCW/world-x)                               [deg]
#  10 FWHM_WORLD             FWHM assuming a gaussian core                              [deg]
#  11 ELONGATION             A_IMAGE/B_IMAGE                                           
#  12 ELLIPTICITY            1 - B_IMAGE/A_IMAGE                                       
         1  -9.8990    113.5108     42.6427   5.9681974669e+01   5.1249515204e+01    0.4758935     0.252231 -10.63  0.001770177    3.148    0.682
         2  -9.8343     95.3795     35.6137   6.1977762121e+01   5.6194449107e+01    0.3491546    0.1998508  -6.85  0.001484694    2.529    0.605
         3  -9.6153    111.5076     32.9587   5.6647801748e+01   5.2994754885e+01    0.3525921     0.135756 -28.87  0.001370131    2.756    0.637
         4  -9.4387     50.6719     27.5776   7.4229492994e+01   6.5500673562e+01    0.3245842    0.1678054 -11.04  0.001373087    2.976    0.664
         5  -9.5627     97.4942     12.5273   5.2190632627e+01   5.8368000179e+01    0.2159126    0.1209059  -2.63 0.0009726108    2.273    0.560
         6  -9.0423     88.6192     13.6945   5.4964094464e+01   6.0168273595e+01    0.1426814   0.08197218  30.26 0.0007024262    1.785    0.440
         7 -12.3311    247.7772    247.8875   8.0594544625e+01  -1.1407994064e+01     0.796017    0.3834329  37.08  0.004349617    2.094    0.523
         8 -12.4671    249.6557    240.7322   7.9109484053e+01  -1.0782482764e+01     1.168776    0.3382732 -38.62  0.005091805    3.689    0.729
         9 -10.7849    164.3712    226.2447   9.2652965067e+01   3.8436464216e+00      0.51016     0.320465  25.09  0.002659386    1.622    0.383
        10 -10.0567    160.6034    227.2336   9.3574494628e+01   4.2890953646e+00    0.3099564    0.2270217 -11.91  0.001709479    1.731    0.422
        11  -8.9219     72.5248    228.4882   1.1205797387e+02   1.7722818260e+01    0.1294785    0.1001938  64.88 0.0007405855    1.092    0.085
        12 -10.1082    116.7211    227.0876   1.0268699286e+02   1.1430118221e+01    0.1740658    0.1660704  69.97 0.0007004236    1.115    0.103
        13 -10.6739     99.1160    226.4303   1.0630996730e+02   1.4287706855e+01    0.3524451    0.2156949  35.29  0.001187088    1.575    0.365
        14  -9.2800    171.0476    225.6820   9.1210158505e+01   2.8498994000e+00    0.1777809    0.1486135  28.92  0.000318793    1.051    0.048
        15 -11.7884    125.5994    221.2742   1.0002026655e+02   1.1128143242e+01    0.3867026     0.334014  -2.32 0.0007296465    1.435    0.303
        16  -9.7396    108.3365    223.0639   1.0394399902e+02   1.3536534433e+01    0.2216098    0.1741921  31.49  0.001300649    1.316    0.240
        17  -9.3659     88.6118    223.1609   1.0814557182e+02   1.6516913927e+01    0.1708417    0.1144886 -54.15 0.0008699815    1.711    0.415
        18  -9.2580     19.4917    223.0064   1.2215933784e+02   2.5265604974e+01    0.1505702   0.07683583 -56.15 0.0008095984    2.461    0.594
        19  -8.9909    157.5000    221.5165   9.3325749465e+01   5.8052214309e+00    0.1329799    0.1178419  29.40 5.040477e-05    1.008    0.008
        20 -10.9737    131.2504    214.6458   9.7845411217e+01   1.1490947342e+01    0.4380634    0.1939221 -50.12  0.001886941    2.469    0.595
        21  -9.7085    114.7878    221.1862   1.0232088259e+02   1.2889555448e+01    0.1705153    0.1527247  11.47 0.0004545822    1.331    0.249
        22  -9.4056     83.4631    219.9646   1.0887789663e+02   1.7928464219e+01    0.1826018    0.1002833  82.15 0.0007338314    2.510    0.602
        23  -9.2468     74.7898    219.6067   1.1068200860e+02   1.9239723753e+01    0.1886823   0.09792004  48.34 0.0009058244    1.684    0.406
        24  -9.4610    143.8250    217.1427   9.5521511111e+01   8.8991931510e+00    0.2034564     0.174166  60.07 0.0006559261    1.233    0.189
        25  -9.7227     78.5654    211.0000   1.0891763846e+02   2.0537382306e+01    0.2734635    0.1688236  45.93  0.001458662    1.454    0.312
        26  -9.6050    135.9651    208.5477   9.5882139002e+01   1.1903241623e+01    0.2067079    0.1251686  39.17 0.0004135089    1.513    0.339
        27  -9.5666    123.9988    205.9710   9.8130767798e+01   1.4461874715e+01    0.1992667    0.1788469  55.73            0    1.042    0.041
        28  -9.3237     99.6025    206.3221   1.0365398650e+02   1.8377977425e+01    0.2208204    0.1479727  71.43 0.0008050316    1.700    0.412
        29  -8.9486     56.4853    205.0203   1.1311466716e+02   2.4860297922e+01    0.1891347   0.09383826  80.49 0.0008093012    2.558    0.609
        30  -9.1018      9.3569    202.3093   1.2286815897e+02   3.0660271400e+01    0.1084674   0.08211236 -52.31 0.0007042582    1.731    0.422
        31 -10.2511    149.5106    199.0254   9.1325565961e+01   1.1443445335e+01    0.3490016    0.2324846 -80.94  0.001509563    2.558    0.609
        32  -9.9376    249.8754    198.0244   7.1509962402e+01  -5.0892519623e+00    0.2398337    0.2228814  -6.61  0.001676294    1.318    0.242
        33 -12.1000    174.2158    195.8026   8.5412847882e+01   7.6518651028e+00    0.6341502    0.5417132 -87.10  0.003167595    1.597    0.374
        34  -9.5617    132.3469    195.5898   9.4584753958e+01   1.5193208337e+01    0.2808959    0.1247309  43.45  0.001126481    2.114    0.527
        35 -11.0684    126.0219    197.7625   9.6383707487e+01   1.5837526274e+01    0.3590005    0.3080881  24.89  0.001539365    1.243    0.195
        36  -9.3072     66.0088    193.6783   1.0971891310e+02   2.6170767689e+01    0.2750256    0.1321023 -80.98 0.0009551703    2.472    0.596
        37 -10.3167     88.5703    197.4678   1.0497169313e+02   2.2041057816e+01    0.6018941    0.1804743 -64.41  0.002009383    3.774    0.735
        38  -8.7473     77.6871    193.3058   1.0695282873e+02   2.4611347918e+01    0.1431207   0.09337936  68.72 0.0007023763    1.619    0.382
        39  -9.2391     43.3532    192.8433   1.1481806517e+02   2.9236514022e+01    0.2640344    0.1085565 -82.13  0.001086623    2.681    0.627
        40  -9.3927    124.3226    192.2969   9.5877527743e+01   1.7306229615e+01     0.139014    0.1130835  -5.65 0.0002290234    1.621    0.383
        41 -11.3212    138.9543    189.2070   9.1972883019e+01   1.5363853690e+01    0.4637801    0.2397165 -44.72  0.001970703    2.075    0.518
        42  -9.6863    112.8026    197.7312   9.9408267031e+01   1.8095424907e+01    0.2675704    0.1771584  84.55   0.00117851    2.078    0.519
        43 -10.0899    156.3353    187.7816   8.7788938650e+01   1.2477947830e+01    0.2473624    0.2244363 -83.24  0.001381818    1.281    0.219
        44 -10.0820     94.9535    186.7590   1.0193684362e+02   2.3484462754e+01    0.3730247    0.2208014  80.03  0.001537188    2.491    0.599
        45 -10.3725    120.6613    186.0111   9.5676252860e+01   1.9329653905e+01    0.4250082    0.1946006 -61.80  0.001619943    2.598    0.615
        46  -9.3492     54.8227    186.6666   1.1151256309e+02   2.9275135618e+01    0.3052747    0.1378808  84.57  0.001087183    3.559    0.719
        47  -9.0800     34.2233    187.2005   1.1634499494e+02   3.1576044664e+01    0.2055799   0.08863112 -86.57  0.000871776    2.499    0.600
        48  -9.7712    109.0209    185.5249   9.8367207067e+01   2.1449870337e+01    0.3459155    0.2226504  75.12  0.001513435    2.123    0.529
        49 -10.5976     13.9290    185.2057   1.2072351106e+02   3.4067967399e+01    0.2207142    0.1938853  18.42    0.0011035    1.571    0.364
        50  -9.7455     17.9998    182.0150   1.1956568805e+02   3.4426469681e+01     0.298772    0.1922632 -32.69  0.001595048    2.560    0.609
        51  -9.6835    211.2007    183.2098   7.5524416137e+01   3.3901816243e+00    0.3593965    0.2060397  19.48  0.001554026    2.304    0.566
        52  -9.9928    197.5800    182.7421   7.8084467525e+01   5.8776458066e+00    0.1936944      0.13049 -48.53 0.0009535079    1.635    0.388
        53 -11.4771    148.3451    181.0505   8.8319516732e+01   1.5364220588e+01    0.3627026    0.2882773 -40.04  0.001125592    1.313    0.239
        54 -10.2344     12.0000    175.0253   1.2036255875e+02   3.6596684290e+01     0.356007    0.1336417 -78.46  0.001618299    2.254    0.556
        55  -9.6439     13.9952    171.5002   1.1960957778e+02   3.7250037134e+01    0.2880625    0.1948635 -30.00  0.001617369    2.294    0.564
        56 -10.1374     94.5780    181.1335   1.0116334831e+02   2.4852939090e+01    0.2623265    0.1894598 -17.16  0.001202232    2.244    0.554
        57  -9.7599    129.2892    188.6200   9.4100515590e+01   1.7227688765e+01    0.2593096    0.1787731 -68.75 0.0009342171    1.710    0.415
        58  -9.6138    129.4906    177.4606   9.2054416647e+01   1.9652439209e+01    0.2523736    0.1436444 -65.46  0.001008122    2.206    0.547
        59 -10.1084    204.8378    175.9641   7.5280128411e+01   5.8011840505e+00    0.3410535    0.1833068 -30.40  0.001229438    1.958    0.489
        60 -10.1127     77.2377    176.0715   1.0468328099e+02   2.8730549490e+01    0.4668244    0.2153789  56.31  0.001812716    2.619    0.618
        61 -10.8537    160.1617    175.4590   8.4547484130e+01   1.4298521886e+01    0.3457594    0.2606961 -84.30  0.001409821    1.944    0.486
        62  -8.9392     59.4943    176.4994   1.0914964388e+02   3.1094399536e+01    0.1397975     0.116553  80.21 0.0008094854    1.077    0.072
        63 -10.6155      8.9721    179.7747   1.2141329026e+02   3.5755912925e+01    0.4601291    0.1843074 -44.79  0.001804301    4.417    0.774
        64  -9.9934    105.3148    174.1645   9.7363799245e+01   2.4708889852e+01     0.423252    0.2408466 -61.67  0.001856431    1.810    0.448
        65  -9.4612     23.9006    172.7807   1.1738672663e+02   3.6034168929e+01    0.4196287    0.0870736 -61.65  0.001496769    3.606    0.723
        66 -10.5428      2.6279    169.7923   1.2210736618e+02   3.8587109841e+01    0.5431113    0.1568596 -69.20  0.002359622    2.610    0.617
        67  -8.6578    193.6341    172.6907   7.6826783062e+01   8.4685389861e+00    0.1513965    0.1083152   2.36 0.0004998787    1.754    0.430
        68  -9.7066    134.6173    171.2315   8.9642559911e+01   2.0093528846e+01    0.2136168    0.1384066 -42.69 0.0007845473    1.628    0.386
        69 -10.5242    208.6170    169.2975   7.3167110213e+01   6.3234302816e+00    0.4364363    0.2709599  -2.27  0.001812826    2.542    0.607
        70  -9.9772    168.3255    169.6297   8.1540516159e+01   1.3927204003e+01    0.2240854    0.1809474  85.18 0.0007566554    1.695    0.410
        71 -10.1488    150.1383    169.7009   8.5672196344e+01   1.7456754809e+01     0.290257     0.179003 -63.48  0.001205211    2.080    0.519
        72 -10.9915    121.6632    167.9925   9.2174756770e+01   2.3248461869e+01    0.7188806    0.3116745 -54.73  0.002684142    2.362    0.577
        73  -9.1532     54.5239    168.5576   1.0935897102e+02   3.3660150463e+01    0.2625427    0.1219553 -81.26  0.001038907    2.542    0.607
        74  -8.8324     88.4936    168.0045   1.0056948624e+02   2.8957368942e+01    0.2101201    0.1220734 -88.97 0.0008103853    2.552    0.608
        75  -9.6633    111.7802    166.4988   9.4363591756e+01   2.5388046918e+01    0.3549842    0.1954632 -59.53  0.001387318    1.876    0.467
        76  -9.2404     29.1298    166.6761   1.1550921437e+02   3.6983706309e+01    0.2441842    0.1525619 -20.70  0.001147652    2.948    0.661
        77 -11.3153    139.4000    164.2916   8.7105298880e+01   2.0735780673e+01    0.6038867    0.3125739 -59.65   0.00230011    2.336    0.572
        78  -9.6373     99.1800    166.1048   9.7499261161e+01   2.7667437244e+01    0.2926925    0.1750136  61.27 0.0009114092    2.039    0.510
        79 -10.0989    160.3078    164.6707   8.2293955328e+01   1.6541954494e+01    0.2342552     0.183992  84.18 0.0008780858    1.747    0.428
        80  -9.9840     79.3386    163.2996   1.0216657569e+02   3.1523376636e+01    0.4267698    0.2286287 -89.83  0.001531712    3.112    0.679
        81  -9.8857    148.9628    164.4728   8.4870780109e+01   1.8826011186e+01    0.2310079    0.1469403  41.67  0.001021498    1.561    0.359
        82  -9.5843     38.8109    159.5787   1.1224612119e+02   3.7706602480e+01    0.3836199   0.08656593 -53.96  0.001222367    4.125    0.758
        83  -9.3482     47.0000    163.0356   1.1056409772e+02   3.5930084747e+01    0.2281733   0.06882103 -67.67 0.0008045299    2.957    0.662
        84 -10.4216      8.5753    160.4734   1.1995668659e+02   4.0316614269e+01    0.4240493    0.1461217  76.54  0.001345866    5.058    0.802
        85  -9.9057    178.1775    161.3994   7.7648095308e+01   1.3669866574e+01    0.2126734    0.1397179  54.37 0.0008278072    1.760    0.432
        86 -10.6721    151.9980    160.3699   8.3293909748e+01   1.9123287868e+01    0.3522224    0.2121105 -55.44  0.001487084    1.815    0.449
        87  -9.7220     92.7188    159.2452   9.7948139858e+01   3.0407919585e+01    0.4184868    0.2390859 -66.36  0.001796903    1.829    0.453
        88  -9.7199    144.4844    159.4936   8.4883900617e+01   2.0812579314e+01    0.1503323    0.1480833  -5.21 0.0007075437    1.032    0.031
        89  -9.1658    128.3730    158.5732   8.8629620440e+01   2.4171368624e+01    0.2979257    0.1399232 -64.61 0.0009532267    3.251    0.692
        90 -10.2893     22.7080    157.2916   1.1612797064e+02   3.9877248323e+01    0.4046613     0.112632 -67.46  0.001572039    2.759    0.638
        91 -10.5569    167.9023    157.5755   7.9057119675e+01   1.6521379573e+01    0.3094226    0.2027451 -62.14  0.001317283    1.954    0.488
        92 -10.0330    105.5146    156.3350   9.4033135134e+01   2.8930560517e+01    0.6344432    0.3098142 -56.18  0.002515656    2.014    0.504
        93  -9.1899     31.4112    156.3627   1.1378098299e+02   3.9270000283e+01    0.2717757   0.06699929 -57.54 0.0009596838    3.285    0.696
        94  -9.9044    219.0373    155.9793   6.8384281616e+01   6.8138155046e+00    0.2099331    0.1882613 -24.37 0.0003578832    1.025    0.025
        95 -10.1364    119.4799    154.2101   8.9977996181e+01   2.6886138567e+01    0.5334076    0.2781249 -55.51  0.002127016    1.945    0.486
        96 -10.0277    213.3014    155.4552   6.9321527021e+01   7.9789489304e+00    0.2518136    0.1370279  39.14 0.0007939448    1.979    0.495
        97 -10.1912    144.8713    154.5678   8.3730766006e+01   2.1837391698e+01     0.319903    0.2085699 -66.38  0.001329748    1.965    0.491
        98 -10.1307     81.6538    152.8542   9.9758247205e+01   3.3751303576e+01    0.5575348    0.2911462 -59.00  0.002387543    1.794    0.443
        99  -9.1072     49.3418    150.3338   1.0819079857e+02   3.8806292938e+01    0.1443675    0.1248341 -82.55 0.0005956636    1.013    0.013
       100 -10.4705    133.1643    152.6599   8.6183584198e+01   2.4606080344e+01    0.4590087    0.2700613 -69.17  0.001669481    2.464    0.594
       101  -9.6684    133.8172    148.1591   8.5034243139e+01   2.5514850112e+01    0.2507447    0.1960036  -9.61  0.001140693    1.701    0.412
       102  -9.5887     67.1734    152.9004   1.0371268252e+02   3.5866373281e+01    0.3499615    0.2071827  87.47  0.001476716    2.233    0.552
       103  -9.9889     12.5034    153.0000   1.1829119481e+02   4.1796112510e+01     0.307417   0.07229444  23.44  0.001075265    5.154    0.806
       104  -9.7519    190.0041    150.7973   7.2824978623e+01   1.3423946606e+01    0.2359675    0.1784457  80.00 0.0008825148    1.980    0.495
       105  -9.1001     98.4945    150.5056   9.4752170520e+01   3.1575056372e+01     0.268784    0.1438937 -68.65  0.001026588    2.261    0.558
       106  -9.1119     90.7397    149.8876   9.6732901412e+01   3.3034571507e+01    0.3574696    0.1277563 -59.74  0.001192514    2.834    0.647
       107  -9.2244    162.3164    150.6540   7.8773066271e+01   1.9134541306e+01     0.156649    0.1232665 -86.81 0.0007048203    1.721    0.419
       108  -9.8202     28.0117    147.3787   1.1360065798e+02   4.1815816159e+01    0.5685104    0.1731646 -74.78  0.002003456    3.262    0.693
       109 -11.8325      2.9002    138.0312   1.1933345694e+02   4.6114943586e+01    0.9374492    0.2412337 -69.70   0.00375561    2.752    0.637
       110  -8.5266    220.7123    148.3151   6.6411178924e+01   7.8796180541e+00    0.1359442    0.1089814 -64.75 0.0003321383    1.587    0.370
       111  -9.6605     38.8557    146.7752   1.1056316051e+02   4.0875765978e+01    0.3518043    0.1830148  84.31  0.001476043    2.484    0.597
       112  -9.7396     40.0827    141.1452   1.0941966615e+02   4.2150751805e+01    0.4511466     0.199699 -41.29  0.001755298    3.040    0.671
       113 -11.5209    148.9940    144.8986   8.0572789692e+01   2.3157078837e+01    0.6253043    0.4005062 -76.57  0.001944139    2.693    0.629
       114 -10.8513    148.1784    138.6624   7.9312172929e+01   2.4718497355e+01    0.6326663     0.390287  -3.55  0.001900939    4.234    0.764
       115 -10.1347    107.0361    144.7558   9.1269071809e+01   3.1462734800e+01    0.5647185    0.3403381  84.09  0.001907349    3.347    0.701
       116 -10.1986     55.2265    143.9437   1.0556619015e+02   3.9690396051e+01    0.6293437    0.2942737 -79.34  0.002366273    2.752    0.637
       117  -9.7594     56.7985    137.0363   1.0395227102e+02   4.1228422037e+01    0.3847644    0.2289717 -29.66  0.001636306    2.513    0.602
       118 -11.2515    196.9633    143.2023   6.9701534097e+01   1.3501595031e+01     0.389836     0.300975 -25.61 0.0005591671    1.313    0.239
       119  -9.6580     12.8281    146.2163   1.1752327845e+02   4.3414699249e+01    0.2399195    0.1527122  57.25  0.001368181    1.629    0.386
       120 -10.5724     13.3082    141.2656   1.1686592846e+02   4.4583214834e+01    0.4442343    0.2047742 -40.65  0.001984758    2.864    0.651
       121  -9.8893    165.7781    144.2065   7.6511494804e+01   1.9792804551e+01    0.2564348    0.1731319 -87.00 0.0009500926    2.764    0.638
       122  -9.6760    137.9968    144.2783   8.3116536935e+01   2.5562589871e+01    0.2169257    0.2118958 -64.40 0.0007214139    1.012    0.012
       123 -10.7081    124.8365    140.4019   8.5582123934e+01   2.9112253978e+01    0.9415115     0.366778 -50.83  0.003197209    2.538    0.606
       124  -9.5618     87.8665    143.3774   9.6253007482e+01   3.5117716025e+01    0.3482321     0.211206 -75.80  0.001445735    2.028    0.507
       125  -9.4433     88.2235    138.7937   9.5224269138e+01   3.6195999064e+01    0.3564893     0.173024 -44.56  0.001372428    2.195    0.544
       126  -9.5674    182.4964    142.4947   7.2477479457e+01   1.6634796301e+01    0.1508089    0.1447254 -38.78 0.0001482871    1.037    0.036
       127  -9.4663     68.6109    138.8359   1.0085015691e+02   3.9190348545e+01    0.3911692    0.1945097 -73.22  0.001509188    2.398    0.583
       128  -9.7162     68.9869    134.5057   9.9920386910e+01   4.0223194698e+01    0.3524787    0.2392871 -25.27  0.001600904    2.065    0.516
       129  -9.9969    172.9655    138.9819   7.3691252179e+01   1.9372901766e+01     0.251231    0.1949435 -82.96  0.001139985    1.765    0.433
       130  -9.4749    107.0920    138.1317   8.9815633741e+01   3.3058264795e+01    0.3382826    0.2317418 -16.10  0.001362151    2.341    0.573
       131 -10.0593     22.4398    136.8963   1.1382564566e+02   4.4909917091e+01    0.4929467     0.222665  78.67  0.001870381    3.368    0.703
       132 -10.6414     23.2421    130.9577   1.1281396948e+02   4.6308608624e+01    0.4715095    0.2268284 -38.72  0.002078223    2.673    0.626
       133 -10.0752     38.6955    135.7038   1.0900448239e+02   4.3658687530e+01     0.397298    0.1727016 -75.01  0.001611517    2.346    0.574
       134  -9.8793     40.1415    130.8394   1.0781791427e+02   4.4723225499e+01    0.3952536    0.2111697 -22.06  0.001498779    3.678    0.728
       135  -9.4891    179.6740    134.3312   7.1141844779e+01   1.8898402151e+01    0.1563942    0.1220479 -79.43  0.000599315    1.708    0.414
       136 -10.7170    132.0428    129.3135   8.1082572707e+01   3.0225488289e+01    0.8725048    0.3180995 -48.86  0.002825072    2.715    0.632
       137  -9.9925    112.8141    131.7923   8.6799163960e+01   3.3504974246e+01    0.5685242     0.278155 -43.35  0.002139634    2.105    0.525
       138 -10.1344     83.2911    131.2806   9.5068235509e+01   3.8861327248e+01    0.5649026    0.3024255 -69.83  0.001948571    2.278    0.561
       139  -9.8014     83.8877    123.3801   9.3150589337e+01   4.0714345108e+01    0.5345297    0.3213184 -25.36  0.002051998    2.657    0.624
       140  -9.7836    143.0129    131.3049   7.8800516593e+01   2.7460721052e+01    0.3210151    0.2207917 -62.09  0.001364113    1.675    0.403
       141 -10.7120     12.4083    128.9255   1.1568965232e+02   4.7665958109e+01    0.4298945    0.2054511  81.16  0.001873789    2.625    0.619
       142 -11.5011     13.1194    121.6098   1.1455078510e+02   4.9401306213e+01    0.6958552    0.2189213 -45.97  0.002651912    3.409    0.707
       143  -9.6899     49.0619    154.5545   1.0887454823e+02   3.7786649985e+01    0.3909889    0.2025046 -86.77  0.001640755    2.324    0.570
       144 -10.2005    168.9946    130.0184   7.2400800187e+01   2.2108165211e+01    0.2512826    0.1950088 -81.80  0.001134051    1.714    0.417
       145 -10.4288    153.0269    129.5261   7.5936803580e+01   2.5699372466e+01    0.3752712    0.2125548 -53.07  0.001317236    1.883    0.469
       146 -10.1824     72.9212    127.3731   9.7317157135e+01   4.1433916478e+01    0.6367896    0.2062665 -55.31  0.002178943    2.710    0.631
       147 -10.3366     98.8257    127.3943   8.9692510953e+01   3.7170291383e+01    0.6892467    0.3316784 -64.86   0.00237733    2.752    0.637
       148  -9.9774     98.7248    120.0312   8.7962664282e+01   3.8964659119e+01     0.545181    0.3462127  11.10  0.002071049    2.698    0.629
       149 -10.4257    117.8434    122.9800   8.3284958501e+01   3.4600120724e+01    0.8032195    0.3734559 -45.56  0.002947059    2.101    0.524
       150 -10.3477     58.8982    123.2125   1.0074156065e+02   4.4422873925e+01    0.7029165    0.3435134 -80.18  0.002404574    3.419    0.708
       151  -9.4119     58.6307    115.1890   9.9168142090e+01   4.6446168376e+01    0.3448699     0.190362 -32.15  0.001410514    2.453    0.592
       152 -10.0352    179.7360    124.8721   6.8823957176e+01   2.0811509373e+01    0.2921492    0.2083859  82.67   0.00123233    2.095    0.523
       153 -10.8376     42.7760    120.6833   1.0527748048e+02   4.6974950682e+01     0.909979     0.396667 -82.40   0.00290133    4.180    0.761
       154 -10.8055     28.2326    122.1358   1.1003477726e+02   4.8053975809e+01    0.6899906    0.3148175  78.69  0.002233571    4.708    0.788
       155  -9.9703    158.8471    121.7674   7.2625139100e+01   2.6094125171e+01    0.3983176    0.2108785 -58.43  0.001407756    2.508    0.601
       156 -10.5667    141.8678    119.3791   7.6078902851e+01   3.0365116530e+01    0.6103614    0.2898931 -58.06  0.001876585    2.902    0.655
       157  -9.6873     71.1444    117.6461   9.5752471551e+01   4.4103105141e+01    0.5896536    0.2476968 -50.79  0.002280663    2.141    0.533
       158 -10.1820    130.8022    116.8625   7.8246955085e+01   3.3317981237e+01    0.7205138    0.3042741 -42.47  0.002493782    2.371    0.578
       159 -11.0986      2.5498    116.2509   1.1705226467e+02   5.1386588195e+01    0.5830801    0.2377872  87.96  0.002337311    3.157    0.683
       160 -10.8351      2.6693    109.6641   1.1618619412e+02   5.2958817058e+01    0.3268493    0.2038056 -36.18  0.001821383    1.770    0.435
       161  -9.0166    186.3141    116.6601   6.5437620706e+01   2.0992342664e+01    0.1581049    0.1185154 -72.69 0.0007047263    1.700    0.412
       162 -10.0659    108.8884    113.7523   8.3432478702e+01   3.8526861794e+01    0.4781128    0.3061169 -68.83  0.001931507    2.070    0.517
       163 -10.0840    108.6940    108.1182   8.1993179579e+01   3.9863445986e+01    0.4943884    0.3085385 -25.42  0.001944813    2.223    0.550
       164 -10.5388     78.7198    111.4932   9.1935533548e+01   4.4439736341e+01    0.7517268    0.3699623 -69.98  0.002531753    3.235    0.691
       165  -9.6700    121.8889    112.1726   7.9384647640e+01   3.6257318702e+01     0.361382       0.2216 -61.21  0.001032773    1.960    0.490
       166  -9.5574    123.8686    107.7326   7.7646905650e+01   3.6834189658e+01    0.4230719    0.2785256  14.37   0.00161076    2.485    0.598
       167 -10.1417     92.3643    112.0541   8.7862438316e+01   4.2010145422e+01    0.5542166    0.3011103 -63.72    0.0019858    2.241    0.554
       168 -10.1757     93.2624    104.4367   8.5594012512e+01   4.3634982129e+01    0.5689723    0.3686042  14.97  0.002340494    2.276    0.561
       169  -9.7970    159.3647    112.1907   7.0020966742e+01   2.7994291987e+01    0.2352656    0.1403372 -51.30 0.0007006027    1.745    0.427
       170 -12.1072     14.4271    108.5668   1.1228082919e+02   5.2478187952e+01    0.7508149    0.2846061 -59.86  0.003422922    1.974    0.494
       171 -11.4153     22.6362    102.5088   1.0854953683e+02   5.3324475647e+01    0.6812309    0.3695747  74.84  0.002909006    2.989    0.665
       172 -11.5406     20.6693     93.3282   1.0751471562e+02   5.5666397887e+01    0.6362532    0.2393715 -40.37  0.002603923    2.814    0.645
       173  -9.6973     66.2482    110.2620   9.5617617652e+01   4.6615259131e+01    0.3500745    0.2411736 -74.59   0.00145878    1.657    0.396
       174  -9.9976     66.3928    105.8030   9.4510672933e+01   4.7671032181e+01    0.4119728     0.258103 -19.73  0.001736369    2.395    0.582
       175  -9.8138    133.4101    108.0346   7.5205808795e+01   3.4707259523e+01    0.4655036    0.2394545 -44.24  0.001791308    1.898    0.473
       176  -9.6459     59.7628    107.5582   9.7106620566e+01   4.8161887006e+01    0.3882346    0.1518517 -43.60  0.001413551    2.663    0.624
       177  -9.5266    139.8273    104.7402   7.2667544256e+01   3.3990816044e+01    0.3202296    0.2301101 -81.30 0.0009088066    2.031    0.508
       178  -9.4464    140.1973    100.1840   7.1303624768e+01   3.4865236688e+01      0.34655    0.2425545   2.66  0.001367779    2.322    0.569
       179 -10.8629     44.9307    101.7633   1.0078137686e+02   5.1374887016e+01     0.772633    0.4344447  85.12  0.002844311    3.624    0.724
       180 -10.5811     44.3328     92.7488   9.8913327980e+01   5.3582481453e+01    0.4486257    0.2599076 -15.83  0.001940672    2.632    0.620
       181  -8.9865    166.6236    103.8408   6.6187080185e+01   2.8024929822e+01    0.2369648    0.1377374 -50.00 0.0009545321    1.769    0.435
       182 -10.2861    149.9202    102.6474   6.9634554593e+01   3.2133235584e+01    0.5367175    0.1973955 -50.85  0.001602506    3.312    0.698
       183 -11.0658      6.5635    102.6180   1.1395133521e+02   5.4414870720e+01    0.3821659    0.1887202 -89.96  0.001752885    2.418    0.586
       184 -10.8833      7.9518     97.0209   1.1261888152e+02   5.5659952693e+01    0.3635795    0.1488116 -46.14  0.001714182    2.165    0.538
       185  -9.6492    128.4654    101.9561   7.4812614803e+01   3.7105301836e+01    0.3060162    0.2231446 -59.91  0.001034355    1.526    0.345
       186  -9.7130    129.4015     97.7927   7.3382255714e+01   3.7785924082e+01     0.318617    0.2447618 -14.41  0.001001587    1.627    0.385
       187 -10.3297    108.2140     98.4340   7.9441746512e+01   4.2133638012e+01    0.5116982    0.3667969 -87.93  0.001481751    2.201    0.546
       188  -9.9869    108.4043     92.1211   7.7548755402e+01   4.3465657379e+01     0.557767    0.3524225  12.91  0.002078086    2.752    0.637
       189  -9.7430     81.4264     98.6687   8.7761854302e+01   4.7024848410e+01    0.4541806    0.2091891 -60.52  0.001624967    2.681    0.627
       190  -9.5554     82.3300     94.3480   8.6271531514e+01   4.7859412402e+01    0.3072623    0.2169873 -13.31  0.001390856    1.901    0.474
       191  -9.7803     94.5272     96.5468   8.3019083374e+01   4.5200119613e+01     0.321128    0.2154869 -59.37   0.00109062    1.635    0.388
       192 -10.0996     96.3038     91.5370   8.1017170259e+01   4.5974157601e+01    0.5034075    0.3115609 -13.04  0.001840716    2.927    0.658
       193 -10.5687     63.4399     95.6282   9.2942345091e+01   5.0496871799e+01    0.5365552    0.3296307 -80.42  0.002108122    2.704    0.630
       194 -10.4423     64.4096     87.7383   9.0471039748e+01   5.2167102277e+01    0.5891882    0.3574068  -5.62  0.002365566    2.834    0.647
       195  -8.9947    176.7012     93.3603   6.1281222842e+01   2.7688635881e+01    0.1616308     0.115708 -69.14 0.0007034978    1.713    0.416
       196 -11.3277      4.6516     91.4890   1.1286488335e+02   5.7148967990e+01    0.4460562    0.2581525  82.29  0.002141184    2.194    0.544
       197 -11.6526      7.9092     84.3204   1.1043399396e+02   5.8626217237e+01    0.5273218    0.2860771 -24.86  0.001985311    2.175    0.540
       198 -10.6049      8.3500     80.7055   1.0957876539e+02   5.9428183699e+01    0.1972747    0.1480378  37.74 0.0007611788    1.657    0.397
       199  -9.7824    138.7186     90.7942   6.8974543039e+01   3.7120334123e+01      0.58075    0.2130642 -39.07  0.001894917    2.756    0.637
       200 -10.4899     34.5480     89.1989   1.0161384256e+02   5.5433214168e+01     0.539813     0.265106 -75.20  0.002178714    2.818    0.645
       201 -10.6570     35.5245     82.4664   9.9628383930e+01   5.6886942964e+01    0.5262236    0.2634792 -26.72  0.002219392    2.731    0.634
       202  -9.8676    124.1553     90.3176   7.2591560165e+01   4.0499114405e+01    0.4080237    0.2630173 -62.09  0.001410919    2.008    0.502
       203  -9.9179    125.4949     85.0102   7.0635739642e+01   4.1274494267e+01    0.5139381    0.3287408   8.01    0.0018332    3.017    0.669
       204 -10.3714     85.9474     86.2826   8.2740806683e+01   4.9016561374e+01    0.4072579    0.2651576 -59.04  0.001440499    1.748    0.428
       205 -10.4665     87.5529     80.4077   8.0410498970e+01   4.9975212441e+01    0.6918533     0.316114  25.99   0.00224951    3.688    0.729
       206 -10.5039     47.9808     83.9857   9.5361137428e+01   5.5180735376e+01     0.438776    0.2909716  89.28   0.00184614    2.600    0.615
       207 -10.2061     48.6214     78.1198   9.3500642532e+01   5.6412511105e+01    0.4828506    0.2759542 -12.69  0.002023573    2.778    0.640
       208 -10.3067    104.0334     82.0597   7.5776718118e+01   4.6456635649e+01    0.5300076    0.2820032 -51.26  0.002048288    2.046    0.511
       209 -10.0001    105.9724     76.5072   7.3436085261e+01   4.7167688940e+01     0.393726    0.2271454  30.26  0.001600732    2.134    0.531
       210 -10.0008    140.7321     81.7336   6.5795612483e+01   3.8415412919e+01    0.4735797    0.2103452 -32.24  0.001643979    2.610    0.617
       211  -9.2241    158.4636     82.0573   6.1873485340e+01   3.4136973260e+01    0.2440336    0.1492779 -37.11  0.001042245    1.631    0.387
       212 -10.9250     24.5678     80.9191   1.0342981988e+02   5.8235987264e+01    0.3773758    0.2544935  89.96  0.001580502    2.022    0.506
       213 -11.6044     27.3208     71.7115   1.0006423840e+02   6.0058921796e+01     0.853497    0.3333267 -28.18  0.002870859    4.541    0.780
       214  -9.5462     74.4227     80.1896   8.4754677517e+01   5.2286879471e+01     0.415546    0.1356314 -54.57  0.001255177    3.902    0.744
       215  -9.3169    119.3304     78.6209   7.0316249225e+01   4.3895063625e+01    0.5177236     0.142211 -37.97  0.001460952    3.895    0.743
       216  -9.0607    150.0000     79.0128   6.2833827019e+01   3.6724182327e+01    0.2598719   0.08625776 -37.76 0.0008106275    2.999    0.667
       217 -10.5502     62.3106     72.1939   8.6581464324e+01   5.5846372236e+01    0.4603333    0.1535092 -42.84   0.00165366    2.809    0.644
       218  -9.3466    184.2341     77.2504   5.5511060411e+01   2.8780004915e+01    0.2455542    0.1015345 -46.26 0.0008792698    2.417    0.586
       219  -9.0634    167.6787     76.6635   5.8434029177e+01   3.2877050531e+01    0.1537827    0.1197855  16.29 0.0007050242    1.709    0.415
       220  -9.3834    127.5307     75.0216   6.7007348316e+01   4.2733942157e+01    0.3303616    0.2074497 -66.64   0.00127609    2.495    0.599
       221  -9.8328    128.8039     70.1969   6.5151280338e+01   4.3319175555e+01    0.4808743     0.302118  -1.79   0.00175727    2.971    0.663
       222 -10.6211      9.9345     74.8802   1.0777402417e+02   6.0649861136e+01    0.1984506    0.1742702 -15.71 0.0004790675    1.262    0.208
       223 -10.1023     81.9401     72.3179   7.9670171967e+01   5.2636429229e+01    0.4614272    0.2670922 -55.86  0.001724414    2.087    0.521
       224 -10.7134     82.9969     65.4272   7.6987938338e+01   5.3788980151e+01    0.5123907    0.3109116  -5.85  0.001983428    2.900    0.655
       225  -9.3244    115.5645     71.2322   6.8980671064e+01   4.6120197596e+01    0.3721594     0.146248 -36.66  0.001300642    2.628    0.620
       226  -9.8381    105.8445     67.9832   7.0669016142e+01   4.8811643891e+01    0.3027577    0.1975894 -13.10  0.001281722    2.126    0.530
       227  -9.8214     94.9322     70.7835   7.4921772658e+01   5.0507874620e+01    0.4935725    0.1931471 -51.44  0.001614346    3.376    0.704
       228  -9.5448     95.0480     64.4406   7.2729827546e+01   5.1674330004e+01    0.2908645    0.1929775 -11.65  0.001153372    2.019    0.505
       229  -9.9792     42.9201     69.9966   9.3334720195e+01   5.8845845627e+01    0.5411302    0.1577593 -45.06  0.001974245    2.942    0.660
       230 -10.1471      1.5051     69.4898   1.1000770364e+02   6.2311642562e+01     0.259709     0.142803 -47.08  0.001092009    1.433    0.302
       231 -11.7391      5.3628     69.9504   1.0854366055e+02   6.2010108894e+01    0.4486085    0.1934748 -64.62  0.002230535    1.903    0.474
       232 -11.0876      9.4502     65.2654   1.0579307832e+02   6.2798096620e+01    0.3978307    0.1400272 -54.80  0.001861947    2.039    0.510
       233 -10.8494     51.1403     68.7747   8.9732387365e+01   5.8099709321e+01    0.7008277    0.2724756 -59.39  0.002425357    3.626    0.724
       234 -10.7391     16.3438     69.8855   1.0405672457e+02   6.1334815496e+01    0.3370012    0.1824127 -70.42  0.001560553    1.965    0.491
       235 -11.0799     17.6067     63.6000   1.0192717358e+02   6.2604206420e+01    0.4616691    0.1271787 -49.44  0.001902847    2.574    0.611
       236  -9.2084    147.3374     64.3395   5.8974428279e+01   3.9923111501e+01    0.2573498    0.1339746 -22.75 0.0009466524    2.607    0.616
       237  -9.5880    138.5441     64.8013   6.1082386875e+01   4.1963386654e+01    0.3756813    0.1407283 -38.11  0.001312743    2.641    0.621
       238  -9.4144    121.5486     64.5454   6.5173197705e+01   4.5976848098e+01    0.4541167      0.14367 -37.34  0.001463745    3.171    0.685
       239 -10.6184     37.1259     63.5129   9.3703075167e+01   6.0852030035e+01    0.3922723     0.227786 -64.68  0.001898618    2.128    0.530
       240 -10.1708    110.9668     59.5147   6.6322023638e+01   4.9202392788e+01    0.4412037    0.2650752   1.25  0.001575221    3.289    0.696
       241 -12.2214      6.8905     54.6246   1.0421006827e+02   6.5208068269e+01    0.8717021    0.2819102 -49.11  0.004081683    2.170    0.539
       242  -9.8154     73.0386     59.3365   7.8305710739e+01   5.6681435957e+01    0.4824499    0.2157363 -49.00  0.001698337    2.480    0.597
       243 -10.5140     73.2561     53.5035   7.6096579422e+01   5.7695464496e+01    0.5339099    0.2786118 -17.83  0.001982628    3.224    0.690
       244 -10.1587    100.4201     54.8493   6.7707467795e+01   5.2245834819e+01    0.3559952    0.2451574 -14.21  0.001699645    1.721    0.419
       245 -10.9541     25.0990     56.7926   9.6737425018e+01   6.3415349011e+01     0.480967    0.1626717 -42.17  0.002030537    2.516    0.602
       246  -9.8194     43.6220     54.4438   8.7999453868e+01   6.1920974700e+01    0.3707668    0.1839872 -57.60  0.001625993    2.546    0.607
       247 -10.0206     45.2897     49.6713   8.5578588920e+01   6.2611979591e+01    0.3225392    0.2061388 -15.56  0.001241435    1.740    0.425
       248  -9.4705    118.7361     54.7872   6.2612751241e+01   4.8237623172e+01    0.2983206    0.1596978 -53.15  0.001166614    2.517    0.603
       249  -9.8815     62.6837     54.1941   8.0265155514e+01   5.9310693716e+01    0.3411103    0.1519465 -47.58  0.001438984    2.335    0.572
       250  -9.9084     63.1013     48.5186   7.7966962133e+01   6.0252014599e+01    0.4395055    0.2541633 -21.67  0.002059699    2.010    0.503
       251 -10.2977     53.8229     50.8676   8.2505223781e+01   6.1237281725e+01    0.7467138    0.1735672 -47.04  0.002332805    4.403    0.773
       252 -11.8924     21.3658     49.3118   9.6030094686e+01   6.5239535096e+01    0.6781932     0.254317 -36.47   0.00296481    2.569    0.611
       253 -10.5548     30.6801     51.1610   9.2445346824e+01   6.4007034401e+01    0.3272806      0.17931 -61.95  0.001578644    2.336    0.572
       254 -10.3904     92.0306     47.7595   6.7648205339e+01   5.5116830295e+01    0.7344035    0.1933472 -36.57   0.00235541    3.779    0.735
       255  -9.3894     81.6972     46.5128   7.0510022192e+01   5.7337295413e+01    0.3117354    0.1529897 -38.02  0.001110681    2.026    0.507
       256  -9.6572     83.7639     40.5258   6.7485984975e+01   5.7861146729e+01    0.4004202    0.2325566   3.44  0.001426064    2.890    0.654
       257  -9.9766    165.9668    249.0401   9.5699729942e+01  -1.0347701874e-01    0.1525978    0.1268685  28.74  0.001012616    1.008    0.008
       258 -10.6259     16.6102     41.1853   9.5516835542e+01   6.7200262857e+01    0.3127186    0.1232845 -39.58  0.001508533    2.103    0.525
       259  -9.8215     44.6781     43.5531   8.3512165130e+01   6.3792973128e+01    0.3169788   0.09940332 -43.05  0.001243621    2.867    0.651
       260 -10.0192     57.9815     41.9712   7.7381483005e+01   6.2160738847e+01    0.2781025    0.1787334 -59.10  0.001311145    2.583    0.613
       261 -11.3152      4.8666     40.7084   1.0111392849e+02   6.8120468717e+01    0.4792725    0.1824879 -62.53  0.002181092    2.793    0.642
       262 -10.4091      6.2460     34.5647   9.8371105811e+01   6.9198621152e+01    0.2187131    0.1482696 -12.43  0.001151919    1.406    0.289
       263 -10.1574    105.8318     38.5133   6.0175028992e+01   5.3542462792e+01    0.4320875    0.1898193 -26.36  0.001632507    2.563    0.610
       264  -9.8429     68.8329     41.0215   7.2853447560e+01   6.0534063227e+01    0.2501819    0.1745064 -55.86  0.001272671    2.068    0.516
       265 -10.0264     69.7410     36.7533   7.0774536181e+01   6.1026290725e+01    0.3443312    0.1948889  -9.03  0.001493469    2.557    0.609
       266  -9.9096     36.6251     40.8240   8.5986286319e+01   6.5274502729e+01    0.1840612    0.1436891 -33.05 0.0007969445    1.143    0.125
       267  -9.0589    173.6169    243.8054   9.3468332019e+01  -4.7183267045e-01    0.1522206    0.1202877 -55.88 0.0009495068    1.672    0.402
       268 -12.2309    236.9551    240.7300   8.1276067989e+01  -9.1578103766e+00    0.5210342    0.2506319  37.97  0.002863614    2.069    0.517
       269  -8.8868      1.3288     46.3032   1.0450106635e+02   6.7215678222e+01    0.1261341   0.06439224 -35.50 0.0002725849    1.649    0.393
       270 -10.7519     60.9570     30.1100   7.1226613962e+01   6.3498599975e+01    0.5310306    0.2009739 -24.37  0.001905346    3.784    0.736
       271  -9.9860     12.4726     30.3196   9.3571248200e+01   6.9514489570e+01    0.2844201    0.1035456 -53.35  0.001309269    2.673    0.626
       272  -9.0151    100.0000    233.9799   1.0700265017e+02   1.2679816973e+01    0.1885298   0.07160548 -61.18 0.0008035811    2.950    0.661
       273 -10.7174     27.2547     29.7077   8.5837288912e+01   6.8228558826e+01     0.497388    0.1458702 -33.54  0.001751412    4.201    0.762
       274  -9.1798    123.2307     41.1803   5.6788694876e+01   4.9206263416e+01     0.244288    0.1377056  23.58 0.0009439084    2.762    0.638
       275  -9.1029     44.0379     25.9611   7.6343268161e+01   6.6708677713e+01    0.1972478    0.1281044  -0.71 0.0005324813    1.634    0.388
       276  -8.7174    118.3925     24.8365   5.2065290262e+01   5.2364179124e+01    0.1736114    0.1285549  -3.63 0.0004033105    1.562    0.360
       277  -8.8884    130.4454     46.4334   5.6932796080e+01   4.6763638164e+01    0.1439474    0.1319093  35.33 0.0001149446    1.082    0.076
       278  -9.7174     72.6435     27.6821   6.5906709095e+01   6.1763644789e+01    0.2151859    0.1397817  13.24   0.00111253    1.737    0.424
       279  -9.8400     12.9354     21.3709   8.9599491166e+01   7.0991654924e+01    0.2022422     0.169065 -26.46 0.0008499583    1.209    0.173
       280  -9.0489     84.5508     21.5447   5.9446648910e+01   6.0185146195e+01     0.130178    0.1138644  23.99 0.0001246995    1.008    0.008
       281  -8.9300     40.9751     21.4815   7.5627034420e+01   6.7777911709e+01    0.1656243    0.1080638  28.41 -7.294006e-05    1.469    0.319
       282  -9.3922     50.3025     15.8765   6.8903203483e+01   6.7110314117e+01    0.2432713    0.1329339  18.39  0.001159281    2.114    0.527
       283  -9.7550     40.9545     14.0615   7.2019040386e+01   6.8762844193e+01    0.1820043    0.1416981   4.71 0.0003135605    1.050    0.047
       284 -10.5343    237.2155    232.0925   7.9788571412e+01  -8.0756811662e+00    0.2002929    0.1574124  53.07  0.001252001    2.120    0.528
