#   1 NUMBER                 Running object number                                     
#   2 MAG_AUTO               Kron-like elliptical aperture magnitude                    [mag]
#   3 X_IMAGE                Object position along x                                    [pixel]
#   4 Y_IMAGE                Object position along y                                    [pixel]
#   5 X_WORLD                Barycenter position along world x axis                     [deg]
#   6 Y_WORLD                Barycenter position along world y axis                     [deg]
#   7 A_WORLD                Profile RMS along major axis (world units)                 [deg]
#   8 B_WORLD                Profile RMS along minor axis (world units)                 [deg]
#   9 THETA_WORLD            Position angle (CCW/world-x)                               [deg]
#  10 FWHM_WORLD             FWHM assuming a gaussian core                              [deg]
#  11 ELONGATION             A_IMAGE/B_IMAGE                                           
#  12 ELLIPTICITY            1 - B_IMAGE/A_IMAGE                                       
         1 -14.6761    156.6732     45.0931   8.5647857809e+01   4.0423909725e+01     1.234886     0.996438 -19.97  0.003579382    1.193    0.162
         2 -14.4934    167.7529     13.0548   7.2423663737e+01   4.1423069856e+01     1.060203    0.9222246 -17.45  0.003842296    1.131    0.116
         3 -13.0549    188.5455     13.6881   7.0079732402e+01   3.6048895700e+01    0.5723764    0.2849875 -60.35  0.002252518    2.643    0.622
         4 -10.5826     15.5837    246.7558   1.5287165268e+02   2.3426246819e+01    0.1419082    0.0674572  78.16  0.001035057    1.981    0.495
         5 -12.2724    181.3401    250.1262   1.2492220598e+02   4.6633937182e+00    0.2320661    0.1205709  34.68  0.001561091    1.430    0.301
         6 -19.9624     96.2951    230.1875   1.3791222914e+02   1.7734341382e+01     7.310472     5.084501  48.83    0.0538551    1.203    0.169
         7 -11.2500     28.4056    238.0388   1.5047400697e+02   2.3617986833e+01    0.1208388   0.08820051  72.87 0.0003686612    1.239    0.193
         8 -13.4107    196.9899    235.4858   1.2049091271e+02   4.2263226983e+00    0.2424777    0.2329817 -43.21  0.002027469    1.804    0.446
         9 -12.0681    167.0200    173.5799   1.1665874768e+02   1.6556073930e+01    0.2146345    0.1854942 -54.18  0.000921922    1.537    0.350
        10 -10.9592     27.9456    172.4130   1.4740033012e+02   3.5189715918e+01    0.1867665    0.1396532 -81.24  0.001321389    1.279    0.218
        11 -12.2374     21.7436    236.3157   1.5153679510e+02   2.4465168737e+01     0.170533    0.1216936  75.10  0.001474244    1.265    0.210
        12  -9.8555     13.3183    236.2374   1.5294345949e+02   2.5188272915e+01   0.07443123   0.06737659  27.65 0.0003752335    1.510    0.338
        13 -12.4676    230.1472    167.0912   1.0373797357e+02   7.3719804608e+00    0.3269635    0.1557121 -37.82  0.001618994    2.439    0.590
        14 -12.1798    201.2005    164.8184   1.0839426406e+02   1.2261280548e+01     0.394999    0.2772104 -40.88  0.001435214    1.746    0.427
        15 -19.1176     79.4853     89.5669   1.2156132279e+02   4.8046946293e+01     19.07063    0.8575593 -54.33   0.02527837   19.281    0.948
        16 -11.4718    222.2986    161.5259   1.0398142102e+02   9.2873926940e+00    0.2520889    0.1987501 -45.00  0.001061711    1.882    0.469
        17 -11.9253     12.8054    241.7133   1.5318123211e+02   2.4402271646e+01    0.1459351    0.1160117  68.72  0.001002348    1.207    0.171
        18 -10.7688      6.1003    161.9896   1.5169883212e+02   3.9020826860e+01    0.1732005    0.1406659  51.44 0.0005395537    1.193    0.162
        19 -13.0645     11.4702    205.9683   1.5231680539e+02   3.0286196179e+01    0.3888362    0.2262966  23.33  0.002139786    1.979    0.495
        20 -14.4851    133.8878    146.0362   1.1884937359e+02   2.6850150074e+01     1.418627    0.4766897 -55.92  0.004312903    4.915    0.797
        21 -14.6145    143.5433    144.5443   1.1631401833e+02   2.5463701859e+01     1.073825    0.5184098 -54.22   0.00439495    2.691    0.628
        22 -11.3946    139.5379    148.8363   1.1807206260e+02   2.5359793781e+01    0.3256851    0.1907629  30.67 0.0005127792    1.708    0.415
        23 -12.8573    134.6127    108.6343   1.1041431276e+02   3.4089504533e+01     1.158651    0.1678292 -44.35  0.002535612    6.923    0.856
        24 -10.3483     22.9912    156.2561   1.4750014662e+02   3.8936485360e+01    0.1548234    0.1292038  62.52 0.0004619423    1.086    0.079
        25 -11.1329    192.2109    153.3780   1.0782805291e+02   1.5418101401e+01     0.208128    0.1517216 -31.87 0.0006855413    1.416    0.294
        26 -13.2000    155.0177    152.9770   1.1540061161e+02   2.1952690536e+01    0.3296915    0.2667277  63.52  0.001599653    1.643    0.391
        27 -10.7437     18.2433    153.6103   1.4845816384e+02   3.9875203300e+01    0.1775545    0.1222972 -51.78 0.0007885272    1.720    0.419
        28 -12.1524    150.9768    239.4934   1.2892223454e+02   9.6828678350e+00    0.2058598    0.1714647  17.60 0.0008526948    1.166    0.142
        29 -14.2071    135.8822    127.6760   1.1459373281e+02   3.0060985305e+01     1.746057    0.3343505 -49.51  0.003977003    7.314    0.863
        30 -12.9941    174.0482    148.4794   1.1045435103e+02   1.9369830676e+01    0.4008387    0.3125066 -46.63  0.001565505    1.543    0.352
        31 -10.4523     31.7934    205.0867   1.4842998716e+02   2.8701837413e+01    0.1194725    0.1122178  81.05 0.0004483496    1.296    0.228
        32 -10.4251    182.3987    149.1663   1.0889498945e+02   1.7778722240e+01    0.1790323     0.124288 -43.91 0.0008334224    1.688    0.408
        33 -14.3111    152.7766    145.1529   1.1434613879e+02   2.3725061016e+01    0.6553861    0.5149321  83.52  0.003334004    2.080    0.519
        34 -11.7398    175.9765    142.4956   1.0880310052e+02   2.0001607960e+01    0.2076155    0.1277134  39.46 0.0006616778    1.560    0.359
        35 -12.6871     27.9743    145.0157   1.4546221870e+02   4.0947865515e+01    0.3517223    0.3085103  78.46  0.001465979    1.057    0.054
        36  -9.9813     19.4729    203.5125   1.5071898212e+02   3.0059719030e+01   0.09548169   0.08414555  68.12 0.0002342205    1.206    0.171
        37 -10.5613     29.4717    201.0095   1.4867602839e+02   2.9634489137e+01    0.1331725   0.09109612 -80.88 0.0006769531    1.475    0.322
        38 -13.5418    160.6991    128.2850   1.0894067481e+02   2.5289900509e+01    0.4616863    0.4467022 -41.33  0.002437485    1.211    0.174
        39 -11.8206    141.7122    121.0880   1.1168006185e+02   3.0260797447e+01     0.330315    0.2047434  56.00  0.001442885    2.048    0.512
        40 -11.5036     20.0694    196.2220   1.5029240447e+02   3.1315352930e+01     0.155918    0.1270107 -78.37 0.0005397307    1.354    0.261
        41 -13.3469    210.1143    187.2490   1.1088637009e+02   7.9346826437e+00    0.6252416    0.2731841 -46.22  0.002598417    4.269    0.766
        42 -13.7697    207.0268    177.8686   1.0977182496e+02   9.5867143112e+00    0.5606954    0.3685209  20.07   0.00271389    1.324    0.245
        43 -10.7220    205.4071    110.1152   9.5551319262e+01   1.9465642220e+01    0.2392395    0.1796184  27.43 0.0006341192    1.311    0.237
        44 -11.7248    203.5156    175.5052   1.0997656397e+02   1.0442519982e+01    0.2602116    0.2074515   3.08 0.0009452438    1.064    0.060
        45 -11.5352     32.4620    104.0689   1.3991367270e+02   5.0068676025e+01    0.2902622    0.1832484  -8.20  0.001419044    2.329    0.571
        46 -11.8683     96.9085     96.3194   1.1776053254e+02   4.3687525723e+01      0.33298    0.2179551  45.56 0.0008920013    1.633    0.388
        47 -10.2856    124.2882     95.3223   1.0961858804e+02   3.8831276318e+01    0.1526712    0.1159241  -6.45  0.000246233    1.603    0.376
        48 -12.7733     53.5568     91.4038   1.3075033623e+02   5.1061392916e+01    0.4081754    0.3285385  23.49  0.001273414    1.411    0.291
        49 -11.2769     41.9823     92.1443   1.3489031777e+02   5.2105794470e+01    0.2410842     0.183358 -86.58 0.0008858126    1.312    0.238
        50 -12.1951    203.9113    171.2967   1.0912593577e+02   1.0940723079e+01    0.4758303    0.2406877  26.74  0.002124086    1.928    0.481
        51 -10.3338     23.0160     83.4750   1.4020393910e+02   5.5829879406e+01    0.1668516    0.1305514  13.10 0.0008636885    1.557    0.358
        52 -10.7624    142.0226     80.7144   1.0075241321e+02   3.7977285726e+01    0.2140026    0.1991362  14.50   0.00047621    1.056    0.053
        53 -14.4934    146.0963     60.2058   9.3151196880e+01   4.0668547239e+01     1.457161     1.010873  10.84  0.004359053    1.808    0.447
        54 -14.1249    195.4948    170.4981   1.1053557760e+02   1.2399226205e+01    0.8000906    0.4565472 -47.08  0.002589576    2.488    0.598
        55 -13.2095    160.5142     35.9462   8.1697068804e+01   4.0700693115e+01    0.4634087    0.4573489 -16.16 0.0008478836    1.067    0.063
        56 -11.3152     13.4008     59.8747   1.4012964506e+02   6.2224391961e+01    0.1861203    0.1701804  61.22  0.000456491    1.277    0.217
        57 -11.9390    165.0111    179.6598   1.1810201898e+02   1.5939538811e+01    0.1855077    0.1423629  30.51 0.0007793991    1.133    0.118
