#   1 NUMBER                 Running object number                                     
#   2 MAG_AUTO               Kron-like elliptical aperture magnitude                    [mag]
#   3 X_IMAGE                Object position along x                                    [pixel]
#   4 Y_IMAGE                Object position along y                                    [pixel]
#   5 X_WORLD                Barycenter position along world x axis                     [deg]
#   6 Y_WORLD                Barycenter position along world y axis                     [deg]
#   7 A_WORLD                Profile RMS along major axis (world units)                 [deg]
#   8 B_WORLD                Profile RMS along minor axis (world units)                 [deg]
#   9 THETA_WORLD            Position angle (CCW/world-x)                               [deg]
#  10 FWHM_WORLD             FWHM assuming a gaussian core                              [deg]
#  11 ELONGATION             A_IMAGE/B_IMAGE                                           
#  12 ELLIPTICITY            1 - B_IMAGE/A_IMAGE                                       
         1 -18.9052    229.4481     96.8065   4.0918380994e+01   1.6163007023e+01     6.769354     4.875531 -41.57   0.02661828    1.178    0.151
         2 -13.2302      9.6808    125.9377   1.0442290789e+02   4.8412259849e+01     3.599859    0.9615535 -83.94   0.01054327    4.845    0.794
         3  -9.0701    189.8835     13.8284   2.5810738474e+01   3.6284850029e+01    0.2418776    0.1784144 -19.14 0.0009978187    1.714    0.417
         4 -11.7015    119.2117      9.8130   3.3674052511e+01   5.3755885411e+01     0.640736    0.4170201  48.36  0.002633713    1.488    0.328
         5  -9.4451    143.4324      8.8730   2.9597115333e+01   4.7921741711e+01    0.2991756    0.1364307 -20.45  0.001306295    2.714    0.632
         6  -9.8012    235.2330      1.3359   1.9713145589e+01   2.7842443256e+01    0.2752424   0.09416156  78.46  0.001060049    2.835    0.647
         7 -13.1086     67.6159    143.2951   8.8490504732e+01   3.7747534836e+01     1.720489     1.278067  89.11  0.006244231    1.447    0.309
         8 -12.0378    247.0594    249.6010   6.6420180791e+01  -8.8878665595e+00    0.7274138    0.5763727   6.77  0.004428795    1.255    0.203
         9 -10.6122    237.2824    249.5685   6.7985179481e+01  -7.8590838794e+00    0.2794948    0.1644555  25.11  0.001062312    1.503    0.335
        10 -11.6078    195.2973    250.0948   7.5307152564e+01  -3.0759115613e+00     0.473548    0.2937455  10.02  0.002472101    1.548    0.354
        11 -11.0498    189.3941    249.4653   7.6300939104e+01  -2.2555815710e+00    0.3043244    0.2085512  21.96 0.0001141804    1.196    0.164
        12 -10.3137    125.1856    231.2408   8.6680335122e+01   9.4084274365e+00    0.2217672    0.2107034 -28.10 0.0003821917    1.207    0.171
        13  -9.1879     76.5383    223.0362   9.6454773841e+01   1.7791544453e+01    0.1902674    0.1499763  43.02  0.000383597    1.105    0.095
        14  -8.7037    148.8467    218.4759   7.9895561993e+01   8.2242160979e+00    0.1748595    0.1640543  -5.66 0.0003528475    1.116    0.104
        15  -9.7607    171.4568    204.1426   7.2924981929e+01   7.3264834779e+00    0.3851065    0.2568411  66.11  0.001646659    2.825    0.646
        16  -9.7595      8.9952    204.0421   1.1028782958e+02   2.9529763093e+01    0.1927126    0.1477052  84.61 0.0004072176    1.142    0.124
        17  -8.8417    247.6082    203.0512   5.8967315185e+01  -3.1159312654e+00     0.175425    0.1447895  21.45 0.0009063617    1.356    0.263
        18 -10.7644    192.3695    193.8370   6.6986189439e+01   5.8905034659e+00    0.8582157    0.4629364 -63.81  0.002821828    5.655    0.823
        19 -12.6045    221.4199    243.0355   6.9671695856e+01  -5.2912672422e+00    0.7828364    0.7518503  59.44  0.006052599    1.875    0.467
        20 -13.9467     65.9391    120.8808   8.4873846357e+01   4.3724812628e+01     2.052492     1.346194  30.34  0.003945948    1.631    0.387
        21 -10.7899     94.0153    142.0332   8.0448910257e+01   3.3926418318e+01    0.3595845    0.2620211 -59.12  0.001576706    1.357    0.263
        22  -9.4214     46.9089    142.8118   9.4730965814e+01   4.0569459071e+01    0.2071996    0.1826092 -54.58 0.0005064708    1.185    0.156
        23 -10.3648    176.9192    170.9142   6.5824391455e+01   1.2546365631e+01    0.4938412    0.3624344  -5.94  0.002524546    1.645    0.392
        24 -10.6570    176.8840    164.3689   6.4545075418e+01   1.3807174428e+01    0.5296965    0.4094961  52.77   0.00249351    1.484    0.326
        25 -13.8669     28.0775    125.5018   9.8321306186e+01   4.7037665999e+01     1.620876     1.266464 -85.95  0.005954956    1.185    0.156
        26 -12.4024    213.5331    243.2632   7.1070359335e+01  -4.3907800339e+00    0.6404263    0.5165601 -32.05  0.004714183    1.469    0.319
        27 -11.1982     90.5803    125.9069   7.8117563569e+01   3.8511718142e+01     0.573567    0.2394758 -57.27  0.002050161    2.399    0.583
        28 -10.7085    109.3664    133.7914   7.4369542359e+01   3.3194034090e+01     0.333867    0.2082973  38.15  0.001066909    1.628    0.386
        29 -12.5945     53.5627    121.9314   8.9200302255e+01   4.5149736964e+01    0.6360907    0.5839967 -52.21 0.0008542844    1.103    0.093
        30 -11.4589    115.8732    114.1467   6.7933543298e+01   3.6556238097e+01    0.4859815    0.3991667 -67.37  0.002330848    1.292    0.226
        31 -10.6471    119.7970     94.0497   6.1500399018e+01   4.0206242833e+01    0.5259745    0.4213636 -70.08  0.002002119    1.405    0.288
        32 -12.4199    123.9437    105.0120   6.3368993549e+01   3.6939047627e+01     1.363757     1.061461  81.11  0.006358071    1.602    0.376
        33 -11.3141    113.0528    106.0805   6.6658110482e+01   3.8973665539e+01     1.086668    0.6537611  38.15  0.004588861    1.756    0.431
        34  -9.8379    101.9423    145.9112   7.8966599419e+01   3.1606766175e+01    0.3844841    0.2213149 -66.61  0.001007303    1.992    0.498
        35 -10.4687    139.5744     95.1134   5.6721767139e+01   3.5617434478e+01    0.3162835    0.2893827 -29.60 0.0004078062    1.161    0.139
        36  -9.6100    180.3976    176.7860   6.6236790817e+01   1.0848073676e+01     0.414858    0.2270674 -51.79  0.001873098    2.096    0.523
        37  -8.4921     97.4973    116.4782   7.3854938842e+01   3.9574955827e+01     0.151953    0.1484638 -66.73 3.002822e-05    1.019    0.019
        38 -10.6013    134.2859     82.4018   5.4416046938e+01   3.9351326071e+01    0.6407124    0.2599436 -38.51  0.002248471    2.576    0.612
        39  -9.0128    106.2235     80.5456   6.1406846007e+01   4.5962027025e+01    0.2896912     0.199098 -45.64 0.0007921622    1.453    0.312
        40 -11.4226    138.4913     74.4737   5.1094243202e+01   3.9877517835e+01    0.7198253    0.4457411  79.90  0.002835283    2.436    0.589
        41 -10.5572    140.8694     63.0118   4.7121792157e+01   4.1340677366e+01    0.3241932    0.2095326 -39.04 0.0003555198    1.560    0.359
        42  -9.8458    181.3973    171.3382   6.4991087976e+01   1.1694664184e+01    0.4360235    0.1858937 -36.32  0.001722713    2.515    0.602
        43  -8.7808    110.8583     53.2005   5.1160868061e+01   5.0060937383e+01    0.2076422    0.1908525  88.37 0.0002969218    1.147    0.128
        44  -8.9650     12.5755    188.2159   1.0857271945e+02   3.2804394918e+01    0.1938133    0.1560766  43.70  0.000342008    1.250    0.200
        45 -11.0650    134.4776     41.4860   4.1670516003e+01   4.6246506713e+01    0.3395972       0.2272  57.95  0.001667757    1.411    0.292
        46 -11.2277    135.0163     37.4846   4.0255530652e+01   4.6672053537e+01     0.426472    0.3294966   4.53  0.001135519    1.748    0.428
        47  -8.8347    114.3686    192.8954   8.3857524020e+01   1.8644370318e+01    0.1831444    0.1681175 -66.46 0.0007263268    1.166    0.143
        48  -9.5658    110.9122    168.1882   8.0699230646e+01   2.4751763217e+01    0.2553569    0.2313709  85.22 0.0004331195    1.149    0.129
        49  -9.5639    158.9451    166.1339   6.8740071898e+01   1.6670986914e+01    0.2185634    0.1988807 -40.98 0.0003081583    1.108    0.098
        50 -11.1679    130.8505     33.1513   3.9635197005e+01   4.8268458025e+01    0.4963357    0.3467364   2.26  0.001357103    2.094    0.522
        51  -8.4785    153.7120    163.7002   6.9435712399e+01   1.8121900618e+01    0.1936328    0.1720381 -87.85 0.0004008687    1.347    0.257
        52  -9.2421    143.8367     33.7375   3.7423403373e+01   4.5008129775e+01    0.2136686    0.1903446 -17.90 0.0002646208    1.307    0.235
        53  -8.5075    152.2599    160.9973   6.9228995885e+01   1.8953763482e+01    0.2002838     0.182089 -46.47 0.0002009331    1.115    0.103
        54  -8.8795    141.9367    164.0452   7.2235744504e+01   2.0194585349e+01    0.2616971    0.2035128 -76.57  0.001036226    1.628    0.386
        55 -10.6078    126.9300     23.1731   3.6990107180e+01   5.0457721351e+01    0.3709774    0.1746586  48.63  0.001600798    2.113    0.527
        56  -9.0969    102.0834    159.0162   8.1397073091e+01   2.8413844553e+01    0.2145118    0.2066733  74.19 0.0002775262    1.008    0.008
        57  -8.7554    142.4292     16.2479   3.2086398948e+01   4.7420235259e+01    0.1862712    0.1154156 -44.06 0.0009513791    1.647    0.393
        58 -10.0139    155.3099    248.4853   8.2681539944e+01   2.3346770662e+00    0.2812034    0.1770028  42.56  0.001279918    1.540    0.351
        59  -9.0738    126.0897     14.1393   3.4004779815e+01   5.1650765459e+01    0.2108404     0.169999  47.07  0.001057302    1.259    0.206
        60 -10.1163    166.2243    152.2509   6.4320660765e+01   1.8158913306e+01    0.2408263    0.2030492 -44.35   0.00059249    1.169    0.145
        61  -9.7798    157.0718    244.1292   8.1769286947e+01   2.7672071260e+00    0.1834343    0.1760054 -27.80 0.0002855524    1.281    0.220
        62  -9.3204    158.0296    239.4108   8.0950617417e+01   3.3754798177e+00    0.1681599    0.1532587  -2.66  0.000139382    1.154    0.134
        63  -9.3476    206.8155    191.1737   6.3795815607e+01   4.1532113458e+00    0.2013384    0.1809705  -0.93 0.0004722054    1.094    0.086
        64 -10.4779     73.4613    106.8586   7.9261109406e+01   4.6096540561e+01    0.3703194    0.2730527 -60.66 0.0003013046    1.324    0.245
        65 -10.0701    186.8375    237.1940   7.5034583967e+01  -1.9176341210e-01    0.1737556    0.1492152  23.10  0.001221475    1.195    0.163
