#   1 NUMBER                 Running object number                                     
#   2 MAG_AUTO               Kron-like elliptical aperture magnitude                    [mag]
#   3 X_IMAGE                Object position along x                                    [pixel]
#   4 Y_IMAGE                Object position along y                                    [pixel]
#   5 X_WORLD                Barycenter position along world x axis                     [deg]
#   6 Y_WORLD                Barycenter position along world y axis                     [deg]
#   7 A_WORLD                Profile RMS along major axis (world units)                 [deg]
#   8 B_WORLD                Profile RMS along minor axis (world units)                 [deg]
#   9 THETA_WORLD            Position angle (CCW/world-x)                               [deg]
#  10 FWHM_WORLD             FWHM assuming a gaussian core                              [deg]
#  11 ELONGATION             A_IMAGE/B_IMAGE                                           
#  12 ELLIPTICITY            1 - B_IMAGE/A_IMAGE                                       
         1 -13.0745     58.3923    130.1461   8.4045862495e+01   4.2469336423e+01     2.977417     1.107954 -75.33  0.007506425    5.526    0.819
         2 -13.3890     68.6174    144.3341   8.3338900168e+01   3.7305051558e+01     2.237564     1.168125  70.42   0.00286632    3.594    0.722
         3 -13.2567    223.4388     37.0757   2.4253935618e+01   2.6263199157e+01    0.8739572    0.7090115  49.82  0.005815485    1.693    0.409
         4 -13.3341    210.2855     47.3741   2.7727766391e+01   2.7575450265e+01     1.448851     1.116366  40.14  0.008270173    1.868    0.465
         5 -11.9728    248.5397     13.3590   1.7814366054e+01   2.4324707025e+01    0.6911288    0.3113165 -37.47  0.004051806    1.914    0.478
         6  -9.2342    189.4926     14.9537   2.2204142866e+01   3.6044478129e+01    0.1742184    0.1124223 -37.52 0.0007284931    1.554    0.357
         7 -10.3377     75.3154    247.9302   9.4702766830e+01   1.2261620023e+01    0.4769582    0.1587143 -54.42  0.002028186    3.465    0.711
         8 -10.3499     71.8362    244.7996   9.5185890613e+01   1.3302196198e+01    0.4567496    0.1858868 -70.14  0.002077965    2.954    0.661
         9 -14.1702      5.9286    182.1730   1.0608443030e+02   3.4554967949e+01     3.479532    0.7908148 -83.41  0.002184721    4.818    0.792
        10 -14.9876     31.5265    189.6252   9.9967884642e+01   3.0328948642e+01     6.601361     2.338242  79.77   0.00441782    6.066    0.835
        11 -12.5069     28.5789    247.3738   1.0468054890e+02   1.7799916441e+01    0.4583548    0.3775423  80.36 0.0009461935    1.203    0.169
        12 -12.5110     12.1541    217.3288   1.0661770559e+02   2.5776131012e+01    0.3703331    0.2588019  44.83 0.0002472909    1.247    0.198
        13 -16.4245     10.8659    236.5322   1.0784906302e+02   2.1779146920e+01     7.356848     5.507146 -85.78   0.01752672    1.338    0.252
        14 -11.2417    102.8205    202.1767   8.3060007715e+01   1.7963508930e+01    0.4511266     0.334579  46.47  0.002401177    1.284    0.221
        15 -10.6597    103.3026    197.1143   8.2208321808e+01   1.9018435343e+01    0.6259502    0.3442515  64.38   0.00240567    2.897    0.655
        16 -10.3497    135.7220    205.3724   7.5690768436e+01   1.2231584260e+01    0.2369515    0.2096789  56.45 0.0007376128    1.266    0.210
        17  -9.5586     84.2301    200.4918   8.7483330495e+01   2.1079951732e+01    0.2371034    0.1937186 -67.12 0.0007075699    1.293    0.227
        18 -10.2412    192.6420    194.3975   6.1750027904e+01   5.6047075384e+00    0.6519764    0.3202745 -60.40  0.002143416    5.303    0.811
        19  -8.3590     90.6676    196.7499   8.5346425868e+01   2.1004098162e+01    0.1809282    0.1312446 -77.30 0.0003634706    1.555    0.357
        20  -9.9576     57.1055    193.6973   9.3662422154e+01   2.6359770749e+01    0.3666627    0.2222743  70.77 0.0009758996    1.857    0.461
        21 -14.8646      7.9174    208.2969   1.0710999033e+02   2.8198214164e+01     1.668917     1.254597 -43.76  0.008270542    1.765    0.433
        22  -9.9466     99.1982    180.9191   8.0773334693e+01   2.3398574618e+01    0.2849404    0.2701253 -34.22 0.0007563775    1.132    0.117
        23  -9.4048    120.6456    180.0178   7.5103732948e+01   2.0100119040e+01    0.2023627     0.184662 -57.21 0.0004450764    1.143    0.125
        24 -10.8555    101.9042    171.1791   7.8430109204e+01   2.5286317372e+01     0.601779    0.2630797  44.99  0.002250803    2.318    0.569
        25  -8.8882    105.9866    249.5064   8.8201014226e+01   8.0056425452e+00    0.2025516    0.1055135  30.75  0.001042223    1.625    0.385
        26 -12.5128     74.6046    155.3990   8.3439921514e+01   3.3553704283e+01      1.22051    0.7885377 -83.72 0.0003365011    1.870    0.465
        27 -12.6766     61.5764    150.8484   8.6632192217e+01   3.6610844336e+01    0.5202979    0.4912639  34.82   0.00081092    1.117    0.105
        28 -10.5378    125.8199    207.4388   7.8303845824e+01   1.3334123286e+01    0.3646871    0.1302937  30.98  0.001327345    2.779    0.640
        29 -12.0119     36.8162    160.7867   9.5552748095e+01   3.7062330843e+01     1.051013    0.4504935  57.67  0.003893473    2.865    0.651
        30 -11.4763     32.6572    156.5354   9.6301724001e+01   3.8613467223e+01    0.5360718    0.3186309  84.89  0.001708101    1.806    0.446
        31  -8.4559    110.4385    167.1956   7.5443515734e+01   2.4805111239e+01    0.2032571    0.1454544 -72.68 0.0009327608    1.642    0.391
        32  -9.6058     50.4095    156.3758   9.0887936428e+01   3.6629115742e+01     0.334148    0.2199621  65.59  0.001562578    1.666    0.400
        33 -11.6544     82.6258    148.8576   7.9882339313e+01   3.3981980889e+01    0.7667458    0.4964716 -36.61  0.003324673    1.860    0.462
        34 -10.3968    133.8393    145.3576   6.4997608557e+01   2.5644881422e+01     1.151228     0.286556 -55.31  0.002485358    6.909    0.855
        35  -9.1079    174.7287    148.6033   5.6416011644e+01   1.7197748873e+01     0.249716    0.1723143 -61.89 0.0007071663    1.774    0.436
        36  -8.8880    118.9554    237.7700   8.4016484781e+01   8.3981963813e+00    0.1746565    0.1492526  27.61 0.0004262977    1.018    0.018
        37  -9.8893     28.6299    142.7654   9.5885619425e+01   4.2638337071e+01    0.2433996    0.2073073  42.86  0.001387086    1.217    0.178
        38  -8.1414    179.6784    141.3526   5.3871937414e+01   1.7717590981e+01    0.1446029    0.1119284 -77.73 0.0007047494    1.752    0.429
        39 -10.3062     98.4531    136.4311   7.2677802453e+01   3.4412527040e+01    0.5992694    0.3878359 -13.44  0.002217396    2.778    0.640
        40 -11.6185     84.9126    135.5665   7.6573304602e+01   3.6988768521e+01    0.3252585    0.2989531 -37.36 0.0004002129    1.144    0.126
        41 -10.7328     46.9207    131.8444   8.8216322460e+01   4.3517861412e+01    0.4355361    0.2841947  58.98   0.00145569    1.733    0.423
        42 -10.1439    107.2547    129.3035   6.8530796122e+01   3.4520325024e+01    0.5584137    0.3665756  10.17  0.002151503    2.485    0.598
        43  -9.1637     17.3323    130.3095   9.8071663231e+01   4.6934191844e+01     0.144225   0.09309871 -41.66 0.0004469601    1.671    0.402
        44  -9.3177     96.3028    123.4351   7.0398419421e+01   3.8000988340e+01    0.2856966     0.231088 -16.11 0.0008797718    1.530    0.347
        45 -11.6347     59.5338    167.7816   8.9776681557e+01   3.2503260513e+01    0.5051466    0.4001506  -9.61  0.001952908    1.642    0.391
        46  -8.4766    115.6607    122.7059   6.4602880612e+01   3.4443115339e+01    0.1562097    0.1245737  -4.91 0.0007028783    1.652    0.395
        47  -9.2014    105.9618    117.4583   6.6079265458e+01   3.7594115585e+01    0.2208256     0.203488 -52.64 0.0003164911    1.074    0.069
        48 -11.4302     64.6340    163.3713   8.7657480768e+01   3.2943809992e+01    0.4598478    0.3344556 -15.61  0.002150827    1.917    0.478
        49  -9.7165    133.9214    113.1357   5.7419049881e+01   3.2828921339e+01    0.3152155    0.2478696 -60.06 0.0009725961    1.320    0.242
        50  -9.3999    205.4424    110.3844   4.2516960178e+01   1.8614815453e+01    0.2296738    0.2084583 -48.50 0.0006002679    1.038    0.037
        51 -12.1531    101.7627    206.9948   8.3992012103e+01   1.7064101110e+01    0.9593256    0.4116112  19.97  0.003192036    3.742    0.733
        52  -9.5706    129.5836    108.1495   5.7235759884e+01   3.4832142905e+01     0.267922     0.215968  50.00 0.0005710435    1.257    0.204
        53 -10.3870    246.2837    167.0184   4.7691384412e+01   2.5852356074e+00    0.1797183    0.1329421 -31.51  0.001183704    1.081    0.075
        54  -9.7317     46.1083     91.4385   8.0186242136e+01   5.3963318919e+01    0.2658253    0.2177999  73.62  0.001083146    1.472    0.321
        55  -8.7586     84.6727     80.3573   6.2544468134e+01   5.0172569963e+01    0.2155451    0.1719953  84.91  0.000510748    1.643    0.391
        56 -13.5828     42.6847    181.5500   9.6201966530e+01   3.1096428108e+01     1.285702     1.123942  68.46  0.004378133    1.031    0.030
        57 -12.2579    200.5332     53.7951   3.0267640190e+01   2.8730934027e+01    0.5611871     0.492393  67.99  0.001052601    1.281    0.219
        58 -11.9188    126.9861    229.3236   8.1153997834e+01   8.8493076334e+00    0.5695583     0.415964  72.09  0.003076584    1.981    0.495
        59 -10.8962     13.4295     59.9584   8.6895933330e+01   6.4741661114e+01    0.2846032    0.2436717 -66.70 0.0004635311    1.244    0.196
        60 -10.6946      3.3037     59.2248   9.1986767966e+01   6.5591232875e+01    0.3189138    0.1416502 -26.97  0.001421232    2.492    0.599
        61  -9.2188     26.6825     37.0028   7.1990890330e+01   6.8137790973e+01    0.1736932    0.1515237 -20.35 0.0004947637    1.065    0.061
        62  -9.5755      2.2612     22.0071   8.0822875582e+01   7.3301826527e+01    0.1515781   0.09029686 -49.19 0.0005763713    1.556    0.357
        63  -8.6690     60.4966     21.0208   4.8780683151e+01   6.5126504661e+01    0.1750336    0.1254355 -27.43 0.0003790096    1.497    0.332
        64 -10.8135    142.7974    229.6529   7.7738907799e+01   6.5480437456e+00    0.3096499    0.1782747 -22.12  0.001430326    2.501    0.600
