#   1 NUMBER                 Running object number                                     
#   2 MAG_AUTO               Kron-like elliptical aperture magnitude                    [mag]
#   3 X_IMAGE                Object position along x                                    [pixel]
#   4 Y_IMAGE                Object position along y                                    [pixel]
#   5 X_WORLD                Barycenter position along world x axis                     [deg]
#   6 Y_WORLD                Barycenter position along world y axis                     [deg]
#   7 A_WORLD                Profile RMS along major axis (world units)                 [deg]
#   8 B_WORLD                Profile RMS along minor axis (world units)                 [deg]
#   9 THETA_WORLD            Position angle (CCW/world-x)                               [deg]
#  10 FWHM_WORLD             FWHM assuming a gaussian core                              [deg]
#  11 ELONGATION             A_IMAGE/B_IMAGE                                           
#  12 ELLIPTICITY            1 - B_IMAGE/A_IMAGE                                       
         1 -11.0346     78.4843     21.9932   8.0988609729e+01   5.9404575341e+01    0.5378882    0.2275194 -17.85  0.002343381    3.263    0.694
         2 -10.8805     74.9910     21.9874   8.2016840302e+01   6.0037773444e+01    0.3463663    0.2083406 -33.18  0.001711127    1.860    0.463
         3 -11.0802     14.0860     16.0552   1.0273438842e+02   6.9269705078e+01    0.3391512    0.1615459  27.82  0.001393304    2.018    0.505
         4 -11.3809    190.6855     14.1659   5.8102297741e+01   3.5880074568e+01    0.2977616    0.1814758 -63.93  0.001703033    1.635    0.388
         5 -11.4136     88.8507     13.8524   7.5257293603e+01   5.8240502544e+01    0.4090416    0.3170224 -72.45  0.001935419    2.027    0.507
         6 -11.7184     40.3823      8.5656   8.8425265514e+01   6.6965775457e+01     0.370643    0.2106782  -8.69  0.001527532    1.824    0.452
         7 -10.8152     22.4340      9.4735   9.6188032642e+01   6.9172139049e+01    0.3123222     0.184348  14.54  0.001786816    1.488    0.328
         8 -11.7001     35.0320     13.0228   9.2403173773e+01   6.7229788401e+01    0.3160069    0.2283434 -31.65  0.001371182    1.603    0.376
         9 -12.0093     30.1347      7.1222   9.1880341056e+01   6.8491007895e+01    0.2946521    0.2369538  15.67   0.00110636    1.215    0.177
        10 -11.2066    155.4449     14.4465   6.2595952343e+01   4.3830231298e+01    0.2953909    0.1897322  37.60  0.001638211    1.897    0.473
        11  -8.7530      6.0341     14.1771   1.0575145402e+02   7.0247680087e+01    0.3804286    0.1529365 -19.30   0.00178878    3.345    0.701
        12 -10.1569     10.1974      1.6302   9.8309090449e+01   7.1356367713e+01    0.2020177    0.1267241  11.21  0.001421691    1.286    0.222
        13 -10.3326      2.7281      2.6597   1.0243188867e+02   7.1950329967e+01    0.2378009    0.1471156  25.10  0.001317194    1.637    0.389
        14 -10.5701     14.9663      8.8387   9.9277287138e+01   7.0059612831e+01     0.236049    0.1488535  -8.53 0.0008939987    1.319    0.242
        15 -11.4540     10.9907      6.5230   1.0012458552e+02   7.0729835192e+01    0.3420639      0.26986 -21.27  0.002754017    1.392    0.282
        16 -10.9376      4.0468     10.0147   1.0498346775e+02   7.0949177584e+01    0.2428946    0.1777199  -2.63 0.0004896154    1.096    0.087
        17 -10.8224      2.5434      6.4695   1.0420661664e+02   7.1514963550e+01    0.2660248    0.1412761  11.44 0.0006825841    1.708    0.415
        18  -9.4025    119.0239     12.0620   6.7986454047e+01   5.2172011048e+01    0.1482263    0.1188943  55.86 0.0003325493    1.041    0.039
        19 -10.1204     56.8007     10.8418   8.3494877185e+01   6.4255535349e+01    0.1743495    0.1251983  21.25 0.0005281887    1.154    0.133
        20 -11.6347    151.1108      6.9977   6.1286247645e+01   4.5506211506e+01    0.3247921    0.2421051 -34.58 0.0008213221    1.578    0.366
        21 -10.7003     93.0496      9.0923   7.2573206776e+01   5.7830868411e+01    0.2559577    0.1836171  11.85  0.001082934    1.522    0.343
        22 -11.5804    210.6042      7.4485   5.4717433530e+01   3.2227597980e+01    0.2112397    0.1589811 -71.10 0.0008433948    1.143    0.125
        23 -10.6852     71.3843      6.5873   7.7317103456e+01   6.2145583137e+01    0.2723364    0.1778183  29.60  0.001397211    1.323    0.244
        24  -9.8802     64.7110      7.0048   7.9449554629e+01   6.3283157796e+01    0.1542736    0.1260749   9.98 0.0005519271    1.142    0.124
        25 -11.3889     56.8128      4.0200   8.0743259817e+01   6.4867356438e+01    0.4492205    0.2572731  11.58  0.002674269    1.888    0.470
        26 -10.6192    235.3624      4.3716   5.2123773754e+01   2.7399502537e+01    0.1530163    0.1258301  60.11  0.001107062    1.621    0.383
        27 -11.2172    130.2267      3.6747   6.3534217875e+01   5.0436788291e+01    0.2744993    0.1826245  73.55  0.001564569    1.367    0.269
        28  -9.9375    120.9804      4.0495   6.5211562302e+01   5.2420981304e+01    0.1792742    0.1489249  58.51 0.0004373245    1.015    0.015
        29 -11.1978     19.1418      2.8636   9.4727258646e+01   7.0261444810e+01    0.3448223    0.1575773  24.89  0.001747428    1.976    0.494
        30 -10.4666    173.3163      3.2939   5.7576883538e+01   4.0847066656e+01    0.2084136    0.1241109 -74.25 0.0006439548    1.782    0.439
        31 -10.5917    176.4889      2.5034   5.7040897262e+01   4.0210560386e+01    0.2107614    0.1931198  56.64  0.001376752    1.310    0.237
        32 -11.3172    161.2523      2.0233   5.8700557244e+01   4.3663876249e+01    0.2760894    0.1660492  63.58  0.001637159    1.369    0.270
        33 -10.1468     90.1514      2.4889   7.0973295892e+01   5.8931627008e+01    0.2149205    0.1646861  88.28  0.001006904    1.809    0.447
        34 -11.5820     80.2912      1.7067   7.3094147161e+01   6.0893242281e+01    0.3275411    0.1353897  54.60 0.0009942505    2.011    0.503
        35 -10.3015    204.0000      1.4610   5.4100773225e+01   3.4262267396e+01    0.1770828   0.09411949  76.04 0.0003553167    1.548    0.354
        36 -10.9268    145.0155      5.9431   6.1880720341e+01   4.6966715777e+01    0.1830554    0.1518616  68.16 0.0003705208    1.020    0.019
        37  -9.0090     67.2662      1.3798   7.6499776148e+01   6.3299100600e+01    0.1186849   0.06896648  22.84 0.0006987581    1.684    0.406
        38 -10.8338    198.8669      3.3815   5.4962450218e+01   3.5184143122e+01     0.171749    0.1435353 -42.02  0.001213993    1.443    0.307
        39 -10.8743      2.9779    153.5068   1.3821638152e+02   4.2495490378e+01    0.2459938    0.1038393  33.30  0.001215561    2.651    0.623
        40 -10.9585      1.6628    248.6762   1.4602842566e+02   2.1201347566e+01    0.3349926    0.1185846 -80.53  0.001689991    2.438    0.590
        41 -11.0006     23.9823    150.7268   1.3246981083e+02   4.1426215291e+01     0.261092    0.2001014 -41.64 0.0007625982    1.424    0.298
        42 -10.4404     22.1374    143.1062   1.3189452922e+02   4.3449364302e+01    0.2492776    0.1557296 -72.47  0.001345138    1.377    0.274
        43  -9.6133    214.9801    140.7532   8.3030397935e+01   9.9329058500e+00    0.1800428    0.1256869  48.71 0.0008426906    1.577    0.366
        44 -11.5505      2.8025    138.7220   1.3652842148e+02   4.6015062537e+01    0.2739035    0.1832819  44.84  0.001659106    1.754    0.430
        45  -9.8373    215.8377    135.6267   8.1764194047e+01   1.0779060594e+01    0.2443459    0.1836017  65.69 0.0006440215    1.555    0.357
        46  -9.6220    212.3580    133.7325   8.1968583188e+01   1.1854341304e+01    0.2240013    0.1930331 -72.18 0.0007401612    1.211    0.174
        47 -11.3044      9.0895    135.3614   1.3438775227e+02   4.6367103137e+01    0.2217678     0.138011 -60.26 0.0005259959    1.285    0.222
        48 -10.4586      2.0972    132.8237   1.3596992863e+02   4.7450732823e+01    0.1885873    0.1487173 -88.47  0.001149804    1.225    0.183
        49  -9.9740     35.1896    131.0422   1.2627512998e+02   4.5130923726e+01    0.2099848    0.1501959 -46.86 0.0005730685    1.296    0.228
        50 -11.6580     12.0050    129.6951   1.3277125930e+02   4.7493973658e+01    0.4847957    0.2308494  54.66  0.001890955    2.983    0.665
        51 -10.0368     29.0907    128.6215   1.2764907842e+02   4.6310289443e+01    0.1945218    0.1558134  63.60 0.0005556744    1.455    0.313
        52 -11.6915     23.4919    121.4545   1.2808487533e+02   4.8517250812e+01    0.4537656     0.279962  81.32 0.0006316116    2.284    0.562
        53 -10.8824     65.5752    111.7888   1.1300083273e+02   4.6018102334e+01    0.4767799    0.1473299 -48.52   0.00164696    2.850    0.649
        54 -10.2097    249.0079    111.9842   7.1592815241e+01   8.8090414741e+00    0.1669078    0.1394481 -55.67  0.001013156    1.005    0.005
        55  -9.2960     20.2756    112.6184   1.2750363010e+02   5.0843890859e+01    0.1262553   0.09180159  83.77 0.0007001308    1.709    0.415
        56 -10.8235      3.8051    109.2487   1.3205097472e+02   5.2783230360e+01    0.2576886    0.1345338  29.78   0.00141047    2.295    0.564
        57 -10.9808     57.6515    107.9467   1.1459532155e+02   4.7975011788e+01     0.264938    0.1923349   2.35  0.001366689    1.691    0.409
        58 -10.1897     12.7815    108.4063   1.2910250625e+02   5.2378157445e+01    0.1602619     0.113303 -11.65 0.0009545527    1.687    0.407
        59 -10.6125     89.8613    104.8615   1.0378469494e+02   4.3723463364e+01    0.2769018    0.2084724  30.46 0.0009947421    1.405    0.288
        60  -9.9865    113.4975    102.5020   9.6351886384e+01   3.9761471230e+01    0.1482807    0.1455985 -21.68 0.0008106813    1.007    0.007
        61  -9.4130     43.1069    113.5595   1.2048812437e+02   4.8441506429e+01    0.1878138    0.1016318  52.51 0.0008056733    2.652    0.623
        62 -10.9881     57.5823    101.8886   1.1315245006e+02   4.9342283262e+01    0.2640879    0.2054656  37.96   0.00147027    1.431    0.301
        63 -10.0145     24.9065    101.8732   1.2392799083e+02   5.2895458704e+01    0.1924576    0.1450857 -40.50 0.0003355443    1.171    0.146
        64  -9.2797    194.9990     98.6806   7.7084989358e+01   2.2392658066e+01    0.2312155    0.1059597  36.58 0.0007043188    4.228    0.763
        65  -9.6127    129.4954     97.5158   9.0771286566e+01   3.7435293054e+01    0.1478063    0.1472628  59.25 -5.642958e-05    1.008    0.008
        66 -11.4170    100.5973     95.9285   9.8193985499e+01   4.3661162604e+01    0.3905939    0.2902033  86.97  0.001768857    2.103    0.524
        67 -10.6357     78.8288     94.7957   1.0447031116e+02   4.7744473094e+01    0.2084268    0.1804666 -14.63 0.0003333122    1.164    0.141
        68 -11.1772     17.9394     94.7316   1.2477653586e+02   5.5038796004e+01    0.2406185    0.2125145  45.36 0.0008574002    1.420    0.296
        69  -9.4507      3.5042     95.5312   1.2978149706e+02   5.5844426466e+01    0.1222971    0.0951811 -51.56 0.0002518019    1.011    0.010
        70 -10.4904     10.6747     91.4670   1.2658035513e+02   5.6270245743e+01    0.3882084    0.1796434 -68.98  0.001853168    2.251    0.556
        71 -10.6947     11.3239     85.7348   1.2515680231e+02   5.7445768833e+01    0.3906953    0.1975487 -74.89  0.001817843    2.689    0.628
        72 -11.2221     58.1020     91.6292   1.1035210231e+02   5.1489948035e+01    0.3149677    0.2310869 -16.76  0.000995667    1.490    0.329
        73 -10.9334     27.1018     90.5451   1.2070711705e+02   5.5180583213e+01    0.5437772    0.2768059  50.20  0.002393036    3.286    0.696
        74  -9.6160     25.5248     84.7784   1.1990259504e+02   5.6538386713e+01    0.1917257    0.1075108 -54.85  0.000578189    1.543    0.352
        75 -11.0016     76.3936     89.3066   1.0372008358e+02   4.9273407009e+01    0.2494608    0.2294724 -19.00 0.0004316434    1.007    0.007
        76 -10.7069      1.8761     89.8029   1.2925746666e+02   5.7173127652e+01    0.2043576    0.1352237 -58.97 0.0002221694    1.217    0.179
        77 -10.6057    107.8404     89.1523   9.4222658445e+01   4.3612623992e+01    0.2040686    0.1730152   3.74  0.000567294    1.319    0.242
        78 -10.3441     91.5103     95.5373   1.0077043204e+02   4.5419923341e+01    0.1441651    0.1361033 -16.19 0.0008093429    1.018    0.018
        79  -9.9138     43.5086     89.4720   1.1475491826e+02   5.3748164722e+01    0.2228545    0.1115301  40.46 0.0007704948    2.396    0.583
        80 -10.6997     18.3532     87.6325   1.2310047664e+02   5.6531623918e+01    0.4213519    0.1993092 -39.96  0.001695991    1.867    0.464
        81 -11.1253     54.7813     84.8662   1.0964873904e+02   5.3329520764e+01     0.315044    0.2320884 -57.72  0.001034909    1.476    0.323
        82  -9.6799     72.5566     84.4139   1.0356779970e+02   5.0866380280e+01     0.314983    0.1822428 -20.75  0.001323204    2.446    0.591
        83 -10.5656      3.5162     82.7827   1.2729260368e+02   5.8559032127e+01     0.258513    0.1888468 -79.67  0.001120149    1.621    0.383
        84 -10.2822    100.2427     82.9620   9.4602625105e+01   4.6296312096e+01    0.1895711    0.1189611 -42.60 0.0007014018    1.597    0.374
        85  -9.8271     78.2225     83.3818   1.0144077168e+02   5.0159633040e+01    0.1910746    0.1275138  46.91 0.0004215196    1.687    0.407
        86 -11.6381     64.2399     80.1273   1.0508636581e+02   5.2967734905e+01    0.4347433    0.3241671 -50.97  0.001718646    1.399    0.285
        87  -9.3104     41.9970     81.9593   1.1331923827e+02   5.5472836226e+01    0.1530995    0.1319727 -27.20            0    1.021    0.020
        88 -10.2775     89.2018     80.3080   9.7104952248e+01   4.8857129952e+01    0.2498788    0.1849454 -70.60  0.001082561    1.986    0.496
        89  -9.7191    124.3365     78.9440   8.6896196367e+01   4.2089216801e+01    0.2240482    0.1745463 -61.41 0.0007609325    1.494    0.330
        90  -8.9701     80.6679     78.6537   9.9268586631e+01   5.0660568700e+01    0.1465931    0.1034171  -6.51 0.0007049604    1.764    0.433
        91 -10.3860    177.0069     76.9676   7.5036042771e+01   3.0401263149e+01    0.2275644    0.2078958  87.45 0.0009057181    1.019    0.019
        92 -10.5324     15.5721     76.0465   1.2140395599e+02   5.9137812618e+01    0.2365609    0.1620112 -42.85  0.001264534    1.166    0.142
        93  -9.4817    170.4631     76.5020   7.6123323314e+01   3.2003814362e+01    0.1449402    0.1332093 -87.47 3.445158e-05    1.021    0.021
        94 -11.2110     56.3074     75.4258   1.0643217542e+02   5.4991442942e+01     0.446654    0.2612455  27.69  0.001769924    1.794    0.443
        95 -11.2770      5.4597     74.6766   1.2482744096e+02   6.0102460798e+01    0.4276363    0.2206985  33.80   0.00238089    2.439    0.590
        96  -9.8487     37.3127     75.3193   1.1319588037e+02   5.7311368674e+01    0.2087594    0.1239351 -26.55  0.001089243    1.731    0.422
        97  -9.7399     32.2197     73.1497   1.1447103755e+02   5.8261645086e+01    0.1739662    0.1579773 -52.63 0.0002688183    1.277    0.217
        98 -10.8399     36.0881     72.0620   1.1273533785e+02   5.8075321021e+01    0.3780918    0.2123682 -29.95  0.001197562    1.758    0.431
        99  -9.6316    136.5950     74.2140   8.2584344609e+01   4.0207701598e+01    0.1893054    0.1403492 -25.55 0.0003593454    1.556    0.357
       100 -10.7050    105.8095     71.7957   8.9700417688e+01   4.7224868714e+01    0.2615318    0.2107371  43.96 0.0004502563    1.209    0.173
       101  -9.9475     93.3802     72.5961   9.3520883457e+01   4.9500824773e+01    0.3413714    0.1299316  47.78  0.001265633    2.796    0.642
       102  -9.4427     46.1947     69.5792   1.0830260187e+02   5.7397132441e+01    0.1822717    0.1147486  11.94 0.0009634166    1.782    0.439
       103 -10.1774     10.5135     67.9228   1.2129746354e+02   6.1108481344e+01    0.3088883   0.09535836 -56.31  0.001213914    2.682    0.627
       104  -8.9632    114.4944     66.4962   8.5764881520e+01   4.6327873026e+01    0.1381015    0.1326142  44.66 1.792732e-05    1.051    0.048
       105 -10.2713     40.9928     58.7160   1.0689127085e+02   5.9980782652e+01    0.2680529    0.1807524 -17.93  0.001568894    1.442    0.307
       106 -10.6229     34.5166     64.7918   1.1121833330e+02   5.9612674907e+01      0.26747    0.1845901 -29.87 0.0006742635    1.260    0.206
       107 -10.5898     39.0970     62.7937   1.0888100552e+02   5.9476431646e+01    0.2741247    0.1737662  -0.25 0.0003908322    1.789    0.441
       108 -10.1765    130.8047     64.3921   8.1124511035e+01   4.3125578409e+01    0.2973719    0.1807398 -53.98  0.001348542    1.996    0.499
       109 -10.2049    133.4987     64.5192   8.0540080221e+01   4.2502733295e+01    0.2919613    0.2057328 -59.98  0.001434476    1.721    0.419
       110 -10.2883     14.0796     63.7042   1.1881164842e+02   6.1659243265e+01    0.1940799    0.1409507 -53.77 0.0005332587    1.347    0.258
       111 -10.4765     72.3451     63.0141   9.7121365228e+01   5.4842090868e+01    0.1870647    0.1551241 -27.68 0.0005075003    1.161    0.139
       112 -10.0581     60.3994     58.2385   9.9640203902e+01   5.7492521656e+01     0.173023     0.116884 -46.84 0.0007643694    1.638    0.390
       113 -10.9954     62.6883     62.4843   1.0022104239e+02   5.6436433892e+01    0.3002842    0.2256971 -19.29  0.001757088    1.277    0.217
       114  -9.9730     66.9656     60.5197   9.8118278962e+01   5.6117806860e+01    0.1935267    0.1211624  32.91  0.001022607    1.570    0.363
       115 -10.6304      2.9062     60.8316   1.2246578427e+02   6.2955575243e+01    0.1582018    0.1497335 -34.16 0.0009414201    1.302    0.232
       116 -11.2399      9.6914     60.5902   1.1970417093e+02   6.2561593821e+01    0.3606728    0.1601365 -34.56  0.001893635    1.986    0.496
       117 -10.0078    100.9273     61.9078   8.8024547938e+01   4.9845555686e+01    0.1972003    0.1680671 -88.62  0.000444542    1.582    0.368
       118 -10.6298     54.4493     61.2340   1.0272660486e+02   5.7830162218e+01    0.4451873    0.2064093  27.25  0.001419364    2.346    0.574
       119  -9.7404     54.3818     56.2575   1.0113031326e+02   5.8681621117e+01    0.3180178    0.1204518 -46.07  0.001342607    2.762    0.638
       120  -9.9832     19.0168     52.4883   1.1360070879e+02   6.3301869055e+01    0.1906345    0.1111331 -16.20  0.001094876    1.750    0.428
       121 -10.1556     24.5311     60.5284   1.1381200336e+02   6.1378275954e+01    0.2788091    0.1601627 -33.70  0.001072903    1.500    0.334
       122 -12.8560     20.5352     57.4558   1.1448661941e+02   6.2290775287e+01    0.3640978     0.237118 -45.87  0.002280121    1.360    0.265
       123 -11.6322     88.3689     53.2623   8.8886790784e+01   5.3598435715e+01    0.4317638    0.2819936  36.89 0.0009810658    1.442    0.306
       124  -8.9754     48.4628     58.4201   1.0400062875e+02   5.9110649205e+01    0.1252415    0.1060822 -10.60 0.0001945972    1.011    0.011
       125 -11.0305     83.6322     56.9596   9.1538732615e+01   5.3897593836e+01     0.318341    0.2405538 -44.64 0.0009700575    1.488    0.328
       126  -9.5504     71.5471     57.0826   9.5452859290e+01   5.5950375747e+01    0.1877145    0.1215158 -36.24 0.0007471623    1.531    0.347
       127 -10.0683    225.1622     54.7524   6.2882418960e+01   2.3083052837e+01    0.2946885    0.1834494 -21.98  0.001393137    2.724    0.633
       128 -11.6683    114.6468     54.0702   8.1943102736e+01   4.8220763294e+01    0.3032916    0.2854172  16.63 0.0007302735    1.067    0.062
       129 -10.2022     34.1349     53.8435   1.0797370817e+02   6.1596122173e+01    0.3174926    0.1412793 -25.75  0.001377183    2.867    0.651
       130 -12.9202      5.4773     51.1495   1.1879388682e+02   6.4566460099e+01    0.3752912    0.1999355 -26.68 0.0005372104    1.688    0.407
       131 -10.8804     11.7491     48.0014   1.1523056377e+02   6.4668981892e+01     0.415178    0.2035755  32.29  0.002209824    2.440    0.590
       132 -11.2745     17.3936     44.8994   1.1187149292e+02   6.4731828256e+01    0.5306272    0.4053321  53.54  0.003368568    2.342    0.573
       133  -9.4301    163.3714     54.1853   7.1662371644e+01   3.7182983442e+01    0.2735778   0.09349355  57.10  0.001012185    2.627    0.619
       134 -11.9581     66.3351     52.5894   9.5702919000e+01   5.7497740349e+01     0.517665    0.2046595  37.65  0.001700838    2.470    0.595
       135  -9.7935    123.2226     51.9512   7.9223288765e+01   4.6674303023e+01    0.2131143    0.1816726  85.78 0.0006576841    1.360    0.265
       136 -10.4765     76.7574     49.0007   9.1046298886e+01   5.6316121618e+01    0.3908639    0.2373627  15.56  0.001907018    2.082    0.520
       137 -10.0951     78.9684     45.7791   8.9249616219e+01   5.6393001151e+01    0.2361515    0.1152933  41.78 0.0007029882    1.909    0.476
       138  -9.7685     53.9441     48.2067   9.8566318023e+01   6.0029915956e+01    0.1741346    0.1469237  -3.20 0.0008326981    1.010    0.010
       139  -9.4389    154.5685     47.5542   7.1486512580e+01   4.0167160966e+01    0.1347959     0.121801  72.89 5.266839e-05    1.004    0.004
       140 -10.6168    103.7766     46.9062   8.2484966906e+01   5.1498764096e+01    0.2809758    0.2051924  31.66  0.001565131    1.341    0.254
       141  -8.9520     47.3375     47.2847   1.0069126216e+02   6.1075636227e+01    0.1264277   0.08295647  -3.30 0.0004114424    1.628    0.386
       142  -9.2097    135.5098     46.4308   7.4883139028e+01   4.4697154388e+01     0.134898    0.1218009  63.24 8.537116e-05    1.033    0.032
       143 -11.3811     26.7525     43.9468   1.0765601547e+02   6.4006734033e+01    0.4046027    0.2668991  40.27  0.002081687    2.043    0.511
       144  -9.5671     25.6336     29.7501   1.0302372720e+02   6.6257734501e+01    0.1412448   0.09579658 -39.86 0.0004072415    1.578    0.366
       145 -10.4071     22.7446     38.5678   1.0746733796e+02   6.5252419079e+01     0.221053    0.1431697  24.69 0.0008066716    1.587    0.370
       146 -11.4546     26.6086     35.1689   1.0462318714e+02   6.5372999240e+01    0.3607996    0.2054085 -16.27  0.001310399    1.776    0.437
       147  -9.9675    181.0762     41.4247   6.5620569533e+01   3.4825202012e+01    0.2795919    0.2612417   6.30  0.001726328    1.416    0.294
       148  -9.8377     95.1234     42.1999   8.3283848363e+01   5.3862255408e+01    0.1903204    0.1561921  21.37 0.0005655173    1.164    0.141
       149  -9.8523     69.3122     41.9970   9.1042325744e+01   5.8575061162e+01    0.1738324    0.1477395  -1.96 0.0001608768    1.073    0.068
       150 -10.1951     36.2003     41.3696   1.0292936741e+02   6.3373549158e+01    0.1972041    0.1376684 -20.88  0.001052856    1.247    0.198
       151 -10.9565      3.4802     41.7262   1.1682927828e+02   6.6324531756e+01    0.3704835    0.1662931 -14.55  0.001877363    2.715    0.632
       152 -10.7196    140.0189     40.7780   7.2356272188e+01   4.4410941712e+01     0.277601    0.2070843  78.36 0.0006984588    1.418    0.295
       153  -9.0381     51.0000     39.9308   9.6719713330e+01   6.1673169282e+01    0.1894572   0.06358375 -38.57 0.0008008871    2.932    0.659
       154  -9.2897     42.9564     40.7696   1.0006363973e+02   6.2633078716e+01    0.1429194   0.08963773  26.67 0.0004596056    1.522    0.343
       155  -9.9151    133.2002     38.8968   7.3174235905e+01   4.6191687420e+01    0.3606616    0.2182673  89.11  0.001565903    2.678    0.627
       156 -11.1233    134.1789     34.2860   7.1639568879e+01   4.6530008989e+01    0.2125237    0.1780641  39.63 0.0003620078    1.201    0.167
       157 -12.3283    121.8907     36.7119   7.4914160942e+01   4.8970964753e+01    0.5203107    0.4649333  56.98  0.003305031    1.053    0.050
       158 -11.2396      2.7772     34.5378   1.1482777593e+02   6.7545883648e+01    0.3892754    0.1726924 -37.47  0.002286903    1.755    0.430
       159 -10.4731     16.3433     33.2894   1.0834880116e+02   6.6660562806e+01    0.2644722     0.146641 -12.07  0.001552767    1.855    0.461
       160 -10.6653     19.7771     31.4668   1.0618605266e+02   6.6609233957e+01    0.2900995    0.1694401   0.04  0.001206358    1.741    0.426
       161  -9.9846     91.6512     34.0747   8.1509703272e+01   5.5562457037e+01    0.2836988    0.1542015 -21.97 0.0009188692    2.138    0.532
       162 -10.1338    145.0642     33.1013   6.9261378264e+01   4.4196796511e+01    0.1891033    0.1665787  65.19 0.0003532908    1.010    0.010
       163 -10.2080    166.1520     31.1915   6.5293947545e+01   3.9561416842e+01    0.2007065    0.1784306 -54.50 0.0004486808    1.216    0.177
       164  -9.6084     86.6672     31.6846   8.2079417726e+01   5.6802697773e+01    0.2072589    0.1285116  22.16  0.001092818    1.800    0.444
       165 -10.1170    128.2823     38.6984   7.4135129937e+01   4.7316934322e+01    0.2439564    0.1673643 -62.44 0.0004311018    1.918    0.479
       166 -11.4663     44.0042     29.1697   9.5351035384e+01   6.4104403563e+01     0.430371    0.2784065  -7.33  0.002277047    1.531    0.347
       167 -11.1954     38.6406     30.8978   9.8106855602e+01   6.4578849186e+01    0.2143268    0.1544916   7.49 0.0003034598    1.204    0.170
       168  -9.8836    187.5053     30.0280   6.2060088083e+01   3.4791926870e+01    0.1803149    0.1229307 -39.77  0.001032041    1.587    0.370
       169  -9.9659    129.7682     29.8144   7.1204345284e+01   4.8033119901e+01    0.2159518    0.1166726  29.00 0.0008774045    2.715    0.632
       170 -11.4934      7.8206     28.6061   1.1047463364e+02   6.8086446681e+01    0.2693219    0.2324642  34.03  0.001472745    1.762    0.432
       171  -8.9983     50.3348     33.6716   9.4666263471e+01   6.2631975113e+01    0.1033792   0.09826893  81.27 0.0007051909    1.723    0.420
       172  -9.7272    105.1633     29.4135   7.6468399901e+01   5.3385877744e+01    0.1730714     0.150364  22.68 0.0007244301    1.131    0.116
       173 -10.3965     69.4690     28.2632   8.6037587606e+01   6.0304349506e+01     0.231402    0.1109131 -35.06  0.001179424    2.251    0.556
       174  -9.7201     75.2079     16.0303   7.9755922723e+01   6.0602602903e+01    0.2364853    0.1353916  14.55            0    2.125    0.529
       175 -11.9443     11.0365    244.6561   1.4416687410e+02   2.1039992991e+01    0.3236443     0.225432  21.90  0.002047732    2.272    0.560
       176 -10.1771    229.8264    248.1553   1.0115075722e+02  -1.1941031759e+01    0.1694449    0.1502569  -3.56 0.0006625917    1.182    0.154
       177  -9.6539    229.5020     26.0105   5.6655755387e+01   2.6075429730e+01    0.1404954     0.110056   0.59 0.0008102319    2.529    0.605
       178  -9.9782    100.7436     25.7043   7.6325599248e+01   5.4698643488e+01     0.157609    0.1435883  85.27  0.001039365    1.342    0.255
       179  -9.0702     18.4773     26.4158   1.0486026460e+02   6.7457914597e+01    0.1150529   0.08134635  -9.70 0.0002171786    1.129    0.115
       180  -9.6326    153.7592     25.5698   6.5755651969e+01   4.3059790846e+01    0.1815137    0.1110588  76.91 0.0009407914    1.616    0.381
       181 -10.6155    113.9239     24.5264   7.2891177401e+01   5.2068002980e+01    0.2292312    0.1898091 -11.65  0.001461421    1.377    0.274
       182 -11.4065     38.8466     23.8215   9.5280259856e+01   6.5469345345e+01    0.4468909    0.1784749 -23.43  0.002008609    3.154    0.683
       183 -10.1916     42.4963     19.5314   9.2142947304e+01   6.5492011722e+01    0.2040639    0.1158423  18.80 0.0008022359    1.723    0.420
       184 -10.2200     59.2905     24.0714   8.7832319834e+01   6.2469254278e+01    0.2327701    0.1393444  26.84  0.001359243    1.533    0.348
       185 -11.1822      1.8023     20.8833   1.1042764478e+02   6.9673217747e+01    0.2380664    0.1374709 -41.52  0.001617964    1.594    0.373
       186  -9.8303      5.7929     20.1663   1.0825486651e+02   6.9463016376e+01    0.1535351     0.121618  39.58  0.001117662    2.081    0.519
       187 -10.4916     20.2095     16.7386   1.0024425163e+02   6.8559839506e+01    0.1691715    0.1202651  10.47 0.0003709847    1.180    0.152
       188 -11.2832     13.4327     20.8069   1.0494976551e+02   6.8709022811e+01    0.2269584     0.202025 -26.30  0.001095444    1.531    0.347
       189  -9.7600    136.5091    245.5671   1.1939669507e+02   3.0068761113e+00    0.1345072    0.1163272  49.96 4.643497e-05    1.061    0.058
       190  -9.6086     84.7847     21.3529   7.8978264650e+01   5.8296581756e+01    0.1796989   0.09162157  42.57 0.0006211472    1.671    0.402
       191 -10.0561     30.8946     20.3863   9.7135186157e+01   6.6894056812e+01    0.2060847    0.1304363 -19.21 0.0005895726    1.410    0.291
       192  -9.3736    131.7283     20.6472   6.8152677589e+01   4.8570632762e+01     0.126361   0.08694932  32.76 0.0006805888    1.635    0.388
       193 -10.1102    100.3390     19.0778   7.4220405906e+01   5.5456719044e+01    0.2121673    0.1674948  83.33  0.001301951    1.638    0.390
       194  -9.6806    199.6267     17.2198   5.7806422570e+01   3.3558241349e+01    0.1426251    0.1178004 -30.45  0.000638195    1.566    0.361
       195 -10.1543     26.7534     16.3361   9.7223481286e+01   6.7877978852e+01    0.1873833    0.1462195  -2.55 0.0006964997    1.080    0.074
       196  -9.4864     45.0246    244.2377   1.3787695491e+02   1.7127085112e+01     0.151207   0.09194884  42.91 0.0004154456    1.565    0.361
       197  -9.9508    108.5058     16.2538   7.1444232696e+01   5.4034023690e+01    0.1452199    0.1214347 -14.58 0.0003716152    1.368    0.269
       198 -11.4179      6.0777    241.4494   1.4483943998e+02   2.2223077888e+01    0.2136628    0.1327496 -67.45  0.001378658    1.641    0.391
       199  -9.8846     49.3130     16.1234   8.8224245090e+01   6.4888528597e+01    0.1549641    0.1266366   3.37 0.0006461563    1.104    0.094
       200  -9.9900     60.5673    241.0379   1.3454255864e+02   1.5732709006e+01    0.2723004    0.1478885  34.35  0.001386431    2.000    0.500
       201  -9.9013     36.3560    241.2965   1.3928435818e+02   1.8835367616e+01    0.1067748   0.09353878 -43.95 0.0007033928    1.697    0.411
       202  -9.6104    202.5745    240.2424   1.0500906757e+02  -6.7691163691e+00    0.1710132    0.1139529 -26.78 0.0009069879    1.557    0.358
       203 -11.8060     26.2845    236.0021   1.4077275430e+02   2.1162016011e+01     0.336663    0.2576874 -85.17  0.001429693    1.171    0.146
       204  -9.5158     42.6052    236.2550   1.3764978972e+02   1.9133954617e+01    0.1343084   0.07301292  62.85  0.000695947    1.694    0.410
       205  -9.9478     63.4698     15.5075   8.3146250805e+01   6.2702624107e+01    0.1191223   0.09327237  21.24 8.947626e-06    1.041    0.040
       206  -8.6281      1.2890     15.3446   1.0852246583e+02   7.0479179488e+01    0.1114343   0.05913126 -17.98 0.0003811439    1.653    0.395
       207 -10.8396    231.7784     14.1684   5.4201739008e+01   2.7027393174e+01    0.1786665    0.1217433 -73.39 0.0004008895    1.181    0.153
       208  -9.2865    210.6883    235.7001   1.0264230710e+02  -7.2558312994e+00    0.1313605    0.0907579  -1.42  0.000295577    1.605    0.377
       209  -8.9330    204.3189    235.3276   1.0382348371e+02  -6.2192787952e+00     0.135363    0.0929663  -2.54 0.0007046774    1.682    0.405
       210 -10.4983     14.3755    239.1315   1.4320642756e+02   2.1829236618e+01    0.1685458   0.08612891  87.66 0.0005275747    1.720    0.419
       211 -11.7780      4.0978    232.5365   1.4463263119e+02   2.4291175650e+01    0.3279898    0.1763757  71.76 0.0003324562    1.568    0.362
       212 -12.9966     10.0395    228.7326   1.4328874068e+02   2.4501120677e+01    0.6854361    0.4295264  77.49  0.004337156    1.292    0.226
       213  -9.9582    249.3071    234.0970   9.5203948334e+01  -1.2440772603e+01    0.1910773    0.1408766   8.46 0.0004492438    1.248    0.199
       214  -9.5206     80.3243    231.7066   1.2946764078e+02   1.4894046282e+01    0.1404782   0.08872294  67.14 0.0004030822    1.618    0.382
       215 -10.7760    162.4160     13.0499   6.1272103878e+01   4.2382547500e+01     0.232696    0.1529584  68.06 0.0002840401    1.268    0.212
       216 -10.0163    140.0178    227.0578   1.1586580520e+02   6.0766310803e+00    0.2260471    0.1631508  67.20  0.001129927    1.675    0.403
       217  -9.9502    110.1461    226.8296   1.2238458581e+02   1.1220527206e+01    0.1827044    0.1705489  -4.17 0.0009518712    1.327    0.246
       218 -10.2218     33.2757    225.0535   1.3850869550e+02   2.2733554754e+01    0.3205254    0.1099624  46.19  0.001427125    2.549    0.608
       219 -10.2614      1.7041    219.4429   1.4421216148e+02   2.7345478940e+01    0.2073316   0.08457039 -77.27 0.0006248392    1.993    0.498
       220 -11.9017      8.1932    217.4413   1.4283219628e+02   2.7157191049e+01    0.3857672    0.2546518  89.18  0.002463657    1.193    0.162
       221 -10.9114     15.5000    213.1024   1.4105823462e+02   2.7390043608e+01    0.2795283    0.1761075 -50.22  0.001598933    2.018    0.504
       222 -10.4576     20.5837    209.9376   1.3976013693e+02   2.7577605927e+01    0.2227679    0.1370208  59.77 0.0003830433    1.497    0.332
       223  -9.6395    246.7859    207.2914   9.0785971132e+01  -7.8746819232e+00    0.2035396   0.08487604 -32.71 0.0008749638    2.347    0.574
       224 -10.6093      3.2859    205.2849   1.4289009680e+02   3.0348756894e+01    0.1835668    0.1566881  14.00  0.001275853    1.744    0.427
       225  -9.6086    197.2492    203.9966   9.9541856183e+01   6.0457931637e-01     0.181024     0.115254 -42.45 0.0005446615    1.542    0.351
       226 -11.3373      9.4782    203.5835   1.4150334927e+02   3.0154926302e+01    0.2233233    0.1880429 -84.24 0.0009412727    1.167    0.143
       227 -10.3784     23.1382    197.2757   1.3805708825e+02   3.0248896094e+01    0.2127642    0.1469395 -68.29 0.0004780189    1.302    0.232
       228 -12.4521     13.6815    194.6817   1.3985698231e+02   3.1810847158e+01    0.4534352    0.3730312   8.84  0.002952764    1.796    0.443
       229 -10.7419     15.0803    185.2800   1.3866521377e+02   3.3894146210e+01    0.2824422     0.142905 -82.77  0.001033573    1.755    0.430
       230  -9.4538      1.1947    183.0079   1.4152084649e+02   3.5659401851e+01    0.1685092   0.07629814 -75.30  0.000563463    1.741    0.426
       231  -9.8879    249.6825    169.3261   8.2994469928e+01  -1.7151317860e+00    0.1285728   0.09958725 -67.01 0.0003191355    1.675    0.403
       232 -11.9933      5.6953    167.7928   1.3907297518e+02   3.8883548818e+01     0.362613    0.2360507  79.79  0.001756144    1.467    0.318
       233 -10.9024     14.3192    164.1261   1.3660958732e+02   3.9038916233e+01    0.2160695     0.128407 -58.59  0.001187519    1.479    0.324
       234  -9.4293     41.5739    157.8347   1.2883136388e+02   3.7857393573e+01    0.1950862    0.1181246 -79.47 0.0009377217    1.646    0.392
       235  -9.4344    247.5082    155.5117   8.0600752238e+01   1.1507918669e+00    0.1357574    0.1153315 -38.80 0.0001605609    1.010    0.010
