#   1 NUMBER                 Running object number                                     
#   2 MAG_AUTO               Kron-like elliptical aperture magnitude                    [mag]
#   3 X_IMAGE                Object position along x                                    [pixel]
#   4 Y_IMAGE                Object position along y                                    [pixel]
#   5 X_WORLD                Barycenter position along world x axis                     [deg]
#   6 Y_WORLD                Barycenter position along world y axis                     [deg]
#   7 A_WORLD                Profile RMS along major axis (world units)                 [deg]
#   8 B_WORLD                Profile RMS along minor axis (world units)                 [deg]
#   9 THETA_WORLD            Position angle (CCW/world-x)                               [deg]
#  10 FWHM_WORLD             FWHM assuming a gaussian core                              [deg]
#  11 ELONGATION             A_IMAGE/B_IMAGE                                           
#  12 ELLIPTICITY            1 - B_IMAGE/A_IMAGE                                       
         1 -13.9220    203.2987     43.6595   3.7998601140e+01   2.9858307861e+01     0.942356    0.8753242 -65.83  0.003182408    1.148    0.129
         2 -14.2511    214.7159     33.3418   3.4481428291e+01   2.8729027325e+01    0.8395194     0.716912  42.05  0.002510624    1.589    0.371
         3 -13.7690    240.9421      7.7792   2.7290184640e+01   2.6389743752e+01    0.7894282    0.5875299 -68.83  0.004483228    1.015    0.015
         4 -11.6856     55.6409      5.5309   5.5739265682e+01   6.6630832399e+01     0.269221    0.1858446  60.66   0.00146256    1.839    0.456
         5 -11.2002     60.5010      3.3968   5.3044182139e+01   6.5920751109e+01     0.243304     0.158663   5.74  0.001152123    1.602    0.376
         6 -10.9772    184.4993    212.9603   7.8817888834e+01   2.8037903704e+00    0.2049215    0.1280443 -40.58  0.001035276    1.597    0.374
         7 -12.3923    139.8600    246.4806   9.3797556485e+01   3.4233010550e+00    0.8166249    0.2871741 -54.28  0.003250839    3.486    0.713
         8 -15.4979     70.9478    150.3872   9.5979513352e+01   3.5784231025e+01     4.149222     2.382973  77.51  0.007675447    3.190    0.687
         9  -9.5476     74.4640    178.9714   9.9750129825e+01   2.7996226007e+01    0.2043809    0.1217705  84.89 0.0008079875    2.425    0.588
        10 -11.6999     86.7713    173.8629   9.5581861360e+01   2.7474030290e+01    0.5262308      0.35923  26.93  0.002339331    1.568    0.362
        11 -12.0648    114.4476    173.2104   8.7999124832e+01   2.3124114322e+01    0.7251424    0.1839616  40.11  0.002079648    3.759    0.734
        12 -14.4142     15.4141    215.5399   1.1812074780e+02   2.6026499849e+01    0.7420815    0.5150343  17.82  0.004485806    1.853    0.460
        13 -11.9966    239.7480    168.9683   5.9862156668e+01   2.2111685475e+00    0.2240611    0.1980613  41.11 0.0007964439    1.425    0.298
        14 -11.4563    230.6666    168.2059   6.1241985103e+01   3.7231057998e+00    0.3532285     0.146655 -49.36   0.00138941    2.794    0.642
        15  -9.8343    110.8121    167.3634   8.7845468374e+01   2.5169782773e+01    0.2653494    0.2069423 -69.29 0.0009103302    1.416    0.294
        16 -11.4500     34.5296    160.7993   1.0826289760e+02   3.7463318865e+01    0.4135596    0.2580025  41.46 0.0003227773    1.676    0.403
        17 -11.4654     32.5755    155.6404   1.0815732199e+02   3.8978314821e+01    0.4258312    0.3633286  28.79  0.001599444    1.318    0.241
        18 -12.4174     86.6149    151.5877   9.1562912109e+01   3.3132338320e+01     0.693493    0.4671534 -22.57  0.002959441    2.003    0.501
        19 -11.4398    133.6813    144.8685   7.6940604839e+01   2.6347482687e+01     1.166267    0.2890787 -53.52  0.002660919    5.695    0.824
        20 -10.0608    174.8667    149.0987   6.8023446514e+01   1.7274742169e+01    0.2292512    0.2081596 -69.82 0.0005895067    1.265    0.210
        21 -13.1663     68.1916    168.1935   9.9808942836e+01   3.1591450694e+01     1.260897    0.5860346 -35.77  0.004266472    3.447    0.710
        22 -10.9986     31.2717    144.0951   1.0697608779e+02   4.2072238041e+01    0.4852079     0.231703  34.72   0.00217416    2.211    0.548
        23 -11.0215    101.1819    137.9236   8.4381449310e+01   3.4122500560e+01    0.5592645    0.3563748 -16.21  0.002111964    2.501    0.600
        24 -12.4492     88.3030    137.3243   8.8101708914e+01   3.6469180030e+01    0.3197189    0.2717218 -41.45 0.0004978147    1.149    0.130
        25 -17.7931     14.3508    240.7156   1.1988247813e+02   2.0712880740e+01     7.345431     2.431869  23.30   0.02851306    4.338    0.769
        26 -10.9860    106.1244    130.7406   8.1258972821e+01   3.4983777033e+01    0.3796262    0.3508571 -43.20  0.001301644    1.051    0.048
        27 -10.3088    110.9025    129.0523   7.9461394628e+01   3.4495697473e+01    0.3583767    0.2449382  13.19  0.001280436    1.965    0.491
        28 -11.5600    135.0502    129.0236   7.2807659803e+01   2.9725152695e+01    0.4354864    0.3122203 -56.49  0.001956078    1.492    0.330
        29 -16.2440     39.0934    194.3362   1.1087788915e+02   2.8589726397e+01     7.194373     2.721351  64.66   0.01854964    4.869    0.795
        30 -10.0401     81.2630    183.4268   9.8609047775e+01   2.5913727055e+01    0.2613786     0.144604  26.50 0.0008909018    1.988    0.497
        31 -10.9113     97.8890    124.6930   8.2261320408e+01   3.7943361074e+01    0.3255015    0.2565869  11.70  0.001541689    1.461    0.315
        32 -11.4266     45.7107    124.5637   9.9129917541e+01   4.5619429903e+01     0.268963    0.2098405 -52.84 0.0007462587    1.145    0.127
        33 -10.1458    116.8142    123.4249   7.6375631993e+01   3.4680314795e+01    0.2256481    0.1506213  25.36 0.0009460946    1.745    0.427
        34 -14.2612     50.1731    185.5067   1.0709046151e+02   2.9501741472e+01     1.411977      1.05136  71.97  0.007673916    1.359    0.264
        35  -9.8636    107.1567    118.1486   7.7835257961e+01   3.7783492471e+01    0.2225826    0.2003471 -12.27 0.0003223033    1.156    0.135
        36  -9.3129     81.4946    116.4688   8.5412576664e+01   4.2739958921e+01    0.1515625    0.1438159 -34.08  5.92675e-05    1.010    0.009
        37 -10.5807    231.3562    113.7796   4.9837303227e+01   1.3226369291e+01    0.2415594    0.2172965 -43.20 0.0007633531    1.059    0.056
        38 -10.8572     39.8747    113.3233   9.8926177369e+01   4.9075465260e+01    0.2501873    0.2156282 -76.22  0.000419492    1.217    0.178
        39 -11.1557     24.4168    120.0382   1.0549944319e+02   4.8813909375e+01     0.365838    0.1602805  36.91  0.001578548    2.543    0.607
        40 -11.2830     33.2178    109.6106   1.0054821996e+02   5.0652450248e+01    0.3354912    0.2099985 -74.11 0.0007255617    1.709    0.415
        41  -9.9972    205.5444    110.2331   5.3105318819e+01   1.8806591398e+01     0.236668    0.1992029  55.66 0.0005930896    1.309    0.236
        42 -10.6696    115.0945    109.0312   7.3111729995e+01   3.8299548011e+01    0.3587953    0.2020815 -31.61  0.001373792    2.137    0.532
        43  -9.7923     45.0746    105.0285   9.5289705793e+01   5.0558230563e+01    0.2139872    0.1685403  70.02 0.0006331899    1.664    0.399
        44 -11.0611     39.0153    101.9154   9.6816747381e+01   5.1965244995e+01    0.3456697     0.218463  45.81  0.001674669    1.950    0.487
        45 -10.1823     32.9929     96.9598   9.7974140113e+01   5.3750447214e+01    0.2107196    0.1864773 -50.80  0.000549467    1.073    0.068
        46 -10.8667     99.3659    180.8484   9.3378835130e+01   2.3777983662e+01    0.2854002    0.2496268 -37.04 0.0006124595    1.207    0.171
        47 -10.6381     72.2972     83.1738   7.9472340821e+01   5.1831345667e+01    0.4432848      0.26539  56.61  0.001580414    2.629    0.620
        48  -9.7137    160.1667     83.6201   5.4937987776e+01   3.3492632917e+01    0.2052466    0.1331782  44.10 0.0005550684    1.622    0.384
        49 -10.0162     92.7260     67.2770   6.7393712225e+01   5.1246029611e+01    0.2728471    0.2329414  89.81  0.001051493    1.633    0.388
        50 -10.7252     13.4905     60.0207   9.6975727906e+01   6.3615197633e+01    0.2322178    0.1903586 -38.50 0.0004391546    1.078    0.072
        51 -13.3195    193.2550     50.7928   4.0925801900e+01   3.1108480925e+01    0.6747995    0.5514812  39.30 0.0009152035    1.535    0.349
        52 -15.7103      9.3584    207.6523   1.1890946712e+02   2.8363018564e+01     1.435748     1.004552 -43.79  0.004546226    1.865    0.464
        53 -10.1140     82.1211    195.1484   1.0011869671e+02   2.2929690215e+01    0.2647324    0.2409005 -10.06  0.001505959    1.274    0.215
        54  -9.5285     73.6771     55.7188   6.9870747175e+01   5.6843490878e+01    0.1409426   0.09981538   6.33 0.0002264453    1.591    0.371
        55  -9.6004     61.1635     48.8861   7.2074795550e+01   6.0119320560e+01    0.3187974    0.1845268  59.89  0.001209837    3.899    0.744
        56 -15.8395      4.8529    157.5022   1.1610570090e+02   4.0780358062e+01     7.200933    0.8315455 -72.81   0.01920623    5.822    0.828
        57 -10.7224      2.2542     25.1013   9.1275432257e+01   7.0983738871e+01    0.2046688    0.1471629  10.51  0.001375438    1.387    0.279
        58  -9.5663    198.0497     23.8854   3.4057467102e+01   3.3424294698e+01    0.1729356    0.1437451  35.35 0.0006708333    1.651    0.394
        59  -9.2699    189.6039     15.1832   3.2911922682e+01   3.6230750297e+01    0.1452474     0.118804 -19.21 0.0006620309    1.595    0.373
        60 -12.3523    193.5109    195.9891   7.3793720985e+01   4.5357464170e+00     1.350878    0.6125197 -59.02  0.003752185    6.282    0.841
        61 -11.1244    123.8005    201.7728   9.0703354804e+01   1.4912959060e+01     0.330164    0.2404503 -72.62 0.0009240283    1.714    0.416
