#   1 NUMBER                 Running object number                                     
#   2 MAG_AUTO               Kron-like elliptical aperture magnitude                    [mag]
#   3 X_IMAGE                Object position along x                                    [pixel]
#   4 Y_IMAGE                Object position along y                                    [pixel]
#   5 X_WORLD                Barycenter position along world x axis                     [deg]
#   6 Y_WORLD                Barycenter position along world y axis                     [deg]
#   7 A_WORLD                Profile RMS along major axis (world units)                 [deg]
#   8 B_WORLD                Profile RMS along minor axis (world units)                 [deg]
#   9 THETA_WORLD            Position angle (CCW/world-x)                               [deg]
#  10 FWHM_WORLD             FWHM assuming a gaussian core                              [deg]
#  11 ELONGATION             A_IMAGE/B_IMAGE                                           
#  12 ELLIPTICITY            1 - B_IMAGE/A_IMAGE                                       
         1  -8.6409     55.7664      9.9138   5.4740468586e+01   6.5930706546e+01    0.1799631    0.1611044 -38.60 0.0005839489    1.500    0.333
         2  -7.9648     47.6289      9.8190   5.7778598734e+01   6.7385093143e+01    0.1475856    0.1052944 -32.59 0.0005868485    1.688    0.408
         3  -8.3389     90.9511      8.9053   4.4029836099e+01   5.8943860122e+01    0.1809168    0.1416431 -78.89 0.0006409053    1.666    0.400
         4  -8.1835     28.3044      9.6623   6.6322439944e+01   7.0445419336e+01   0.09646107    0.0933909  39.56 0.0004759483    1.672    0.402
         5  -8.9330      6.0443      8.2326   7.8018432030e+01   7.3315509835e+01    0.1895248    0.1372813  28.71 0.0009735812    1.595    0.373
         6  -8.5199     33.3768      4.5216   6.1325406152e+01   7.0245827670e+01    0.2086377    0.1657436 -59.70  0.001294562    2.562    0.610
         7  -8.4270     79.0763      3.6529   4.4956391604e+01   6.1886913846e+01    0.2071689    0.1569823 -43.25   0.00132953    1.693    0.409
         8  -7.6400     44.6088      2.8300   5.5679969907e+01   6.8567728986e+01    0.1403565    0.1033262 -30.20 0.0006643906    1.661    0.398
         9  -7.8858     62.5267      1.4142   4.8717966246e+01   6.5393832085e+01    0.1180058   0.09509026  41.24 0.0001880677    1.058    0.054
        10 -10.0323    223.9436    243.8839   7.2748960909e+01  -7.8318923020e+00     0.451212    0.2171026 -46.52  0.002289723    2.532    0.605
        11  -9.1684    247.9406    234.4857   6.6986989422e+01  -9.1627175334e+00    0.2365043    0.1707224 -40.84  0.001191243    1.616    0.381
        12  -9.8296    246.5255    228.9133   6.6296985576e+01  -8.2001858164e+00     0.519904    0.2025302 -36.29  0.002484438    2.165    0.538
        13  -8.7440    248.8828    249.2690   6.9229994363e+01  -1.1316611236e+01    0.2824515    0.1400439 -24.12  0.001644373    1.765    0.433
        14  -9.6509    248.7397    242.0904   6.8098878015e+01  -1.0319841492e+01    0.3777127    0.2024368 -44.09  0.001366519    2.158    0.537
        15  -9.2048    243.0798    246.5114   6.9777486562e+01  -1.0337105587e+01    0.4796851    0.1600317 -28.63  0.002052258    3.277    0.695
        16  -9.4613    233.2010    246.2263   7.1458925414e+01  -9.2256790536e+00    0.5157205    0.2246337 -31.58  0.002245194    2.064    0.516
        17  -9.3439    210.7354    246.2337   7.5592150622e+01  -6.6053485426e+00    0.2257781    0.2035101 -59.25   0.00114501    1.812    0.448
        18  -9.3238    147.1847    245.6441   8.8548148823e+01   2.0658419783e+00    0.3456246    0.2511889  67.78  0.001504182    2.184    0.542
        19  -9.2989    119.9581    245.0409   9.4493197556e+01   6.1269226660e+00      0.34229    0.2307395  70.88  0.001696622    2.215    0.548
        20  -8.6944     13.0691    247.0000   1.1792510680e+02   1.9270907967e+01    0.1806237   0.05959571  29.68 0.0006331056    2.919    0.657
        21  -8.7227     67.5122    244.5221   1.0620566939e+02   1.3521668539e+01    0.2374533    0.1251701 -69.58  0.001123082    2.074    0.518
        22  -8.3844    139.4773    244.0420   9.0009851720e+01   3.4765269093e+00    0.1823737    0.1326614 -52.10 0.0008276798    1.581    0.368
        23  -9.1476     78.2459    243.2254   1.0367834209e+02   1.2373579613e+01    0.3820298    0.1809117  57.04  0.001451293    2.488    0.598
        24  -8.5022    201.8201    242.8007   7.6757801600e+01  -4.9587751660e+00    0.2243725    0.1639756 -45.95 0.0009207267    1.672    0.402
        25  -9.3980    168.7752    242.9124   8.3501092694e+01  -5.2679566359e-01    0.2826854    0.2114054  21.76 0.0008919505    1.175    0.149
        26  -7.8910     49.6146    242.4377   1.0995684523e+02   1.6204070245e+01    0.2437925    0.1054658  89.23 0.0009584443    3.413    0.707
        27  -9.7028    194.8048    240.6922   7.7801250688e+01  -3.7089924611e+00    0.3616125    0.3269163 -63.05  0.001837473    1.685    0.406
        28  -9.4141    183.0675    239.8000   8.0033050032e+01  -1.9804571818e+00    0.3676098    0.3157732  67.12  0.002059609    1.860    0.462
        29  -9.7838    160.0288    239.7590   8.4883327900e+01   1.2771410578e+00    0.3818712     0.243185 -62.91  0.001233233    2.354    0.575
        30  -8.2529     88.1772    242.1700   1.0132130356e+02   1.1234803265e+01    0.1826295    0.1402048  64.97 0.0006478373    1.356    0.263
        31  -9.0942    241.4182    238.2035   6.8712305129e+01  -8.9853933773e+00    0.4924393    0.1704878 -25.66  0.001845661    4.161    0.760
        32  -8.0214    146.1863    239.1836   8.7821124824e+01   3.4021736654e+00    0.1768938    0.1492482  51.10 0.0004632377    1.367    0.269
        33  -9.2026    135.7915    238.5709   9.0047213139e+01   5.0542561814e+00    0.2864442    0.1974988  59.95  0.001280071    1.950    0.487
        34  -9.0265    230.9235    236.7940   7.0323524350e+01  -7.5930916450e+00    0.2612644    0.2214249 -76.87  0.001230054    2.591    0.614
        35  -8.2982    209.1414    238.2181   7.4594802740e+01  -5.1671345136e+00    0.1506818    0.1405827  -5.73 0.0004560652    1.354    0.261
        36  -7.7925    129.0068    238.4960   9.1565042898e+01   6.0746300430e+00    0.1944747    0.0973666  50.50 0.0008093349    2.447    0.591
        37  -8.4494     25.6715    236.8673   1.1469957626e+02   2.0123418480e+01    0.2766694    0.1141825  72.67  0.001152987    2.988    0.665
        38  -7.9359     13.3800    237.6259   1.1732727302e+02   2.1218573638e+01    0.2335882    0.0518064  42.43 0.0009439003    3.081    0.675
        39  -8.8519    217.3280    235.6876   7.2626419301e+01  -5.7950809848e+00    0.1984664      0.18762  13.57 0.0006108198    1.458    0.314
        40  -9.4525    213.6688    231.6276   7.2635864231e+01  -4.6961476967e+00    0.2801528    0.2507798 -82.27  0.001317283    2.018    0.504
        41  -8.9185    203.2904    234.6875   7.5143202716e+01  -3.8483038261e+00    0.2796447    0.2120465 -59.44  0.001054302    2.078    0.519
        42 -10.0845    175.6224    233.0331   8.0490700196e+01   2.3536167891e-01    0.5236107    0.2717977 -57.05  0.002283765    2.888    0.654
        43  -7.9632    170.0543    235.5164   8.2069818619e+01   5.9274992617e-01    0.1918656    0.1174943  30.26 0.0004990113    1.492    0.330
        44  -9.5535    109.0361    234.1836   9.5550845795e+01   9.9033638679e+00    0.5059783    0.2828659  54.34  0.001710002    2.104    0.525
        45  -8.7040     99.8489    234.5090   9.7725392529e+01   1.1178571836e+01    0.2607955    0.1782678  85.72  0.001299449    1.986    0.497
        46  -9.0275     78.7610    234.3365   1.0259854070e+02   1.4190419379e+01    0.2776378    0.1859021 -85.55  0.001311335    1.753    0.429
        47  -8.7050    122.8189    233.9253   9.2331723674e+01   7.9060761625e+00    0.2381925    0.1924664  81.70  0.001145945    1.608    0.378
        48  -9.4218     68.6861    232.3092   1.0470947709e+02   1.5987059711e+01    0.5296559    0.2440047  62.94  0.002062496    3.056    0.673
        49  -8.4425    194.7054    232.4958   7.6477523440e+01  -2.3394550860e+00    0.1964532    0.1705895  81.96 0.0009738144    2.027    0.507
        50  -9.1305    140.1698    230.0627   8.7795509756e+01   6.0565249643e+00     0.316918    0.1797181  44.13  0.001299772    1.800    0.444
        51  -8.4962    132.5226    232.8932   8.9960371024e+01   6.6538246441e+00    0.1905881    0.1360851 -52.17  0.001019292    1.554    0.357
        52  -8.6131     92.5087    231.6680   9.9082850671e+01   1.2840531874e+01    0.3287198    0.2030187  72.98 0.0009549384    2.257    0.557
        53  -9.4375    186.5247    230.5108   7.7807010919e+01  -8.6906333743e-01    0.3380323    0.2654513 -76.38  0.001358927    2.322    0.569
        54  -7.5194     44.3162    232.6327   1.1029612782e+02   1.8963978596e+01    0.1422556   0.07989573  62.94 0.0007037906    1.777    0.437
        55  -9.0657    236.2576    229.6913   6.8192605704e+01  -7.1489995824e+00    0.4405955    0.1700583 -34.62  0.001251277    2.281    0.562
        56  -8.8254      1.6778    230.5829   1.1934654232e+02   2.3845435768e+01    0.2106765    0.1088135  72.55 0.0009387924    1.735    0.424
        57 -10.0384    149.6995    226.0286   8.5010074369e+01   5.3956246867e+00    0.6329492    0.4013858 -83.78  0.002383756    3.996    0.750
        58  -8.5690    229.8199    227.7373   6.9002275206e+01  -6.0884095687e+00    0.2765779    0.1078155 -30.72  0.001229703    2.560    0.609
        59  -8.9176    162.5298    227.7511   8.2441196281e+01   3.1201124304e+00    0.3667287     0.219314  50.51  0.001663474    2.204    0.546
        60  -8.9544    127.8721    227.0929   9.0173014623e+01   8.5335951898e+00     0.329193    0.2464374  69.07  0.001124199    1.794    0.442
        61  -8.3244    120.1413    227.3224   9.2010477748e+01   9.6673032078e+00    0.2481733    0.1764307  78.89 0.0009519141    2.070    0.517
        62  -9.6716      8.0060    227.5044   1.1785506545e+02   2.3941495223e+01    0.2750975    0.1167418  78.85  0.001260369    2.473    0.596
        63  -8.9184    206.0173    225.6690   7.3091486570e+01  -2.7229266940e+00    0.2904753    0.1749387 -46.47 0.0009132156    1.842    0.457
        64  -8.0240    199.9821    225.7332   7.4285736718e+01  -1.9158322759e+00    0.2177289    0.1578259 -47.76  0.000715911    1.625    0.385
        65  -8.0884     48.8758    226.3404   1.0869785933e+02   1.9828486750e+01    0.1864855    0.1472725  77.26 0.0007089505    1.186    0.157
        66  -8.8607    180.7668    224.0273   7.7912541830e+01   1.1057469875e+00    0.2840306    0.2430636  67.16 0.0009725713    1.763    0.433
        67  -9.0008     94.4550    224.2657   9.7682579433e+01   1.4172067378e+01    0.4717538    0.2116481  56.06   0.00170834    3.169    0.684
        68  -7.4447     72.3329    225.3022   1.0309152637e+02   1.7058313055e+01    0.1305248    0.1046919 -19.78 0.0007035481    1.656    0.396
        69  -8.7169    216.4939    223.2581   7.0677477586e+01  -3.7077733379e+00     0.222796    0.1940333 -65.87 0.0009255621    1.860    0.462
        70  -8.0630    113.6070    223.7520   9.3037719283e+01   1.1418832378e+01    0.1751019    0.1359994 -74.21 0.0003542108    1.534    0.348
        71  -8.8452    104.7202    223.4693   9.5117473479e+01   1.2825266892e+01     0.349533      0.23635  75.50   0.00165029    2.052    0.513
        72  -8.1754     59.8761    223.5890   1.0585710001e+02   1.9086210283e+01    0.2620473    0.1393398  64.44 0.0008523025    2.209    0.547
        73  -8.0368     38.2252    224.2408   1.1095834009e+02   2.1553144679e+01    0.1993477   0.09493757 -89.03 0.0005481413    2.424    0.587
        74  -8.6266    173.0975    222.7418   7.9321015313e+01   2.4750548064e+00    0.2218907     0.181316 -52.70 0.0006808089    1.470    0.320
        75  -9.1896    239.2071    221.1163   6.6221061164e+01  -6.1895774644e+00    0.3380663    0.1971116 -37.75  0.001544693    1.534    0.348
        76  -9.4515    225.7859    221.6383   6.8684289635e+01  -4.6334754775e+00    0.2574548    0.2516959  23.56  0.001525993    1.527    0.345
        77  -9.3885    192.4143    221.0964   7.5005674726e+01  -5.3153203458e-02    0.3077258    0.2528563 -59.67  0.001100967    1.692    0.409
        78  -8.4977    162.6631    222.3043   8.1514590433e+01   4.1344522459e+00    0.2194693    0.1634651  44.57 0.0009460184    1.485    0.327
        79  -8.8353    158.9738    220.0539   8.1955491996e+01   5.1370782939e+00    0.2980158    0.2189774  62.74 0.0009739366    2.019    0.505
        80  -8.4625    140.4191    222.2834   8.6527116895e+01   7.5774610811e+00    0.1773057    0.1375389 -66.12 0.0006801438    1.606    0.377
        81  -7.8735    223.3512    227.1259   7.0069919071e+01  -5.2004437777e+00    0.1659986    0.1046376 -44.36 0.0005481144    1.739    0.425
        82  -8.8517     82.6701    220.3746   1.0002579229e+02   1.6741656508e+01    0.2921302    0.1830058  75.19  0.001227445    2.091    0.522
        83  -8.2181     73.2271    220.4456   1.0231889130e+02   1.8039404181e+01    0.3381904    0.1732595  70.55  0.001291191    3.052    0.672
        84  -8.2808     27.5818    221.2344   1.1313697925e+02   2.3407634239e+01    0.1743374    0.1065145 -65.00  0.000947683    1.637    0.389
        85  -8.3980    202.5328    220.0190   7.2796486046e+01  -1.2896822687e+00    0.1878103    0.1167348 -38.08 0.0003681927    1.524    0.344
        86  -9.2271    120.2612    218.7447   9.0712184060e+01   1.1469273238e+01    0.4719959    0.2640035  60.30  0.001865973    2.763    0.638
        87  -8.4742    249.7530    218.3207   6.3962358286e+01  -6.9880735880e+00    0.1906383    0.1438133  44.05  0.001228344    2.018    0.505
        88  -9.3143    132.9661    215.8959   8.7246042675e+01   1.0076767992e+01    0.5082732    0.3275534  76.16  0.002026505    3.051    0.672
        89  -8.7065     62.4043    217.4412   1.0459377071e+02   2.0176547639e+01    0.3852169    0.2001256  64.89  0.001482427    2.411    0.585
        90  -9.0063     51.4836    217.1745   1.0719562470e+02   2.1619093683e+01    0.2858486    0.1960265  81.43  0.001124915    1.502    0.334
        91  -8.7916    169.3726    215.9770   7.8969522798e+01   4.3210301116e+00    0.3032634    0.2326918 -80.09  0.001136413    2.188    0.543
        92  -8.7527    142.9484    216.1934   8.4957341489e+01   8.4282101281e+00    0.3535705    0.2418036 -76.35  0.001579135    2.321    0.569
        93  -8.4319    210.1586    219.0910   7.1154377912e+01  -2.1760426418e+00    0.2041391    0.1824112  23.63 0.0007054634    1.315    0.240
        94  -8.8023    232.4124    214.3372   6.6228063208e+01  -4.2965275648e+00    0.2481739    0.1943484 -50.35 0.0009263206    1.683    0.406
        95  -8.3174    154.1968    214.7419   8.2133563906e+01   6.9395250247e+00    0.2336088    0.1925096 -59.90 0.0008861336    1.450    0.310
        96  -8.0803     41.3934    215.1536   1.0940747150e+02   2.3293188651e+01    0.1911681    0.1139875  89.02 0.0009477138    1.752    0.429
        97  -8.5766    185.6567    214.1477   7.5179442348e+01   2.1904531853e+00    0.2124478    0.1826568  36.66  0.001059938    1.317    0.241
        98  -9.2896     93.0848    213.6688   9.6593780972e+01   1.6761223156e+01    0.4013637    0.2058598  54.73  0.001629797    2.337    0.572
        99  -9.4006     73.4336    211.8555   1.0123248367e+02   2.0006594573e+01    0.7075287    0.2831007  57.05  0.002290025    3.873    0.742
       100  -9.5437    213.9661    211.8994   6.9160108615e+01  -1.4729326788e+00    0.3165118    0.2937256  74.20  0.001689553    1.688    0.408
       101  -8.0016    224.9700    212.2216   6.7183603904e+01  -2.9995252517e+00    0.1668424    0.1251508 -47.56  0.000553727    1.586    0.370
       102  -9.0903    204.4395    210.7500   7.0783538720e+01   5.8172182371e-02    0.3009786    0.2162853 -54.91 0.0008648195    1.820    0.451
       103  -8.7829    161.5628    211.8149   7.9970873349e+01   6.3589748262e+00    0.2495466     0.231286 -76.33 0.0009456821    1.373    0.272
       104  -8.0103    106.7101    212.5906   9.3075861676e+01   1.4936997303e+01    0.2073114    0.1212925  43.65 0.0009381373    1.640    0.390
       105  -8.3672    192.3750    210.2208   7.3096022505e+01   1.9111962154e+00    0.2255965    0.1577024 -47.85 0.0008117234    1.563    0.360
       106  -9.3923    175.5686    209.8985   7.6559436462e+01   4.5323180762e+00    0.3604836    0.2920247  78.52  0.001430735    2.006    0.502
       107  -8.7246    148.0915    210.3535   8.2784066549e+01   8.8150323013e+00    0.3055339    0.2395288  85.20  0.001080183    1.926    0.481
       108  -9.1780    116.2202    209.9139   9.0329421224e+01   1.4046735203e+01    0.3487958    0.2540609 -88.39  0.001235486    1.883    0.469
       109  -9.3039      6.7459    209.3666   1.1700543582e+02   2.8179144819e+01    0.4963213    0.1560991  70.53  0.001525991    5.277    0.811
       110  -9.4313    236.5778    207.7407   6.4338429068e+01  -3.7586498119e+00    0.4224326      0.23298 -50.34  0.001637538    2.269    0.559
       111  -8.9312     85.5149    209.1680   9.7862938218e+01   1.8923249657e+01    0.3377116    0.2168366  79.24  0.001200332    2.087    0.521
       112  -8.4676     46.7997    209.6845   1.0756793267e+02   2.3955745910e+01    0.2800151    0.1513084  72.78  0.001234499    2.219    0.549
       113  -8.1583     32.4013    210.2034   1.1109939180e+02   2.5467456904e+01    0.1917152    0.1106023  87.31 0.0009438229    1.772    0.436
       114  -8.1069    156.4764    207.4912   8.0360928004e+01   8.0493286230e+00    0.2352039     0.140002 -61.07 0.0007360082    2.250    0.556
       115  -8.2676    139.1058    207.7247   8.4441018074e+01   1.0830056934e+01    0.2352719    0.1990516 -71.80  0.000708645    1.433    0.302
       116  -8.1905    126.6493    208.1854   8.7506944003e+01   1.2756934079e+01    0.2141316    0.1819894 -88.74 0.0009167452    1.445    0.308
       117  -9.2474     99.4549    205.8678   9.3880970977e+01   1.7602656598e+01     0.400038     0.254241  76.48  0.001207606    2.359    0.576
       118  -7.7408     12.3061    206.6746   1.1554758308e+02   2.8311199287e+01    0.1363727    0.0777097  63.98 0.0004314506    1.648    0.393
       119  -9.2035    194.9345    203.5457   7.1363882667e+01   2.7581534042e+00    0.3147914    0.2557297  53.36  0.001334385    1.659    0.397
       120  -9.3436    192.7174    197.2901   7.0652798865e+01   4.2723198460e+00    0.4589454    0.3321393 -68.76  0.001569068    2.237    0.553
       121  -8.9813    183.8138    203.8141   7.3705091066e+01   4.4169469859e+00    0.3030113    0.2491094  69.56   0.00129513    1.854    0.461
       122  -8.1367    109.0102    205.0106   9.1347888037e+01   1.6305855745e+01     0.224787    0.1705898  68.93 0.0008074929    1.587    0.370
       123  -8.3907     56.2390    204.9741   1.0471418921e+02   2.3930799955e+01    0.2767112    0.1755397  71.00 0.0008243539    1.749    0.428
       124  -9.6563    163.9564    202.8138   7.7834378576e+01   7.7891755037e+00    0.4626566    0.2880556  53.33  0.001105088    2.160    0.537
       125  -8.7134    131.3724    203.8554   8.5637742791e+01   1.2941015607e+01    0.2756552    0.2199107  64.49  0.000948569    1.529    0.346
       126  -9.4720    246.4496    207.1280   6.2565278386e+01  -4.8790556567e+00    0.2623347    0.1730796 -39.34  0.000739358    1.398    0.285
       127  -9.3706    250.2144    201.8879   6.1026740785e+01  -4.5090987013e+00    0.4309886     0.149089 -40.75  0.001486358    2.416    0.586
       128 -10.1442    246.0331    193.7944   6.0258389066e+01  -2.6953183196e+00    0.5233878    0.2897324 -48.98  0.001938703    2.005    0.501
       129  -7.7667    218.6454    203.7080   6.6810595608e+01  -7.1167157452e-01    0.1349821   0.08871348  -7.38 0.0005256048    1.683    0.406
       130  -7.9982     41.7250    202.9695   1.0813489241e+02   2.6169576980e+01    0.2644852   0.09766625  56.89 0.0008969171    3.562    0.719
       131  -9.1180    243.2819    200.6161   6.1935180512e+01  -3.4523891688e+00     0.319125    0.1784586 -44.46  0.001055714    1.735    0.424
       132  -8.4224    211.0231    201.9644   6.7919102695e+01   6.6959235907e-01    0.1851245    0.1635279 -72.16 0.0005808068    1.690    0.408
       133  -8.8404    140.6935    201.0425   8.2905550425e+01   1.2012245514e+01    0.3843013    0.2593349  66.75  0.001340952    2.312    0.567
       134  -8.6483     80.0606    201.0358   9.8132230737e+01   2.1655967163e+01    0.3738229     0.202368  68.02  0.001408317    2.826    0.646
       135  -7.6650     73.2935    202.6069   1.0008521098e+02   2.2236139416e+01    0.1537973    0.1006785  68.96 0.0007006898    1.785    0.440
       136  -8.1570     48.4950    202.0139   1.0633515829e+02   2.5606897429e+01    0.1995185    0.1048732  77.98  0.000809625    2.486    0.598
       137  -8.1402    222.0121    201.0680   6.5712866024e+01  -7.2303098333e-01    0.1813221    0.1590316 -67.23 0.0006614529    1.700    0.412
       138  -9.4521    237.1402    198.1148   6.2516480831e+01  -2.2574797772e+00    0.3891166     0.147874 -44.06  0.001716711    2.431    0.589
       139  -9.4994    149.4778    198.3284   8.0339589958e+01   1.1127424770e+01    0.4458016    0.3062195 -76.85  0.001508085    2.364    0.577
       140  -8.8405    124.0007    199.0311   8.6624732756e+01   1.5241724824e+01    0.3291593    0.2333282 -85.13  0.001020607    2.056    0.514
       141  -9.1787    112.9754    198.2661   8.9262447784e+01   1.7231429286e+01    0.4770786    0.2789064  63.88  0.001832789    2.666    0.625
       142  -8.5572    177.0714    198.8840   7.4228983782e+01   6.4483684855e+00    0.1990887    0.1924558  79.24  0.000495954    1.312    0.238
       143  -7.9135     99.6333    199.6766   9.2891805922e+01   1.9032115284e+01    0.1528898    0.1129345 -16.33 0.0007037597    1.796    0.443
       144  -9.1482     88.7766    198.0334   9.5444068010e+01   2.1095404848e+01    0.4082883    0.2679037  80.93  0.001279565    2.073    0.518
       145  -8.4989    202.1503    197.6127   6.8826925191e+01   2.7641906680e+00    0.2285599    0.1704301 -44.44 0.0006951769    1.371    0.270
       146  -9.0010     61.3858    196.8819   1.0242406358e+02   2.5249736863e+01    0.4430005    0.2418028  70.39  0.001668481    2.484    0.597
       147  -8.2650     12.6632    197.3372   1.1476673047e+02   3.0510958314e+01    0.2131951    0.1207918  64.58  0.000981983    1.712    0.416
       148  -8.7528    216.0399    195.4813   6.5778504422e+01   1.0962229497e+00    0.2493759    0.1940801 -61.21 0.0008742622    1.808    0.447
       149  -8.3175    133.1212    195.6907   8.3789985690e+01   1.4469326216e+01     0.246742    0.2021745 -68.82  0.000770541    1.420    0.296
       150  -7.9885     53.3921    196.2173   1.0442021695e+02   2.6434963410e+01    0.2021681    0.1257367 -85.60 0.0009496738    1.731    0.422
       151  -8.8191    224.5556    193.5862   6.3877557512e+01   2.1502114352e-01    0.3924651    0.1656677 -49.06  0.001643896    2.683    0.627
       152  -7.3855    209.3356    195.6396   6.7068056321e+01   2.0493009033e+00    0.1255989    0.1080393 -80.11  0.000703848    1.814    0.449
       153  -8.9638    185.3105    194.5443   7.1664544706e+01   5.9741144694e+00    0.2605163    0.2302688 -64.59  0.000722802    1.438    0.305
       154  -9.1166    161.0166    194.1620   7.6902327112e+01   1.0066767925e+01     0.332473    0.2623822 -83.94 0.0008814763    1.894    0.472
       155  -8.2730    230.8995    194.0692   6.2850113725e+01  -7.4628063789e-01    0.1964789    0.1395454 -58.09  0.000810064    1.992    0.498
       156  -8.9746     76.9059    193.6574   9.7915253947e+01   2.3915412808e+01    0.2614278    0.2058754 -83.47 0.0005704027    1.335    0.251
       157  -8.8465     43.9354    193.1755   1.0652405203e+02   2.8328484710e+01    0.4528216    0.2072258  58.68  0.001783054    2.643    0.622
       158  -8.1327    198.8636    191.7631   6.8373141608e+01   4.3592996337e+00    0.1725423    0.1622449 -58.90 0.0005819856    1.334    0.250
       159  -8.4446    172.6039    191.6357   7.3834147270e+01   8.6412365896e+00    0.2599257    0.2075199  85.95 0.0008206119    1.974    0.493
       160  -7.9966    205.1716    191.2478   6.7039809631e+01   3.4806838014e+00    0.1725482     0.155014 -51.23 0.0005180475    1.330    0.248
       161  -8.4843    179.1468    191.2154   7.2335912312e+01   7.6380711805e+00    0.1857394    0.1692206 -67.29 0.0005222909    1.363    0.266
       162  -9.1274    139.4064    190.1875   8.1253104638e+01   1.4630915690e+01     0.367491    0.2749121  80.85  0.001261948    2.007    0.502
       163 -10.4626     92.7461    188.8418   9.2977525705e+01   2.2728078486e+01     1.088337      0.27665  43.70  0.003064867    4.142    0.759
       164  -8.1447      6.6377    190.3119   1.1569226330e+02   3.2735321893e+01    0.1403297   0.07789133  61.49 0.0007040896    1.752    0.429
       165  -8.4374    237.3048    188.4251   6.0717919126e+01  -6.6041564353e-01    0.1994534    0.1323886 -50.37 0.0005670043    1.697    0.411
       166  -8.9362    216.7539    187.9065   6.4224144048e+01   2.3452345242e+00    0.2903937    0.2264145 -57.68  0.001060867    1.637    0.389
       167  -9.3586    156.0012    187.3492   7.6763541699e+01   1.2376979943e+01    0.4056594    0.2392611 -57.78 0.0008722579    2.011    0.503
       168  -8.7277    148.3014    188.7266   7.8837636303e+01   1.3414404797e+01    0.2634921    0.1774181 -60.73 0.0008777399    1.758    0.431
       169  -8.8365    129.2346    188.4931   8.3453848691e+01   1.6771867611e+01    0.3029354    0.2340849  75.17  0.000876691    1.729    0.422
       170  -9.7870    120.7784    186.2253   8.5184041407e+01   1.8753151430e+01    0.5682079    0.3171165 -71.06  0.002109451    2.708    0.631
       171  -8.8807    191.4906    187.3050   6.9001335924e+01   6.3875506250e+00    0.3104845    0.2248372 -62.67  0.001192664    1.875    0.467
       172  -9.0367     54.7158    186.4698   1.0286344629e+02   2.8713058046e+01     0.532904    0.2788046  76.08  0.001505226    2.848    0.649
       173  -8.6804     34.0975    187.6104   1.0848302080e+02   3.0817189809e+01    0.3566135    0.1858973  76.79   0.00150896    2.349    0.574
       174  -8.1824    230.6718    187.1450   6.1606617411e+01   4.7173179239e-01    0.1983749     0.144485 -48.30 0.0008146065    1.476    0.323
       175  -8.8377    164.7219    186.3892   7.4579038283e+01   1.1071094029e+01    0.2799075    0.2337712  84.75 0.0006736369    1.684    0.406
       176  -9.2616    109.6726    185.8931   8.8005138796e+01   2.0710183863e+01     0.418001    0.2914352  79.45  0.001172587    2.062    0.515
       177  -9.1155    249.3361    185.1235   5.8158938549e+01  -1.7039890384e+00    0.2683638    0.1759078 -39.38 0.0007332783    1.294    0.227
       178  -8.3507    242.6724    183.3206   5.8892281430e+01  -5.2618045992e-01    0.1836997    0.1391792 -75.03  0.000615038    2.483    0.597
       179  -8.1650    240.5153    180.0359   5.8633301533e+01   3.2107575232e-01    0.2545253    0.1050719 -45.04  0.001144285    2.197    0.545
       180  -8.6629    202.9331    184.5232   6.6184488958e+01   5.0869399278e+00    0.2486269    0.1814422 -55.30 0.0007775942    1.622    0.383
       181  -8.8929    182.9631    184.6651   7.0256990336e+01   8.3170146800e+00    0.2586881    0.1983483 -50.00 0.0005568421    1.375    0.273
       182  -9.2017     66.8471    184.1872   9.9261022659e+01   2.7699939267e+01    0.4456682    0.2689623  65.56  0.001212848    2.052    0.513
       183  -8.7226    210.0995    183.9066   6.4695875610e+01   4.0821484431e+00    0.2363432    0.1711476 -38.09 0.0005478879    1.243    0.195
       184  -8.3413    197.1277    183.7048   6.7166409979e+01   6.1713892752e+00    0.1998244    0.1776423  60.49 0.0006697845    1.467    0.318
       185  -9.1940    174.3116    183.3686   7.1859024313e+01   1.0049812207e+01    0.3080041    0.2412718 -65.05 0.0008004905    1.618    0.382
       186  -8.5885    224.1641    183.1553   6.1989906557e+01   2.1021808497e+00    0.1994243    0.1539805 -22.92 0.0005761046    1.145    0.127
       187  -9.0001     44.4917    182.1607   1.0508805948e+02   3.1042985654e+01    0.3929506    0.2245698  64.67 0.0009835532    2.036    0.509
       188  -8.5197     19.4914    182.4753   1.1178495613e+02   3.3555395455e+01    0.2520317    0.1136227 -89.56  0.001031669    2.454    0.593
       189  -8.0339      1.7986    183.5668   1.1637989245e+02   3.4768252829e+01    0.1724891    0.1028821  44.18 0.0009398504    1.658    0.397
       190  -9.3552    147.7138    180.5760   7.7407921951e+01   1.5324919716e+01    0.4094811    0.3119213 -88.71  0.001181308    1.955    0.488
       191  -8.3732    235.2727    181.0115   5.9679044459e+01   8.8327307271e-01    0.1916997    0.1392876 -34.98 0.0005919194    1.153    0.133
       192  -9.5318     25.4501    178.5030   1.0981673750e+02   3.3996814929e+01    0.7080061    0.2913095  77.67    0.0022901    4.166    0.760
       193  -8.8471    137.7943    179.2314   7.9567327364e+01   1.7401319490e+01    0.3406806    0.2634741  76.10  0.001106534    1.778    0.438
       194  -8.5532    250.5631    172.3573   5.5626907312e+01   2.4199023619e-01    0.2338901    0.1444114 -45.57 0.0006198094    1.476    0.322
       195  -9.3607    249.0218    177.1600   5.6749907065e+01  -3.4931898175e-01    0.3083099    0.2322224 -50.04  0.001285991    1.453    0.312
       196  -8.4354    247.2929    173.6575   5.6370368881e+01   4.6833590445e-01    0.2449788   0.09902361 -37.40 0.0006596377    2.066    0.516
       197  -9.4602    191.5329    178.1424   6.7195923270e+01   8.1785013076e+00    0.3181706    0.2712618 -75.54 0.0006754413    1.585    0.369
       198  -8.9827     36.1684    176.6983   1.0670614057e+02   3.3366948383e+01    0.6007263    0.2607933  75.41   0.00186721    4.371    0.771
       199  -8.8385    205.0401    177.5244   6.4412712833e+01   6.0762207832e+00    0.2601466    0.1808546 -53.89 0.0007357827    1.627    0.385
       200  -8.2494    169.2223    178.2172   7.1958447966e+01   1.2011783444e+01    0.1999108    0.1768153 -76.65 0.0006499186    1.409    0.290
       201  -8.6701    129.2742    177.2175   8.1319343346e+01   1.9389744209e+01     0.352839     0.240286  84.35 0.0009758169    2.522    0.603
       202  -8.4729    231.1500    176.6861   5.9554557715e+01   2.2239083228e+00    0.2300901    0.1508257 -44.99 0.0006858848    1.425    0.298
       203  -8.5005    217.7894    177.0803   6.1960694404e+01   4.1519664606e+00     0.199575    0.1714223 -52.37  0.000906315    1.329    0.248
       204  -9.2600    183.0262    175.7609   6.8477039207e+01   1.0106284573e+01    0.3279842    0.2196276 -50.92 0.0008301663    1.552    0.356
       205  -7.9396     97.4999    177.4586   8.9776807840e+01   2.4787953628e+01    0.1499191    0.1455978 -18.22 0.0001934416    1.074    0.069
       206  -8.8865     89.2953    176.7818   9.1913105458e+01   2.6271851040e+01    0.3154159    0.2267609  67.91 0.0008150971    1.674    0.403
       207  -9.9494     57.5681    173.1615   1.0025331239e+02   3.1757868910e+01    0.8951369    0.4304134  78.17  0.002615873    4.709    0.788
       208  -9.0373     12.9109    176.2221   1.1292937046e+02   3.5704316720e+01    0.3751441    0.1868194  83.14  0.001421576    2.175    0.540
       209  -8.2684    211.5308    175.9803   6.2888845650e+01   5.3307370560e+00    0.2080463    0.1198949 -40.43 0.0004982324    1.542    0.351
       210  -9.1684    158.7879    174.9703   7.3675315724e+01   1.4573922551e+01    0.3753707    0.2715876  77.02  0.001208681    2.271    0.560
       211  -9.2239    104.2930    174.5425   8.7400483108e+01   2.4385415648e+01    0.5734311    0.3101402  61.37  0.001619066    2.991    0.666
       212 -10.7440     75.9275    170.0005   9.4523567948e+01   3.0037727970e+01     1.359608    0.5457391 -73.76  0.003879666    4.320    0.769
       213  -8.2137     79.7976    158.1531   9.1314245311e+01   3.2507025774e+01    0.3039432    0.2077732  10.50 0.0008293233    1.890    0.471
       214  -9.5114     81.7278    154.4557   9.0046129305e+01   3.3159081577e+01    0.5457214    0.3695957  80.70  0.001508691    2.084    0.520
       215  -8.3938    224.4608    174.1380   6.0211713841e+01   3.6678922287e+00    0.1942902    0.1764243 -56.67 0.0005968378    1.332    0.249
       216  -9.5818    175.7317    172.0356   6.9278082392e+01   1.2155418895e+01    0.3893296    0.2549175 -51.31 0.0009986132    1.580    0.367
       217  -8.5084    143.0356    172.5298   7.6942235259e+01   1.7988198496e+01    0.2814186    0.2158106 -68.54 0.0007852264    1.575    0.365
       218  -8.4535    134.9086    171.3631   7.8731634832e+01   1.9743469036e+01    0.2679684    0.2173903 -87.06 0.0008101435    1.586    0.370
       219  -9.0543     44.9473    170.7642   1.0350516692e+02   3.3920443934e+01    0.3885457    0.2245695  80.73  0.001290602    2.195    0.545
       220  -8.4237    205.9284    170.3678   6.2825050713e+01   7.2938714907e+00    0.2585652    0.1813521 -55.96 0.0007547332    1.644    0.392
       221  -9.4587    121.4552    170.2702   8.1985171597e+01   2.2439334718e+01    0.3831051    0.2943687  83.30  0.001032111    1.745    0.427
       222  -8.5049    237.2409    169.4904   5.7178637726e+01   2.5945275653e+00    0.2352183    0.1505238 -39.44 0.0005763115    1.307    0.235
       223  -8.7260    230.4583    169.9549   5.8382740032e+01   3.5125017427e+00    0.2401993    0.1451013 -43.82 0.0005971508    1.467    0.318
       224  -7.8965    229.2927    166.6164   5.7932357801e+01   4.2816622541e+00    0.1294483   0.09749927 -63.53 0.0007016595    1.757    0.431
       225  -8.4287    198.7872    170.0896   6.4138656923e+01   8.5387715551e+00    0.2109386    0.1845516 -60.90 0.0008894933    1.337    0.252
       226  -9.2600    167.2019    168.3229   7.0393392572e+01   1.4482524676e+01    0.3956333     0.300296  80.76  0.001290691    2.039    0.510
       227  -8.5234    149.9297    169.2751   7.4602463794e+01   1.7457256580e+01    0.2666267    0.2142295 -81.32 0.0008645991    1.642    0.391
       228  -8.4556    244.6488    169.1333   5.5936531583e+01   1.5978771290e+00    0.1976376    0.1367119 -48.34 0.0006798941    1.426    0.299
       229  -8.1502     88.7242    168.5877   9.0636182748e+01   2.8436189477e+01    0.2578503    0.1867975 -89.32  0.001157098    1.723    0.419
       230  -8.9064    218.8042    167.8273   5.9970641035e+01   5.6899383957e+00    0.2592597    0.1656164 -48.39 0.0006168988    1.530    0.346
       231  -8.8370    111.5196    167.2014   8.4038426459e+01   2.4951385107e+01    0.3503552    0.2504783 -88.13  0.001103965    1.962    0.490
       232  -8.9249    191.9572    166.6011   6.4779620630e+01   1.0400480239e+01     0.270822    0.1936257 -50.11 0.0005611538    1.412    0.292
       233  -8.7611    185.1185    166.5709   6.6166809545e+01   1.1611508413e+01    0.2462429    0.1862129 -50.80 0.0004544419    1.348    0.258
       234  -9.2120     20.6164    165.8106   1.0979122669e+02   3.7685795185e+01    0.4477218    0.2236803  66.93  0.001444111    2.474    0.596
       235  -9.8201    137.0434    164.3548   7.6755970164e+01   2.0983017014e+01    0.6897402    0.3566142  56.98  0.002212848    2.970    0.663
       236  -9.8421     94.9792    161.9677   8.7626510618e+01   2.9096567126e+01    0.9952224    0.6384848  89.92  0.003220266    2.456    0.593
       237  -8.4032    234.0788    164.6951   5.6772223421e+01   3.8995752365e+00    0.2284173    0.1493481 -44.98 0.0006813014    1.372    0.271
       238  -9.2034    246.1093    162.8880   5.4536515723e+01   2.4529268661e+00    0.3267977    0.1469722 -44.20 0.0006675891    1.883    0.469
       239  -7.9348    242.3040    159.7041   5.4514293391e+01   3.5487138587e+00    0.1742711    0.1315179 -20.10 0.0003510884    1.325    0.245
       240  -8.1585    245.2808    158.6564   5.3861328771e+01   3.2937576714e+00    0.1654935    0.1310627  44.10 0.0007691609    1.568    0.362
       241  -8.3399    240.1363    163.9081   5.5653426235e+01   3.1402949167e+00    0.1899689    0.1554399 -48.91 0.0004331471    1.263    0.208
       242  -8.6246    213.0638    163.6771   6.0169043292e+01   7.3868178119e+00    0.2428288    0.1737249 -41.46 0.0006062085    1.244    0.196
       243  -8.6633    159.5332    163.9036   7.1215937183e+01   1.6863152773e+01    0.2768741    0.2348981 -88.89 0.0009803039    1.514    0.339
       244  -8.3384     56.6149    163.8846   9.9138981061e+01   3.4288705157e+01    0.3722289    0.2064639  -1.98  0.001308832    3.460    0.711
       245  -9.6346     33.1705    162.8553   1.0585497255e+02   3.7253281420e+01    0.5868319    0.2764855  56.47  0.002330866    2.640    0.621
       246  -8.6307    204.9249    162.4788   6.1422104235e+01   8.9745097859e+00    0.2633295     0.174458 -52.96 0.0006355961    1.602    0.376
       247  -9.7491      3.4707    162.1332   1.1418890019e+02   3.9984325897e+01    0.4655063    0.2199155  54.17  0.001677566    2.306    0.566
       248  -8.7147    151.7896    160.8494   7.2389199081e+01   1.9003052833e+01    0.3243954    0.2303563 -82.84  0.000891988    2.255    0.557
       249  -9.1760    177.4956    160.4310   6.6485436222e+01   1.4261267640e+01    0.3335878    0.2618397 -71.97  0.001082448    1.658    0.397
       250  -8.8883     60.6286    160.0127   9.7335665609e+01   3.4774510492e+01    0.3695378    0.2286924  81.86  0.001066061    2.220    0.550
       251  -8.5857    237.3587    159.0004   5.5148791357e+01   4.4063683470e+00    0.2776383    0.1709902 -53.45 0.0008998283    1.759    0.431
       252  -9.1244    166.3574    159.8760   6.8805086533e+01   1.6458106323e+01    0.2828674     0.235216 -23.22  0.000381212    1.238    0.193
       253  -9.2912    167.3320    156.6925   6.7903898440e+01   1.6959888828e+01    0.3839477    0.2696132  80.06  0.001091187    2.460    0.594
       254  -9.8229    250.1997    157.5015   5.2911214179e+01   2.7821288389e+00    0.3445911     0.170713 -45.46 0.0008437907    1.727    0.421
       255  -8.3420    246.7177    155.3438   5.3017285209e+01   3.6500073471e+00    0.1806435   0.09961279 -35.88 0.0004600329    1.530    0.346
       256  -8.6981    227.3555    158.6933   5.6705442247e+01   6.0027372575e+00    0.2639467    0.1938433 -63.98  0.001135232    1.768    0.434
       257  -8.5136    128.1076    158.6312   7.7850184543e+01   2.4006275572e+01    0.2670042    0.2164453 -68.00   0.00078541    1.379    0.275
       258  -9.4853    105.9539    157.8269   8.3698514318e+01   2.8251794496e+01    0.4684489      0.31041  66.37   0.00121982    2.109    0.526
       259  -8.5522    196.4780    157.6559   6.2037921013e+01   1.1383313869e+01    0.2421713    0.1857536 -57.12 0.0006195274    1.429    0.300
       260  -8.1954    188.0145    157.4669   6.3673835720e+01   1.2942641857e+01    0.2320687    0.1762931 -42.76 0.0005775281    1.223    0.182
       261  -8.5322    218.1140    156.4500   5.7824012749e+01   7.9040935198e+00    0.2752761    0.1586587 -55.47 0.0009651894    2.031    0.508
       262  -8.9253    157.7701    155.8614   6.9903478343e+01   1.8970944343e+01    0.3047189    0.2092108 -55.91 0.0008322716    1.557    0.358
       263  -9.2486    119.5846    155.1190   7.9372606024e+01   2.6443272912e+01    0.4314257    0.3211309 -85.85   0.00143266    1.838    0.456
       264  -9.3075     49.6402    154.9890   9.9836471866e+01   3.7479044980e+01    0.4608891    0.2798333  67.98  0.001591382    2.145    0.534
       265 -10.0359    243.1620    149.7757   5.2481406247e+01   5.1331227667e+00    0.3212859      0.27572  65.17  0.002088614    1.538    0.350
       266  -9.4651    241.5408    153.9965   5.3537362433e+01   4.6481777491e+00    0.3752652    0.2671652  82.74   0.00192595    2.666    0.625
       267  -8.0070    204.8111    155.0260   5.9913697034e+01   1.0431156855e+01     0.219431    0.1476923 -62.08 0.0005869348    1.901    0.474
       268  -9.0381    144.8386    154.4389   7.2690855317e+01   2.1789030716e+01    0.4077769    0.3121615 -47.39  0.001595293    1.281    0.219
       269  -9.2080     68.0036    153.3401   9.3969710428e+01   3.5499465353e+01    0.4653798    0.2902753  73.29  0.001340574    2.333    0.571
       270  -7.9456    232.9780    153.9562   5.4860921343e+01   5.9677217066e+00    0.1960023    0.1487619 -65.08  0.000638354    1.668    0.401
       271  -9.6379    132.7680    152.7656   7.5372001629e+01   2.4508453939e+01    0.4669293    0.3618583  83.53  0.001243988    1.759    0.431
       272  -9.3393    133.5023    148.0044   7.4127863458e+01   2.5482673615e+01    0.3933479    0.2509599 -41.10  0.001688148    1.586    0.369
       273  -9.0209     20.0961    152.2577   1.0838244660e+02   4.1222298708e+01    0.2446772    0.1578398  89.35 0.0007494087    1.577    0.366
       274  -8.1216    151.6991    152.3945   7.0577169703e+01   2.0918857622e+01    0.2308587    0.1840721  83.24 0.0007572252    1.687    0.407
       275  -9.9088     29.5971    150.5229   1.0529084417e+02   4.0813061514e+01    0.5679066    0.2793456  64.72  0.001897863    2.945    0.660
       276  -9.1071      2.6352    150.5779   1.1333403170e+02   4.2963943168e+01    0.4250954    0.1361672 -74.87  0.001640134    2.661    0.624
       277  -9.5804    248.8836    149.2987   5.1552492543e+01   4.3603678136e+00    0.3301868    0.1580285 -42.96 0.0007665172    1.697    0.411
       278  -8.9873    189.4992    149.8849   6.1764057679e+01   1.4203470894e+01    0.3252641    0.2270657 -61.46 0.0007886244    1.710    0.415
       279  -8.0524    182.4743    151.0018   6.3424759830e+01   1.5289827295e+01    0.2197521    0.1362554 -47.64  0.000536672    1.543    0.352
       280  -8.8309     98.3349    150.6512   8.4393143107e+01   3.1380790849e+01    0.3275516    0.2481681  76.43 0.0008036752    1.702    0.413
       281  -8.1528    212.9696    149.5158   5.7308231484e+01   1.0067859708e+01      0.21081    0.1642664 -41.89 0.0003969049    1.134    0.118
       282  -8.1382    162.6375    150.3557   6.7577586941e+01   1.9235515962e+01    0.2262245    0.1825057 -87.86 0.0006616961    1.651    0.394
       283  -8.7127    198.5089    148.5243   5.9730370618e+01   1.2818807921e+01    0.2544263    0.2217593 -78.59 0.0006035498    1.389    0.280
       284 -10.0004     89.3113    146.0345   8.6093900592e+01   3.4083425556e+01    0.7453659    0.4367985 -86.11  0.002480771    3.326    0.699
       285  -9.8177     39.7660    147.5759   1.0172381291e+02   4.0545045761e+01    0.5974603      0.30848  63.86  0.002188226    2.868    0.651
       286  -9.4781    233.7733    147.4346   5.3453569311e+01   6.9990920797e+00    0.2592435    0.1588939 -36.60  0.000688529    1.410    0.291
       287 -10.6209     54.8459    143.0388   9.6210106316e+01   3.9955474790e+01     1.114897    0.5925117 -73.89  0.003628494    2.166    0.538
       288  -8.2578    223.1936    146.6580   5.4990310366e+01   8.8635746743e+00     0.230779     0.156696 -47.61 0.0006068918    1.337    0.252
       289 -10.2805    149.1512    144.8579   6.9504319186e+01   2.3112267144e+01    0.6029549     0.421225  88.21  0.001683811    2.424    0.587
       290 -10.1213    106.8674    144.4998   8.0610042432e+01   3.1389349495e+01    0.7417617    0.4481717  72.00  0.002492787    3.237    0.691
       291  -7.8891    105.4753    138.5034   7.9668144462e+01   3.3117151039e+01     0.253281     0.196009 -18.46 0.0008473049    1.568    0.362
       292  -8.2265     78.0061    146.9532   8.9708825771e+01   3.5667857207e+01    0.2426894    0.1820415  73.28 0.0005146369    1.656    0.396
       293  -9.4981     13.6166    146.1801   1.0960230617e+02   4.3310033407e+01    0.3659183    0.2153808  61.45  0.001319061    1.959    0.490
       294  -8.1034    206.8608    146.1773   5.7698331727e+01   1.1771597570e+01    0.2043239    0.1767079 -58.68 0.0005195559    1.221    0.181
       295  -8.3450    175.8338    146.0874   6.3738906250e+01   1.7578700957e+01    0.2286099    0.1964219 -73.11 0.0006686187    1.351    0.260
       296 -10.1747    139.1742    144.8002   7.1955158227e+01   2.5109863680e+01    0.5876786    0.3481733 -69.01  0.001995617    2.660    0.624
       297  -9.7169    139.0266    137.7428   7.0365797318e+01   2.6754566321e+01    0.4540236    0.3019363  -7.33   0.00170839    2.599    0.615
       298 -10.4430    241.5148    143.4418   5.1500515501e+01   6.4802462108e+00     0.500735    0.3031075 -20.09  0.002456171    2.230    0.552
       299  -9.1459    247.0621    143.6579   5.0737830493e+01   5.5916496726e+00    0.2535336    0.1539927 -40.50 0.0005376827    1.335    0.251
       300  -8.3453    250.4825    140.9062   4.9730715381e+01   5.5421652170e+00    0.1895956     0.155988 -54.07  0.000555173    1.217    0.179
       301  -8.9119    165.9575    143.8015   6.5371536198e+01   1.9998999779e+01    0.2931716    0.2362247 -68.47 0.0009775755    1.445    0.308
       302  -9.7295    124.9266    142.2919   7.5096018205e+01   2.8501427799e+01    0.5098189    0.3580673 -84.13  0.001219502    2.177    0.541
       303  -9.3835      2.9318    142.1168   1.1237828164e+02   4.5089989377e+01    0.3848422    0.2088349  62.16  0.001358787    2.159    0.537
       304  -7.4736    194.3070    143.6821   5.9494112333e+01   1.4548068473e+01    0.1414455    0.1114396 -75.36 0.0004717746    1.633    0.388
       305  -9.8873     73.4326    128.9857   8.7398041005e+01   4.0951341096e+01     0.618499    0.3393531 -63.73  0.001532227    1.981    0.495
       306 -10.5963     69.5717    140.6445   9.1080185465e+01   3.8561054067e+01    0.6582164    0.4329807  88.91   0.00215286    2.168    0.539
       307  -9.7024     69.7667    133.8278   8.9626368166e+01   4.0278665539e+01    0.3402546    0.2255771   4.16  0.001336953    2.059    0.514
       308  -8.4888    182.0301    141.3796   6.1412358370e+01   1.7350770338e+01    0.2571933    0.1987804 -66.96 0.0005648148    1.529    0.346
       309  -9.9540     23.3663    137.7923   1.0546366962e+02   4.4680378680e+01    0.5526599    0.2961166  69.22  0.001884523    2.630    0.620
       310  -7.8130    218.5314    138.4600   5.4083528632e+01   1.1163532421e+01    0.1364327    0.1183742 -42.32 0.0001290996    1.015    0.015
       311  -8.3429    207.7212    137.8790   5.5798325252e+01   1.3198876280e+01    0.2598949     0.172687 -56.81 0.0008033909    1.612    0.379
       312  -8.7145    197.5809    137.2032   5.7478152796e+01   1.5207604703e+01    0.3055044    0.1907684 -57.59 0.0009679323    1.800    0.445
       313  -8.5272    172.1799    137.7459   6.2649912936e+01   2.0043588726e+01    0.3014727    0.2197486 -69.49 0.0008549128    1.744    0.427
       314  -9.2182    150.4656    136.2141   6.7198929546e+01   2.4771707349e+01    0.4886949    0.2843822  20.80   0.00173308    2.895    0.655
       315 -10.4749     83.2699    133.1295   8.5171268933e+01   3.8342332180e+01    0.6498659    0.4257418 -56.70  0.001855823    1.502    0.334
       316  -8.7126    247.0085    130.0395   4.8125449751e+01   7.9133302575e+00    0.2219431    0.1507775 -44.31 0.0005234822    1.195    0.163
       317  -9.2738    248.6330    134.9545   4.8849176467e+01   6.8288239339e+00    0.2865009    0.1716701 -47.50 0.0008465579    1.413    0.292
       318  -8.9696    250.7843    129.8788   4.7586690808e+01   7.3495438285e+00    0.4665671   0.09942457 -38.60  0.001442136    4.564    0.781
       319  -7.9412    192.6657    136.3085   5.8204157620e+01   1.6317694062e+01    0.1438803    0.1118723 -78.72  0.000704206    1.673    0.402
       320  -8.4151    162.7949    136.1741   6.4340295312e+01   2.2267591893e+01    0.2296091    0.2021356 -74.59 0.0006162389    1.264    0.209
       321  -9.4430     39.0896    135.5700   1.0000363278e+02   4.3740624878e+01    0.3722372    0.2440804 -82.75  0.001231605    1.693    0.409
       322  -8.0689    187.8339    135.0497   5.8854812809e+01   1.7501797050e+01    0.2348304    0.1537477 -63.11 0.0005658231    1.897    0.473
       323  -8.7075    179.4877    133.8224   6.0239710935e+01   1.9395114912e+01    0.2766709    0.2234203 -75.01 0.0008603057    1.486    0.327
       324  -9.0742    112.8818    133.1064   7.6287038442e+01   3.3024819764e+01    0.3819826    0.2877738  86.94 0.0009867586    1.857    0.461
       325  -8.1152    237.5044    133.0796   5.0056072441e+01   8.9191070648e+00    0.2037673     0.107379 -44.57  0.001016337    1.583    0.368
       326  -7.8288    231.4853    133.5659   5.1043763729e+01   9.8304905691e+00    0.1314683    0.1117432 -40.23 4.130348e-05    1.029    0.028
       327 -10.9145    132.5829    129.9805   7.0173153397e+01   2.9831291248e+01    0.9285409    0.5094479 -47.96  0.001435593    1.798    0.444
       328  -9.3766    143.1909    131.4825   6.7846331061e+01   2.7313856150e+01    0.3356282    0.2645358 -64.50 0.0008332066    1.412    0.292
       329 -10.2816     98.0757    129.9784   7.9885018959e+01   3.6554574758e+01    0.6665719    0.3492253 -52.89  0.001815895    1.890    0.471
       330 -10.0241     12.8156    128.4575   1.0758961600e+02   4.7900764833e+01    0.5988572    0.3076651  84.04  0.002458027    2.594    0.615
       331  -8.3075    204.9183    130.0113   5.4606900497e+01   1.5208765642e+01    0.2200163    0.1610872 -70.58 0.0007277676    1.703    0.413
       332  -8.1523    192.6012    129.8199   5.6785619528e+01   1.7605515601e+01     0.201957    0.1249788 -52.49 0.0003291466    1.610    0.379
       333  -9.2532    168.3298    129.2296   6.1516630628e+01   2.2601891676e+01    0.3224136    0.2396193 -70.38 0.0005524167    1.664    0.399
       334  -8.7608    162.3198    130.3010   6.3080276632e+01   2.3615134989e+01    0.1512792     0.120359  -2.32 0.0002564313    1.624    0.384
       335  -9.4151    152.8912    128.9135   6.4902131960e+01   2.5866853668e+01    0.4159794    0.2738132 -66.08 0.0009820989    1.981    0.495
       336  -7.9196      1.8024    129.8596   1.1135528915e+02   4.8255806697e+01    0.1784259     0.139976  75.37 0.0007836579    1.344    0.256
       337  -7.4837    220.5051    129.5640   5.1924000054e+01   1.2442940581e+01    0.1354772    0.1167367 -50.52 0.0001212626    1.064    0.061
       338  -8.1406    211.5093    128.9722   5.3262228906e+01   1.4178008625e+01    0.2115496    0.1211251 -45.23 0.0009081589    1.545    0.353
       339 -10.7875     45.0477    123.3742   9.5767657026e+01   4.6208784486e+01     1.176491    0.6393046  76.42  0.003894041    4.023    0.751
       340 -10.4399     60.1773    124.9729   9.0921997562e+01   4.3892857895e+01     0.723793    0.4494085  74.37  0.002618647    2.743    0.635
       341  -9.8248    117.9045    124.7891   7.2859867160e+01   3.3994635984e+01    0.5934521    0.4235467 -83.40  0.001575866    2.099    0.524
       342  -8.6543    228.5051    125.0586   4.9769620169e+01   1.1843284093e+01    0.2037054    0.1117315 -44.95  0.001006825    1.549    0.354
       343  -8.9628    179.2991    124.4824   5.8145689120e+01   2.1321059564e+01    0.2902379    0.2294131 -71.74  0.000574422    1.468    0.319
       344 -10.2781     28.5471    122.1674   1.0126968995e+02   4.8223441639e+01    0.7237551    0.3920805  74.79  0.002769612    3.161    0.684
       345  -8.0209    188.5834    123.8036   5.6192273984e+01   1.9575944512e+01    0.2025582    0.1269225 -52.87 0.0004682732    1.592    0.372
       346  -9.5185    158.7057    121.4615   6.1782232182e+01   2.6230462423e+01    0.3795035     0.277461 -83.29  0.001120743    1.926    0.481
       347  -8.7575     84.2562    122.8558   8.2493962167e+01   4.0721447426e+01    0.2832339    0.1996313  -5.21  0.000882693    1.958    0.489
       348  -7.8744    203.3805    122.1777   5.3173177795e+01   1.6976979642e+01    0.2023073    0.1169295 -51.65 0.0005229179    1.677    0.404
       349  -7.8802    194.8869    121.8436   5.4591245806e+01   1.8699196326e+01    0.1958146    0.1567329 -63.98 0.0004225255    1.309    0.236
       350  -8.8271    172.0258    121.3398   5.8889310333e+01   2.3455180857e+01    0.2014792     0.189626  66.24 0.0004231458    1.114    0.102
       351  -8.9442     98.6312    120.6368   7.7455702397e+01   3.8697567337e+01    0.3808037    0.2361585   6.06  0.001345747    2.914    0.657
       352 -10.2512    141.6060    117.7582   6.4878205512e+01   3.0650613242e+01    0.6651649    0.3386726 -52.32  0.001646619    2.101    0.524
       353 -10.0668     71.5144    118.2990   8.5595826453e+01   4.3901979172e+01    0.6665472    0.3083218 -48.45  0.001901272    2.039    0.510
       354  -9.7729    130.7718    118.3009   6.7757868851e+01   3.2822877928e+01    0.4225856    0.3096994  89.85  0.001351792    2.009    0.502
       355  -9.7601      2.7827    116.7132   1.0936729995e+02   5.1487136023e+01    0.5516351    0.2709599  78.83  0.002276321    2.961    0.662
       356  -8.1627    185.9187    115.8888   5.4886666535e+01   2.1651810707e+01     0.224015    0.1669937 -73.38 0.0005541493    1.619    0.383
       357  -9.8771    109.3098    113.8566   7.2543043701e+01   3.8213734274e+01    0.5577769    0.3511215 -69.98  0.001375266    2.374    0.579
       358  -9.1120    110.2828    106.8051   7.0399014874e+01   3.9591236594e+01    0.4073973    0.2245235  29.36  0.001361984    2.250    0.556
       359  -9.0100     58.6615    115.1247   8.9269276129e+01   4.6556467182e+01    0.3427807    0.2371133 -13.32  0.001573635    1.814    0.449
       360  -9.0911    249.9860    114.5417   4.4750967907e+01   1.0022705068e+01    0.1908648    0.1433984 -45.71  0.001207989    1.072    0.067
       361 -10.5584    248.5181    107.5494   4.3587149514e+01   1.1407936527e+01    0.4333973    0.2423511 -37.66  0.001885753    1.597    0.374
       362  -8.3782    192.9645    114.9778   5.3392578348e+01   2.0389052930e+01    0.2540579    0.1769923 -51.38 0.0006589458    1.355    0.262
       363  -9.2519    174.4972    112.8103   5.6368068399e+01   2.4633808485e+01    0.4847021    0.2090067 -38.67   0.00159176    2.355    0.575
       364  -8.3108    153.4525    115.4769   6.1505018094e+01   2.8596398009e+01    0.1508417       0.1452 -64.01 0.0001110713    1.022    0.021
       365  -8.3430    167.1544    114.1091   5.8176978649e+01   2.5938015503e+01    0.2250196    0.2025874 -17.06 0.0005150461    1.239    0.193
       366 -10.3912     92.8283    110.4571   7.6661995251e+01   4.2152416392e+01     1.054534    0.4431035 -50.03  0.002915606    2.360    0.576
       367  -9.9717     78.8547    112.0864   8.1620162597e+01   4.4223603162e+01    0.5264311    0.3732303 -87.42  0.001576387    2.172    0.540
       368 -10.7367    133.5853    109.4280   6.4755173473e+01   3.4143134014e+01    0.7406566    0.3995097 -45.91  0.002285911    1.846    0.458
       369  -9.7498    121.9472    112.3814   6.8592473538e+01   3.5969317603e+01    0.3521039    0.3031235 -87.39 0.0007442837    1.370    0.270
       370  -8.8254    159.3272    111.5187   5.9215182919e+01   2.8140114230e+01    0.2716273    0.2215822 -54.35 0.0006327336    1.214    0.177
       371 -10.3600     66.2824    109.3885   8.5238971417e+01   4.6856712785e+01    0.6245905    0.3583123 -56.95  0.002115831    1.745    0.427
       372  -9.8811     14.1443    110.9030   1.0447093083e+02   5.2212229805e+01    0.3804199    0.2470108  61.38  0.001446337    1.999    0.500
       373  -7.7282    182.9619    109.4632   5.3947000137e+01   2.3495062425e+01    0.1861005    0.1250283  85.05 0.0004332754    2.199    0.545
       374  -9.1145     43.2366    109.3664   9.3505036179e+01   4.9912721601e+01    0.3651235    0.1435884  20.44    0.0013237    3.068    0.674
       375  -7.6560    231.5267    117.4514   4.7785102568e+01   1.2645248934e+01    0.1320774     0.109702 -52.38 0.0008074237    1.056    0.053
       376  -8.1797    189.2002    107.8496   5.2435190624e+01   2.2497654700e+01    0.2188809    0.1792227 -65.86 0.0005283665    1.238    0.192
       377  -9.8514    119.1377    105.8710   6.7643258507e+01   3.7969145091e+01     0.282627     0.235784  26.94 0.0008874175    1.279    0.218
       378 -10.5221     45.8086    102.0479   9.0882203894e+01   5.1379862459e+01    0.8208753    0.4894762  68.99   0.00309506    3.380    0.704
       379  -8.9647     45.9762     92.5351   8.8465361335e+01   5.3582554979e+01    0.4790067    0.2496408  -0.21  0.001750861    3.294    0.696
       380 -10.5937     23.0013    102.6097   9.9666254493e+01   5.3563735246e+01     0.718329    0.4222149  72.51  0.002441094    2.890    0.654
       381  -9.6264    150.7109    102.9420   5.8965743766e+01   3.1738501103e+01    0.4651798    0.2861018 -63.65  0.001165725    2.142    0.533
       382  -9.2149    140.0528    104.4490   6.1849245643e+01   3.3776396441e+01     0.342399    0.2564596 -81.30 0.0008307218    1.784    0.440
       383  -9.5671     78.9480    103.6586   7.9405362851e+01   4.6174894886e+01    0.3865092    0.2719381 -22.06  0.000942701    1.696    0.410
       384  -9.3898     82.1209     99.8709   7.7312897939e+01   4.6485157125e+01    0.4017578    0.2893835 -71.05  0.001159673    1.849    0.459
       385  -8.5638    166.7107    103.8773   5.5771459009e+01   2.8043968429e+01    0.2675217    0.1865426 -59.39 0.0005984577    1.543    0.352
       386 -10.7248    109.1752     98.6882   6.8503550305e+01   4.1564566605e+01    0.8834519    0.5290776  70.79  0.001507712    3.291    0.696
       387  -9.5262    107.2899     92.5901   6.7334180566e+01   4.3219768684e+01     1.012038      0.36957  33.08  0.002775489    4.519    0.779
       388  -9.8509    128.4883    101.7765   6.4040635839e+01   3.6840686387e+01    0.3827278    0.2854863 -67.21 0.0009318801    1.625    0.385
       389  -9.2932      6.7624    102.6420   1.0582591794e+02   5.4710601071e+01    0.2569079    0.1651102 -79.62 0.0008777866    1.603    0.376
       390  -7.8695    175.5899    101.7990   5.3515222357e+01   2.6512061756e+01    0.2032415    0.1280579 -52.95 0.0006611707    1.592    0.372
       391  -8.4008    159.8237    100.7506   5.6419220220e+01   3.0156867409e+01       0.2678    0.1772843 -65.52 0.0005145567    1.876    0.467
       392  -8.7960    243.6402     99.0427   4.2528096179e+01   1.3614288431e+01    0.2004916   0.09918557 -24.05 0.0007043335    4.493    0.777
       393  -9.2301     95.0607     97.0067   7.2305773319e+01   4.4731822437e+01    0.3167687    0.2372746 -60.69 0.0005573476    1.538    0.350
       394 -10.2197     63.9283     95.6376   8.2523122520e+01   5.0413460008e+01    0.5839121    0.4013533  89.96   0.00177045    2.641    0.621
       395  -8.7334    151.4587     94.9711   5.6737029344e+01   3.3122117488e+01     0.313463    0.2155242  -4.11   0.00126545    2.577    0.612
       396  -8.3226    131.0067     96.5268   6.1975292738e+01   3.7358466151e+01    0.2379245    0.1471163  48.49  0.001036259    1.605    0.377
       397  -8.4280    176.8052     93.2947   5.1229374783e+01   2.7812054605e+01    0.2761946    0.1716661 -61.49 0.0009671617    1.854    0.461
       398  -8.1946    164.9118     93.9489   5.3661791026e+01   3.0314202892e+01     0.228074    0.1684538 -74.03 0.0004338165    1.611    0.379
       399  -9.7618    247.7859     92.6598   4.0804883488e+01   1.3917068799e+01    0.2715342    0.1852676  34.16  0.001518932    2.409    0.585
       400  -7.6033    188.7029     93.3740   4.9159126388e+01   2.5230252335e+01    0.1497967    0.1010508 -69.48 0.0007027018    1.744    0.426
       401  -9.6595    139.0619     91.8084   5.8721981624e+01   3.6497986956e+01    0.4682046    0.2624987 -52.69 0.0007863308    1.975    0.494
       402 -10.6445    124.2931     90.3608   6.1995381601e+01   4.0046287946e+01    0.7526914    0.5686368 -16.14  0.001719948    1.678    0.404
       403  -9.5122      5.4923     91.8895   1.0445049657e+02   5.7348916131e+01    0.3261673    0.2168419  69.13  0.001183825    2.097    0.523
       404  -8.4573    158.0689     91.6470   5.4466211925e+01   3.2266279981e+01    0.2564989    0.1926663 -56.91 0.0007955621    1.368    0.269
       405  -9.6648     34.8153     88.5287   9.1869140844e+01   5.5771921689e+01    0.6909668    0.2857772 -63.18  0.002681501    2.722    0.633
       406  -9.2325     22.7132     89.6601   9.7047623237e+01   5.6658751129e+01    0.3150764    0.2055654 -31.17 0.0007982304    1.471    0.320
       407  -7.8344    150.8534     88.8442   5.5261557321e+01   3.4405967930e+01    0.2059611    0.1680551 -71.57 0.0004853143    1.342    0.255
       408 -10.2114     86.4935     85.8436   7.1836502232e+01   4.8700422801e+01    0.6220734    0.3995552 -58.19  0.001515344    1.909    0.476
       409  -8.7938     64.2222     88.1643   8.0334322647e+01   5.2025102945e+01    0.3526912    0.2112543 -14.12  0.001407765    2.551    0.608
       410  -9.8410     48.7282     83.8418   8.5043207888e+01   5.5177094466e+01    0.5946204    0.4254443 -86.14  0.002115309    2.338    0.572
       411  -9.7717    104.7945     82.9431   6.5250236060e+01   4.5655121203e+01     0.427489    0.3177966 -71.99  0.001296113    1.870    0.465
       412  -8.8671    104.9882     77.4747   6.3547028788e+01   4.6649722263e+01    0.3957767    0.2528617  -1.44  0.001510942    2.898    0.655
       413  -7.7191     80.2914     85.3486   7.3777021823e+01   4.9937613204e+01    0.1515758     0.110728 -10.85   0.00070282    1.668    0.400
       414  -8.4531    157.9982     83.7551   5.2437620581e+01   3.3709268347e+01     0.247659    0.1996544 -47.40 0.0004218817    1.230    0.187
       415  -8.4278     64.1054     82.6049   7.8755262195e+01   5.3230571320e+01    0.2370147    0.1918944 -57.74 0.0006292096    1.399    0.285
       416  -9.7789     24.7597     80.2323   9.3952650183e+01   5.8620919642e+01    0.4610207    0.3119005 -88.47  0.001410824    2.344    0.573
       417  -9.3912      9.7523     80.6358   1.0045064204e+02   5.9686360473e+01    0.3163137    0.2050651  55.75  0.001298507    2.259    0.557
       418  -8.2434    150.3426     80.4562   5.3139399225e+01   3.6029890572e+01    0.2469495    0.1658792 -61.24 0.0007143514    1.721    0.419
       419  -8.9518     74.8114     80.2672   7.4149367182e+01   5.1942681885e+01    0.3496744    0.2563448 -79.66  0.001161792    2.270    0.559
       420  -8.4020    166.8928     79.3375   4.9586835350e+01   3.2462609736e+01    0.2336322    0.1805761 -54.14 0.0004559953    1.271    0.213
       421  -8.5824    119.3092     79.9019   6.0304072489e+01   4.3121075452e+01    0.2674646    0.2164145 -71.06 0.0006709109    1.492    0.330
       422  -8.3497     92.1500     79.3382   6.8028538835e+01   4.8909627390e+01    0.2129197    0.1302137  50.65 0.0007871867    1.751    0.429
       423  -7.9540    184.2277     77.9847   4.6259146685e+01   2.8825897484e+01    0.1823412    0.1081986 -41.67 0.0007473151    1.625    0.385
       424  -9.1830    140.9227     82.5206   5.5756199863e+01   3.7805759213e+01     0.376871    0.2020504 -49.24 0.0009863264    1.987    0.497
       425  -9.3197    128.1034     75.1038   5.6676522686e+01   4.2022989048e+01    0.3406998    0.2456092 -64.77 0.0007029379    1.710    0.415
       426  -8.3460    140.4707     75.1154   5.3808236552e+01   3.9210873441e+01     0.225462     0.192713 -84.12 0.0005875427    1.269    0.212
       427  -9.9651     63.1493     73.2850   7.6253184615e+01   5.5281111023e+01    0.4659594    0.3002684 -57.38  0.001080635    1.919    0.479
       428  -9.8032     82.4411     72.2321   6.8983360865e+01   5.2126231095e+01    0.4201089    0.2969796 -65.16   0.00102044    2.051    0.512
       429  -8.1205    151.3935     73.1561   5.0962015044e+01   3.7036952126e+01    0.2026301     0.126441 -51.57 0.0005256503    1.687    0.407
       430  -8.6250    115.8323     72.7045   5.9086055040e+01   4.5176247414e+01    0.2644663     0.207301 -49.17 0.0005659026    1.369    0.269
       431  -8.1815     42.7666     72.6011   8.4198913250e+01   5.8324370001e+01    0.2174306    0.1735514 -76.28  0.000773099    1.777    0.437
       432  -7.7089    175.4884     72.4491   4.6349788870e+01   3.1667313304e+01    0.1361036    0.1278594 -86.34 0.0008077084    1.057    0.054
       433  -9.3064    106.1862     71.6301   6.1408659044e+01   4.7454531858e+01    0.2867368    0.2322339 -82.86 0.0007605956    1.641    0.391
       434  -9.3237     95.1713     70.8783   6.4437478536e+01   4.9883097590e+01    0.3863175    0.2378429 -54.99  0.001078458    2.062    0.515
       435  -9.4940     51.6185     69.3981   7.9549614924e+01   5.7788223782e+01    0.4295857     0.279108 -68.79   0.00157927    2.558    0.609
       436  -8.8416     28.7080     70.3969   8.9599069129e+01   6.0369468791e+01    0.3163548    0.1444392 -29.67   0.00131545    2.553    0.608
       437  -9.2874     16.5916     69.8468   9.4862505621e+01   6.1571050392e+01    0.2752183    0.2145045 -85.07  0.001185683    1.779    0.438
       438  -8.9645    147.1158     67.6100   5.0319097843e+01   3.8929746212e+01    0.3828295    0.1852131 -41.77  0.001070912    2.103    0.524
       439  -8.5305    138.7872     66.1134   5.1644407803e+01   4.1091206672e+01    0.2777302    0.1827163 -52.57 0.0007991545    1.660    0.398
       440  -7.5420    203.2750     66.6645   4.0866014006e+01   2.6513924574e+01    0.1366104   0.08741339 -66.40 0.0006995345    1.605    0.377
       441  -8.7159    121.6159     65.7817   5.5516711072e+01   4.5061901332e+01     0.267157    0.2028375 -69.91 0.0007227652    1.660    0.398
       442  -8.1265    163.4902     73.0637   4.8608159773e+01   3.4282269024e+01    0.2123983     0.132398 -44.97  0.001015108    1.589    0.371
       443  -9.2214     37.3545     63.9590   8.3840666411e+01   6.0728780284e+01    0.2973473    0.2274421 -83.93  0.001315262    2.242    0.554
       444  -9.0167    110.2260     63.3529   5.7709028608e+01   4.7988533144e+01    0.3000192     0.231016 -57.10 0.0008158665    1.528    0.345
       445  -8.6662     64.8921     62.6627   7.2102189907e+01   5.7005716451e+01    0.4082345    0.2331186   3.77  0.001540837    3.229    0.690
       446  -7.5034    157.2779     69.6655   4.8879565181e+01   3.6257226609e+01    0.1443222    0.1039282 -72.11 0.0003779453    1.608    0.378
       447  -8.2593    158.1791     61.5605   4.6568572759e+01   3.7319440460e+01    0.2083342    0.1624552 -34.95 0.0004800158    1.396    0.284
       448  -9.3916     97.6914     60.2868   6.0257197740e+01   5.1175542641e+01    0.3049377    0.2288421  57.46 0.0009276959    1.405    0.288
       449  -8.4449     52.2972     61.4486   7.6657146981e+01   5.9212574203e+01    0.2603361    0.1251231  27.85  0.001139737    2.145    0.534
       450  -8.8751    146.2914     57.9446   4.7811462251e+01   4.0617369872e+01    0.2828085    0.1937705 -59.07  0.001025206    1.629    0.386
       451  -9.7193     73.4524     59.2040   6.7769363234e+01   5.6118643476e+01    0.4149665     0.253866 -51.31   0.00110737    2.034    0.508
       452  -8.5905    130.9491     57.5438   5.0874757000e+01   4.4229092757e+01    0.2062314    0.1877498 -49.47 0.0006321197    1.165    0.142
       453  -7.9737     38.6672     58.7092   8.1545849701e+01   6.1581802686e+01    0.1369908   0.09001584 -12.62 0.0006661006    1.631    0.387
       454  -9.8595     23.4728     56.2506   8.7717686800e+01   6.3740751539e+01    0.3949146    0.2952549  82.84  0.002067912    2.618    0.618
       455  -9.4087      7.5969     57.0804   9.5634753343e+01   6.4877512990e+01      0.28302    0.2135746  70.61  0.001244951    2.201    0.546
       456  -9.4404    118.9790     55.0938   5.2897311258e+01   4.7328623571e+01    0.3976996    0.1846371 -45.12  0.001314999    2.418    0.586
       457  -8.2242    140.1359     55.9341   4.8466347041e+01   4.2344051295e+01     0.209199    0.1749689 -72.61 0.0004713412    1.278    0.217
       458  -8.7263     44.2403     55.2159   7.7903559866e+01   6.1497966719e+01    0.2550383    0.2014838 -49.77 0.0008258526    1.479    0.324
       459  -9.0872     62.9000     54.5219   7.0025335095e+01   5.8762178481e+01    0.2702303    0.1923084 -47.56 0.0006722725    1.632    0.387
       460  -9.0134     54.1385     53.7862   7.3229113916e+01   6.0305232238e+01    0.3231615    0.2079937 -56.42  0.001385134    2.194    0.544
       461  -8.6589    105.5576     52.8697   5.5610099824e+01   5.0645452416e+01    0.2510857    0.2117692  88.77 0.0006899484    1.456    0.313
       462  -9.4019     92.4979     50.4257   5.8492331738e+01   5.3795497593e+01    0.3585453    0.2317398 -50.88  0.001182202    1.944    0.486
       463  -8.3855     76.0077     50.8453   6.3934991582e+01   5.7011447504e+01    0.3440056    0.1572178  27.60  0.001248295    3.214    0.689
       464  -8.5903    130.0127     48.9929   4.8539609604e+01   4.5681830718e+01    0.2174665    0.1603577 -75.46 0.0007607117    1.674    0.403
       465  -8.3951     62.2992     49.3558   6.8383000557e+01   5.9714160043e+01    0.1394647    0.0957385   0.79 0.0004740112    1.703    0.413
       466  -8.3663    144.7928     48.6134   4.5492208530e+01   4.2301330408e+01    0.1851598    0.1214875  72.61 0.0002522775    1.539    0.350
       467  -8.4330    120.8013     47.1901   5.0017202117e+01   4.8046613141e+01    0.1962337    0.1793758 -88.12 0.0005405816    1.165    0.142
       468  -8.2327    112.3100     46.9685   5.1958829317e+01   4.9997950933e+01    0.1790047    0.1708044 -46.03 0.0004478588    1.155    0.134
       469  -8.9416     82.1780     46.1714   6.0201985472e+01   5.6520204669e+01    0.2859212    0.2236833 -56.35 0.0008784866    1.684    0.406
       470  -8.4698     44.9705     44.4605   7.3649572316e+01   6.3241110939e+01    0.2139979    0.1767012 -50.47 0.0006995233    1.574    0.365
       471  -9.1994     16.6609     44.2711   8.7075197478e+01   6.6627817967e+01    0.2285173     0.205035 -85.23 0.0008962482    1.756    0.431
       472  -8.4257    132.9527     42.9646   4.6144354626e+01   4.5812543292e+01    0.2128565    0.1537842 -72.55 0.0005680037    1.672    0.402
       473  -9.4120     69.6957     41.5652   6.2734406739e+01   5.9582099544e+01    0.3337015    0.2579829 -63.72  0.001189191    2.013    0.503
       474  -8.8411     58.1924     42.2631   6.7310897309e+01   6.1513239641e+01    0.2935881    0.2181319 -57.04  0.001195431    2.008    0.502
       475  -9.8174      5.2486     41.7476   9.2191770154e+01   6.8006611919e+01    0.3332239    0.2174504 -69.39  0.001795057    2.232    0.552
       476  -8.0272    140.4458     41.4215   4.4261050515e+01   4.4269074691e+01    0.1339692     0.118394  77.93 4.069345e-05    1.044    0.042
       477  -8.8065    105.9016     40.9857   5.1599199917e+01   5.2229551063e+01    0.2166655    0.1835573 -42.94 0.0004918638    1.328    0.247
       478  -8.6387     36.8271     40.6908   7.5862530981e+01   6.4983014066e+01    0.2227525    0.1700117 -47.32 0.0007502107    1.604    0.377
       479  -8.2287     95.5988     37.8194   5.3232657562e+01   5.4883683688e+01    0.1711942     0.123351 -44.64  0.000497149    1.627    0.385
       480  -8.1888     80.7039     36.5982   5.7176672144e+01   5.8136034524e+01    0.2055593    0.1551854 -52.65 0.0008813443    1.750    0.429
       481  -8.7771     92.8461     42.3203   5.5581117774e+01   5.4875864915e+01    0.2506672    0.1677351   8.90  0.001133778    2.031    0.508
       482  -8.4285    126.0021     35.4438   4.5277442349e+01   4.8365632797e+01    0.1875449    0.1789425 -45.27 0.0004162273    1.172    0.147
       483  -9.3694     26.2005     35.0655   7.8771543202e+01   6.7213717679e+01    0.3003654    0.1987858 -49.34 0.0008114201    1.845    0.458
       484  -8.5961    111.7673     34.1428   4.7927083254e+01   5.1773558034e+01    0.2498576     0.170778 -47.52 0.0005648704    1.705    0.413
       485  -7.6318    104.3178     34.3039   4.9752682639e+01   5.3419348703e+01     0.136761   0.09239047  30.60 0.0004146554    1.626    0.385
       486  -8.0318     88.6248     34.2358   5.3919416240e+01   5.6812207435e+01    0.1699175    0.1234645 -12.06 0.0005552841    1.596    0.373
       487  -8.8484     48.6082     32.9769   6.7526006723e+01   6.4432205610e+01      0.22564    0.1913906 -36.37 0.0006449751    1.424    0.298
       488  -8.3112    119.2371     33.0554   4.5932932317e+01   5.0204776868e+01    0.2049103    0.1363905 -59.59 0.0005468336    1.899    0.473
       489  -8.7078     60.7654     32.4803   6.2464827491e+01   6.2454542180e+01    0.2116141    0.1690107 -23.52 0.0005825286    1.316    0.240
       490  -7.7191    139.4548     31.4775   4.1592726187e+01   4.5711956838e+01    0.1311815    0.1146599  77.71 6.334428e-05    1.035    0.034
       491  -8.9085     72.1782     30.8056   5.7741422244e+01   6.0551587341e+01    0.2043067    0.1705393 -38.70 0.0007121736    1.433    0.302
       492  -9.0824     13.0471     30.0959   8.3699052286e+01   6.9400580299e+01    0.2781254    0.1860158 -56.99  0.001518635    2.099    0.524
       493  -8.1537    101.5000     29.0428   4.8651374377e+01   5.4656614185e+01    0.1759843    0.1286757 -32.74 0.0005768168    1.548    0.354
       494  -8.9114     81.5942     27.2517   5.3395126532e+01   5.9100588436e+01    0.2565098    0.2067546 -67.15 0.0008584285    1.777    0.437
       495  -9.4171      3.5466     27.1222   8.7899048109e+01   7.0696648220e+01    0.2668031    0.2007117 -62.81  0.001351536    1.973    0.493
       496  -8.6295     91.7800     25.9583   5.0045408528e+01   5.7112060502e+01    0.2103354    0.1717196 -53.64 0.0006942046    1.534    0.348
       497  -8.5282    104.4917     22.5213   4.5711760810e+01   5.4698461846e+01     0.128775    0.1114273  56.56 4.016634e-05    1.035    0.034
       498  -8.9356     48.3490     21.3874   6.2705263121e+01   6.5987775777e+01    0.2260205    0.1981496 -36.44 0.0006829401    1.494    0.331
       499  -7.8171     34.4779     22.5476   6.9381659501e+01   6.7979922673e+01    0.1200685   0.09839089   9.74 0.0002563281    1.069    0.065
       500  -8.2693    121.0482     21.0109   4.1787440448e+01   5.1103827437e+01    0.1978872    0.1425032 -71.84 0.0008507448    1.677    0.404
       501  -8.8866     63.5679     20.4944   5.6529294641e+01   6.3397489339e+01    0.2519571    0.1882507 -46.85  0.001003206    1.832    0.454
       502  -7.9302     19.9830     21.4735   7.6247621342e+01   6.9995345339e+01    0.1404165   0.09428534  45.70 0.0005306927    2.295    0.564
       503  -8.5544    160.7385     19.8013   3.5255314325e+01   4.2068939302e+01    0.1737824    0.1533295  76.12 0.0009516186    1.107    0.097
       504  -9.0912     74.0299     19.1647   5.2548832918e+01   6.1513131215e+01     0.252747    0.1735083 -36.67 0.0007936528    1.737    0.424
       505  -8.0213     38.6195     17.8362   6.5321333716e+01   6.7966431916e+01    0.1500427    0.1067799 -36.96 0.0005969107    1.704    0.413
       506  -7.9077    112.8379     16.8150   4.2039833521e+01   5.3386657937e+01    0.1645845    0.1387207 -88.51 0.0004407408    1.281    0.219
       507  -8.2085     87.8980     17.1885   4.7848733246e+01   5.8847906504e+01    0.1778781    0.1605196  74.53 0.0004977469    1.255    0.203
       508  -8.1518     30.2719     15.8416   6.8333765200e+01   6.9432375675e+01    0.1601921    0.1415425 -30.50 0.0007002767    1.524    0.344
       509  -8.1838     97.1621     14.8156   4.4713825059e+01   5.7071290608e+01    0.1712485    0.1292075  34.75 0.0004888994    1.293    0.227
       510  -8.0838      7.9732     15.4907   8.0329659820e+01   7.2121251737e+01    0.1402739   0.08679575  41.25 0.0008091563    2.450    0.592
       511  -8.0647     17.3764     14.1674   7.4284687147e+01   7.1303857121e+01    0.1398848    0.1007168 -37.70 0.0004941914    1.638    0.390
       512  -9.3974    175.7459    247.6332   8.2769366814e+01  -2.2938681544e+00    0.3252071    0.2677946  76.96  0.001153833    2.158    0.537
       513  -8.9838    156.3587    247.9034   8.6894430374e+01   3.5341528942e-01    0.2460182    0.2049679  73.97  0.001013088    1.814    0.449
       514  -8.9260    132.5064    247.8510   9.2078169391e+01   3.7772175711e+00    0.3530127    0.2182975  60.04    0.0011597    2.392    0.582
       515  -8.3592    113.0578    248.4607   9.6472869938e+01   6.4581562417e+00    0.2292605    0.1795795  89.91  0.001283369    1.653    0.395
       516  -9.2829    104.1730    247.0430   9.8284109347e+01   8.0007721772e+00    0.4434765    0.2653302 -85.51  0.002040261    2.701    0.630
       517  -8.2053     93.9480    249.0587   1.0080128546e+02   9.0352786512e+00    0.2138755    0.1358665  60.62 0.0007532201    1.777    0.437
       518  -8.5630    218.5470    246.8925   7.4229651610e+01  -7.6428989071e+00    0.3438804    0.1035031 -40.75  0.001461272    3.170    0.685
       519  -8.2107     63.9531    248.2094   1.0733547945e+02   1.3213162949e+01    0.1733866   0.08916258  34.74 0.0008642042    1.708    0.415
