#   1 NUMBER                 Running object number                                     
#   2 MAG_AUTO               Kron-like elliptical aperture magnitude                    [mag]
#   3 X_IMAGE                Object position along x                                    [pixel]
#   4 Y_IMAGE                Object position along y                                    [pixel]
#   5 X_WORLD                Barycenter position along world x axis                     [deg]
#   6 Y_WORLD                Barycenter position along world y axis                     [deg]
#   7 A_WORLD                Profile RMS along major axis (world units)                 [deg]
#   8 B_WORLD                Profile RMS along minor axis (world units)                 [deg]
#   9 THETA_WORLD            Position angle (CCW/world-x)                               [deg]
#  10 FWHM_WORLD             FWHM assuming a gaussian core                              [deg]
#  11 ELONGATION             A_IMAGE/B_IMAGE                                           
#  12 ELLIPTICITY            1 - B_IMAGE/A_IMAGE                                       
         1 -14.2662     68.1754    144.5951   1.3422919926e+02   3.7642412865e+01     2.623004     1.352616  89.57  0.005854769    2.838    0.648
         2 -14.8495    186.8230     17.9265   7.2110368581e+01   3.6192246270e+01     2.831578     1.662789  16.44   0.01168052    2.495    0.599
         3 -13.4847    197.5820      3.3616   6.6433736110e+01   3.4846942573e+01     1.197927    0.5768355  76.24  0.002744459    2.038    0.509
         4 -11.9560     41.2930     17.4529   1.0942569596e+02   6.7413467122e+01     0.368366    0.1774405 -34.81   0.00195259    1.738    0.425
         5 -10.1986    224.3269    245.3381   1.1883852287e+02  -5.0990727647e+00    0.1168786   0.06900208  18.70 0.0007051674    1.728    0.421
         6 -11.7461    242.7925    249.6189   1.1653451959e+02  -8.2502282084e+00    0.4662628    0.1054114  41.27  0.001987476    3.355    0.702
         7 -10.8271    217.5031    250.2665   1.2063051095e+02  -4.5652658429e+00    0.2905619    0.0772308  46.19  0.001200718    3.420    0.708
         8 -11.9598    199.9870    248.4999   1.2322616413e+02  -1.6816367506e+00    0.3284959    0.1556311  42.89  0.001901508    1.620    0.383
         9 -11.7323    161.7736    247.7320   1.2943697436e+02   4.4241979670e+00    0.2948749    0.2600895 -36.31  0.002305715    1.505    0.336
        10 -12.3288    139.7491    247.1027   1.3302698858e+02   7.9430352587e+00    0.6064366    0.2773142 -54.53  0.003452392    2.836    0.647
        11 -19.4369     15.4659    135.4431   1.4537385361e+02   4.5241798696e+01     17.28622     3.435889 -75.24   0.05849623    4.754    0.790
        12  -9.2615    173.7716    228.9946   1.2500812241e+02   4.9486092310e+00    0.1283394    0.1008518 -42.20  0.000375595    1.594    0.373
        13  -9.8374    157.2513    219.6977   1.2666160827e+02   9.0473472159e+00    0.1669954    0.1001195 -34.53 0.0009040519    2.353    0.575
        14  -9.8963    119.7533    218.2497   1.3326056397e+02   1.5435719979e+01    0.2109976    0.1462938  47.54 0.0009433624    1.216    0.178
        15 -10.8072    172.9800    213.0931   1.2287290204e+02   7.3229576927e+00    0.3339646    0.1797198  39.83  0.001769519    1.584    0.369
        16 -10.2559    228.6206    205.3155   1.1176468674e+02  -1.3013091750e+00    0.2194495    0.1981098 -47.66 0.0009315846    1.573    0.364
        17 -11.6024    192.7114    194.1078   1.1617761482e+02   6.5887679761e+00     0.830206    0.4236081 -61.38   0.00275723    5.700    0.825
        18  -9.9852     90.2768    202.3455   1.3690578234e+02   2.2718934301e+01    0.2225057    0.1244397  54.29 0.0007456462    1.538    0.350
        19 -12.1514     80.8365    191.3002   1.3749599803e+02   2.6163531188e+01    0.3928498    0.2390539 -51.48  0.002241157    2.037    0.509
        20 -11.8993     84.3419    185.2131   1.3610193518e+02   2.6854931997e+01    0.2555847    0.2166003 -57.97 0.0007829505    1.416    0.294
        21  -9.1098    181.5828    192.1843   1.1792190736e+02   8.9396528764e+00     0.160606    0.1242329 -20.60 0.0002484376    1.541    0.351
        22  -9.0457    102.6419    185.2700   1.3242526958e+02   2.4081560474e+01    0.1326231   0.08399921  67.85  0.000422035    1.643    0.391
        23 -11.0102    172.1385    246.2272   1.2753066857e+02   2.9762158863e+00    0.1731465    0.1506986  -2.72  0.001314446    1.449    0.310
        24 -11.6381     91.3818    173.6988   1.3319084459e+02   2.8127231460e+01    0.2578846    0.2162645  88.30 0.0004692322    1.076    0.071
        25 -13.5026     79.9091    170.4025   1.3517546206e+02   3.0490172126e+01    0.4164514    0.2881218 -39.87  0.001730668    2.113    0.527
        26 -13.6489     94.5854    166.2811   1.3146160681e+02   2.9163892662e+01     4.486218     0.842406  48.56  0.001253078    6.144    0.837
        27 -10.1849    160.9185    128.0245   1.0916978633e+02   2.4603919245e+01    0.3346902    0.1990829 -57.50  0.001374681    2.080    0.519
        28  -9.4752    185.7099    238.3309   1.2423116303e+02   1.7790864597e+00    0.1075539   0.08252735  64.36 0.0002977548    1.625    0.385
        29 -10.2594     65.4863    156.5198   1.3649815861e+02   3.5393772343e+01    0.2648725    0.1824667  72.94 0.0008392138    1.407    0.289
        30 -11.0686    107.8423    147.1626   1.2536795943e+02   3.1046567407e+01    0.5787041    0.2820166 -41.97  0.002374715    2.614    0.617
        31 -11.0405    120.4182    126.7036   1.1827696060e+02   3.3190373227e+01    0.5024048    0.2478762 -33.14  0.001748177    3.306    0.697
        32  -9.9841    110.5663    122.5544   1.1979550844e+02   3.5916349424e+01    0.2261554    0.2187871 -80.74 0.0003905047    1.046    0.044
        33 -12.3803     96.2397    148.3468   1.2826594764e+02   3.2712613687e+01    0.2538413    0.2444799  70.89 0.0004667463    1.156    0.135
        34 -10.5290    133.7993    144.6511   1.1892545320e+02   2.6834724248e+01    0.7853149    0.1855053 -54.30    0.0019037    6.384    0.843
        35 -10.3318    168.3856    113.1355   1.0385430917e+02   2.5829570361e+01     0.383736    0.2813014 -73.26  0.001049487    1.888    0.470
        36  -9.6451    205.3120    110.3640   9.5702186589e+01   1.7757122886e+01    0.3509603    0.1705162  39.42  0.001322204    2.308    0.567
        37 -10.3702    115.3048    134.7699   1.2122402757e+02   3.2398801146e+01    0.3577329    0.2491113 -29.15  0.001467112    1.975    0.494
        38 -11.0278    120.4730    248.6453   1.3636652583e+02   1.0643904900e+01    0.1906247    0.1687504 -44.29   0.00150491    1.643    0.391
        39 -11.1272    103.4729    131.8140   1.2349544499e+02   3.5130049739e+01    0.3365042    0.2728819  16.75 0.0006428353    1.641    0.391
        40 -11.0884    133.6669    247.0662   1.3403239757e+02   8.8810414930e+00    0.2319241    0.1342743  42.29  0.001301477    1.407    0.289
        41 -12.1065    210.5284    245.8937   1.2115088811e+02  -3.0371246852e+00     0.334251     0.122998  38.99  0.001693939    2.100    0.524
