#   1 NUMBER                 Running object number                                     
#   2 MAG_AUTO               Kron-like elliptical aperture magnitude                    [mag]
#   3 X_IMAGE                Object position along x                                    [pixel]
#   4 Y_IMAGE                Object position along y                                    [pixel]
#   5 X_WORLD                Barycenter position along world x axis                     [deg]
#   6 Y_WORLD                Barycenter position along world y axis                     [deg]
#   7 A_WORLD                Profile RMS along major axis (world units)                 [deg]
#   8 B_WORLD                Profile RMS along minor axis (world units)                 [deg]
#   9 THETA_WORLD            Position angle (CCW/world-x)                               [deg]
#  10 FWHM_WORLD             FWHM assuming a gaussian core                              [deg]
#  11 ELONGATION             A_IMAGE/B_IMAGE                                           
#  12 ELLIPTICITY            1 - B_IMAGE/A_IMAGE                                       
         1 -14.9190    213.0182     71.8723   6.4658397366e+01   2.1830636175e+01     10.88639     6.435778 -64.79   0.04167264    2.514    0.602
         2 -13.4009    224.2674     63.5065   6.0620888529e+01   2.0316537661e+01     2.609163     1.617656 -81.61  0.007381146    2.442    0.590
         3 -13.9713    233.4199     48.6076   5.5369743339e+01   2.0195382441e+01     5.213282     1.285998 -46.38   0.01386587    4.984    0.799
         4 -12.8537    240.0122      7.1880   4.3982199795e+01   2.3644081428e+01    0.9840112    0.8180868 -87.62  0.002816264    1.131    0.115
         5 -13.5878    240.7839     46.0545   5.3793392538e+01   1.8759940816e+01     1.680284    0.9358312 -60.77  0.003439453    2.159    0.537
         6 -13.7742    248.4280      6.5185   4.3121871160e+01   2.1714675031e+01      2.40771      1.33086  26.87  0.003529294    3.461    0.711
         7 -14.7129    243.4502     35.5569   5.0795219614e+01   1.9494085542e+01     5.390067    0.7981966  59.30   0.01015774    5.001    0.800
         8 -13.5007    249.8975     24.4175   4.7349651084e+01   1.9341471247e+01     1.077787    0.6136127 -29.57  0.002373645    1.679    0.404
         9 -11.1976    144.9907     29.5119   6.3890990724e+01   4.5585747127e+01    0.7187089    0.4085225 -35.59  0.002062091    1.787    0.440
        10 -10.1288    207.9680     13.5887   4.8855055635e+01   3.0996598718e+01    0.3631958    0.2107838 -21.57 0.0006162743    1.875    0.467
        11 -10.6019    143.3566      8.1572   5.6423498180e+01   4.8423495953e+01     1.080236    0.3517083 -15.74  0.003403702    3.970    0.748
        12 -11.8677    119.6606     10.3599   6.2106282535e+01   5.3971445076e+01    0.8394009    0.6535315  68.41   0.00348247    1.430    0.300
        13  -7.9515    218.5763     11.7200   4.7180733620e+01   2.8472878355e+01    0.1938261    0.1174452 -41.24 0.0007721274    1.575    0.365
        14  -9.8478    217.1228      4.3999   4.5348581265e+01   2.9606007044e+01    0.2935734    0.1945655 -12.38  0.000596693    1.813    0.448
        15  -9.0844    210.0264      5.3370   4.6317104482e+01   3.1326388096e+01    0.2686038    0.1817938 -42.65 0.0008425872    1.447    0.309
        16  -9.4852    179.7166      4.4545   4.9566522279e+01   3.9334739718e+01    0.3801195    0.2743833 -22.99  0.001345254    1.488    0.328
        17  -9.6227    134.9776     14.8240   6.0543476279e+01   4.9826010880e+01    0.2526347    0.2001077 -19.09  0.001083703    1.299    0.230
        18  -9.2337    245.0130    168.2786   8.2476199908e+01  -1.1135766957e-01    0.1865426    0.1556513  18.82 0.0004919533    1.063    0.060
        19 -10.2039    203.4988    166.0280   8.9475818373e+01   8.2136656612e+00    0.2475579    0.2344603  42.74 0.0003560524    1.145    0.127
        20  -9.5701    240.0493    162.2800   8.2078593355e+01   1.6359441383e+00    0.2168753    0.1664433  10.13 0.0008217164    1.248    0.198
        21  -8.6732    231.3183    164.3373   8.4026305684e+01   3.0007413736e+00    0.1435958   0.09606288  11.00 0.0007049095    1.704    0.413
        22 -11.2386     68.4303    144.9131   1.1502121714e+02   3.7125301583e+01    0.9261757    0.7948395 -72.19   0.00504178    1.132    0.117
        23 -11.2869     56.4340    154.2314   1.1900024662e+02   3.6603014409e+01    0.7152935    0.4299055 -88.27  0.001711439    1.621    0.383
        24 -11.2207     43.1851    162.5416   1.2278831140e+02   3.6356371390e+01    0.4178283    0.3826392  28.53  0.001527898    1.541    0.351
        25 -11.4757     50.6536    157.9639   1.2070608629e+02   3.6484750893e+01    0.7135891    0.5000721  82.78  0.002742166    1.253    0.202
        26  -8.5684     26.3253    162.3221   1.2625098494e+02   3.8148663517e+01    0.1059204   0.07732927 -54.52 0.0007047547    1.684    0.406
        27  -8.5189      3.5204    248.4967   1.3489672805e+02   2.4591015027e+01   0.09402823   0.06012151  70.61 -2.272331e-05    1.029    0.028
        28  -7.8781    151.0400    146.4571   9.6194175066e+01   2.2552838439e+01    0.2212989    0.1378977  44.70 0.0004409146    1.543    0.352
        29  -7.6343    156.4233    141.5679   9.3967716443e+01   2.2411571246e+01    0.1444759    0.1395589  45.63 9.058045e-05    1.026    0.025
        30  -9.1586    188.7084    138.4870   8.6436316180e+01   1.6032602698e+01    0.2914622    0.2734856  24.44  0.001454384    1.024    0.024
        31  -8.6398    222.3010    137.1070   7.9675569684e+01   8.9895351808e+00    0.2273344    0.1622815 -59.33  0.001062633    1.965    0.491
        32 -10.4400    198.8845    134.9164   8.3579708658e+01   1.4431417684e+01    0.5740457    0.3549698 -42.05  0.002599023    1.675    0.403
        33  -9.5442    135.1591    122.5074   9.4564143439e+01   3.0773252317e+01    0.5990493     0.136754 -51.65  0.001421608    5.785    0.827
        34  -8.4164    160.2144    128.4064   9.0151044029e+01   2.4223074745e+01    0.2154189     0.141679  57.99 0.0008930543    1.649    0.394
        35  -8.7874    216.2354    124.8261   7.7885337380e+01   1.2317701445e+01    0.2470903    0.1999425  61.26 0.0005224065    1.408    0.290
        36  -9.7707    186.6489    120.4854   8.2561276448e+01   1.9793571360e+01    0.3368582    0.2522945 -85.15  0.001484997    1.971    0.493
        37  -9.3639    245.4317    244.0334   9.5838659308e+01  -8.8833602396e+00    0.1914368     0.125495  35.55 0.0004210576    1.247    0.198
        38 -10.0964    139.5455    230.4113   1.1185504250e+02   9.7517955747e+00    0.2113164    0.1711091  50.29 0.0002129507    1.053    0.050
        39  -7.8846     11.7129    219.6694   1.3252625977e+02   2.8559493845e+01   0.08501304   0.06708342 -73.58  0.000325532    1.618    0.382
        40 -10.0636    159.4078    116.2358   8.7371383532e+01   2.6837721023e+01    0.3347513    0.2815796 -64.30 0.0008732536    1.310    0.237
        41  -8.0006    129.4210    116.2430   9.4474492426e+01   3.3282967666e+01     0.206076    0.1401011 -58.63 0.0008252214    1.556    0.357
        42  -9.8926    168.0263    114.0938   8.4906293992e+01   2.5300771766e+01    0.4041685    0.3291977  72.34  0.001491698    1.421    0.296
        43 -10.8032    206.7863    110.6147   7.6114126738e+01   1.6886061612e+01    0.6100954     0.319196  52.56  0.002471972    1.958    0.489
        44 -10.5246    188.3080    102.7133   7.7646770956e+01   2.2670761747e+01    0.7304658    0.2847902 -35.56  0.002478539    2.578    0.612
        45  -8.4637    120.5480    105.5408   9.4068886116e+01   3.7370705184e+01     0.147876    0.1412672 -66.48 0.0001140293    1.017    0.016
        46  -7.4654    141.6599    216.2509   1.0971757539e+02   1.1596450977e+01    0.1237094   0.08046484  62.70 0.0003676813    1.571    0.363
        47  -8.7198    147.5506    102.1733   8.6468004522e+01   3.2349542300e+01    0.2772122    0.2177522  48.35 0.0005453637    1.285    0.222
        48  -9.5121    199.5879     99.6217   7.4612100876e+01   2.0507783399e+01    0.4743655    0.3125217  44.06  0.001528305    1.546    0.353
        49  -9.1548    166.0952    100.6007   8.1775527720e+01   2.8376704643e+01    0.2755206    0.2198481 -29.29 0.0003848055    1.297    0.229
        50  -8.6003      1.7609    100.0230   1.2578292794e+02   5.3527656145e+01    0.1589745    0.0722029 -73.95 0.0008875933    1.633    0.388
        51  -8.9132    134.1667     98.0618   8.8627144059e+01   3.6141945242e+01    0.2751993    0.2086082 -65.68 0.0006240576    1.532    0.347
        52  -7.6529    128.5376     98.6101   9.0200860898e+01   3.7222306468e+01    0.1465412    0.1455116 -61.27  4.56552e-05    1.024    0.024
        53  -9.7517    157.4372     96.3237   8.2552164936e+01   3.1247577259e+01    0.4639971    0.3053972  34.08  0.001789707    1.739    0.425
        54 -10.2714    162.7100     91.4400   7.9983523039e+01   3.0943028419e+01    0.5064407     0.279517 -58.58  0.001619155    2.616    0.618
        55  -9.9481    185.4701     91.5647   7.5183550102e+01   2.5377814476e+01    0.4253981    0.3557668 -31.61  0.001653774    1.188    0.159
        56  -9.2415    141.2591     92.3021   8.5265055975e+01   3.5762514034e+01    0.3323528    0.2687659 -57.22 0.0009713325    1.312    0.238
        57 -10.7020    172.1048     88.1532   7.6991643103e+01   2.9282634293e+01     0.753444    0.4475688  31.02  0.002895751    2.205    0.547
        58  -7.9685    127.5322     90.5103   8.8219978161e+01   3.9123812391e+01     0.150808    0.1455678 -32.51 -3.252505e-05    1.025    0.024
        59 -10.6230    155.3784     86.8624   8.0335238374e+01   3.3568166681e+01    0.4322956    0.2920894 -29.68 0.0006326953    1.568    0.362
        60  -8.5061    248.4955    201.2043   8.8244782435e+01  -4.8574580109e+00    0.2004996    0.1410757  32.51  0.000303686    1.230    0.187
        61 -10.4054    179.9655     83.4647   7.4007136255e+01   2.8189115055e+01    0.8213684    0.5402129 -11.03 0.0004965361    2.070    0.517
        62 -10.2545    176.1315     76.6090   7.2790425043e+01   3.0358753470e+01    0.7508315    0.4729777  48.09   0.00223285    1.590    0.371
        63 -11.4973    171.1806     74.0870   7.3062771756e+01   3.2044119305e+01    0.6815536    0.4889073  34.50  0.001858683    1.541    0.351
        64 -10.3864    188.9241     78.1064   7.0693831103e+01   2.6875275860e+01    0.4965393    0.3162892  47.90 0.0008575911    1.583    0.368
        65 -10.4328    193.6053     75.8359   6.9159068728e+01   2.6075749768e+01    0.4799766    0.3021897  42.25  0.001312973    1.689    0.408
        66 -12.0778     10.0064    178.3907   1.3057987451e+02   3.6389547610e+01    0.8391935    0.4021252 -86.35  0.005207805    1.650    0.394
        67  -8.6115    109.3384     80.8101   9.0315489999e+01   4.4827102717e+01    0.2510215    0.2087708  32.41 0.0003758365    1.297    0.229
        68  -7.2849    159.2973     76.3277   7.6311986281e+01   3.4592659133e+01      0.16006    0.1228419  11.61 0.0003372856    1.633    0.388
        69 -11.4290     16.0288    177.7542   1.2942999112e+02   3.5972503040e+01    0.6652144    0.2719653 -82.99  0.003717901    2.040    0.510
        70 -10.4650    123.1804     59.0130   7.9562389142e+01   4.6186640993e+01    0.2674039    0.2627797 -40.46   0.00150506    1.086    0.079
        71  -9.5373    134.9371     55.9345   7.5498017449e+01   4.4054004739e+01    0.2656505    0.2259749 -47.94 0.0005681947    1.241    0.194
        72 -10.4700    237.2083    154.3550   8.0883859638e+01   3.3153688735e+00    0.3604277    0.2516291  59.72  0.001215192    1.874    0.466
        73  -8.4370     89.1534    154.4700   1.1167433799e+02   3.2056789281e+01    0.1997362    0.1600187 -62.78 0.0003631056    1.243    0.195
        74  -9.6505    246.2644    183.1850   8.5238390536e+01  -2.2897717289e+00    0.2816558    0.2561361 -79.49  0.001085796    1.800    0.444
        75  -8.8323    133.8062    149.2714   1.0060727335e+02   2.5408871732e+01    0.4178003    0.2051592 -55.19  0.001733041    2.190    0.543
        76  -8.5814    112.7529     29.4258   7.1490356866e+01   5.3216511038e+01    0.2009625    0.1239505  40.10 0.0007051509    1.597    0.374
        77  -8.7652    180.5742     26.3294   5.6363871885e+01   3.6746875977e+01    0.3103435    0.2104663 -41.56   0.00126802    1.509    0.337
        78 -11.1076    127.7443     23.7059   6.5525045226e+01   5.0539815107e+01    0.5189532    0.3397765  25.96  0.002442081    1.689    0.408
        79 -10.2052    130.4843     18.3371   6.2842009227e+01   5.0527582090e+01    0.2674908    0.2643678 -77.34  0.001221303    1.145    0.126
        80 -10.1085    117.4400     25.2616   6.8626151902e+01   5.2733189334e+01    0.3403928    0.1767356 -29.23   0.00149495    1.897    0.473
        81  -8.3548     56.8433     24.1272   8.7462974117e+01   6.4154497278e+01    0.3022639    0.1348696 -34.34  0.001430175    1.986    0.497
        82  -8.7008    223.0794    148.9516   8.2204078454e+01   6.9491436841e+00    0.2011757    0.1840605  13.75 0.0003050483    1.030    0.030
        83  -7.7668    206.3064     18.3455   5.0405453807e+01   3.0901783346e+01    0.1999626    0.1508314   4.75  0.000804131    1.659    0.397
        84  -8.7123    202.4458     18.4836   5.0919123035e+01   3.1893692945e+01    0.3674811    0.2406853  84.04  0.001745594    1.602    0.376
        85  -9.5340    234.6514    178.2352   8.6255627583e+01   4.2768893670e-01    0.2779227    0.1976968  40.72 0.0006418258    1.339    0.253
        86  -7.8463    171.4006     19.3364   5.5551455262e+01   3.9989543419e+01    0.1877193    0.1349129 -36.41 0.0007021183    1.434    0.303
        87  -7.4180    197.2806     18.2914   5.1517711554e+01   3.3270203594e+01    0.1422054     0.105635  35.07 0.0002266372    1.529    0.346
        88  -8.1036    250.3343    174.3304   8.2810604947e+01  -1.8653977908e+00    0.1382873   0.08709799  11.65 0.0007052123    1.727    0.421
        89  -9.4389    235.6191    173.5337   8.5152502317e+01   8.9338371029e-01    0.2598418    0.2081254  23.62 0.0007338009    1.102    0.092
        90  -8.1790    165.4183     13.6858   5.4623541452e+01   4.2177753425e+01    0.2628842    0.1475982  46.43 0.0007858314    1.734    0.423
        91  -8.9901    244.5933    173.1988   8.3546511982e+01  -6.9555877232e-01    0.1810573    0.1140822 -15.49 0.0007705578    1.639    0.390
        92  -7.7953    208.6970    147.3206   8.4508175713e+01   1.0198535178e+01    0.1374775    0.1162848 -78.81 0.0002796263    1.630    0.387
        93  -9.0260     89.9819    169.9641   1.1373977475e+02   2.8637738484e+01     0.183769    0.1598587  81.19            0    1.038    0.037
        94  -9.0784    235.8218    168.7351   8.4144930488e+01   1.5222824836e+00    0.2082017    0.1882445 -26.47  0.000664864    1.258    0.205
        95  -8.4660    156.3661    169.0829   9.9483289430e+01   1.7114723272e+01    0.2240149    0.1765684  36.43 0.0004474291    1.252    0.202
