#   1 NUMBER                 Running object number                                     
#   2 MAG_AUTO               Kron-like elliptical aperture magnitude                    [mag]
#   3 X_IMAGE                Object position along x                                    [pixel]
#   4 Y_IMAGE                Object position along y                                    [pixel]
#   5 X_WORLD                Barycenter position along world x axis                     [deg]
#   6 Y_WORLD                Barycenter position along world y axis                     [deg]
#   7 A_WORLD                Profile RMS along major axis (world units)                 [deg]
#   8 B_WORLD                Profile RMS along minor axis (world units)                 [deg]
#   9 THETA_WORLD            Position angle (CCW/world-x)                               [deg]
#  10 FWHM_WORLD             FWHM assuming a gaussian core                              [deg]
#  11 ELONGATION             A_IMAGE/B_IMAGE                                           
#  12 ELLIPTICITY            1 - B_IMAGE/A_IMAGE                                       
         1 -14.9024      9.8341    153.6529   1.4710427823e+02   4.2302924451e+01     5.837353     1.781456 -85.43   0.02448875    3.270    0.694
         2 -11.8572      2.1296     43.8258   1.3475916901e+02   6.6659117688e+01     1.543678   0.05321856 -64.28  0.003888735    8.709    0.885
         3 -12.9301      4.0498     11.5123   1.2375735731e+02   7.2659251022e+01     1.580754     0.404243 -51.72  0.007411114    2.766    0.638
         4 -13.2414    191.4130     27.7592   7.2008650689e+01   3.4082375580e+01     1.493139     1.141555  57.92  0.006549178    1.271    0.213
         5 -13.5947    204.8580      9.4171   6.5099644282e+01   3.2616892227e+01     1.736879     1.065563  48.44  0.008446591    1.777    0.437
         6  -9.8536     32.8680      4.5224   1.0528192611e+02   7.1180010054e+01    0.3375589    0.0642856 -38.28  0.001181466    4.572    0.781
         7  -9.4455    198.6694    245.6795   1.2026412643e+02  -2.0035312544e+00    0.1181628   0.07516459  19.94 0.0007048743    1.693    0.409
         8 -11.3510    139.4393    249.3442   1.3096740859e+02   7.0028624382e+00    0.3456517    0.2712187  63.81   0.00249771    1.233    0.189
         9 -11.6709    126.2035    249.8450   1.3330810212e+02   8.9934199272e+00    0.4234234    0.2976189  32.92  0.002820842    1.567    0.362
        10  -9.8985     98.3194    249.5444   1.3805083637e+02   1.3211424254e+01    0.2031461    0.1462039  65.26  0.001141058    1.136    0.120
        11  -8.9002     67.0151    250.5437   1.4333445686e+02   1.7355357773e+01    0.1594155   0.07837459  47.64 0.0006710796    1.538    0.350
        12 -10.6457     27.7086    248.9844   1.4946660412e+02   2.2317619067e+01    0.4964196    0.0957204  52.29  0.002428898    3.093    0.677
        13  -9.4780     33.4585    248.4925   1.4855630526e+02   2.1759839143e+01    0.1787793     0.111888  79.71 0.0006984771    1.265    0.210
        14 -10.7011     34.2499    244.6410   1.4823800132e+02   2.2306127053e+01     0.331843    0.2631811  37.22  0.002663411    1.785    0.440
        15 -10.3057      2.0640    248.3753   1.5327401192e+02   2.5051618570e+01     0.345523    0.1408443 -88.44  0.002343018    2.053    0.513
        16 -10.7351      2.0229    240.0450   1.5299442402e+02   2.6425798871e+01    0.3600946    0.1243059 -81.48  0.002053767    2.490    0.598
        17 -10.5838     12.8385    241.3032   1.5140677649e+02   2.5154530028e+01    0.2596537    0.1289578  74.70  0.001849639    1.501    0.334
        18  -9.8349     82.2387    243.2991   1.4026601490e+02   1.6485112583e+01    0.2068562    0.1296387  84.28  0.001001711    1.603    0.376
        19  -8.5703     73.5108    242.4894   1.4168382189e+02   1.7809028975e+01    0.1145489   0.07831631  63.48 0.0008093482    1.076    0.071
        20 -14.0079      8.0876    207.3044   1.5067383706e+02   3.1647139026e+01     8.892012          nan  40.97   0.03475418    5.307    0.812
        21 -10.0967    249.0734    249.0317   1.1242133361e+02  -9.9566291648e+00    0.1775143    0.1288631  21.59  0.001327559    1.018    0.018
        22 -13.7328     46.3018    227.1231   1.4523905776e+02   2.3921640526e+01     1.866447    0.5865132  42.72  0.005135696    2.515    0.602
        23 -10.8973      6.2610    227.6659   1.5187412934e+02   2.8135965755e+01    0.3365799    0.2563648  24.25  0.002631021    2.246    0.555
        24  -9.1645    184.6526    238.3195   1.2168398195e+02   1.1750874256e+00    0.1164912   0.08333528  62.08  0.000586093    1.733    0.423
        25  -9.7724     32.6288    228.1307   1.4761307300e+02   2.5323210525e+01    0.1947425     0.121499  81.20  0.000825621    1.266    0.210
        26 -10.7094    173.4566    222.0698   1.2141258283e+02   5.3049328445e+00    0.3572581    0.2724961  62.12  0.002221216    1.462    0.316
        27  -8.6829    152.6612    213.0081   1.2402767400e+02   1.0344034011e+01    0.1632661     0.148367  55.39  0.000576671    1.107    0.097
        28  -9.0700     33.0933    207.6599   1.4629144396e+02   2.9036284682e+01    0.1793977    0.1123688  81.18 0.0003954253    1.266    0.210
        29 -11.6375     22.3531    201.1621   1.4782571810e+02   3.1422693192e+01     0.360196    0.1605717  57.41  0.002154669    1.801    0.445
        30 -10.8070     14.4762    198.1659   1.4907584476e+02   3.2781284693e+01    0.3210789    0.1659655  58.14  0.001477274    1.535    0.348
        31  -9.3760    191.8543    192.9653   1.1326926626e+02   6.3860835255e+00    0.3547605    0.2250842 -71.24  0.001469155    3.518    0.716
        32  -8.5857     51.2793    197.2407   1.4210531269e+02   2.8953093918e+01    0.1588604    0.1016241  69.30 0.0004368585    1.290    0.225
        33  -9.5570     43.4643    192.5797   1.4324106651e+02   3.0818441239e+01    0.2575563    0.2386033  -3.23 0.0008275484    1.796    0.443
        34 -11.5208     71.1165    191.7015   1.3763261850e+02   2.7485422473e+01    0.2504912    0.2147871 -74.35 0.0004296189    1.306    0.234
        35 -11.2036     65.4668    199.7875   1.3956394775e+02   2.6634926313e+01     0.281828    0.2158355 -55.22 0.0006472284    1.708    0.414
        36  -8.5937    103.9797    180.0582   1.2927575937e+02   2.4892809753e+01    0.1539521    0.1306258  67.17 0.0009337824    1.015    0.015
        37 -10.5865     80.5643    178.7571   1.3417668155e+02   2.8816235154e+01    0.2242589     0.197943  83.34 0.0004533163    1.117    0.105
        38 -12.9983     67.7360    176.7211   1.3670617187e+02   3.1055537522e+01    0.4639063     0.273137 -47.61  0.001605843    2.311    0.567
        39 -11.3503     87.7150    169.3441   1.3136440008e+02   2.9746754031e+01    0.5977375    0.5109751  56.66  0.003731071    1.150    0.131
        40 -11.7529     32.5861    154.0928   1.4207728321e+02   4.0143859695e+01     0.900026   0.07310216 -68.99  0.002469257    6.805    0.853
        41 -11.3977      2.4162    152.6316   1.4863206507e+02   4.3097662516e+01    0.3987496    0.2001449 -87.63    0.0024178    1.559    0.359
        42 -11.4617     33.1894    141.2348   1.4057848607e+02   4.2944332211e+01    0.4760627    0.1584479 -70.85   0.00208737    2.502    0.600
        43 -11.7999     33.3867    133.7850   1.3966417126e+02   4.4607096097e+01    0.4025042     0.258851 -86.52  0.002394222    1.360    0.265
        44 -10.1690    191.1881    154.6563   1.0594081239e+02   1.2926501946e+01    0.6005666    0.3867487 -81.50  0.002128964    3.777    0.735
        45  -9.6711     99.5870    152.8891   1.2607702629e+02   3.1438661429e+01    0.2915357    0.2435586 -63.60 0.0008276103    1.205    0.170
        46  -8.7617    102.3936    148.8047   1.2469535465e+02   3.1869721369e+01    0.1791271    0.1669217 -32.32 0.0002622745    1.330    0.248
        47 -11.7398     88.3780    152.3684   1.2868178421e+02   3.3372607673e+01    0.2676733    0.2469588 -49.14 0.0006077747    1.302    0.232
        48 -13.5671     55.6354    214.5949   1.4269308335e+02   2.5063285996e+01     3.607998    0.5724472  47.58   0.01371849    4.043    0.753
        49 -12.2237     67.1957    143.9440   1.3256317688e+02   3.8369204911e+01    0.6941758      0.44866  71.87  0.003189368    1.653    0.395
        50  -8.8175    184.5047    147.9633   1.0585140142e+02   1.5562097654e+01    0.3046675     0.203745 -75.29  0.001224148    2.637    0.621
        51  -8.6973    180.9602    143.8042   1.0566629840e+02   1.7103823090e+01    0.2362484    0.1856101 -86.50 0.0008242243    1.733    0.423
        52  -8.2337    192.0243    144.2399   1.0349644121e+02   1.4609631699e+01    0.1846633    0.1197794  46.09  0.000236952    1.482    0.325
        53  -9.4620    110.5959    137.6802   1.2058645452e+02   3.2902543930e+01    0.3281679    0.2417385 -21.81  0.001193729    2.086    0.521
        54  -9.6059     86.7744    136.7338   1.2643792908e+02   3.7165701925e+01    0.2416654    0.1836843  75.01 0.0004737512    1.361    0.265
        55 -12.3804     40.2392    234.6021   1.4672165658e+02   2.3323254207e+01    0.2729872    0.2156834 -81.51 0.0007842988    1.450    0.310
        56 -10.3004     98.0220    135.0899   1.2325502004e+02   3.5702635735e+01    0.2470058    0.2303908 -23.38 0.0004930928    1.323    0.244
        57 -10.4461     56.6120    128.8200   1.3297078532e+02   4.3206433226e+01    0.2527848    0.1740413 -79.00  0.001418834    1.329    0.247
        58  -9.0361    107.5002    124.1952   1.1856909283e+02   3.6501561432e+01    0.1920111    0.1811513  73.79 0.0003385218    1.048    0.046
        59  -9.6919    163.6842    127.8912   1.0572594854e+02   2.4033719628e+01    0.6052033    0.3612286  85.72  0.001751033    4.706    0.787
        60 -10.1029    168.0212    113.1288   1.0109872647e+02   2.5973017592e+01    0.3471138    0.2828059 -85.91 0.0006577746    1.499    0.333
        61  -8.9860    203.4063    111.7410   9.3501743421e+01   1.7861985985e+01    0.2112152    0.1448279 -23.27  0.000689122    1.615    0.381
        62  -9.2503     34.6182     93.1952   1.3326359727e+02   5.3768440925e+01    0.2570769    0.1652359  43.65  0.001085237    1.797    0.443
        63  -8.3289    184.7170     77.6149   8.7876146070e+01   2.8458596475e+01    0.1609622    0.1220395  12.37  0.000700755    1.736    0.424
        64  -8.8890    156.2962     75.6851   9.3233956778e+01   3.5985699690e+01    0.1583397    0.1221503 -73.25  0.000353172    1.604    0.376
        65 -10.7521      1.9922     61.5052   1.3849818855e+02   6.2998273199e+01     0.295285    0.1838396 -71.41  0.001644413    1.315    0.240
        66 -11.3629     13.5118     65.3375   1.3501226007e+02   6.1551311962e+01    0.3318159    0.2274354  37.83  0.001996852    1.821    0.451
        67 -11.2802      7.5688     63.2541   1.3677624037e+02   6.2342976500e+01    0.2693278    0.2130101 -37.80 0.0002999331    1.282    0.220
        68 -10.1309     31.4307     61.6600   1.2749617036e+02   6.1003261998e+01    0.2944066    0.2216477  43.26  0.001481709    1.650    0.394
        69 -10.6664      9.6490     54.3195   1.3411970125e+02   6.4112715576e+01    0.1752132    0.1485766 -71.96 0.0009238758    1.203    0.168
        70  -9.8954     81.5149    248.5433   1.4079791268e+02   1.5738287906e+01    0.2382693    0.1345074  72.66  0.001061617    1.698    0.411
        71  -9.0628     47.2280    249.4269   1.4644586131e+02   2.0007489656e+01    0.1469134   0.06606982  52.99 0.0003453561    1.577    0.366
        72 -10.4308    238.4162    248.2922   1.1401898699e+02  -8.3602766499e+00    0.1863778    0.1199827  47.81  0.001209328    1.793    0.442
        73 -10.4474    102.4600    247.7220   1.3718669411e+02   1.2891645337e+01    0.2392621    0.1416103  61.81 0.0007984275    1.440    0.305
