#   1 NUMBER                 Running object number                                     
#   2 MAG_AUTO               Kron-like elliptical aperture magnitude                    [mag]
#   3 X_IMAGE                Object position along x                                    [pixel]
#   4 Y_IMAGE                Object position along y                                    [pixel]
#   5 X_WORLD                Barycenter position along world x axis                     [deg]
#   6 Y_WORLD                Barycenter position along world y axis                     [deg]
#   7 A_WORLD                Profile RMS along major axis (world units)                 [deg]
#   8 B_WORLD                Profile RMS along minor axis (world units)                 [deg]
#   9 THETA_WORLD            Position angle (CCW/world-x)                               [deg]
#  10 FWHM_WORLD             FWHM assuming a gaussian core                              [deg]
#  11 ELONGATION             A_IMAGE/B_IMAGE                                           
#  12 ELLIPTICITY            1 - B_IMAGE/A_IMAGE                                       
         1 -14.3198    197.2751     36.2011   5.0064166370e+01   3.1390570993e+01     1.630873     1.254365  28.17  0.005867433    1.628    0.386
         2 -14.6223    208.1828     24.2440   4.5405153428e+01   3.0143454499e+01     1.548001     1.140273   2.98  0.003423031    1.891    0.471
         3 -11.1414     62.0128      8.0520   7.0729350173e+01   6.6118536870e+01    0.1970386    0.1595747   8.40 0.0005022413    1.012    0.012
         4 -10.3697     33.3218      6.3329   8.2309686735e+01   7.0527745328e+01    0.1243769   0.07451452  -5.83 0.0006187899    1.702    0.412
         5 -11.9800    232.2111      2.0135   3.7569839597e+01   2.6823580800e+01    0.6561584    0.2179546  75.19   0.00238838    2.860    0.650
         6 -11.8944     58.6441      2.5651   6.9242543436e+01   6.7298355145e+01    0.3427618     0.139653  46.61  0.001624645    2.415    0.586
         7 -10.2372     40.6564      2.3118   7.6692842056e+01   7.0089556057e+01    0.1004535    0.0944398 -41.35 0.0007046142    1.703    0.413
         8  -9.5478    130.5393    212.7121   1.0549318224e+02   1.2777672605e+01    0.1578996    0.1234391 -81.53 0.0005338866    1.503    0.335
         9 -11.3060    139.6607    249.6203   1.0836828595e+02   5.1753713641e+00    0.2557777    0.2090986  48.61  0.001446789    1.059    0.056
        10 -12.9665     72.7110    175.3027   1.1301564701e+02   2.9577174618e+01    0.9142829    0.4793435 -34.94  0.003280184    4.626    0.784
        11 -14.7507     86.9501    228.0662   1.1590399251e+02   1.6755860328e+01     2.118591     1.055775  46.58  0.004626208    1.634    0.388
        12 -14.4350     19.4847    192.4960   1.2598060496e+02   3.2070156069e+01       1.0488    0.7372988  84.24  0.004587075    1.094    0.086
        13 -16.9571     51.7478    200.8631   1.2024641002e+02   2.6794422567e+01     15.10063      5.49429 -83.73   0.02035434    3.690    0.729
        14 -10.0202     82.1372    195.0560   1.1334992326e+02   2.3943646504e+01    0.2253467    0.1724468  50.76 0.0008659385    1.200    0.167
        15  -9.6412     96.5586    189.6948   1.0955306955e+02   2.2894512902e+01    0.1748892    0.1204176 -82.41 0.0009325226    1.556    0.357
        16 -11.2305    149.4671    187.5640   9.7623137913e+01   1.4173598410e+01    0.4544246    0.2898718 -82.50  0.001883458    2.876    0.652
        17  -9.5752     99.1067    186.6341   1.0857243876e+02   2.3141027257e+01    0.2237483    0.1670507 -85.31 0.0005543231    1.387    0.279
        18 -10.3601     99.4800    180.9464   1.0768064587e+02   2.4303466983e+01    0.2526701    0.1907704  45.57 0.0006216241    1.263    0.208
        19 -12.0668    193.4059    194.9023   8.9832153448e+01   4.7175525254e+00    0.9556515    0.5044535 -62.05  0.003172218    5.132    0.805
        20 -16.4475     65.7116    248.1828   1.2143242549e+02   1.6087217898e+01     8.217467     2.471441  32.33    0.0235252    6.475    0.846
        21 -13.3157     53.6187    110.1169   1.0784141554e+02   4.7432984869e+01     2.127525     0.525901 -67.10  0.005281275    6.360    0.843
        22 -13.1222     83.5459    163.1338   1.0877741318e+02   3.0775051413e+01      1.11529    0.4345055  53.71  0.000433202    3.117    0.679
        23 -13.7475     71.8298    158.5884   1.1095896589e+02   3.3521645649e+01    0.5693173    0.5214403 -25.65  0.001436127    1.426    0.299
        24 -15.1351     68.5000    144.2570   1.0963266226e+02   3.7357227084e+01     4.641605     2.159329  60.00   0.01197242    3.005    0.667
        25  -9.3987    205.3717    167.3049   8.2049450720e+01   7.1226925519e+00    0.1511101    0.1047031   9.92  0.000703243    1.758    0.431
        26  -9.4616    162.4645    167.4779   9.1045882549e+01   1.5616736621e+01    0.1452719    0.1374861  50.89 2.949537e-05    1.058    0.055
        27 -10.7311    113.8899    200.0151   1.0721193460e+02   1.7980184895e+01    0.3012805    0.2035969  89.77  0.001090153    1.835    0.455
        28  -9.6610    192.6592    165.0040   8.4113645427e+01   1.0036945484e+01    0.2040363    0.1812374 -22.19 0.0007565119    1.129    0.115
        29 -10.3605     97.7374    200.4782   1.1069650682e+02   2.0476318951e+01    0.3257304    0.2297581   6.76  0.001009119    2.712    0.631
        30  -9.0851    170.2978    161.6669   8.8140866277e+01   1.5188092072e+01    0.1456302    0.1183482  88.08 0.0007030484    1.646    0.393
        31 -12.5508     90.1896    155.9050   1.0600492856e+02   3.1424936840e+01    0.6031471    0.4433485 -29.15  0.003005546    1.937    0.484
        32 -11.0038    137.0291    170.9461   9.7434933036e+01   1.9856235317e+01    0.2279257    0.2138178  49.49 0.0007799537    1.030    0.029
        33 -11.2985    133.7016    144.1729   9.2909597656e+01   2.6309949820e+01     1.108282    0.2993069 -55.58  0.002665628    5.740    0.826
        34 -10.4060    174.9055    149.1410   8.4431794679e+01   1.6710177374e+01    0.2323515    0.2104663  79.97 0.0006891807    1.279    0.218
        35 -11.2911    103.4427    140.7214   9.9862829801e+01   3.2777725174e+01    0.5492282    0.3411927 -30.70  0.002273683    2.397    0.583
        36 -12.3994     91.0733    140.8372   1.0312472343e+02   3.4824674458e+01    0.2854087    0.2573722 -56.34 0.0004370546    1.131    0.116
        37 -10.9546    209.9167    199.6087   8.7499677773e+01   1.0377322181e+00    0.2267625    0.1875363 -38.14  0.000575862    1.397    0.284
        38  -9.4390    174.8794    138.8624   8.2090393575e+01   1.8769627317e+01    0.2055027    0.1837999 -84.77 0.0004228428    1.315    0.240
        39  -9.5558     79.0768    139.4765   1.0605007262e+02   3.7000892477e+01    0.1943567    0.1361978  41.46 0.0003403694    1.494    0.331
        40 -11.0619     45.5295    136.9608   1.1456219343e+02   4.1909154551e+01     0.280737    0.1609583 -51.58 0.0009075695    1.743    0.426
        41 -10.3966    106.0152    130.7509   9.7118393315e+01   3.4660784223e+01    0.3333842    0.2856602 -71.33  0.001246687    1.160    0.138
        42 -10.3991    112.4050    130.7591   9.5418492898e+01   3.3488743996e+01    0.2924308    0.2493944  -1.53 0.0006216817    1.482    0.325
        43 -12.8659     42.7840    126.3734   1.1376400346e+02   4.4730852142e+01    0.6035688    0.3538134  56.22  0.003097932    1.933    0.483
        44  -9.3650    201.6695    169.3092   8.3197144325e+01   7.4954098970e+00      0.13513    0.1156466  86.95 0.0006235131    1.666    0.400
        45 -11.4714    135.5964    124.4107   8.7915124304e+01   3.0329233924e+01    0.7810708    0.1613919 -48.57  0.001887428    5.070    0.803
        46 -11.6707    118.3354    125.7927   9.2721933486e+01   3.3508747258e+01    0.8892979    0.3797547 -43.26  0.003176078    2.475    0.596
        47  -9.7446    160.3350    127.6542   8.2694521729e+01   2.4270772505e+01    0.1622629    0.1252614 -86.20 -7.340428e-06    1.770    0.435
        48 -11.2391     99.3032    127.2514   9.8179501278e+01   3.6669580598e+01    0.3763471    0.2890616   2.91  0.001290321    1.864    0.463
        49  -9.9992    108.4674    119.5783   9.3929928539e+01   3.6823554276e+01    0.2345266    0.2303977 -77.20 0.0002190218    1.033    0.032
        50 -12.7308     44.4098    114.6084   1.1140808509e+02   4.7377335878e+01    0.6559199    0.2563213  44.50  0.002746555    2.932    0.659
        51 -11.2913     41.8320    109.1428   1.1122627548e+02   4.8947828888e+01    0.3305429    0.1995718 -61.50   0.00134171    1.377    0.274
        52  -9.5296    167.8095    112.6732   7.7177956808e+01   2.5670880982e+01    0.3086688    0.2023267 -65.54  0.001215723    2.143    0.533
        53  -8.8169    107.3249    113.6664   9.2824885720e+01   3.8407545763e+01    0.1560251    0.1186582  85.76 0.0007051057    1.711    0.416
        54 -11.5349    119.4855    110.4940   8.8664317747e+01   3.6771522915e+01    0.4128264    0.3241256  60.09  0.001991216    1.408    0.290
        55 -10.9648    116.9817    108.5014   8.8834542712e+01   3.7722843219e+01    0.4683267    0.3182683   0.80  0.001815447    2.597    0.615
        56 -11.7209     45.9841    109.4959   1.1003440449e+02   4.8432704841e+01    0.3201649    0.2993948  70.80  0.001271702    1.178    0.151
        57 -15.4753      9.4607    206.7210   1.2869969571e+02   3.0141162459e+01    0.9650456    0.6679829  39.98  0.004929584    1.615    0.381
        58  -9.8980    205.5618    110.2218   6.8758592028e+01   1.7381326970e+01    0.2630978    0.2121517  49.71  0.000596572    1.292    0.226
        59  -9.2587     94.4487    104.6237   9.4281878999e+01   4.2820673819e+01    0.1434365    0.1381209 -63.59 0.0001367098    1.034    0.033
        60 -10.8590     34.3681    100.8001   1.1203900416e+02   5.1640501985e+01    0.2345698    0.1817585  73.76 0.0006728483    1.461    0.316
        61 -10.0087     86.0657     99.1188   9.5408831586e+01   4.5504060285e+01    0.2121634    0.1989513 -80.77  0.000491825    1.120    0.107
        62 -10.8806     55.3877     95.0909   1.0414936140e+02   5.0782408943e+01    0.3035295    0.2192359  54.46  0.001028765    1.668    0.400
        63 -11.0576     52.8331     90.6521   1.0397309180e+02   5.2116397336e+01    0.3217098    0.2083118 -46.17  0.001358509    1.387    0.279
        64 -11.1841     41.6083     91.1669   1.0781827690e+02   5.3208565231e+01    0.3395292    0.1907726 -61.13  0.001072351    1.503    0.335
        65  -9.8381     59.8266     67.6297   9.5404961300e+01   5.6384099966e+01     0.174247    0.1246296  42.71 0.0004826731    1.652    0.395
        66 -11.4234     13.4627     59.7813   1.1103385100e+02   6.2498197143e+01    0.2370621    0.1840945 -64.15 0.0004315803    1.175    0.149
        67 -10.8252    150.9275     54.3115   6.3797176315e+01   4.0634288180e+01      0.30714    0.2487894 -81.47 0.0004660709    1.494    0.331
        68 -11.9198     11.2497     52.9778   1.1029820395e+02   6.4074241930e+01    0.2580403    0.1569955  -6.50  0.001468268    1.978    0.495
        69 -13.4617    187.8690     43.2628   5.3475475818e+01   3.2837268697e+01    0.9342608    0.6848947  31.15  0.001004288    1.667    0.400
        70 -10.4964    173.5086    244.4942   1.0151825919e+02   5.7619403887e-01    0.2099661    0.1617146 -58.32 0.0009248924    1.801    0.445
        71 -11.1369    152.0112     47.3663   6.1290409467e+01   4.1433193149e+01    0.3470756    0.2766323 -83.58  0.001356345    1.511    0.338
        72  -9.6030     31.6239     36.2677   9.6324568937e+01   6.5846761959e+01    0.1058437   0.09589589  67.34 0.0006991429    1.678    0.404
        73 -11.6539     23.6447     34.5392   9.9331658732e+01   6.6890759371e+01     0.237077    0.1694931  19.30   0.00154891    1.581    0.368
        74  -9.8103    189.8409     15.1194   4.5084147436e+01   3.5808631134e+01    0.2187547    0.1745556 -69.60 0.0006597801    1.236    0.191
        75 -10.1502    106.9986    210.4991   1.1001734883e+02   1.7040751321e+01    0.1963319    0.1112194  42.67 0.0005459698    1.552    0.356
        76  -9.4035    155.3384     10.7142   4.8514955603e+01   4.5106651705e+01      0.14158    0.1009576 -70.78  0.000240747    1.632    0.387
        77 -11.6243    171.8658    240.7857   1.0131651250e+02   1.3593326655e+00    0.4357969    0.1905275 -49.28  0.002140008    2.998    0.666
        78  -9.3580    165.2699    236.6413   1.0198014814e+02   3.0286546583e+00    0.1157098   0.08924298  67.53 0.0005518214    1.644    0.392
        79 -16.8384      7.1644    246.3766   1.3088638428e+02   2.3050412897e+01     1.681408      1.42045  86.06   0.01010744    1.452    0.311
        80 -10.8521    198.5533    222.5743   9.3603099344e+01  -4.0959347009e-01    0.2199156    0.1802722  27.13 0.0001991277    1.026    0.025
        81 -16.2074      2.5826    222.9679   1.3065790782e+02   2.7668389283e+01     7.905779          nan -71.81    0.0202731   11.194    0.911
