#   1 NUMBER                 Running object number                                     
#   2 MAG_AUTO               Kron-like elliptical aperture magnitude                    [mag]
#   3 X_IMAGE                Object position along x                                    [pixel]
#   4 Y_IMAGE                Object position along y                                    [pixel]
#   5 X_WORLD                Barycenter position along world x axis                     [deg]
#   6 Y_WORLD                Barycenter position along world y axis                     [deg]
#   7 A_WORLD                Profile RMS along major axis (world units)                 [deg]
#   8 B_WORLD                Profile RMS along minor axis (world units)                 [deg]
#   9 THETA_WORLD            Position angle (CCW/world-x)                               [deg]
#  10 FWHM_WORLD             FWHM assuming a gaussian core                              [deg]
#  11 ELONGATION             A_IMAGE/B_IMAGE                                           
#  12 ELLIPTICITY            1 - B_IMAGE/A_IMAGE                                       
         1  -9.9534    184.4429     35.0845   7.2754715541e+01   3.4592222840e+01     1.138901    0.5655787  10.21  0.003613905    3.462    0.711
         2  -9.9797    244.8221     32.7402   6.3855613228e+01   1.9688386010e+01      1.06299    0.5807244 -38.97  0.004962482    1.750    0.428
         3  -9.7901    249.1913     23.9685   6.1053283212e+01   1.9568024956e+01    0.7070727    0.3479406 -11.43  0.002833326    2.185    0.542
         4 -10.8796    244.9116     16.9990   5.9596075805e+01   2.1235336853e+01    0.6734347    0.5188972  72.30  0.001587686    1.402    0.287
         5 -10.1303    237.1302      8.3035   5.7944736833e+01   2.3885498580e+01    0.3890307    0.3251882 -82.03  0.001379525    1.284    0.221
         6 -10.9585    248.1261      8.3277   5.7008160565e+01   2.1283912444e+01     1.011069    0.4731041  -9.53  0.004290713    2.421    0.587
         7 -10.8451    241.1389      4.5472   5.6580584652e+01   2.3256910881e+01    0.7558419    0.4562007 -64.27  0.003695866    1.901    0.474
         8  -8.7464    150.7345     26.5780   7.6061812340e+01   4.4477834311e+01     0.359297    0.2662396  56.77  0.001276791    1.359    0.264
         9  -9.8472    105.9330     24.2457   8.6372659270e+01   5.5569190523e+01     0.572251    0.3334262 -40.19  0.002551368    1.837    0.456
        10  -9.7851    117.6905     15.6348   7.9289315284e+01   5.4056959328e+01    0.5255156    0.4486309  23.07  0.002372054    1.066    0.062
        11  -8.8360     19.1370     17.0924   1.1916775218e+02   6.9643530629e+01    0.2362103    0.1755979 -62.74  0.001202635    1.387    0.279
        12  -8.9047    226.2545     16.0401   6.1172809418e+01   2.5834535763e+01    0.4294753    0.2564722  18.72  0.001905881    2.074    0.518
        13  -8.5546    203.8503     15.9782   6.3716262880e+01   3.1568871230e+01    0.4292496    0.1387191 -29.15  0.001494033    2.736    0.635
        14  -8.7017    156.4289     14.9202   7.0511210877e+01   4.4322042008e+01    0.3720163    0.2639447  23.99  0.001751136    1.437    0.304
        15  -8.7972    216.4724     14.0565   6.1646701090e+01   2.8488431852e+01    0.2542593    0.2188322 -67.90 0.0003558577    1.258    0.205
        16  -9.2553    219.0176     10.1816   6.0224618516e+01   2.8200264591e+01    0.4119916    0.2732491  56.34  0.001424085    1.490    0.329
        17  -9.5930    221.9315      5.8244   5.8658314098e+01   2.7851994787e+01    0.4749204    0.2784686   4.41   0.00171195    2.044    0.511
        18  -9.2168    149.6164     13.9468   7.1412437201e+01   4.6223198240e+01    0.3135933    0.2628819 -39.23  0.000996989    1.315    0.240
        19  -9.7234    245.9719      2.6931   5.5698538515e+01   2.2277833679e+01     0.380743    0.2557977 -57.63  0.002040682    1.552    0.356
        20  -8.3850     89.7860     11.7916   8.5718887308e+01   6.0713580197e+01    0.2415645     0.195567 -41.91 0.0007550347    1.481    0.325
        21  -9.5490     87.3658      8.7605   8.5025927071e+01   6.1605662869e+01    0.3713233     0.227691   2.08  0.001725574    1.832    0.454
        22  -8.6510     71.0828     12.5733   9.2877108843e+01   6.4120198039e+01    0.2516587    0.1745289 -40.23  0.001032354    1.541    0.351
        23  -8.7174    193.7033     11.4996   6.3567856895e+01   3.4676711688e+01    0.3519428    0.1693557  -6.17  0.001329562    2.472    0.595
        24  -8.7033    205.6888     11.3031   6.2034589887e+01   3.1532548412e+01    0.2467116    0.2137717 -57.29 0.0005653558    1.231    0.188
        25  -9.3671    200.7692      9.7017   6.2113073103e+01   3.2971228167e+01    0.4929769    0.2308475  64.98  0.001563014    2.044    0.511
        26  -8.0872    182.8198     12.0349   6.5217275367e+01   3.7537036703e+01    0.2166128    0.1865421 -46.84  0.000376441    1.255    0.203
        27  -9.2044    101.0534     10.5767   8.1595666601e+01   5.8484416736e+01    0.4123593    0.3608759  35.15  0.001292219    1.170    0.145
        28  -9.4051     99.8781      4.8746   7.9181080311e+01   5.9419271331e+01    0.3297138    0.2603509  17.01 0.0009178554    1.135    0.119
        29  -9.1273     95.7989      3.1588   7.9529774815e+01   6.0510818395e+01    0.3245026    0.2531533  23.64  0.001105132    1.151    0.131
        30  -9.4347     29.9492     11.9527   1.1146103292e+02   6.9756658446e+01    0.2487105    0.1739903  32.55  0.001377631    1.797    0.444
        31  -8.4364     17.3739     10.8583   1.1768365809e+02   7.1010876616e+01    0.1714414    0.1590015  -5.39 0.0007658368    1.327    0.246
        32  -8.2707      8.2064     10.9852   1.2276075191e+02   7.1556108522e+01    0.2253474    0.1145716   6.11   0.00127994    2.449    0.592
        33  -7.8822    135.4826      9.4774   7.2451309412e+01   5.0357376298e+01    0.2618194    0.1209635 -32.78   0.00102246    2.196    0.545
        34  -7.8567    150.6334      9.2724   6.9389566069e+01   4.6430585427e+01    0.1496398     0.114722 -65.58 0.0005863279    1.667    0.400
        35  -8.5820    143.7488      9.4222   7.0750305353e+01   4.8225672054e+01    0.4907237    0.1348373  49.67  0.001564026    3.007    0.667
        36  -9.1065    130.7804      8.9878   7.3257317950e+01   5.1603211861e+01     0.335632    0.2325328  63.02 0.0005093841    1.524    0.344
        37  -7.8961    177.4015      7.7456   6.4504271535e+01   3.9395051063e+01    0.2024923    0.1391953   1.35 0.0009393498    1.557    0.358
        38  -9.1069     77.5822      6.6866   8.7395345539e+01   6.3791110819e+01    0.3821158    0.2284243  -8.24    0.0010775    1.763    0.433
        39  -9.3778     81.3014      2.7606   8.4002356112e+01   6.3576623574e+01    0.3605891    0.3090878 -53.11  0.002074822    1.649    0.393
        40  -8.5347     69.8386      7.0541   9.0532918250e+01   6.5149191435e+01    0.3064395    0.1542535 -35.27  0.001105952    1.870    0.465
        41  -9.3104      2.9034      5.2235   1.2366674459e+02   7.2978227486e+01    0.4125179    0.1104379 -55.61  0.001913844    2.360    0.576
        42  -8.6865    138.3234      6.2884   7.0537517738e+01   4.9944663214e+01    0.4453733    0.2389653 -47.82  0.001760643    2.463    0.594
        43  -9.7409    106.8926      4.6653   7.7118024006e+01   5.7851628778e+01    0.5247982    0.4224668  59.71  0.002833691    1.408    0.290
        44  -8.7020     38.3870      6.6619   1.0456936155e+02   6.9822653922e+01    0.2208911    0.1820916  33.74 0.0004351979    1.576    0.366
        45  -9.8170    119.5488      4.5453   7.3864018521e+01   5.4851338317e+01    0.4591807     0.378839  85.00  0.002200506    1.577    0.366
        46  -8.4869     57.5974      5.7640   9.4951770653e+01   6.7359063197e+01    0.2564469    0.1899608  10.16  0.001508037    1.305    0.234
        47  -9.6579     46.4702      3.2200   9.8712664776e+01   6.9370850137e+01    0.3123821    0.2653608 -48.94  0.001072001    1.618    0.382
        48  -8.0497     90.2097      1.6817   8.0490455159e+01   6.1878507398e+01    0.1939782     0.184338  63.00  0.001167286    1.382    0.276
        49  -8.2994     65.0140      1.6756   8.9558274850e+01   6.6732966087e+01    0.1841455    0.1513475  13.06 0.0006681023    1.134    0.118
        50  -8.1000      9.9809      2.0000   1.1815075172e+02   7.3223434062e+01     0.152518   0.06424797  17.30 0.0005328814    2.850    0.649
        51  -9.5146    185.7211     98.0858   9.1681561423e+01   2.5058550699e+01    0.2667751    0.2377656  13.59 0.0002558827    1.025    0.024
        52  -8.9654     56.9891    250.0119   1.3957209051e+02   2.0700316478e+01    0.1352113   0.09499179  56.35 0.0003294912    1.038    0.037
        53  -9.3062    186.1033     91.9938   8.9944333224e+01   2.5946636830e+01    0.4974675    0.3677459 -56.37  0.002292787    1.826    0.452
        54  -8.7329    231.0546     97.4811   8.3147111576e+01   1.5012044086e+01    0.2193631      0.20208 -38.64  0.001258474    1.324    0.245
        55  -8.5363    230.2527     93.9873   8.2379539345e+01   1.5646799109e+01    0.2150062    0.1955384 -32.25 0.0007839279    1.267    0.211
        56  -8.7303    205.6494     94.0729   8.6699443395e+01   2.1133115169e+01    0.2883249    0.1753079 -35.54  0.001288568    1.673    0.402
        57  -8.3207    181.0876     93.8906   9.1505167625e+01   2.6795788139e+01    0.2230309    0.2116796 -61.71 0.0006440339    1.286    0.223
        58  -8.1902    249.1418     92.1080   7.8961233648e+01   1.1866801473e+01    0.2966354    0.1569774   5.75    0.0011799    2.558    0.609
        59  -8.3622    122.8803     92.5240   1.0503996943e+02   3.9624292028e+01    0.2300681    0.2080378 -75.12 0.0007480407    1.282    0.220
        60  -8.5055    232.8556     84.7261   7.9539576719e+01   1.6285506870e+01    0.2468985    0.2368511  30.26  0.001063095    1.204    0.169
        61  -9.5575    242.6599     91.1849   7.9699093775e+01   1.3338770801e+01    0.4538969    0.2924283 -35.45  0.001259204    1.592    0.372
        62  -8.4747    236.9901     92.4166   8.0892239463e+01   1.4392916344e+01    0.2606742    0.1981601  52.31 0.0006080839    1.472    0.321
        63  -8.9029    235.6936     88.8295   8.0169018464e+01   1.5133555150e+01    0.4172391    0.2722556  21.98  0.002003573    1.608    0.378
        64  -7.5441    161.4478     91.4949   9.5153625553e+01   3.1674212877e+01    0.1541993     0.141485   7.84 2.901542e-05    1.023    0.022
        65  -9.0805    171.0216     84.3698   9.0977364086e+01   3.0702144932e+01    0.3223514    0.2734341  62.16 0.0009136819    1.369    0.270
        66  -9.6909    177.1551     89.0263   9.0983321123e+01   2.8500844329e+01    0.4835577    0.3278251  20.84  0.002139764    1.681    0.405
        67  -9.1845    176.2208     84.0837   8.9772626275e+01   2.9530658047e+01    0.3431453    0.2906468 -62.59  0.001148029    1.519    0.342
        68 -10.1634    180.4654     78.5284   8.7261761992e+01   2.9417650812e+01    0.6426614    0.4654091  30.73  0.003011797    1.389    0.280
        69  -9.0613    184.9364     74.0723   8.5033425991e+01   2.9033777958e+01    0.4194023    0.3229206 -82.38  0.001879054    1.982    0.495
        70  -9.4036    207.4988     86.9224   8.4418119425e+01   2.1749417475e+01    0.5790012    0.2944485 -22.39  0.002330359    2.005    0.501
        71  -9.6460    195.3074     82.4643   8.5446999164e+01   2.5267305375e+01    0.7519577    0.3750526 -26.72  0.002979287    1.992    0.498
        72  -8.8348    248.1667     84.9999   7.7302759214e+01   1.2936576748e+01    0.4128481    0.2351801  16.35  0.001799104    2.137    0.532
        73  -9.2442    219.4185     83.4778   8.1391224975e+01   1.9482063001e+01    0.3976739    0.2729039  32.42   0.00176833    1.445    0.308
        74  -9.3105    224.2287     83.1924   8.0514607432e+01   1.8422636279e+01    0.4878457    0.3193787 -19.29  0.002193265    1.443    0.307
        75  -8.3271    122.1480     84.8805   1.0314470920e+02   4.1300920219e+01    0.2025653    0.1713886   1.00 0.0004274344    1.290    0.225
        76  -9.2176    150.0291     83.1128   9.5448520278e+01   3.5737064391e+01    0.3475243    0.2124306  55.16  0.001470302    1.835    0.455
        77  -7.7795    240.4731     82.4799   7.7782563490e+01   1.4897707917e+01    0.1476868    0.1228281   5.66 0.0008083823    1.083    0.076
        78  -8.7260    162.1532     80.3260   9.1772545694e+01   3.3456666430e+01    0.4636385    0.2347492  47.27  0.001826889    1.937    0.484
        79  -8.9830    200.3890     73.8288   8.2014398642e+01   2.5322517946e+01    0.5113763    0.2999825 -50.61  0.002039936    2.300    0.565
        80  -9.4385    205.7437     72.8182   8.0763166402e+01   2.4175004680e+01    0.4890426    0.2800106  -5.64  0.001463042    2.175    0.540
        81 -10.2954    209.1409     76.7168   8.1279890986e+01   2.2816174687e+01    0.7737396    0.3800872 -19.27  0.002884583    2.172    0.540
        82  -9.1339    196.6165     67.5774   8.0863746715e+01   2.7138663111e+01    0.6727422    0.3101184  62.02  0.002417645    2.625    0.619
        83  -9.4463    195.6307     62.3365   7.9466494978e+01   2.8124518505e+01    0.4592044    0.3401691  -5.87   0.00164474    1.383    0.277
        84  -9.0609    146.1667     78.4622   9.5011244444e+01   3.7445412607e+01    0.3802321    0.2438116 -42.67 0.0009588071    1.613    0.380
        85  -8.8286    139.1511     77.8356   9.6585134393e+01   3.9115340575e+01    0.3002505     0.244979 -53.73 0.0009332778    1.407    0.289
        86  -9.6005    227.8646     76.1768   7.8030572941e+01   1.8517790802e+01    0.5692858    0.2338082 -36.60   0.00189598    2.399    0.583
        87  -9.3825    247.8988     76.4326   7.5133846024e+01   1.4031055135e+01    0.6408924    0.3157166  74.21  0.002192235    4.335    0.769
        88  -8.7793    236.8002     76.6794   7.6800698258e+01   1.6434182644e+01    0.2825967     0.241896  23.57  0.001444222    1.126    0.112
        89  -8.6364    218.7928     75.6221   7.9334908839e+01   2.0690892607e+01    0.3562966    0.2047855  41.24  0.001080302    1.730    0.422
        90  -8.4631    107.0875     74.8152   1.0450094620e+02   4.6219205170e+01    0.2189909    0.2044987  83.63  0.000846186    1.264    0.209
        91  -7.7661    121.0278     74.5073   1.0041208599e+02   4.3576349363e+01    0.2081822    0.1345459  69.21  0.000810293    2.622    0.619
        92  -8.6346    191.4706     71.4275   8.2971077674e+01   2.7840244821e+01    0.3179479     0.233745 -31.99  0.001229484    1.353    0.261
        93  -8.3258    171.8518     69.8911   8.6461930110e+01   3.2871648826e+01    0.2335052    0.2155656  12.76 0.0003577283    1.013    0.013
        94  -8.5732    167.3537     71.9091   8.8058421870e+01   3.3635101864e+01    0.3918936     0.282106  31.19  0.001441613    1.414    0.293
        95  -8.5061    157.4462     63.4994   8.7620605532e+01   3.7401712164e+01    0.2713814    0.2440123  -7.60 0.0006989369    1.060    0.057
        96  -8.2926    159.3453     59.4578   8.5866580871e+01   3.7591588429e+01    0.3057183    0.2185278  -3.94 0.0007723244    1.567    0.362
        97 -10.3856    161.5900     67.4867   8.7958059087e+01   3.5747979902e+01     1.000706    0.3838347  52.18  0.003403252    2.617    0.618
        98  -9.8617    164.3571     63.1280   8.5949554381e+01   3.5779363255e+01    0.5254962    0.3404894  40.97  0.001305884    1.521    0.342
        99  -8.1430    175.7696     72.5402   8.6446250954e+01   3.1498855717e+01    0.3148066    0.1508269  51.50  0.001112352    2.070    0.517
       100  -9.5600    182.1107     68.4466   8.3899072737e+01   3.0583468666e+01    0.4737062    0.3142884   9.35  0.001449513    1.843    0.457
       101  -9.3110    133.0435     70.0802   9.5770417005e+01   4.1888413578e+01    0.4106739    0.3710526  47.13  0.001443529    1.183    0.155
       102  -9.1669     83.1946     71.7625   1.1098457184e+02   5.0907776282e+01     0.295146    0.1766542 -40.65  0.001142405    1.589    0.371
       103  -8.9892    218.9374     69.8437   7.7693649720e+01   2.1426895312e+01    0.3249542     0.270248  51.64  0.001713107    1.280    0.219
       104  -7.6421     99.4732     71.4581   1.0578573599e+02   4.8285714002e+01    0.1439659    0.1332159 -26.97 0.0008085594    1.009    0.009
       105  -8.1236     37.6692     68.6767   1.2558978206e+02   5.7045334640e+01    0.1315157   0.07953701 -39.12 0.0007049996    1.700    0.412
       106  -8.6244    127.0805     66.2194   9.6129961508e+01   4.3895091502e+01    0.2894315     0.216307 -39.50 0.0009997129    1.324    0.244
       107  -7.8056    187.8051     66.1765   8.2090361986e+01   2.9516666376e+01    0.2169032    0.1698266  17.49   0.00033055    1.303    0.233
       108 -10.3374    175.0211     63.7103   8.3866532711e+01   3.3057420259e+01    0.4197499    0.2943131  36.21 0.0006439438    1.419    0.295
       109  -8.0270    247.5002     60.5170   7.1005450658e+01   1.6003581635e+01    0.2791251    0.1867054  11.55 0.0006139326    1.638    0.390
       110  -8.2261    244.4964     59.9983   7.1257986684e+01   1.6735040980e+01    0.3056299    0.1924358 -16.80  0.001122154    1.475    0.322
       111  -9.4127    229.4393     62.5149   7.4028997604e+01   1.9889474108e+01    0.6197544    0.3220967 -46.45  0.002498705    2.356    0.576
       112  -9.0275    222.4075     57.5933   7.3676125248e+01   2.2172075764e+01     0.528515    0.2894733  74.78  0.002045132    2.699    0.629
       113  -8.7682    214.1670     56.9589   7.4747843059e+01   2.4254980732e+01    0.3265145    0.2216964  37.04 0.0007141088    1.489    0.329
       114  -9.5192    211.3817     62.6376   7.6852788737e+01   2.4197303907e+01    0.4569897     0.359333 -44.57  0.002064873    1.414    0.293
       115  -9.1343    215.9766     61.8794   7.5894100375e+01   2.3179742280e+01    0.4558805    0.2986193 -73.50  0.001465267    2.650    0.623
       116  -9.1352    150.5686     63.2967   8.9163729160e+01   3.9083253353e+01    0.4826923    0.3424696   5.39  0.002128644    1.690    0.408
       117  -8.6192    113.3032     63.7600   9.9219211953e+01   4.7218928581e+01    0.2436678    0.2274609 -59.39 0.0006606621    1.227    0.185
       118  -8.5584    190.1931     60.5199   7.9903838959e+01   2.9739053432e+01    0.4055792    0.2142529  -4.06  0.001398503    2.789    0.641
       119  -8.9273    135.1315     58.3200   9.1345501278e+01   4.3532157953e+01    0.5081875    0.3214048 -46.70  0.002164356    1.773    0.436
       120  -9.4956    127.1605     60.7982   9.4311747291e+01   4.4872620110e+01    0.4505865    0.2789544  56.70  0.001925805    1.924    0.480
       121  -9.7305    119.6418     59.0836   9.5823478437e+01   4.6799469642e+01    0.6584035    0.3934376  29.80  0.002662706    1.947    0.486
       122  -8.3424    114.3404     56.6003   9.6498834998e+01   4.8363103392e+01    0.3407304    0.1952386 -41.32  0.001263108    1.703    0.413
       123  -9.4095    147.7038     54.9090   8.7035335432e+01   4.1152810646e+01    0.5613237    0.2567058  40.66  0.001817501    2.287    0.563
       124  -8.6227    142.4084     53.1832   8.7725244213e+01   4.2701366894e+01    0.3677569    0.2267185 -49.02  0.001420432    1.975    0.494
       125 -10.0252    202.5363     54.6837   7.5945002508e+01   2.7437890264e+01    0.6810418    0.5269197  81.61  0.003264835    1.657    0.396
       126  -8.6274     60.0883     58.4901   1.1508129841e+02   5.6968341449e+01    0.2430521    0.1356399  23.72  0.001170952    2.198    0.545
       127  -9.0880     20.4478     55.5014   1.2911572823e+02   6.1300215360e+01    0.2745919    0.1650956 -22.70  0.001567389    2.078    0.519
       128  -8.4844    232.1742     56.8840   7.2071648661e+01   1.9936495235e+01    0.2022809    0.1860348 -29.63 0.0003418405    1.133    0.118
       129  -8.7323    171.6064     47.3384   7.9222437191e+01   3.6325620274e+01    0.3676708    0.2258891  36.24  0.001548801    1.681    0.405
       130 -10.1744    172.8512     53.2087   8.0925400399e+01   3.5169493437e+01    0.9720623    0.6484421  52.06   0.00436521    1.487    0.328
       131  -7.9400    178.4632     49.1945   7.8503932604e+01   3.4307629100e+01    0.4434893    0.2699215 -16.88   0.00147892    1.713    0.416
       132  -8.7376     51.6752     55.7356   1.1738678772e+02   5.8548860013e+01    0.2104906    0.1674791 -35.24 0.0003720791    1.180    0.153
       133  -8.0330     71.2639     54.9138   1.0997828787e+02   5.6250230016e+01     0.190746    0.1543915 -39.46 0.0002510726    1.082    0.076
       134  -8.4597    187.0030     53.5009   7.8294956916e+01   3.1528399738e+01    0.2962222    0.1998951 -40.26 0.0009046674    1.568    0.362
       135  -9.3496    161.4778     53.5887   8.3437610362e+01   3.7977301935e+01    0.3480027    0.2618984  52.20 0.0009811374    1.350    0.259
       136  -7.8948    248.3877     53.1237   6.8926992178e+01   1.6653306927e+01     0.204791    0.1111891 -33.46 0.0004441286    1.686    0.407
       137  -7.9467    242.5219     53.4559   6.9750405120e+01   1.7942432399e+01    0.1423398    0.1271797  -5.03 0.0002515737    1.012    0.012
       138  -7.6135     78.6919     52.2863   1.0648621256e+02   5.5685509055e+01    0.1287733    0.1109427 -84.72 0.0002877935    1.571    0.363
       139  -8.6030     30.7808     51.5307   1.2426643447e+02   6.1449035001e+01    0.2717353    0.1389914 -74.61  0.001297024    2.230    0.552
       140  -8.5814    213.8640     49.6069   7.2627408796e+01   2.5253831386e+01    0.4147746    0.2045347 -15.48  0.001603188    2.180    0.541
       141  -9.7631    214.8407     42.8550   7.0476244421e+01   2.5826420246e+01    0.5631232    0.3172105 -39.21  0.001801298    1.803    0.445
       142  -9.6842    188.9796     48.3307   7.6291599735e+01   3.1723691021e+01    0.4479386    0.3424639 -27.55  0.001018872    1.283    0.220
       143  -9.4059    185.2516     46.4091   7.6336959071e+01   3.2938568215e+01    0.2868437    0.2723167  31.00 0.0006582621    1.065    0.061
       144  -9.4821    188.4604     44.4719   7.5142851305e+01   3.2363849390e+01    0.5667866    0.2488986  47.32  0.001570012    2.191    0.544
       145  -7.3975    129.3404     51.2631   9.0404962653e+01   4.6061614394e+01    0.1574643    0.1125292  17.58 0.0003680469    1.592    0.372
       146  -8.4424    119.1660     50.8951   9.3082365999e+01   4.8377943281e+01     0.231391    0.2106624 -55.98  0.001232325    1.299    0.230
       147  -9.6178    235.9050     47.4625   6.8951679252e+01   2.0165909564e+01    0.4473628    0.3415604 -51.91  0.002330882    1.491    0.330
       148  -9.9966    240.6600     43.1653   6.7174431858e+01   1.9535940893e+01    0.5579954    0.3035309  31.06  0.002385843    2.216    0.549
       149  -9.1287    221.7751     49.0873   7.1319285164e+01   2.3367279109e+01    0.4798727    0.1876903  62.77  0.001730576    2.790    0.642
       150  -8.0429    226.9843     48.4892   7.0421327471e+01   2.2173481438e+01    0.2817864    0.1935866  83.59  0.001303332    1.958    0.489
       151  -9.8067    164.5655     46.1767   8.0257554489e+01   3.8291161008e+01    0.4428481    0.3421583 -30.73   0.00120111    1.295    0.228
       152  -8.7559    231.1538     43.1352   6.8347629662e+01   2.1789107252e+01    0.2461528    0.2116602 -44.94 0.0003134661    1.234    0.190
       153  -7.4139    108.9876     48.0000   9.5014281962e+01   5.1031697438e+01    0.2367312   0.08431239  46.49 0.0008009737    2.932    0.659
       154  -8.4105     78.6735     47.0059   1.0465628066e+02   5.6749476943e+01    0.2105726    0.1959163  42.63 0.0005611979    1.276    0.217
       155  -8.4923    139.0298     45.3194   8.5755247589e+01   4.4767263255e+01    0.2464495    0.2023779  -5.65 0.0003797225    1.200    0.167
       156  -8.7551     27.2517     45.6989   1.2422138039e+02   6.3004672498e+01    0.2063639    0.1758057 -75.55  0.001185294    1.247    0.198
       157  -9.0147    204.2967     45.0196   7.2707192147e+01   2.8227300058e+01    0.4378956    0.2905208  54.51  0.002028893    1.503    0.335
       158  -8.4725    205.5060     41.5270   7.1447386596e+01   2.8345534862e+01     0.321324    0.2598037 -14.66  0.001639643    1.192    0.161
       159  -8.8235    202.1643     38.1668   7.0911911930e+01   2.9604334809e+01    0.4240712    0.3975928  65.05  0.002328675    1.149    0.130
       160  -8.4029    201.5215     34.5326   6.9869993526e+01   3.0196433693e+01    0.2686131    0.2199573  23.21 0.0007587435    1.226    0.185
       161  -8.4023    168.9839     42.4401   7.8077963584e+01   3.7678316150e+01    0.3087423    0.2198369 -33.75  0.001055695    1.420    0.296
       162  -8.8893    173.4751     41.0144   7.6719830123e+01   3.6706454495e+01    0.6025651    0.3178932 -37.69  0.002402968    1.946    0.486
       163  -9.3178    169.5162     37.4517   7.6250893154e+01   3.8205720444e+01    0.3660995    0.3123214  29.91  0.001094526    1.122    0.108
       164  -9.4670    167.6772     34.0624   7.5417163770e+01   3.9122659803e+01    0.3439421    0.2775557  22.48 0.0007621928    1.227    0.185
       165  -9.8804    156.4707     41.5349   8.0347069542e+01   4.1012701710e+01    0.4229069    0.3635061  76.74  0.001048573    1.397    0.284
       166  -8.6192    196.5399     41.1016   7.2713348653e+01   3.0700570045e+01    0.4658009    0.2203113 -48.66  0.001052367    2.797    0.643
       167  -8.1395    126.7067     42.8114   8.8003744563e+01   4.8061624598e+01    0.2901008    0.1121828  49.11  0.001011758    2.558    0.609
       168  -9.4904      4.5016     41.8927   1.3270891784e+02   6.5155686646e+01    0.2409024    0.1743437  13.94  0.001670523    1.787    0.440
       169  -8.4235    140.8205     40.9307   8.3701890751e+01   4.5005498674e+01    0.2732743    0.2007178 -45.88  0.000723461    1.553    0.356
       170  -9.1485    130.3694     39.1804   8.5657565765e+01   4.7780515592e+01    0.2546829    0.2387834  61.83 0.0003650151    1.242    0.195
       171  -9.8610    111.6760     34.6280   8.9028277452e+01   5.2734856854e+01    0.7662212    0.3140191 -43.63   0.00151273    2.839    0.648
       172 -10.3895    218.0724     34.4081   6.7518762188e+01   2.5985225721e+01    0.6971985    0.5106151  45.92  0.003516574    1.368    0.269
       173  -9.5590    209.8010     35.2220   6.8888258914e+01   2.7987968464e+01    0.5515242    0.3693088  21.84  0.002524925    1.673    0.402
       174  -8.1063    182.2110     19.6239   6.7898656377e+01   3.6939442322e+01    0.2612329    0.1947065 -29.08 0.0008608021    1.349    0.258
       175  -9.4760      4.4108    248.8790   1.4708722634e+02   2.5801728196e+01    0.1214834    0.1079889 -34.19  0.001217942    2.277    0.561
       176  -8.7586    186.6466     22.0072   6.8031469063e+01   3.5504019494e+01    0.5142564    0.4420335 -72.14  0.001671417    1.346    0.257
       177  -8.7979    182.4923     30.9748   7.1706257927e+01   3.5598925373e+01    0.2960548    0.2694696  -9.84 0.0007939709    1.076    0.071
       178  -9.3877    183.7625     26.9603   7.0145008875e+01   3.5726395292e+01    0.6620735    0.3004204  47.65  0.002522714    2.099    0.524
       179  -8.7404    102.9481     36.3150   9.2363317424e+01   5.4298371247e+01    0.3918935    0.2540016  38.86  0.001862714    1.575    0.365
       180  -8.8661     54.7042     36.1175   1.0987296559e+02   6.2327815262e+01    0.2806905    0.1937945 -42.20  0.001580775    1.217    0.178
       181  -7.9435     96.0437     36.5785   9.4687347811e+01   5.5627273757e+01    0.2037276    0.1406585  43.16 0.0006121997    1.544    0.352
       182  -8.5367     89.6334     34.8128   9.6121855974e+01   5.7149577697e+01    0.3378562    0.1531453 -42.93 0.0008756417    2.196    0.545
       183  -7.7900     35.1198    227.8253   1.4186074469e+02   2.6050771258e+01    0.1107213   0.09138538  57.94 0.0003921925    1.271    0.213
       184  -7.6536    233.5728    176.8124   1.0031176995e+02   4.6439600076e+00    0.1495949    0.1117117 -28.94 0.0007414963    1.605    0.377
       185  -7.9460    244.7727    175.5529   9.8197102429e+01   2.9129848125e+00    0.1529567    0.1059467  41.08 0.0004239131    1.506    0.336
       186  -7.9709    241.8105    168.8653   9.7407587690e+01   4.1288681096e+00    0.1579199    0.1386419  17.60 0.0006366993    1.306    0.234
       187  -7.9276    240.9774    147.9673   9.3301410956e+01   6.6578075293e+00    0.1642852    0.1297393   8.93 0.0006363877    1.022    0.022
       188  -7.6882    205.6206    147.8138   9.9580493131e+01   1.3316539715e+01    0.1718893    0.1245597 -37.73 0.0004245197    1.612    0.380
       189  -8.1538    234.8550     34.7776   6.5539139528e+01   2.1824318781e+01    0.2161078    0.1788613  19.68 0.0007039343    1.238    0.192
       190  -9.2402    131.1092     34.4140   8.3625137420e+01   4.8319941342e+01    0.3871129    0.2626705  47.54  0.001570038    1.454    0.312
       191  -9.0020     75.4601     34.2894   1.0099176441e+02   5.9706122177e+01    0.3115805    0.2598192  47.96  0.001780345    1.496    0.331
       192  -8.7439     43.4964     34.9659   1.1416633096e+02   6.3849560229e+01    0.2014326    0.1078597 -51.52 0.0007672156    1.570    0.363
       193 -10.1556    155.0948     29.0976   7.6106931065e+01   4.3033267233e+01    0.6381615    0.4135249 -21.62  0.002733486    1.529    0.346
       194  -8.0348    213.6639    144.9478   9.7469240708e+01   1.2160647764e+01    0.1908829    0.1613612  -4.23  0.001134442    1.134    0.118
       195  -9.0651     31.7269     28.9177   1.1728427863e+02   6.6232280073e+01    0.3324651    0.2377254  56.28  0.001494973    2.164    0.538
       196 -10.4041     27.1005     30.6187   1.1997002372e+02   6.6261254977e+01    0.3588191    0.3490386  11.54  0.001585325    1.307    0.235
       197  -8.2314    149.0665     33.0613   7.8863757693e+01   4.4066389906e+01    0.2347599    0.1841752 -58.96 0.0008003604    1.626    0.385
       198  -8.5961     98.0346     20.2910   8.7047794367e+01   5.7825895590e+01    0.5006585    0.1815381  39.11   0.00175264    3.007    0.667
       199  -9.0490    104.1708     30.1796   8.9452421223e+01   5.5043989841e+01    0.3680402    0.2188671 -25.44  0.001084797    1.620    0.383
       200  -9.6235    240.2864    141.0673   9.1933800963e+01   7.6072796639e+00    0.4801297    0.2570816 -16.31 0.0009654086    1.871    0.465
       201  -9.3957     27.0434     26.0379   1.1846888986e+02   6.7219932709e+01    0.2812468    0.2112489 -25.81 0.0009338968    1.271    0.213
       202  -8.2648    139.4812     31.1485   8.0309522726e+01   4.6737642644e+01    0.4595438    0.1162334  49.24  0.001352034    3.458    0.711
       203  -7.8767     98.4809     31.4655   9.1788084157e+01   5.6007962552e+01    0.2112026     0.131566  32.19 0.0007574887    1.691    0.408
       204  -8.8729     94.3512     30.5075   9.2734834230e+01   5.6984864923e+01     0.285564    0.2429161  63.58 0.0002619392    1.571    0.363
       205  -7.6609     67.4862     31.5014   1.0291831616e+02   6.1470029238e+01    0.1361022    0.1185624 -29.46   0.00080884    1.093    0.085
       206  -8.8301    203.4939     29.2945   6.7941483533e+01   3.0277078972e+01    0.4986424    0.2656252 -64.99  0.001751453    3.179    0.685
       207  -8.4227    176.6938     30.2555   7.2448220787e+01   3.7217207271e+01    0.2976344    0.1839456  55.03 0.0006101375    1.557    0.358
       208  -7.9419     82.7548     30.5793   9.6774903028e+01   5.9135357503e+01    0.1792939    0.1368152  51.29 0.0008070378    1.643    0.391
       209  -8.3904     46.5641     29.2974   1.1075661191e+02   6.4662005415e+01    0.2279275    0.1798794 -60.72  0.001367255    1.471    0.320
       210 -10.0618    166.2392     27.1457   7.3226544104e+01   4.0352198389e+01    0.6220332    0.3606765 -58.82  0.002342283    2.618    0.618
       211  -8.5893    161.4499     22.5187   7.2430434965e+01   4.2158077632e+01     0.263884    0.2128046 -64.22 0.0008195066    1.537    0.349
       212  -9.0529     20.0369     27.5869   1.2228666145e+02   6.7414706727e+01     0.412212    0.1153027 -40.98  0.001632823    3.236    0.691
       213  -9.2660    228.4520     24.5737   6.3383872146e+01   2.4448617231e+01    0.3614395    0.3331353  42.49  0.002111162    1.111    0.100
       214  -7.9025    131.0188     25.7251   8.0186891994e+01   4.9555860441e+01    0.2130985    0.1853373  33.90 0.0006240965    1.099    0.090
       215  -8.0805    125.4079     26.2871   8.1824431418e+01   5.0835458120e+01    0.2063305    0.1352883 -33.57 0.0009387581    1.536    0.349
       216  -8.4125    213.0203     23.7865   6.4980493248e+01   2.8407867976e+01    0.4081092    0.1835511   1.72  0.001309834    3.607    0.723
       217  -8.3114     87.9413     22.9293   9.1589661240e+01   5.9448652722e+01    0.2806517    0.1761647 -40.09  0.001352977    1.636    0.389
       218  -7.8474     76.6628     23.7025   9.6013641819e+01   6.1375794688e+01    0.1439771   0.09856611   0.40  0.000585419    1.655    0.396
       219  -8.4202    199.0047     20.7100   6.5843368316e+01   3.2366807983e+01    0.3757098     0.203887  70.56  0.001566696    1.975    0.494
       220  -8.6582    156.0036     20.9900   7.2889895801e+01   4.3769539759e+01    0.2275178     0.215639  10.80   0.00046364    1.050    0.048
       221  -8.8724     61.9980     34.9956   1.0649028522e+02   6.1592954710e+01    0.2026282    0.1689129 -78.71  0.001141625    1.770    0.435
       222  -8.0220    135.6147     21.2766   7.7290867504e+01   4.8987360295e+01    0.2293646    0.1736277 -57.05  0.001073232    1.727    0.421
       223  -8.1245    111.4191     20.8025   8.3267302801e+01   5.4839740552e+01    0.3614645    0.1757214  25.31  0.001160477    2.950    0.661
       224  -8.8025     62.4405     20.0758   1.0000211478e+02   6.4289874433e+01    0.2795954      0.19251  31.89 0.0008769433    1.578    0.366
       225  -8.3161    127.0206     18.7574   7.8282639678e+01   5.1426521753e+01      0.26692    0.1766407 -37.06 0.0008640753    1.617    0.382
       226  -8.0620     81.4761     19.4552   9.2282413133e+01   6.1207137793e+01    0.1417265     0.120695  -7.79   0.00080848    1.005    0.005
       227  -8.2930    228.7688    142.3639   9.4192789453e+01   9.6084333362e+00    0.2318681    0.2030529  59.26  0.001373314    1.623    0.384
       228  -7.7922    151.6347     20.7054   7.3636702496e+01   4.4947735805e+01    0.1691446    0.1035716  30.70 0.0007029829    1.715    0.417
       229  -7.8514    207.2647    142.0127   9.8030971362e+01   1.3808832292e+01    0.1906853    0.1619371  11.43   0.00080656    1.032    0.031
       230  -7.4847    230.9509    138.0000   9.2854600756e+01   9.7461195569e+00    0.2043031   0.07101513  46.58 0.0003349397    2.752    0.637
       231  -8.4915    211.9449    136.9926   9.6050585172e+01   1.3587675792e+01    0.2151642    0.1795604  14.18  0.000491549    1.014    0.014
       232  -8.5265    175.1775     16.5441   6.7923625617e+01   3.9142791741e+01    0.2536336    0.2056613 -21.68 0.0005454482    1.240    0.193
       233  -9.0511    210.5643     15.5558   6.2773463395e+01   2.9863025837e+01    0.3375275    0.2492374 -89.04  0.001681969    1.557    0.358
       234  -8.2115    230.0045    132.5572   9.1800755615e+01   1.0624744289e+01    0.2529404    0.1788521 -36.76  0.001345752    1.652    0.395
       235  -7.9975     48.7554     16.2402   1.0422540016e+02   6.6870560177e+01    0.2201215   0.08289181 -35.33 0.0008952883    2.458    0.593
       236  -7.8532    217.5192    133.5587   9.4252588394e+01   1.2953247792e+01    0.1420047    0.1185822  14.06 9.888385e-05    1.007    0.007
       237  -9.6730    248.1533    126.7835   8.7449485562e+01   7.8485380220e+00    0.2747672    0.2646993 -27.02 0.0006806568    1.454    0.312
       238  -8.5793    236.1315    125.2261   8.9070035185e+01   1.0361553031e+01    0.2452561    0.1943658  13.69 0.0008475655    1.075    0.069
       239  -7.8590    167.5002     15.4731   6.8785302594e+01   4.1311432830e+01      0.15407    0.1391125  28.83 5.096296e-05    1.037    0.035
       240  -9.5325    247.8524    119.9432   8.5917945103e+01   8.7296585894e+00    0.4518885    0.2644605  44.87  0.002051842    1.719    0.418
       241  -9.6417    241.7691    122.5431   8.7507938525e+01   9.5930576703e+00    0.3431046    0.2680523  -5.82  0.001002918    1.117    0.105
       242  -9.0004    239.6236    118.7881   8.6979222126e+01   1.0484764388e+01    0.2549897    0.2153642 -18.22 0.0005694081    1.218    0.179
       243  -9.4182    206.4937    119.9698   9.3135757072e+01   1.7133403271e+01    0.5369449    0.3818346 -35.34  0.002736204    1.510    0.338
       244  -7.8023    143.7474     13.1564   7.2254741684e+01   4.7840548099e+01    0.2169083    0.1554252  31.75 0.0005202256    1.343    0.255
       245  -7.6445    154.4600    124.4841   1.0508846671e+02   2.7220683156e+01    0.1418962    0.1338619  28.89 9.652264e-05    1.048    0.045
       246  -8.4630    231.6179    121.3269   8.8924436931e+01   1.1760261846e+01    0.2890794    0.2110871   9.62  0.001552381    1.270    0.213
       247  -9.2509    221.6881    119.3222   9.0182327480e+01   1.4052463868e+01    0.2560476     0.236427   9.18 0.0005351016    1.170    0.145
       248  -8.1169    196.0205    120.0105   9.5177801387e+01   1.9340937551e+01    0.2069249    0.1834169 -70.14 0.0007276777    1.600    0.375
       249  -8.6485    190.1729    118.9470   9.6092670550e+01   2.0748287999e+01    0.2043949    0.1991166 -55.34 0.0004835981    1.292    0.226
       250  -8.7539    181.3369    118.0364   9.7693508994e+01   2.2775053143e+01    0.2472379    0.2094336  73.29 0.0008293954    1.594    0.373
       251  -8.0243    223.4911    114.5202   8.8701693810e+01   1.4332577838e+01    0.2224163    0.1721097 -24.36 0.0006299776    1.280    0.219
       252  -9.2369    219.3180    112.3339   8.8905731263e+01   1.5510992838e+01    0.5410473    0.2592697  29.15   0.00209211    2.484    0.597
       253  -7.9788     37.5152    115.5119   1.3306186989e+02   4.6587140551e+01    0.1179523   0.09831262 -85.56  0.000243935    1.012    0.012
       254  -9.0287    176.7051    115.7159   9.8108220630e+01   2.4146233345e+01    0.2952704    0.1829994  65.98   0.00117616    2.591    0.614
       255  -8.8099    222.4810    111.4297   8.8121091373e+01   1.4966545308e+01    0.2709374    0.2398629  25.73 0.0006210536    1.137    0.121
       256  -8.9897    173.3308    110.5575   9.7554280735e+01   2.5741332506e+01    0.2911052    0.1830619 -30.76  0.001171763    1.634    0.388
       257  -8.4185    197.9719    110.2725   9.2391374418e+01   2.0414001045e+01    0.2063174    0.2039605 -65.68 0.0003677482    1.284    0.221
       258  -9.0262    194.0807    106.8369   9.2286253611e+01   2.1799435753e+01    0.3704557    0.2512599  37.80  0.001265781    1.398    0.285
       259  -7.8724    228.0276    108.9873   8.6554117460e+01   1.4127960007e+01    0.1710104    0.1453755   5.46 0.0009570065    1.007    0.007
       260  -8.0287    243.7545    107.4379   8.3584144596e+01   1.1078790393e+01    0.1972133    0.1164992  35.28 0.0009491591    1.636    0.389
       261  -8.2875    229.1386    104.6917   8.5294339422e+01   1.4466306957e+01    0.3052802    0.2029062  59.10  0.001286397    1.884    0.469
       262  -8.5286    238.2365    100.5369   8.2755845829e+01   1.3088177743e+01    0.3585315    0.1986843  33.55  0.001296234    1.824    0.452
       263  -8.8844    236.3465    105.6762   8.4342556037e+01   1.2822761011e+01    0.2670971    0.2377052 -16.97  0.001366169    1.194    0.162
       264  -9.1780    233.4481    102.7699   8.4093368740e+01   1.3807256728e+01    0.3656456    0.2345865  40.73 0.0008967106    1.512    0.338
       265  -8.1373    220.3592    103.9793   8.6627446022e+01   1.6446693293e+01    0.2004068    0.1663489  -7.99 0.0004082404    1.100    0.091
       266  -8.1081    170.2710    103.0227   9.6288223328e+01   2.7698737767e+01    0.1990601    0.1839051  -3.58 0.0002609847    1.049    0.047
       267  -7.9644    249.6653    101.8465   8.1300554845e+01   1.0572680201e+01    0.1888521    0.1526385  -9.51 0.0004505301    1.083    0.076
       268  -7.6076    176.3168    102.6630   9.4877599617e+01   2.6420707820e+01    0.1465594    0.1225283 -74.19 0.0007048331    1.700    0.412
       269  -8.6354    212.7412    100.9837   8.7219548242e+01   1.8537441604e+01      0.31275     0.212936  44.80   0.00141203    1.446    0.308
       270  -7.6636    198.3285    100.3050   8.9750350292e+01   2.1858604649e+01    0.1591173    0.1073668  16.68 0.0007036016    1.652    0.395
       271  -9.0466    245.9445     97.8022   8.0866739923e+01   1.1828430665e+01    0.5133715    0.2743617  42.74  0.002043786    1.842    0.457
       272  -8.8996    219.4731     96.7200   8.4912072244e+01   1.7646864520e+01    0.3744356    0.2328014 -18.54  0.001450873    1.570    0.363
