#   1 NUMBER                 Running object number                                     
#   2 MAG_AUTO               Kron-like elliptical aperture magnitude                    [mag]
#   3 X_IMAGE                Object position along x                                    [pixel]
#   4 Y_IMAGE                Object position along y                                    [pixel]
#   5 X_WORLD                Barycenter position along world x axis                     [deg]
#   6 Y_WORLD                Barycenter position along world y axis                     [deg]
#   7 A_WORLD                Profile RMS along major axis (world units)                 [deg]
#   8 B_WORLD                Profile RMS along minor axis (world units)                 [deg]
#   9 THETA_WORLD            Position angle (CCW/world-x)                               [deg]
#  10 FWHM_WORLD             FWHM assuming a gaussian core                              [deg]
#  11 ELONGATION             A_IMAGE/B_IMAGE                                           
#  12 ELLIPTICITY            1 - B_IMAGE/A_IMAGE                                       
         1 -13.3015    205.8574     36.2778   5.3893573170e+01   2.8424243984e+01     1.012348    0.8625961  -8.75  0.003993608    1.218    0.179
         2 -13.1506      2.7592     11.3418   1.1498573209e+02   7.5244032227e+01     1.313222    0.3932265 -69.22  0.005514326    2.792    0.642
         3 -13.9618    225.6886     16.3729   4.6190011120e+01   2.5719951389e+01     1.195821    0.9334585  21.56  0.001292664    1.532    0.347
         4 -11.0390     73.8545    243.4311   1.2028643908e+02   1.9185336758e+01     0.268338    0.2238817  75.96  0.002336802    1.354    0.261
         5 -10.8347    161.9182    250.1457   1.0548022375e+02   7.1020928624e+00     0.257715    0.1050937  33.25  0.001497718    1.843    0.457
         6 -11.1508    142.6309    249.1630   1.0866038017e+02   9.7624874150e+00    0.3516908     0.151609  50.60  0.001962204    2.426    0.588
         7 -12.9753    131.0120    240.4126   1.0986142688e+02   1.2365724289e+01    0.5765074    0.5113213  56.10  0.004898022    1.317    0.241
         8 -12.4260     99.6798    248.2898   1.1605547129e+02   1.5401983046e+01    0.6643996    0.4902762 -45.01  0.005238987    2.075    0.518
         9 -11.1688    101.8376    240.1500   1.1505958818e+02   1.6222724715e+01    0.2647252    0.2019448 -79.38  0.001670646    1.722    0.419
        10 -12.0895    104.5504    236.9523   1.1431466528e+02   1.6313651913e+01    0.3640409    0.2512502  49.77  0.001941056    1.146    0.128
        11 -11.8448     90.0941    225.0929   1.1604779543e+02   1.9886421603e+01    0.4457738    0.2618653  42.11  0.002992428    1.246    0.197
        12  -9.3932     90.9998    220.0423   1.1546877695e+02   2.0540694453e+01    0.1994899    0.1114328  65.24 0.0006671731    1.972    0.493
        13 -11.6424     87.3703    248.5124   1.1822566869e+02   1.6877879969e+01    0.4877892    0.2602033  37.96  0.001974116    1.370    0.270
        14 -10.2634     81.6184    247.5571   1.1917104948e+02   1.7695402955e+01    0.2844418    0.1344195 -78.68  0.001796357    3.002    0.667
        15 -11.9605     88.7672    238.6353   1.1730431541e+02   1.8073575236e+01    0.5971626    0.3129817  64.76  0.003759664    2.130    0.530
        16 -10.8348     83.1351    240.3938   1.1843983776e+02   1.8512946852e+01     0.414861    0.1822993  53.85   0.00248471    1.916    0.478
        17 -11.3535     68.1787    245.2970   1.2139431866e+02   1.9576010111e+01    0.4637894    0.2408494  76.93  0.003084381    2.292    0.564
        18 -10.3487     68.9145    237.6505   1.2082681818e+02   2.0595051748e+01    0.1837335     0.175951 -67.47 0.0006204227    1.547    0.354
        19 -11.8744     73.5207    236.9491   1.1995205944e+02   2.0159021483e+01    0.3756635    0.3345019 -16.32   0.00279796    1.816    0.449
        20 -11.5518     58.4322    246.7065   1.2316886916e+02   2.0467880775e+01    0.3172396    0.2982735 -77.07  0.002959734    1.578    0.366
        21 -14.8364     13.9992    242.1360   1.3060561780e+02   2.5603308454e+01     2.615807      0.84587  38.11   0.01662171    2.025    0.506
        22 -14.7265     22.8103    219.8017   1.2842479633e+02   2.8283754109e+01     1.050892    0.7948326  37.40  0.008610897    1.384    0.278
        23 -10.6979    197.8471    245.8403   9.9073792243e+01   2.7960527017e+00    0.1685579    0.1056474  20.85   0.00124038    1.294    0.227
        24 -11.4026    154.1609    247.1299   1.0648604662e+02   8.4640457005e+00     0.267722    0.2252129 -25.79  0.002265108    1.622    0.383
        25  -9.9998    245.3406    244.3201   9.1561367067e+01  -3.0303087712e+00    0.1061499   0.05313429  15.76 0.0007049976    1.717    0.418
        26 -11.2507    181.0719    243.3244   1.0152862763e+02   5.2661743182e+00    0.2487994    0.1223124  46.39  0.001512009    2.002    0.501
        27 -10.5334     84.2155    230.3879   1.1754974010e+02   1.9833422546e+01    0.2135529    0.1917597 -55.73  0.001776581    1.587    0.370
        28 -11.1501     97.4987    239.5273   1.1579309944e+02   1.6858391974e+01    0.3106429    0.2792359 -15.52   0.00240736    1.675    0.403
        29 -12.8708    124.2866    240.7038   1.1108454451e+02   1.3225764657e+01    0.6262006     0.372435  17.87  0.003778281    2.343    0.573
        30  -9.3047     53.7151    241.0050   1.2371744788e+02   2.1809976405e+01    0.1358531    0.1017245  58.55 0.0006421834    1.138    0.121
        31  -9.7203    145.5342    240.5224   1.0730861450e+02   1.0392197827e+01    0.1096333    0.0773868  38.69  4.22563e-05    1.049    0.047
        32 -13.0400      3.2469    191.7420   1.3135198473e+02   3.4880110558e+01     1.415046    0.3963727 -84.25  0.007061115    3.318    0.699
        33 -13.2135      7.7216    212.3016   1.3099840074e+02   3.0898874205e+01    0.9596933    0.7620346 -51.93  0.007817839    2.001    0.500
        34 -12.3050    118.5484    237.9918   1.1186968055e+02   1.4340233775e+01    0.5913836    0.3922742   0.03  0.003494611    2.975    0.664
        35 -11.1031     98.7085    230.8358   1.1489102319e+02   1.7931315826e+01    0.2754415    0.1914437   9.28  0.001754081    2.330    0.571
        36 -12.2069    105.0181    229.4464   1.1360209088e+02   1.7306790428e+01    0.6019069     0.221467  47.29  0.003178418    2.127    0.530
        37 -10.7346    113.5369    230.3085   1.1209648746e+02   1.6051863513e+01    0.1805793    0.1479389  35.98  0.001090728    1.183    0.155
        38  -9.6474    153.5639    230.0131   1.0476397691e+02   1.0556409076e+01    0.1274912    0.1105593 -35.53 0.0003657801    1.550    0.355
        39 -11.0043    110.1394    247.8454   1.1418904387e+02   1.4145533867e+01    0.2901638    0.1867113  45.31  0.002176868    1.118    0.106
        40 -10.9372     56.5877    228.1908   1.2254268122e+02   2.3434333951e+01    0.1951458    0.1622056  48.10 0.0003109125    1.243    0.196
        41 -10.5782     79.2114    225.3776   1.1812912617e+02   2.1208979975e+01    0.2822572    0.1725109 -75.82  0.001948689    2.008    0.502
        42 -13.2859    117.0247    249.7637   1.1314113574e+02   1.3023937046e+01     1.858948    0.2663783  36.40  0.006241964    5.506    0.818
        43  -9.0777     64.9797    224.4751   1.2075793470e+02   2.3056735975e+01    0.2300244     0.163307 -31.98  0.001499331    2.736    0.635
        44 -10.0212    250.2392    230.9859   8.9026692838e+01  -2.5808746099e+00    0.1178775   0.07221581 -14.82 0.0008531717    1.630    0.387
        45  -8.7110     77.3019    221.2771   1.1819922781e+02   2.2081220921e+01   0.09419104   0.07857565  20.81 0.0001963361    1.542    0.351
        46 -10.0603     71.3132    219.3604   1.1921611884e+02   2.3115871532e+01     0.380754    0.2216393  61.93  0.002527667    1.541    0.351
        47 -10.0585     60.0919    220.3412   1.2143379535e+02   2.4281187266e+01    0.1674531    0.1258125  65.32 0.0003460553    1.172    0.147
        48  -9.7371    106.9484    216.5415   1.1206992439e+02   1.8948421161e+01    0.1646941    0.1105476  43.45 0.0004197397    1.116    0.104
        49  -9.7152     50.9302    218.7699   1.2309434847e+02   2.5568420176e+01    0.2127864    0.1140692  58.94 0.0008095723    1.490    0.329
        50  -9.9480     46.5521    214.4659   1.2370581381e+02   2.6759040362e+01    0.2992852   0.08272689  48.71  0.001503153    2.439    0.590
        51  -9.3976     44.9438    218.8362   1.2423811346e+02   2.6208165656e+01    0.1968882    0.1243224  35.40  0.001395473    1.444    0.307
        52  -8.4930    117.6746    215.2899   1.0986438402e+02   1.7643529851e+01     0.116737   0.07059092  55.61 0.0002336653    1.613    0.380
        53  -9.5156     88.1048    212.8708   1.1543729444e+02   2.2046896217e+01    0.1769691    0.1187435  57.60 0.0007705837    1.287    0.223
        54  -9.3237     58.5053    212.5450   1.2126285750e+02   2.5744283851e+01    0.2690639    0.1449645  29.76  0.001631887    1.881    0.468
        55  -9.8673     55.9299    208.9626   1.2154877655e+02   2.6644813727e+01    0.2701795    0.1544127 -78.09  0.001771229    1.941    0.485
        56 -10.4284     62.7054    208.5202   1.2016709148e+02   2.5932345098e+01    0.2958289    0.1596271  51.89  0.001248684    1.418    0.295
        57  -9.8932     64.4532    205.2650   1.1958906790e+02   2.6280612697e+01     0.377137    0.1615392  38.99  0.001445423    1.785    0.440
        58  -9.5764    110.8466    211.2556   1.1078814194e+02   1.9215623024e+01    0.1731605     0.120229  51.50 0.0007355342    1.218    0.179
        59  -9.6862     99.4994    210.0046   1.1291699414e+02   2.0984028474e+01    0.2459126   0.09722751  57.91  0.001045025    3.405    0.706
        60  -9.5185    113.9822    204.4906   1.0945451650e+02   1.9824403816e+01    0.1916734    0.1466276  74.39 0.0005720319    1.514    0.340
        61  -9.5587    106.8602    203.4684   1.1078655434e+02   2.1007560854e+01    0.1804573    0.1667909 -65.78 0.0005838927    1.367    0.269
        62  -9.7536     73.8697    200.8166   1.1732066897e+02   2.5891954728e+01    0.1593041    0.1044902  60.03 0.0004954942    1.310    0.236
        63  -9.6978    250.6154    200.2571   8.4350555954e+01  -7.7471758527e-03     0.141353   0.08350711  -7.15    0.0003759    1.566    0.362
        64 -10.5993     46.8904    198.5456   1.2274357609e+02   2.9480309082e+01    0.2694108    0.1583012  37.89  0.001221046    1.452    0.311
        65 -12.6323     36.4900    206.1109   1.2525368785e+02   2.9248556605e+01      0.76135    0.4047169  39.41   0.00500979    1.495    0.331
        66  -9.7102     30.5217    193.8328   1.2587193269e+02   3.2045414632e+01    0.1482245   0.09338921 -88.45  0.001013974    1.539    0.350
        67 -11.8837     49.9838    191.7756   1.2166972120e+02   3.0367833755e+01     0.305362    0.2324184 -54.62  0.001157183    1.780    0.438
        68 -10.9136     19.8867    190.1685   1.2791282665e+02   3.3735137674e+01    0.4942941    0.1520832  66.86  0.002306739    3.105    0.678
        69 -10.1411     35.6031    191.7895   1.2470990533e+02   3.1909581601e+01    0.2877904    0.1412183  33.43  0.001338313    1.840    0.457
        70  -8.9517    191.5185    191.4958   9.2689445005e+01   9.6553528038e+00     0.122066   0.09586574  25.02 1.577844e-05    1.004    0.004
        71  -8.6282    109.1838    191.3880   1.0897829157e+02   2.2671891829e+01    0.1686981   0.09033013  46.43 0.0002446095    1.529    0.346
        72  -9.4852     25.3664    192.6924   1.2688513892e+02   3.2756298827e+01    0.1948395    0.1098727  48.28  0.001300889    1.325    0.245
        73  -8.5060     40.0000    188.9091   1.2361844771e+02   3.1987952596e+01    0.1700954    0.0580659 -77.29 0.0005503439    3.036    0.671
        74 -10.2168    250.4458    187.2828   8.2236808950e+01   1.2302013942e+00    0.2063658   0.09460095 -19.52  0.001152601    2.177    0.541
        75  -8.9346     71.1101    187.1306   1.1675269564e+02   2.8696440696e+01    0.1663589    0.1066526  56.40  0.001027691    1.303    0.233
        76  -8.9963     67.6793    187.6426   1.1754577062e+02   2.9034207538e+01    0.1732754    0.1275638 -21.59  0.001006696    2.477    0.596
        77 -12.1060     56.6608    184.4139   1.1970067390e+02   3.0976408030e+01    0.3391143    0.1984355  40.96  0.001241897    1.415    0.293
        78  -9.6977     36.8145    180.3124   1.2380180777e+02   3.3956492113e+01    0.2248208    0.1521948 -70.45 0.0007702581    1.628    0.386
        79  -8.9169    110.4189    178.4262   1.0713072519e+02   2.4746386194e+01    0.1250789    0.1049574  45.78 0.0001141743    1.032    0.031
        80  -9.5489     59.2526    177.0769   1.1853235407e+02   3.2078144902e+01    0.4088154   0.08836104  42.74  0.001627913    3.119    0.679
        81  -8.4421     82.3117    176.6342   1.1323472226e+02   2.9187518673e+01    0.1332854   0.07786046  63.69 0.0007038577    1.761    0.432
        82 -11.1392     12.2365    153.2025   1.2804570313e+02   4.1712833947e+01    0.2545791    0.1576875  88.29 0.0008279249    1.385    0.278
        83 -11.1695     12.8237    172.4037   1.2872399906e+02   3.7755783734e+01    0.3037032    0.2297859  72.34  0.002274254    1.081    0.075
        84 -11.1361      2.7671    172.6365   1.3093908183e+02   3.8520881312e+01    0.4602601    0.1368336  52.89  0.002205885    2.320    0.569
        85 -12.7408      9.8243    165.4603   1.2912866440e+02   3.9386385833e+01    0.7156818    0.5448986  35.13   0.00527925    1.405    0.288
        86 -10.8673     19.9258    168.2753   1.2694582077e+02   3.7961774880e+01     0.226986    0.1933229 -62.85 0.0003398478    1.507    0.336
        87  -8.6948     87.7708    175.3897   1.1185418666e+02   2.8662768495e+01    0.1243695   0.08166473  70.83 0.0006620948    1.635    0.388
        88 -11.5117    248.6228    172.4049   7.9913632014e+01   2.9705424087e+00    0.4410168    0.2789611   3.19   0.00279441    1.431    0.301
        89 -10.7406     69.1967    172.4697   1.1582753536e+02   3.1742544006e+01    0.2170981    0.1804509  56.95 0.0004554485    1.042    0.040
        90 -11.0175     53.7821    171.4272   1.1932091487e+02   3.3842404941e+01    0.2782634     0.219063  43.26 0.0008580939    1.207    0.171
        91 -10.5867     26.9557    171.8530   1.2552764775e+02   3.6597482420e+01    0.2219227    0.1802367  27.70 0.0004452347    1.477    0.323
        92 -10.2934     39.8603    168.1685   1.2232385159e+02   3.6045481906e+01    0.2450192     0.215178  35.97  0.001168151    1.332    0.249
        93 -12.0842     77.4068    164.6677   1.1306993480e+02   3.2206250065e+01    0.4840642    0.4189823  54.11  0.003224805    1.077    0.072
        94 -10.7893    249.6558    161.1691   7.7691802260e+01   3.9862210406e+00    0.2869548    0.1601893 -27.67  0.001686261    1.742    0.426
        95 -11.1758    248.0105    157.5017   7.7243747589e+01   4.6326259485e+00    0.5626227    0.1771618  43.01   0.00248387    2.974    0.664
        96 -11.6008      9.8138    156.9489   1.2879119148e+02   4.1124500029e+01    0.3589917    0.1435933  65.71   0.00188384    2.116    0.527
        97  -8.9738     37.4172    162.4998   1.2250425865e+02   3.7461402365e+01    0.1190986   0.09338339  66.59 0.0001001009    1.017    0.017
        98 -10.4996     23.7862    162.0077   1.2572363901e+02   3.8888924944e+01    0.1806695    0.1494995  45.74 0.0003358761    1.240    0.193
        99  -8.6430     42.9504    161.0211   1.2105877327e+02   3.7184410713e+01    0.1429557    0.1132864  60.60 0.0003290389    1.037    0.036
       100 -11.3508    245.2661    162.3685   7.8579129884e+01   4.5340677290e+00    0.3330723    0.1787156 -13.76  0.001627879    1.862    0.463
       101  -9.6150     18.4787    172.4854   1.2746865804e+02   3.7250665864e+01    0.1983303    0.1347762  52.62  0.001385467    1.166    0.142
       102 -11.1439     23.2856    149.5822   1.2511843271e+02   4.1546994807e+01    0.2469116    0.2349796  62.81  0.001540631    1.286    0.222
       103 -11.1406     26.1565    155.6958   1.2478337963e+02   3.9986027486e+01    0.3071073    0.1926241  58.07  0.001397092    1.301    0.231
       104 -11.2293     21.6974    156.0470   1.2589218057e+02   4.0316707551e+01    0.3946982     0.150992 -84.64  0.001935865    2.455    0.593
       105 -10.9582    249.7044    150.9799   7.5732336792e+01   5.0746506457e+00     0.353432    0.2096079 -26.54  0.002091488    1.598    0.374
       106 -12.9135    248.3773    101.7091   6.5449672906e+01   1.0982737423e+01    0.9973994    0.4702053 -21.62  0.004670288    1.977    0.494
       107 -11.9074    248.0687    142.4591   7.4283171954e+01   6.2826620541e+00      0.47589    0.3569469   2.78  0.002897793    1.121    0.108
       108 -12.9210    248.5495    133.9113   7.2463235872e+01   7.1730494728e+00     1.139703    0.4897312 -23.80  0.005440911    2.175    0.540
       109 -12.2318    247.7268    112.7475   6.8029024345e+01   9.7878805362e+00    0.5560841    0.4199484  30.05   0.00309271    1.309    0.236
       110 -11.0114     91.9371    149.7623   1.0758430650e+02   3.3148870930e+01    0.3134578    0.2625708  51.55  0.001043702    1.058    0.055
       111 -10.4364     80.4774    148.5834   1.1033241858e+02   3.5101239720e+01    0.2310165    0.2104931  55.53 0.0002554994    1.101    0.092
       112  -9.6721     38.8308    148.8657   1.2111144284e+02   4.0203135651e+01    0.1653537    0.1548895 -83.07 0.0004330825    1.262    0.207
       113 -13.0269      4.5204    142.8065   1.2950418453e+02   4.4502317476e+01    0.7306089     0.324264 -69.48  0.004010858    2.158    0.537
       114 -13.0984      9.4819    143.3547   1.2827148713e+02   4.4022227146e+01    0.7733987    0.2262807 -82.50   0.00340016    3.005    0.667
       115  -8.8288    235.9816    145.9987   7.6834793472e+01   7.8864999062e+00    0.1522208    0.1236419   8.56 0.0004697789    1.011    0.011
       116  -9.2544     95.9776    145.6932   1.0595560923e+02   3.3365050759e+01    0.1885205    0.1551884  50.75 0.0003598143    1.084    0.078
       117 -11.6839     68.2926    143.5287   1.1285050635e+02   3.7880418780e+01    0.6305546    0.3143536  65.91  0.002255536    2.475    0.596
       118  -9.7911     44.9278    139.6905   1.1867480748e+02   4.1570704359e+01    0.1947096    0.1565645 -76.46 0.0003092247    1.234    0.190
       119 -10.9544     16.0866    139.4051   1.2635702920e+02   4.4367484126e+01    0.2591729    0.1200745  75.79  0.001344886    1.970    0.493
       120  -9.9324    106.1149    135.4596   1.0165485400e+02   3.3834077760e+01    0.3846023    0.2717547  -9.20  0.001741798    2.503    0.600
       121 -13.7643      9.2585    109.8395   1.2643800034e+02   5.1573117819e+01     1.181563    0.2756311 -77.34  0.004499689    3.423    0.708
       122  -8.4501     92.5063    133.4045   1.0488967552e+02   3.6536625832e+01    0.1358262    0.1236083  57.22 0.0001032019    1.041    0.039
       123 -11.5271     17.9137    132.8330   1.2546202756e+02   4.5677560468e+01    0.3266742    0.1830574  32.85  0.001900964    1.778    0.437
       124  -9.4370     44.3724    130.1508   1.1784033588e+02   4.3787032852e+01    0.1755515    0.1058864  89.07 0.0005736013    1.616    0.381
       125 -12.1293      2.1453    123.9411   1.2931859297e+02   4.8800909719e+01    0.6650281    0.1691265 -88.37  0.002577085    3.582    0.721
       126 -12.7694     16.6824    121.2186   1.2501220765e+02   4.8410625100e+01    0.5961986    0.2740765  64.07  0.002998845    2.049    0.512
       127 -11.3136    239.2189    120.6450   7.0998471785e+01   1.0376598028e+01    0.5056428     0.222661 -11.73  0.001901346    3.404    0.706
       128 -11.0954    243.4969    120.4200   7.0321723147e+01   9.6321222208e+00    0.3219264     0.151837 -37.67  0.001519141    2.207    0.547
       129 -10.3421    232.0368    116.3435   7.1121050397e+01   1.2245513030e+01     0.184299    0.1597319  19.03 0.0006255394    1.104    0.094
       130  -9.9971     24.8241    109.4108   1.2153553430e+02   5.0519846508e+01    0.1529081    0.1221641   1.49 0.0009440793    1.676    0.403
       131 -10.3360    249.8313    117.7940   6.8847637042e+01   8.8184653673e+00     0.277492    0.1913657   7.04 0.0008596581    1.425    0.298
       132 -12.6563      2.4487    111.7044   1.2862360361e+02   5.1561759871e+01    0.8207998    0.2008478 -86.40  0.003069531    3.668    0.727
       133 -12.9983      3.6863     75.3171   1.2564620212e+02   6.0093790491e+01    0.7865395    0.2946178 -83.01  0.003576918    2.252    0.556
       134 -12.1250      1.9667     88.1138   1.2731975818e+02   5.7113151930e+01    0.7742018    0.1412762 -84.99  0.002291706    5.472    0.817
       135  -9.3345    161.7107     80.3316   7.4598442748e+01   3.3097034474e+01    0.1543656    0.1201653 -69.33  0.000321526    1.625    0.385
       136 -10.7174    169.1795    248.8215   1.0412391781e+02   6.2810597799e+00     0.149001   0.09716015  22.26  0.001091041    1.364    0.267
       137 -11.2111    149.5741    247.4626   1.0730429003e+02   9.0377165422e+00    0.2714601    0.2162337   4.99  0.002192272    1.525    0.344
