#   1 NUMBER                 Running object number                                     
#   2 MAG_AUTO               Kron-like elliptical aperture magnitude                    [mag]
#   3 X_IMAGE                Object position along x                                    [pixel]
#   4 Y_IMAGE                Object position along y                                    [pixel]
#   5 X_WORLD                Barycenter position along world x axis                     [deg]
#   6 Y_WORLD                Barycenter position along world y axis                     [deg]
#   7 A_WORLD                Profile RMS along major axis (world units)                 [deg]
#   8 B_WORLD                Profile RMS along minor axis (world units)                 [deg]
#   9 THETA_WORLD            Position angle (CCW/world-x)                               [deg]
#  10 FWHM_WORLD             FWHM assuming a gaussian core                              [deg]
#  11 ELONGATION             A_IMAGE/B_IMAGE                                           
#  12 ELLIPTICITY            1 - B_IMAGE/A_IMAGE                                       
         1 -15.2724     14.4901    161.3563   1.4215103335e+02   3.9144610954e+01     9.379694     3.009154  64.29   0.04475047    3.308    0.698
         2 -12.1134      2.1333     37.1815   1.3278108760e+02   6.6281791268e+01     1.707103   0.08899973 -70.07  0.003190112   14.711    0.932
         3 -11.8345      2.0000     12.5097   1.2667079095e+02   7.1540024936e+01     1.155566    0.1675753 -65.13  0.003378145    6.268    0.840
         4 -12.4739      2.4189      3.7542   1.2339941981e+02   7.3293074442e+01    0.8974321    0.4894404  14.63  0.005601951    2.240    0.554
         5 -13.7415    205.5959     10.6807   6.1851956234e+01   3.1614334940e+01     1.795106     1.123838  32.01  0.008259276    1.748    0.428
         6 -13.2240    191.4630     29.4565   6.9763547065e+01   3.3407150876e+01     1.421385     1.280125  -3.45  0.007640507    1.077    0.072
         7 -10.7958     24.0701    246.3566   1.4425044915e+02   2.4434260919e+01    0.2824366   0.07216185  45.91  0.001243189    2.301    0.565
         8 -11.4698    124.5667    249.7193   1.2905556658e+02   1.2723402436e+01     0.433365   0.09761299  39.12  0.001931219    3.394    0.705
         9 -10.7396     98.0407    248.7381   1.3318364975e+02   1.6197167674e+01    0.2103527    0.1783514  24.54  0.001441743    1.563    0.360
        10 -10.4228    101.4130    246.2201   1.3246503892e+02   1.6105902530e+01     0.169307    0.1244502  80.23 0.0009188115    1.526    0.345
        11 -11.2961     30.7558    250.2259   1.4342790644e+02   2.3286223068e+01    0.4783171    0.1018963  39.27  0.002730108    3.069    0.674
        12 -11.3313     35.1506    244.4283   1.4256496815e+02   2.3662450047e+01    0.3775592    0.3140985 -86.79   0.00320877    1.485    0.327
        13 -11.9004      6.9096    226.2308   1.4611650798e+02   2.8816035399e+01    0.5867007    0.3520504 -62.98  0.004846555    2.255    0.557
        14 -12.3615     11.7016    239.9644   1.4582287736e+02   2.6421084774e+01    0.7860781    0.2795877 -80.31  0.005506889    2.736    0.634
        15 -11.1727      1.8607    248.8241   1.4743518192e+02   2.6019616700e+01    0.3846093    0.2221197  49.91  0.003308719    1.263    0.208
        16 -10.9721      1.8107    240.6125   1.4724500968e+02   2.7157266791e+01     0.349489    0.1307746 -88.73  0.002299828    2.447    0.591
        17  -9.7003    199.4918    246.4920   1.1669678255e+02   2.7418214334e+00    0.1078157   0.07406541  31.87 0.0003700489    1.011    0.011
        18  -9.9602    185.5291    239.0023   1.1803940295e+02   5.4747979130e+00    0.1270886    0.1055444 -23.35 0.0004804969    1.577    0.366
        19  -9.0122     21.3103    239.3219   1.4440850148e+02   2.5667405028e+01   0.06954519   0.06603245  89.21 0.0006705499    1.649    0.394
        20 -10.2771    234.1010    237.8196   1.1010281566e+02  -1.3654672211e+00    0.1579627    0.1171614  31.54  0.001198229    1.284    0.221
        21  -9.3129     24.7697    237.9027   1.4384817580e+02   2.5555114025e+01    0.1628432   0.08148856  69.09  0.000755069    1.581    0.368
        22  -9.5961    119.6461    237.3136   1.2877070273e+02   1.4918308079e+01    0.1079383   0.06167927  58.60 3.583307e-05    1.734    0.423
        23 -13.9030      8.8328    207.0139   1.4519469724e+02   3.1626278461e+01     1.369186    0.6758492  85.98  0.006523795    1.713    0.416
        24 -11.2218    248.4118    248.0301   1.0931936695e+02  -4.1168056401e+00    0.3440374    0.1523438  36.92  0.002229148    1.613    0.380
        25 -11.5267     71.1444    189.9840   1.3318329267e+02   2.8284402402e+01    0.2082989    0.1942084 -82.71 0.0004389549    1.291    0.225
        26 -13.9424     46.3728    224.3161   1.3989996492e+02   2.5459178830e+01    0.7265903    0.5897625  89.65  0.004517082    1.333    0.250
        27  -8.9424     94.8065    216.7635   1.3119096555e+02   2.1032831647e+01    0.1486943   0.09451213  59.08 0.0003890557    1.378    0.275
        28  -9.1715    102.1350    178.3649   1.2585507750e+02   2.6285643077e+01    0.1940475    0.1361917  69.98 0.0008708824    1.525    0.344
        29 -10.7350     80.5286    177.3548   1.3013124254e+02   2.9363298410e+01    0.1997495    0.1813254  75.25 0.0003439402    1.121    0.108
        30 -12.9695     67.6214    175.3800   1.3254547799e+02   3.1300131552e+01    0.3744895     0.240597 -46.04  0.001509364    2.128    0.530
        31 -11.6291     87.6415    168.0412   1.2762230388e+02   3.0143950304e+01    0.5404346    0.4363065  54.83   0.00370972    1.090    0.083
        32  -9.1332    238.6615    157.2900   9.5632098404e+01   5.9819726639e+00    0.1090461    0.1064077  63.83 0.0003076876    1.642    0.391
        33  -8.7087    152.6887    212.9317   1.2045882267e+02   1.3430261986e+01     0.146522    0.1241353  41.80   0.00036299    1.107    0.096
        34 -11.8929     88.4936    151.2474   1.2529166091e+02   3.3241919471e+01    0.2325287    0.2219692 -35.15 0.0005861148    1.264    0.209
        35  -9.8026    100.0882    151.9122   1.2276105196e+02   3.1462609978e+01    0.2626799    0.2067212  39.81 0.0008335608    1.234    0.190
        36  -9.1648    102.4278    147.8421   1.2161424233e+02   3.1906437686e+01    0.2300751    0.1720449 -27.62  0.001292449    1.835    0.455
        37 -12.3274     67.2907    143.9226   1.2920579614e+02   3.7439579108e+01    0.6614629    0.4147488  66.85  0.003402534    1.692    0.409
        38 -11.4290     58.9866    134.8951   1.3005081915e+02   4.0268787738e+01     2.016027    0.6411111 -79.50  0.004249224   12.687    0.921
        39 -10.1505    228.4894    228.0316   1.0960216660e+02   2.8370134735e-01    0.2344469    0.1931611 -46.59  0.001595044    2.253    0.556
        40  -8.2765    192.2426    144.0206   1.0136432303e+02   1.6463900573e+01       0.1583    0.1143521 -26.75  0.000308919    1.450    0.310
        41  -9.4895    110.6340    137.0118   1.1790382536e+02   3.2765461070e+01    0.3133714    0.2064449 -27.66  0.001062392    2.201    0.546
        42 -12.4882     40.3754    231.9885   1.4123232710e+02   2.4923381414e+01     0.225125    0.1883411  86.22 0.0007618196    1.359    0.264
        43 -10.3001     98.1537    134.3005   1.2043639967e+02   3.5254055310e+01    0.2281615    0.2008775 -36.72 0.0005943343    1.289    0.224
        44  -8.4675    116.6348    129.6965   1.1511006631e+02   3.3232062437e+01    0.1364305    0.1062866  -2.03 0.0007036006    1.737    0.424
        45 -11.3630     65.6264    197.6808   1.3485313476e+02   2.7618163100e+01    0.2627744    0.2019782 -46.05   0.00126504    1.875    0.467
        46  -9.4548    107.5609    123.8736   1.1622121808e+02   3.5917880017e+01    0.1919054    0.1763713  28.36 0.0003682695    1.140    0.123
        47 -10.6721    168.2091    113.0824   9.9305395295e+01   2.6406529298e+01     0.311111    0.2910191  89.27 0.0006953665    1.341    0.254
        48  -8.6905    203.5031    111.5216   9.1632790990e+01   1.9021517371e+01    0.1511046      0.12905  12.20 7.284977e-05    1.046    0.044
        49  -9.8366    193.0884    194.8462   1.1058407603e+02   9.3266251360e+00    0.4780706    0.2618892 -60.16  0.001634743    7.230    0.862
        50 -10.0778    142.9576    250.0000   1.2613994919e+02   1.0248406963e+01    0.1778471   0.04233324  40.67 0.0008060792    2.968    0.663
        51 -10.6014    107.7616    248.6505   1.3164171032e+02   1.5005846421e+01    0.2258749       0.1049  54.82  0.001381304    1.905    0.475
        52 -10.6169     81.8515    248.4614   1.3569442450e+02   1.8157821293e+01    0.1905341     0.107279  59.54  0.001301033    1.470    0.320
        53 -10.1252     46.4608    248.7454   1.4107843645e+02   2.1956096772e+01    0.2506492   0.09223903  63.72  0.001294077    2.525    0.604
