#   1 NUMBER                 Running object number                                     
#   2 MAG_AUTO               Kron-like elliptical aperture magnitude                    [mag]
#   3 X_IMAGE                Object position along x                                    [pixel]
#   4 Y_IMAGE                Object position along y                                    [pixel]
#   5 X_WORLD                Barycenter position along world x axis                     [deg]
#   6 Y_WORLD                Barycenter position along world y axis                     [deg]
#   7 A_WORLD                Profile RMS along major axis (world units)                 [deg]
#   8 B_WORLD                Profile RMS along minor axis (world units)                 [deg]
#   9 THETA_WORLD            Position angle (CCW/world-x)                               [deg]
#  10 FWHM_WORLD             FWHM assuming a gaussian core                              [deg]
#  11 ELONGATION             A_IMAGE/B_IMAGE                                           
#  12 ELLIPTICITY            1 - B_IMAGE/A_IMAGE                                       
         1 -14.1995    220.9054      6.0025   3.7492443040e+01   2.8920759993e+01     1.582035     1.011636  62.82  0.005269984    1.558    0.358
         2 -15.2070    194.8971     36.1580   4.8213870453e+01   3.1788157154e+01     3.361073     1.979695  23.85   0.01329087    2.930    0.659
         3 -11.1823    189.9086     14.8871   4.2935233687e+01   3.5565936290e+01    0.3025182    0.2106064  85.25 0.0008312862    1.390    0.280
         4 -12.5295    194.5966      3.7490   3.9386186212e+01   3.5517893472e+01    0.8229195    0.3234561  79.31  0.003285752    2.602    0.616
         5 -11.4943     69.9383      2.7398   6.2895020580e+01   6.5068294554e+01     0.319619     0.152564  46.18  0.001604849    1.865    0.464
         6  -9.5471    166.3364      1.6632   4.2010447685e+01   4.2813389811e+01    0.1433127   0.09229348 -65.59 0.0007051694    1.749    0.428
         7 -11.4008     35.4364    229.1694   1.2443930312e+02   2.2521678773e+01     0.205965    0.1235911  56.44  0.000400266    1.311    0.237
         8 -12.5573    247.7241    245.2041   8.6606439982e+01  -1.1218606764e+01    0.7139105    0.3964378  13.81  0.004282982    1.665    0.400
         9 -16.6318     70.0835    146.0468   1.0805174350e+02   3.6481265032e+01     8.616016     4.656612  69.18   0.02539759    2.753    0.637
        10  -6.8050     70.5804    200.4317   1.1516341549e+02   2.3944264760e+01    0.3965319    0.2029481  71.79   0.00181278    2.417    0.586
        11 -13.4242     32.0771    206.4804   1.2352424277e+02   2.7376658235e+01    0.3490939    0.1720427  56.12  0.001672672    1.734    0.423
        12 -10.8109     96.8858    202.0308   1.0971729366e+02   1.9771670463e+01    0.5154278    0.3689621 -20.74  0.002558364    2.523    0.604
        13 -13.3337     64.8794    186.4496   1.1485311756e+02   2.7744572523e+01    0.8129441    0.6795861 -41.66  0.005024721    1.578    0.366
        14 -10.2834     58.4750    192.5142   1.1691344925e+02   2.7241368562e+01    0.2278007    0.1028509  43.15 0.0006574424    2.012    0.503
        15 -10.1786     56.0786    223.7368   1.2025298787e+02   2.1109985799e+01    0.1148387   0.08045785  59.86 0.0002306918    1.147    0.128
        16 -10.4132     82.0573    194.9364   1.1205862829e+02   2.3498416269e+01    0.2142873    0.1834112  70.98 0.0004680135    1.005    0.005
        17 -19.2932      6.1630    103.6532   1.1984648387e+02   5.2960177750e+01     17.73886     1.408298 -72.10   0.03316143   13.125    0.924
        18 -11.1169    151.3631    195.2941   9.6816846422e+01   1.1842114300e+01    0.3879658    0.1640341  46.39  0.001544313    2.260    0.558
        19 -10.8810     95.6047    189.0461   1.0827359381e+02   2.2722598715e+01    0.4171041    0.2813371  75.35  0.001958017    1.672    0.402
        20 -10.4851     19.4132    188.2006   1.2471573093e+02   3.2515470604e+01    0.2006004    0.1576152 -50.81 0.0008961161    1.689    0.408
        21 -10.6884    150.6004    187.7383   9.5666579117e+01   1.3448913255e+01     0.188067    0.1380201 -61.66 0.0009478405    1.616    0.381
        22 -17.7021     35.3488    245.9261   1.2546462875e+02   1.9460661811e+01     8.381043     2.556034  30.37   0.03081068    6.122    0.837
        23 -11.4904     99.1489    180.9087   1.0628640713e+02   2.3944784097e+01    0.3271779    0.2785048 -18.92  0.001089374    1.596    0.373
        24 -11.4231    150.9660    180.0224   9.4179705367e+01   1.4919484253e+01    0.4467096    0.2902029 -77.12  0.001844176    2.632    0.620
        25 -11.8451    145.2123    180.9528   9.5650014302e+01   1.5817223832e+01    0.3497477    0.3168813  45.85 0.0009241069    1.040    0.038
        26 -11.9933    141.2192    174.1179   9.5300110722e+01   1.7989113013e+01    0.7029572    0.4724999  76.87  0.002122815    2.328    0.570
        27  -9.3270     43.6837    210.4104   1.2156826825e+02   2.5266964323e+01    0.2502554    0.1368244 -73.65  0.001162803    1.707    0.414
        28  -9.9282    188.5089    177.5206   8.5525323866e+01   8.1732404966e+00    0.2792079    0.2310942 -49.25   0.00151086    1.389    0.280
        29 -10.6984    187.9608    173.2770   8.4773674400e+01   9.0557267362e+00    0.6261424    0.3504898 -62.08  0.002229378    3.562    0.719
        30  -9.9600     37.5699    176.3475   1.1987037147e+02   3.3292762242e+01    0.3294722    0.1519432  55.57  0.001617684    2.139    0.532
        31 -10.2632     57.7124    175.7754   1.1524508583e+02   3.1075708028e+01    0.2853508    0.1825517  63.49 0.0004531056    1.525    0.344
        32  -9.3350     53.6725    173.7550   1.1594425691e+02   3.2038265646e+01     0.160854     0.108697 -87.13 0.0001536975    1.366    0.268
        33 -10.8343     46.2640    172.9326   1.1755900595e+02   3.3103239340e+01    0.3559742    0.2578227  35.36  0.001863161    1.552    0.356
        34  -9.5896    195.5084    172.9511   8.3139265405e+01   7.6507342341e+00    0.2160764    0.1390706 -37.32  0.001029427    1.580    0.367
        35 -11.0850    230.5428    167.7314   7.5231409935e+01   1.9748570303e+00    0.3468931    0.1233281 -38.99  0.001312587    2.722    0.633
        36 -13.4257     55.0697    199.5375   1.1833026119e+02   2.6158823172e+01    0.4617607    0.2916007 -60.73  0.002698454    1.679    0.404
        37 -10.0574    187.4229    166.8029   8.3533557477e+01   1.0366521452e+01    0.2782062     0.140231 -45.63   0.00113235    2.127    0.530
        38 -12.3577     94.3155    152.5815   1.0282224383e+02   3.1260788561e+01     0.671377    0.4700207 -29.03  0.003126994    1.988    0.497
        39 -10.7505    188.0727    152.6701   8.0304765339e+01   1.2928356075e+01    0.3302405    0.2417495 -71.32  0.001454799    2.104    0.525
        40 -11.5940    133.9287    145.7124   9.1298998100e+01   2.5634767464e+01     1.297814    0.3393793 -54.73  0.003066886    5.725    0.825
        41  99.0000     40.7844    206.7312   1.2184539882e+02   2.6356858351e+01    0.2136206    0.1786383 -71.28  0.001511223    1.363    0.266
        42 -10.8905    174.2403    148.6830   8.2409214933e+01   1.6618956397e+01    0.4119165    0.2913325 -48.78   0.00127373    1.497    0.332
        43  -9.8428     36.6432    224.0051   1.2388467350e+02   2.3374309128e+01    0.1611971    0.1171835  67.78 0.0004487599    1.046    0.044
        44  -9.8564    108.9260    147.1855   9.8003555045e+01   3.0040936201e+01    0.2183062    0.1904402  78.17 0.0002478558    1.196    0.164
        45 -11.1528     66.5943    204.5616   1.1643007555e+02   2.3613521225e+01    0.5145494    0.2398969 -46.23  0.001045331    3.413    0.707
        46 -11.4107    106.6758    138.3078   9.6773223203e+01   3.2545684036e+01    0.5690242     0.348508 -35.54  0.002392575    2.013    0.503
        47 -12.4498     94.3417    138.2767   1.0009951257e+02   3.4684490358e+01    0.2749403     0.271594 -25.65 0.0004562166    1.116    0.104
        48 -11.2057    105.8786    130.7314   9.5347648074e+01   3.4492652529e+01    0.3870502    0.3173647 -65.35  0.001230565    1.226    0.184
        49 -11.2479    135.8658    127.7660   8.6653444183e+01   2.9297952749e+01    0.8684397    0.1821206 -48.40  0.002090203    4.977    0.799
        50 -11.0704    114.4115    129.4846   9.2736879170e+01   3.3203678138e+01    0.6147665    0.3405094  31.00  0.001927393    2.148    0.535
        51 -11.1878    119.9147    123.0889   8.9725840173e+01   3.3628422845e+01    0.6282499     0.366708 -25.31  0.002244619    2.751    0.637
        52 -10.0357    160.8002    127.8779   8.0528273708e+01   2.3867466830e+01    0.3053133    0.2248106 -62.03  0.001348576    1.626    0.385
        53 -11.1380    101.5597    125.3540   9.5337555235e+01   3.6549919795e+01    0.3088694    0.2403051 -30.11 0.0007771476    1.470    0.320
        54 -10.1938    109.6145    118.5603   9.1464443093e+01   3.6682088801e+01    0.2467995    0.2396391 -48.09 0.0003793029    1.015    0.015
        55 -10.0412    167.5132    112.3654   7.4963602910e+01   2.5579093219e+01    0.3382789    0.2462468 -73.40  0.001184324    1.946    0.486
        56 -11.7538    118.3960    110.3938   8.6921857930e+01   3.6854180778e+01    0.6668918     0.471427  66.52  0.002497749    1.863    0.463
        57 -10.2906    205.3736    110.1179   6.6501802550e+01   1.7245481959e+01    0.3189738    0.2278213  43.21 0.0009980487    1.472    0.321
        58 -10.1391    134.6606    105.7337   8.1241716347e+01   3.4460665317e+01    0.4546465    0.1462341 -42.30  0.001357559    3.092    0.677
        59 -10.0085     77.5108    226.5320   1.1639131718e+02   1.7741831388e+01    0.1643015    0.1035366  89.31  0.000192583    1.679    0.405
        60  -9.8920     50.3701    224.4151   1.2138031545e+02   2.1684125642e+01    0.1802489   0.09729036  83.87 0.0007535989    1.845    0.458
        61  -9.2461    155.5049     81.5356   6.9004939238e+01   3.4549920237e+01    0.1564779    0.1533945   5.81 6.281704e-05    1.015    0.015
        62  -9.8024     66.4107     70.8950   9.2068233403e+01   5.4765741541e+01    0.2118644    0.1873937  38.16 0.0005172192    1.302    0.232
        63  -9.2682    168.2303    248.0379   1.0140566506e+02   2.0284511047e-01    0.1544521    0.1286862  33.91 -0.000275831    1.062    0.058
        64 -13.4052    179.4287     50.5971   5.4790388560e+01   3.3724365736e+01    0.8578763    0.7491229  27.76 0.0008249443    1.275    0.216
        65 -10.2790     29.3801    218.2290   1.2483282450e+02   2.5303060227e+01    0.2236498    0.1077654 -59.10 0.0004519147    2.429    0.588
        66 -11.0440    156.3748     58.7578   6.1756111882e+01   3.8331848037e+01    0.2976673    0.2600251  84.35 0.0005140934    1.261    0.207
        67 -11.4194     49.2497    218.8868   1.2116358088e+02   2.2902032110e+01    0.3643798    0.1745476  69.08  0.001651846    2.120    0.528
        68  -9.7136     55.3608    216.4921   1.1979205892e+02   2.2626368677e+01    0.2502051    0.1166559  70.36  0.001157262    2.412    0.585
        69  -9.8226     80.8003     15.4712   6.5286137454e+01   6.1647707220e+01    0.2475336    0.1268279  55.33  0.001139823    2.210    0.547
        70 -11.0352     56.7980    210.0912   1.1895206923e+02   2.3740203631e+01     0.310753    0.1908217 -59.53  0.001310182    1.807    0.447
        71 -11.3405     59.8483    231.7184   1.2018610255e+02   1.9110012196e+01    0.1811866     0.133959  79.34 0.0003883791    1.172    0.146
