#   1 NUMBER                 Running object number                                     
#   2 MAG_AUTO               Kron-like elliptical aperture magnitude                    [mag]
#   3 X_IMAGE                Object position along x                                    [pixel]
#   4 Y_IMAGE                Object position along y                                    [pixel]
#   5 X_WORLD                Barycenter position along world x axis                     [deg]
#   6 Y_WORLD                Barycenter position along world y axis                     [deg]
#   7 A_WORLD                Profile RMS along major axis (world units)                 [deg]
#   8 B_WORLD                Profile RMS along minor axis (world units)                 [deg]
#   9 THETA_WORLD            Position angle (CCW/world-x)                               [deg]
#  10 FWHM_WORLD             FWHM assuming a gaussian core                              [deg]
#  11 ELONGATION             A_IMAGE/B_IMAGE                                           
#  12 ELLIPTICITY            1 - B_IMAGE/A_IMAGE                                       
         1 -13.6131     68.1572    145.5011   1.2811494403e+02   3.7377563355e+01      3.28193     1.467642 -86.26  0.003073666    6.318    0.842
         2 -12.5287    215.0081      3.0035   5.8538477941e+01   3.0726061731e+01    0.8545555    0.6626491  87.87  0.003904782    1.159    0.138
         3 -12.5865    190.9594     24.9253   6.6859830565e+01   3.4283965797e+01    0.8541568    0.5653966   8.19   0.00344607    2.257    0.557
         4 -14.4967    200.9417     15.8296   6.3188028919e+01   3.2815465453e+01     2.771473     1.708262  23.70   0.01261793    2.563    0.610
         5 -13.7703      2.9526      8.2402   1.1621876158e+02   7.3011145724e+01     1.459775    0.9687473 -24.69   0.01049513    1.168    0.144
         6 -12.3099      2.1695     25.3717   1.2350648722e+02   7.0125800252e+01     0.563329    0.2479393 -48.46  0.002440745    1.652    0.395
         7 -11.2343     12.8071     24.0406   1.1771352244e+02   6.9640434173e+01    0.1837995    0.1483214  -9.40  0.000624768    1.208    0.172
         8 -12.7057    139.3307    248.8291   1.2693848985e+02   5.8400687014e+00    0.5863347    0.3146422  50.85   0.00332531    1.643    0.391
         9 -13.0945    125.9646    249.4995   1.2942799784e+02   7.7829170953e+00     0.707157    0.4096432  35.76  0.003632557    1.586    0.369
        10 -13.5146     67.6681    233.7060   1.3847529658e+02   1.8803193980e+01    0.8674042     0.524821  36.67  0.005354217    1.725    0.420
        11 -14.4993    102.1427    245.9327   1.3335143623e+02   1.1894076726e+01     2.853411    0.6588787  39.85   0.01099486    3.591    0.722
        12 -12.4377     90.0188    245.7130   1.3550226114e+02   1.3663442602e+01    0.5133696    0.2732978  72.66   0.00278575    2.287    0.563
        13 -11.7874     84.7542    239.3561   1.3587141257e+02   1.5485309894e+01    0.3561216    0.2497652  67.79  0.001415206    1.245    0.197
        14 -15.0518     34.4473    247.2161   1.4514057043e+02   2.0459269655e+01     7.672402     1.984838  31.90   0.02345917    8.480    0.882
        15 -12.9717     57.1666    225.6959   1.3973518970e+02   2.1631085137e+01    0.6787636    0.4393368 -44.88  0.004001128    2.541    0.606
        16 -14.7600      9.5070    151.6870   1.4329262127e+02   4.2199217542e+01     2.275749    0.9649254 -84.86  0.001050975    2.097    0.523
        17 -13.8955     46.3867    227.6153   1.4183927396e+02   2.2593527974e+01    0.7153988    0.4022213 -86.22    0.0030744    1.676    0.403
        18 -15.7247     54.5288    212.6517   1.3914390766e+02   2.4472748256e+01     6.549063     1.731663  48.40   0.02761929    3.090    0.676
        19 -15.7735      4.3233    235.8280   1.4944454442e+02   2.5593778170e+01     10.27092    0.4957113 -72.93   0.03481805    7.555    0.868
        20 -10.5565    227.7565    204.1697   1.0389694197e+02  -2.0457013639e+00     0.267624    0.2113003 -50.10  0.001108192    1.789    0.441
        21 -10.7312    193.1368    195.1974   1.0866378282e+02   5.2340417594e+00     0.797397     0.390328 -60.70  0.002281619    6.946    0.856
        22 -11.8780     70.1203    192.5752   1.3400361463e+02   2.6541429164e+01    0.3873415    0.2499039 -45.03  0.002080415    2.115    0.527
        23 -11.8479     74.8289    185.7130   1.3218139062e+02   2.7351083128e+01     0.299176    0.2271717 -52.05 0.0008231772    1.536    0.349
        24  -8.8206    181.5121    192.4695   1.1044814607e+02   7.7960380521e+00    0.1358415    0.1217273  25.60 3.129659e-05    1.008    0.008
        25 -11.2531     83.4076    174.1111   1.2872540406e+02   2.8642066918e+01    0.2436702    0.2154665 -74.27 0.0004122169    1.133    0.118
        26 -12.6831     89.4792    165.9923   1.2610047719e+02   2.9528575488e+01      1.62037    0.5774906  51.71  0.001139981    3.332    0.700
        27 -10.9967    249.2687    247.6944   1.0758226465e+02  -1.0446168179e+01    0.2208503    0.1463647 -25.94  0.001545224    1.625    0.385
        28 -13.4158     71.0566    171.3432   1.3119115327e+02   3.1036148573e+01    0.4704925    0.2761735 -44.36  0.001694091    2.212    0.548
        29  -9.5911    164.0270    157.0278   1.0714823309e+02   1.7744167334e+01     0.232835    0.1847032 -89.25  0.001050271    1.701    0.412
        30 -10.0868    101.9534    149.4916   1.2023117022e+02   3.1241498228e+01     0.274047    0.2667213  64.71 0.0007829514    1.097    0.089
        31  -9.4956    104.4722    145.5273   1.1884130027e+02   3.1713874033e+01    0.3407368    0.2161476 -30.91  0.001103669    2.289    0.563
        32 -12.2632     90.6899    148.8037   1.2293342533e+02   3.3262538751e+01    0.2751373    0.2491619 -33.15 0.0005506038    1.306    0.234
        33  -9.5089    134.0000    146.0426   1.1167603813e+02   2.6088908283e+01    0.4208643   0.08421942 -48.77  0.001062804    5.039    0.802
        34 -11.2669     57.5518    144.8508   1.3073450251e+02   3.8917483125e+01    0.2873238    0.2179524  66.64  0.001662049    1.330    0.248
        35 -14.2656     10.9916    206.7367   1.4686949914e+02   3.0415815453e+01     1.161185    0.7641506  59.99  0.005238372    1.247    0.198
        36  -9.8444    111.8838    135.5202   1.1490374782e+02   3.2672537959e+01    0.2812678    0.2242336 -23.81  0.001166466    1.571    0.364
        37 -10.6707     99.5265    132.4721   1.1747519461e+02   3.5581746234e+01    0.2968929    0.2320198 -28.99 0.0009975963    1.565    0.361
        38 -11.5313    103.9388    237.1217   1.3213430810e+02   1.3107688841e+01     0.250349    0.1930811  50.82   0.00117681    1.075    0.070
        39 -11.8180     43.7787    126.8271   1.3162948730e+02   4.4778490317e+01    0.3398754    0.2142352  75.17 0.0009431302    1.883    0.469
        40 -10.7256     68.9234    134.9593   1.2613932114e+02   3.9757226399e+01    0.2116551    0.1881723 -81.68 0.0005048967    1.024    0.023
        41  -9.5435    108.3440    122.9331   1.1301962007e+02   3.6199612144e+01    0.2016868      0.17578 -52.25 0.0003465522    1.108    0.097
        42 -11.1879    168.0796    113.1153   9.5897137742e+01   2.5679903843e+01    0.3620309    0.3119557 -77.71  0.000740258    1.349    0.259
        43  -9.6094    204.7803    110.8555   8.7968150295e+01   1.7713422099e+01    0.3926486    0.1747945  37.34  0.001347512    3.017    0.669
        44  -9.8624    230.5921    167.3697   9.6234889456e+01   2.8834443971e+00    0.2554848    0.1076664 -47.26 0.0009562343    3.212    0.689
        45 -10.8488    199.0056    247.4353   1.1605624243e+02  -3.2161771609e+00    0.1748098     0.162231  84.48  0.001281558    1.642    0.391
        46 -10.3231    128.2384     54.4456   8.7730477221e+01   4.5882156426e+01    0.3220508    0.2519398  81.02  0.001573424    1.633    0.388
        47 -11.3354    122.9431     51.2433   8.7951990934e+01   4.7613268037e+01    0.4557455    0.3130665  76.47  0.001308323    2.064    0.516
        48 -10.3132     33.1502    228.8425   1.4426291706e+02   2.3891190495e+01     0.164039    0.1216906  73.05 0.0003408345    1.031    0.030
        49 -13.7213     14.1666    240.6645   1.4808650643e+02   2.3770449789e+01     1.013632    0.6892711  84.74  0.006043243    1.204    0.170
        50 -11.5353     35.4535    224.9481   1.4360615970e+02   2.4360598613e+01    0.3585755    0.2096993  39.47  0.001306761    1.720    0.419
        51 -12.8249     79.5840    233.3482   1.3626828405e+02   1.7262945042e+01    0.5792387    0.3567455  75.55  0.003523124    1.647    0.393
        52  -9.6737    226.6545    238.3247   1.0987948977e+02  -6.2460242225e+00    0.1034616   0.08956901  54.83 0.0005496898    1.741    0.426
