#   1 NUMBER                 Running object number                                     
#   2 MAG_AUTO               Kron-like elliptical aperture magnitude                    [mag]
#   3 X_IMAGE                Object position along x                                    [pixel]
#   4 Y_IMAGE                Object position along y                                    [pixel]
#   5 X_WORLD                Barycenter position along world x axis                     [deg]
#   6 Y_WORLD                Barycenter position along world y axis                     [deg]
#   7 A_WORLD                Profile RMS along major axis (world units)                 [deg]
#   8 B_WORLD                Profile RMS along minor axis (world units)                 [deg]
#   9 THETA_WORLD            Position angle (CCW/world-x)                               [deg]
#  10 FWHM_WORLD             FWHM assuming a gaussian core                              [deg]
#  11 ELONGATION             A_IMAGE/B_IMAGE                                           
#  12 ELLIPTICITY            1 - B_IMAGE/A_IMAGE                                       
         1 -13.6750    219.3488      8.3648   3.6528244504e+01   2.9501614656e+01     1.287191     1.097014  48.14  0.004638341    1.444    0.308
         2 -14.2001    193.6124     38.5455   4.7026456316e+01   3.2059165082e+01     2.121352     1.409166   8.35  0.009468204    2.470    0.595
         3 -10.2783    189.7599     14.7121   4.1027085509e+01   3.5844493864e+01    0.2458019    0.2114341 -55.24  0.000859145    1.140    0.123
         4  -9.6630     80.7864     15.4575   6.2090964078e+01   6.1356778525e+01    0.2377073    0.1238095  56.35  0.001131064    2.108    0.526
         5 -11.5352    249.5002    245.0076   8.3852897909e+01  -1.1292213017e+01    0.9356108    0.1489701 -33.33  0.003048548    6.771    0.852
         6 -19.5432     16.4240    145.6592   1.1905216595e+02   4.2579541714e+01     19.43021     4.626411 -75.33   0.06566533    3.937    0.746
         7 -12.4330     55.6016    197.1716   1.1536866415e+02   2.6506252195e+01    0.6682475    0.2733254 -51.22   0.00286248    3.079    0.675
         8 -11.4547    141.6234    200.3697   9.7056628013e+01   1.2534674663e+01    0.3614278    0.2244743 -53.33  0.001795026    1.762    0.432
         9  -8.7041     69.4979    199.4785   1.1263863543e+02   2.4178680752e+01    0.1293038    0.1091906  75.20 -8.171654e-05    1.002    0.002
        10 -11.4416     63.2094    250.2956   1.1856361430e+02   1.4977997480e+01    0.2455016    0.1194989  49.11 0.0008844227    1.605    0.377
        11  -9.0691     82.1391    194.5180   1.0928451993e+02   2.3475985960e+01    0.2580936    0.1777651  70.00  0.001094688    1.464    0.317
        12  -8.4116     77.4382    192.2154   1.1003872762e+02   2.4664365618e+01    0.1762302    0.1142218 -87.94 0.0009071464    1.639    0.390
        13 -11.2202    149.7287    188.3399   9.3234669471e+01   1.3470407247e+01    0.4802091    0.3382799 -75.81  0.001841959    2.020    0.505
        14  -8.8630     96.5884    190.7344   1.0553968760e+02   2.2114004053e+01    0.1993793    0.1477477  70.38 0.0009206746    1.380    0.275
        15  -9.7207     93.8881    186.4101   1.0553423937e+02   2.3494941793e+01    0.3545301    0.2303655  78.62  0.001398817    1.868    0.465
        16  -8.9874     74.0643    188.8290   1.1037030785e+02   2.5898989926e+01    0.2101753    0.1458488  70.40 0.0006845099    1.425    0.298
        17 -11.5358    115.8701    183.2836   9.9988870178e+01   2.0575885290e+01    0.5270778    0.2849598 -38.37  0.002182587    2.512    0.602
        18  -9.5092     58.4341    228.5226   1.1770256932e+02   1.9642382038e+01    0.1193459   0.09304707  69.22  0.000164313    1.014    0.014
        19 -10.9279     98.8929    181.4155   1.0363140169e+02   2.3821026421e+01    0.4008796    0.3114206 -26.46  0.001626797    1.793    0.442
        20 -11.3211    143.5266    178.1090   9.2742362289e+01   1.6717526669e+01    0.4407977    0.2450476 -41.92  0.001036108    1.951    0.487
        21 -10.1341    188.0808    176.4233   8.2763744239e+01   8.6041277066e+00    0.3673831    0.3141862 -56.17  0.001939598    1.374    0.272
        22  -9.3601    149.1926    176.8657   9.1229128771e+01   1.5914294556e+01    0.2111662    0.1928234  78.10 0.0004001759    1.201    0.167
        23  -9.7575     37.7339    176.4911   1.1718036600e+02   3.3276224905e+01    0.3369688    0.1510821  49.05  0.001635695    2.153    0.535
        24  -9.8167     57.4131    175.7616   1.1257127516e+02   3.1124545131e+01    0.3205104    0.1776203  52.68  0.000389297    1.780    0.438
        25  -9.2652     58.7717    250.7442   1.1937770640e+02   1.5461646827e+01   0.08652065    0.0813496  78.63 0.0002795105    1.395    0.283
        26 -10.4730    234.1427    175.1491   7.3712434447e+01   5.2974875879e-01    0.1744624    0.1627022 -41.77  0.001029643    1.338    0.253
        27  -9.3662     84.1969    173.7552   1.0594628435e+02   2.7873334928e+01     0.178532    0.1550297 -46.67 0.0003419801    1.318    0.241
        28 -10.2252     44.9371    173.2144   1.1517918446e+02   3.3228428247e+01    0.4800347    0.2004518  32.14  0.002167003    2.646    0.622
        29  -9.7329     54.5580    221.7400   1.1787216092e+02   2.1474597139e+01    0.2853944    0.1262722  51.44  0.001282768    1.930    0.482
        30  -8.9650    194.1288    171.8144   8.0585054416e+01   8.3130320354e+00    0.2025947     0.201453  23.42 0.0009524153    1.165    0.142
        31 -10.5817    138.6893    170.2066   9.2348917913e+01   1.9312944217e+01    0.3539269    0.2877193  33.04  0.001443293    1.258    0.205
        32  -9.0875    185.6684    169.9819   8.1934690792e+01   1.0276294380e+01    0.2088111    0.1815231 -32.43 0.0006674315    1.141    0.124
        33 -10.0326    240.4868    169.4506   7.1436784163e+01   3.7001839599e-01    0.1339355    0.1146221 -12.46 0.0001457278    1.020    0.019
        34  99.0000     57.6216    219.5715   1.1708742369e+02   2.1524975831e+01    0.4496822    0.2124643  56.06  0.002137501    1.910    0.476
        35  -9.1731    187.7115    162.6161   7.9949180134e+01   1.1287535466e+01    0.2485384    0.1766434 -58.67  0.001091119    1.764    0.433
        36 -11.5946     94.8597    151.0495   9.9467462616e+01   3.1579754727e+01    0.6670272    0.5632577 -41.59  0.003593783    1.288    0.223
        37 -10.7609    133.7578    145.4150   8.8400984871e+01   2.5793037076e+01     1.265383    0.2951744 -53.56  0.002896547    5.947    0.832
        38  -9.7829    187.1787    151.5348   7.7617396657e+01   1.3547471884e+01    0.2479144    0.1781991 -32.15 0.0008719714    1.384    0.278
        39  -9.1483    112.9423    150.9349   9.4796216078e+01   2.8473371500e+01    0.2452675    0.1810928  82.45 0.0007947606    1.712    0.416
        40  -9.2911    174.9052    149.1715   7.9688221761e+01   1.6545317070e+01    0.2284922    0.2102361 -87.37 0.0005580943    1.266    0.210
        41  -9.0406    109.1367    147.3219   9.5037998947e+01   3.0012479190e+01    0.2022505    0.1853914  66.56 0.0004356095    1.099    0.090
        42  -9.1473    167.8966    231.1856   9.6494236783e+01   2.6192251292e+00    0.1783376    0.1555074  44.38   0.00039933    1.161    0.139
        43  -9.7884     87.1812    143.8986   1.0013976989e+02   3.4551799624e+01    0.3003822    0.1648318  61.46  0.001158727    2.517    0.603
        44 -10.7036    106.8348    137.4153   9.3558608410e+01   3.2784823393e+01    0.5237504    0.3213425 -32.61  0.001471814    2.137    0.532
        45 -10.6097    105.8862    130.8012   9.2349675845e+01   3.4535342411e+01    0.4233612    0.3312626 -63.96  0.001320786    1.282    0.220
        46 -11.7527     94.7980    137.2589   9.6764842410e+01   3.4920955363e+01    0.2993298    0.2559617 -47.38 0.0003440007    1.168    0.144
        47  -8.4553     99.8126    131.3664   9.4134448129e+01   3.5483300181e+01    0.1873799    0.1451748  26.27 0.0002367838    1.494    0.331
        48  -9.6838    136.0000    129.0326   8.4034626315e+01   2.9056511741e+01    0.4321091   0.08725516 -46.77  0.001039511    4.828    0.793
        49 -10.4441    114.2414    129.0513   8.9692804607e+01   3.3395229883e+01    0.3386407    0.2981448  -4.62 0.0007193172    1.338    0.253
        50  -8.8930    160.8094    128.2327   7.7864894368e+01   2.3926764123e+01    0.2611646    0.1745423 -83.30 0.0009479193    2.764    0.638
        51 -10.3861    101.7718    124.7758   9.2098669713e+01   3.6715954879e+01    0.2939806    0.2495222 -16.58  0.000613825    1.399    0.285
        52 -10.3165    120.0854    123.3704   8.6767490663e+01   3.3586434413e+01    0.3282662     0.283458  34.60  0.001260692    1.227    0.185
        53  99.0000     49.1938    216.6973   1.1848900118e+02   2.3159180973e+01    0.3268334     0.206281 -50.05  0.001886031    2.154    0.536
        54  -9.4510    109.9276    118.1012   8.8223165524e+01   3.6786514889e+01    0.2223766    0.2145123 -62.95 0.0003230645    1.025    0.024
        55 -10.0082    231.3415    113.7424   6.0583533865e+01   1.1441629460e+01    0.2597193    0.2418093 -24.53 0.0007665615    1.061    0.058
        56  -9.2852    167.7104    112.6891   7.2329939825e+01   2.5631284031e+01    0.3173022    0.2258658 -77.51  0.001306127    2.079    0.519
        57 -11.2009    118.5417    110.2285   8.3824626841e+01   3.6908080876e+01    0.5689973    0.4360765  71.30  0.002506826    1.655    0.396
        58  -9.4172    205.3306    110.2209   6.4144886594e+01   1.7601327635e+01    0.2958606    0.2109653  45.14 0.0007943293    1.509    0.337
        59 -10.0676    134.6305    105.3002   7.8222787547e+01   3.4614868134e+01    0.6153977    0.1457923 -44.33  0.001609278    4.088    0.755
        60 -10.1628    184.0099    212.5077   9.0333003544e+01   2.9811339561e+00    0.1981003    0.1763863 -22.76  0.001238382    1.187    0.158
        61  -9.0946     56.5888    209.2195   1.1634675322e+02   2.3792709324e+01    0.2145924    0.1083837 -76.73 0.0006797389    1.943    0.485
        62 -11.0563    149.2875    208.2358   9.6701763127e+01   9.6981742367e+00    0.3711049    0.2501387  25.52  0.001910169    1.615    0.381
        63  -8.2477    155.3275     82.2981   6.6607140679e+01   3.4522459374e+01     0.157417    0.1221784  14.71  0.000606248    1.635    0.388
        64 -11.0671     65.4928    205.1611   1.1410410972e+02   2.3495376013e+01    0.3729134    0.1902799 -79.03 0.0009133029    2.070    0.517
        65 -13.1890     32.1868    206.5367   1.2101176426e+02   2.7238558225e+01    0.3253278    0.1732526  57.01  0.001128419    1.633    0.388
        66  -9.0202     93.6058    205.6602   1.0819794166e+02   1.9375154048e+01    0.2191954    0.1664959 -24.33 0.0007187702    2.080    0.519
        67 -10.3873     71.8944    245.3138   1.1660854023e+02   1.4735019065e+01    0.2985068    0.1534351 -71.02  0.001720563    2.087    0.521
        68 -12.9353    178.0549     52.9612   5.3461844367e+01   3.3880340218e+01    0.7933669    0.7127786   7.42 0.0008357795    1.290    0.225
        69  -9.0104     96.4610    202.0024   1.0711050823e+02   1.9706161650e+01    0.2494619    0.1209479 -57.13  0.001151323    2.133    0.531
        70 -10.5798    193.2564    204.7660   8.7150433369e+01   2.6880664298e+00    0.3321191    0.1185038  35.44  0.001219886    2.804    0.643
        71 -10.8906    193.1920    195.2701   8.5416030379e+01   4.2998388696e+00    0.9745756    0.4769529 -60.04  0.002959838    5.728    0.825
        72  -9.1925    157.3164    233.6688   9.8920020762e+01   3.9286467906e+00    0.1238529   0.09243876  64.98 0.0007046679    1.685    0.406
