#   1 NUMBER                 Running object number                                     
#   2 MAG_AUTO               Kron-like elliptical aperture magnitude                    [mag]
#   3 X_IMAGE                Object position along x                                    [pixel]
#   4 Y_IMAGE                Object position along y                                    [pixel]
#   5 X_WORLD                Barycenter position along world x axis                     [deg]
#   6 Y_WORLD                Barycenter position along world y axis                     [deg]
#   7 A_WORLD                Profile RMS along major axis (world units)                 [deg]
#   8 B_WORLD                Profile RMS along minor axis (world units)                 [deg]
#   9 THETA_WORLD            Position angle (CCW/world-x)                               [deg]
#  10 FWHM_WORLD             FWHM assuming a gaussian core                              [deg]
#  11 ELONGATION             A_IMAGE/B_IMAGE                                           
#  12 ELLIPTICITY            1 - B_IMAGE/A_IMAGE                                       
         1 -13.8433      3.6286    106.7172   1.2604526571e+02   5.1955394865e+01     1.167479    0.5185988 -66.93  0.006698961    1.644    0.392
         2 -13.0785    204.3252     34.4610   5.5324540889e+01   2.9467175012e+01     1.420172    0.9153872  46.91  0.006582759    1.633    0.388
         3 -13.5307    221.9189     16.0814   4.8008293426e+01   2.7145292081e+01     1.020736    0.8751079  36.52  0.003734847    1.347    0.257
         4 -13.0167      2.7499      4.7711   1.0369163017e+02   7.2755771244e+01      1.00545    0.6929393   9.11  0.007539289    1.639    0.390
         5 -10.8605     73.9543    244.6437   1.2423390198e+02   1.7221277186e+01    0.3118618     0.210692 -64.79  0.002310664    1.825    0.452
         6 -11.2204    176.7850    249.7061   1.0783174841e+02   1.1299768110e+00    0.3914267    0.1473401  37.69  0.001920171    2.286    0.563
         7 -10.6405    162.4631    249.6200   1.1019922164e+02   3.4109879398e+00    0.1983597    0.1380513  53.76  0.001364813    1.260    0.207
         8 -11.7378    150.1561    247.6109   1.1201912421e+02   5.6165108287e+00    0.3217632    0.2990687  45.33  0.002283085    1.254    0.203
         9 -10.8710    143.8101    249.6024   1.1329309990e+02   6.3429241723e+00    0.2475489    0.1543053  65.55  0.001515908    1.772    0.436
        10 -11.9274    119.2660    236.4420   1.1603527660e+02   1.2037535953e+01    0.6173129     0.463007 -10.20  0.002872994    3.015    0.668
        11 -13.1298    124.8231    245.5796   1.1602720178e+02   9.8303831305e+00    0.9534391    0.5849549  56.93   0.00629419    1.333    0.250
        12 -11.1753    116.3992    248.9338   1.1774209472e+02   1.0611602025e+01    0.4327169    0.3592716  82.65  0.003419079    1.282    0.220
        13 -10.7669    109.9611    247.7653   1.1868646671e+02   1.1731351305e+01    0.3120993     0.206792  60.44   0.00180632    1.201    0.168
        14  -9.2165    100.3148    250.3175   1.2047238726e+02   1.2745391943e+01    0.1713015      0.11306  41.79  0.001193254    1.465    0.317
        15 -10.9996     99.0318    247.0479   1.2040157760e+02   1.3416406272e+01    0.3914295    0.1579375  47.23  0.002210129    1.854    0.461
        16 -10.4675     84.1608    230.2787   1.2142399830e+02   1.8166907463e+01    0.2387461    0.1865718 -62.92  0.001618671    1.628    0.386
        17 -11.5309     86.8493    248.0524   1.2244175268e+02   1.4963990924e+01    0.4812969    0.2565912  52.45  0.002206555    1.384    0.278
        18 -10.3749     81.3670    248.2791   1.2332929197e+02   1.5672068349e+01    0.2729293    0.1545288 -71.59  0.001358215    1.961    0.490
        19 -12.0874     89.3128    239.0586   1.2131193640e+02   1.6023817885e+01    0.6689599    0.3501486  73.82  0.003471545    2.125    0.529
        20 -11.1700     82.6934    239.9352   1.2246909235e+02   1.6797800263e+01    0.4253463    0.1867768  61.82  0.001022612    2.121    0.528
        21 -11.0339     68.4185    245.5176   1.2516888124e+02   1.7802380471e+01      0.26524    0.1694269  69.19  0.001028948    1.216    0.177
        22 -11.6017     60.0480    246.6032   1.2654326673e+02   1.8688012703e+01     0.486054    0.2468558  58.11  0.003318718    1.444    0.308
        23  -9.6322     56.3190    250.4723   1.2735494374e+02   1.8541490890e+01    0.2204119    0.1173291  41.72 0.0009673883    1.822    0.451
        24 -13.0073      2.8237    186.4016   1.3231968717e+02   3.5457004048e+01     1.544684    0.2576725 -78.64  0.005841333    5.039    0.802
        25 -12.8937     48.6900    216.4405   1.2633628636e+02   2.5147749776e+01     1.796874     0.698191  70.48  0.007274874    3.023    0.669
        26 -13.9933      9.1735    210.6204   1.3249384852e+02   3.0399415340e+01     1.998166     1.519691 -81.40   0.01684546    1.411    0.291
        27 -10.4826     97.4512    239.4485   1.1999919279e+02   1.4810336894e+01    0.2098059    0.1433292  72.15 0.0008901239    1.311    0.237
        28 -11.8964    102.5339    230.5453   1.1831397841e+02   1.5488959163e+01    0.5527287    0.3612264  29.00  0.002524177    2.179    0.541
        29 -13.2541     22.4011    224.8222   1.3111837849e+02   2.6596387670e+01    0.5103059    0.3323886 -65.15  0.002679577    1.913    0.477
        30 -11.1308     74.1318    236.5632   1.2360114695e+02   1.8491958361e+01    0.4951605    0.1802802 -55.36  0.002488085    3.800    0.737
        31 -14.1747     27.7919    218.1318   1.2989991968e+02   2.7197790860e+01     1.103151    0.6776401  75.52  0.005882464    1.205    0.170
        32 -12.4552    102.9947    238.0872   1.1895064262e+02   1.4220749810e+01    0.5758704     0.436529  62.98  0.002368284    1.040    0.038
        33 -10.9368    110.2498    233.0536   1.1723503314e+02   1.3935293712e+01    0.3868846    0.2077897  87.54  0.001971491    2.927    0.658
        34  -9.4583     54.9418    235.4555   1.2661578364e+02   2.1118161704e+01    0.2069624    0.0999587  65.71  0.001297748    1.733    0.423
        35 -12.1378    134.8871    234.4451   1.1313326421e+02   9.8969335911e+00    0.4261436    0.2777183 -61.63  0.002749227    1.905    0.475
        36  -9.7499    250.4731    230.5100   9.2928827884e+01  -8.3219963317e+00    0.1153283   0.08532414  20.53 0.0008099914    1.002    0.002
        37  -8.9429    153.6136    230.1904   1.0935689459e+02   7.4793639898e+00    0.1330964    0.1142262 -31.72 0.0004372127    1.550    0.355
        38 -11.1060     79.3502    225.8687   1.2186249709e+02   1.9570716832e+01    0.4204226    0.2773932  56.90  0.002907502    1.177    0.151
        39  -9.7343     77.1528    220.8284   1.2180514910e+02   2.0737776875e+01    0.1983413    0.1262212  80.83 0.0003854575    1.466    0.318
        40  -9.1541     56.2193    227.9465   1.2589706935e+02   2.2223927189e+01    0.1668912    0.1033104  68.70 0.0007997069    1.249    0.200
        41  -9.7453     92.3224    226.0586   1.1964888085e+02   1.7718656750e+01    0.1836632    0.1212893  66.82 0.0007310535    1.284    0.221
        42  -9.7674     88.1380    223.7380   1.2015893744e+02   1.8708644215e+01    0.2480564    0.1500838  48.59  0.001587587    1.372    0.271
        43 -10.3168    136.1368    224.3203   1.1173046113e+02   1.1238755016e+01    0.2562456     0.169369 -47.81 0.0009884256    1.930    0.482
        44  -8.9183     45.7705    225.2715   1.2742217361e+02   2.3940119803e+01    0.1237907    0.1012876  81.43 0.0003968947    1.264    0.209
        45  -9.1044     64.9257    224.4068   1.2418922311e+02   2.1735496083e+01    0.1923139    0.1176282 -48.06  0.001144867    2.811    0.644
        46  -9.2939    117.4441    224.4627   1.1507834171e+02   1.4207973399e+01     0.118736   0.09284125  59.19  -1.3191e-05    1.014    0.014
        47 -10.5013     99.1396    223.1601   1.1817882431e+02   1.7211299102e+01    0.2057484    0.2000029  69.55 0.0008971164    1.423    0.297
        48 -10.2995     70.6155    218.9998   1.2278149101e+02   2.1935958784e+01    0.3563836    0.2161172 -84.03  0.002248787    1.604    0.376
        49  -9.9559    141.7754    219.4001   1.1010277539e+02   1.1077667521e+01    0.2532232    0.1989767 -49.70  0.001412659    1.576    0.366
        50 -10.1397     90.7229    219.8395   1.1933782544e+02   1.9007234853e+01    0.2451171    0.1381661  64.13  0.000904865    1.615    0.381
        51  -9.8825    116.9009    215.7480   1.1419247879e+02   1.5738468281e+01     0.289085    0.2142045  21.95  0.001253706    2.010    0.502
        52  -9.5587    107.1644    216.6946   1.1607097319e+02   1.7099098429e+01    0.2444234   0.07906888  48.10  0.001075566    2.519    0.603
        53  -9.7534     86.8874    212.1647   1.1927378350e+02   2.0908083188e+01    0.3554683    0.1671526  70.21  0.001468548    2.738    0.635
        54 -10.1023     63.1415    208.7750   1.2322979151e+02   2.4752138933e+01    0.2740779    0.2659354 -75.46  0.001694756    1.560    0.359
        55  -9.3256     63.8195    205.1774   1.2279745678e+02   2.5331019787e+01    0.1574109    0.1171203  86.90 0.0002377208    1.157    0.136
        56  -9.6902     58.5342    212.5273   1.2435082458e+02   2.4650954237e+01    0.2310177    0.1138402  46.15 0.0007420886    1.745    0.427
        57 -10.3501     55.9031    208.9302   1.2452471165e+02   2.5635528158e+01    0.3822207    0.1407719 -71.33  0.001973098    2.621    0.618
        58  -8.3844    110.6835    211.3225   1.1482389201e+02   1.7480884068e+01    0.1263503   0.07866775  69.47 0.0006868306    1.664    0.399
        59  -9.6544     99.1909    209.6437   1.1676048916e+02   1.9548392243e+01    0.2866094    0.1496314  72.39  0.001023045    2.452    0.592
        60  -8.3194     74.2722    208.6425   1.2121948538e+02   2.3306638823e+01    0.1209224   0.07004401  72.78 0.0007000456    1.646    0.393
        61  -9.4961     91.4400    204.8466   1.1768145230e+02   2.1574176695e+01    0.2964129    0.1236999  38.97  0.001416202    2.404    0.584
        62 -10.0833    106.8585    203.4447   1.1461756079e+02   1.9483046346e+01    0.2214517    0.1730482 -89.08 0.0005171402    1.274    0.215
        63  -8.7512    250.6803    200.3101   8.7721525875e+01  -5.1107216469e+00    0.1029318   0.09888729  66.64 0.0005092108    1.643    0.392
        64  -9.8019     74.5431    199.9604   1.2033799963e+02   2.4887766807e+01    0.1691366    0.1408052  63.15 0.0004116621    1.161    0.139
        65  -9.0663     96.9320    199.2573   1.1601947914e+02   2.1788083432e+01    0.1654192    0.1308355  58.45 0.0001960176    1.093    0.085
        66  -9.0821     53.3133    198.2558   1.2411263157e+02   2.7956029731e+01     0.186845    0.1380842  35.15  0.001268617    1.731    0.422
        67 -11.0393    113.5278    230.9787   1.1645910977e+02   1.3766766161e+01    0.2557372    0.2169967  71.15 0.0009907741    1.143    0.125
        68  -9.6128    249.5577    194.1438   8.6771877686e+01  -4.2008478725e+00    0.2609698    0.1343714  27.94   0.00132687    1.878    0.468
        69 -11.6498     52.7914    193.0262   1.2376003302e+02   2.9028523654e+01    0.3142769    0.2360934  46.02 0.0008024191    1.430    0.301
        70  -8.6698     72.4029    192.8019   1.2002298466e+02   2.6554102791e+01    0.1462928    0.1008308 -63.33 0.0004072243    1.556    0.357
        71 -10.1089     31.3651    192.6361   1.2766023014e+02   3.1533705241e+01    0.2402864    0.2265756 -67.68 0.0009740335    1.593    0.372
        72  -9.7439     25.9745    192.7407   1.2863236318e+02   3.2073341810e+01    0.2089409    0.1341468  78.69 0.0008633354    1.186    0.157
        73  -9.9540     21.5562    192.5127   1.2940044351e+02   3.2560956680e+01    0.4019442    0.1510444  74.60  0.001961785    2.888    0.654
        74  -9.2651    191.5719    191.7221   9.6609300714e+01   6.5024306435e+00    0.1988807    0.1420048  46.07 0.0008198615    1.270    0.212
        75  -8.3376     38.6221    192.2735   1.2631678847e+02   3.0818272046e+01    0.1199277   0.06174855  65.74 0.0007000177    1.695    0.410
        76 -13.8695      5.6242    245.7016   1.3450512052e+02   2.4828178591e+01     1.071347    0.8022823  73.66  0.009961373    1.269    0.212
        77  -9.7104    250.4800    188.0239   8.5465196026e+01  -3.6154651903e+00    0.1843495    0.1135301 -22.83  0.001034637    1.610    0.379
        78  -9.1346     76.3620    187.3027   1.1866902603e+02   2.7090641472e+01     0.268701    0.1385966 -78.93  0.001388013    2.068    0.516
        79 -10.4452      9.8380    187.4277   1.3115287513e+02   3.4645084574e+01     0.248753    0.1150261  88.39   0.00153048    1.756    0.431
        80 -10.6873     71.0513    187.0374   1.1968472286e+02   2.7870614705e+01    0.2395643    0.1532152  45.58 0.0003322673    1.501    0.334
        81 -11.7409     59.4765    185.3427   1.2177424872e+02   2.9718646530e+01    0.2354154    0.1996164 -85.87 0.0004529545    1.204    0.169
        82  -8.5744    107.4533    185.5131   1.1222530289e+02   2.2757594953e+01    0.1279399    0.1096941  69.21 9.822358e-05    1.015    0.014
        83  -9.9243     36.8505    180.4682   1.2570527607e+02   3.3345690974e+01    0.2782569    0.1306049 -66.85  0.001474699    1.931    0.482
        84  -9.0125     30.0078    183.5064   1.2723908957e+02   3.3462409661e+01    0.1513065   0.09487856  47.45 0.0007400917    1.550    0.355
        85  -9.6012     27.0533    179.7208   1.2750784401e+02   3.4517690672e+01    0.1934614    0.1253536 -79.79 0.0003023647    1.292    0.226
        86  -8.2531     47.6617    179.7186   1.2354576898e+02   3.2283893692e+01    0.1002372    0.0873797 -50.97 0.0007009169    1.623    0.384
        87 -13.9858     25.8747    247.6998   1.3171209466e+02   2.2456566602e+01     1.847051      1.02018  35.95   0.01299487    2.321    0.569
        88  -8.3509    111.6783    177.7010   1.1025907342e+02   2.3597175723e+01    0.1188808     0.105618  -1.14 0.0004128624    1.624    0.384
        89  -9.1077    105.7956    175.8590   1.1122177480e+02   2.4937096448e+01    0.1758232    0.1324779  74.20  0.000228212    1.288    0.224
        90 -12.0209    248.4553    172.6263   8.2781342699e+01  -1.3106887446e+00    0.6190144    0.3740404 -21.37  0.003303685    1.641    0.391
        91 -12.0369    245.4419    162.1233   8.1128847275e+01   6.5076764516e-01    0.4768722    0.2789144 -35.05  0.002431514    1.741    0.425
        92 -11.4683    245.7682    156.7591   7.9940805819e+01   1.3357236834e+00    0.5940775     0.364263  68.77   0.00243441    3.460    0.711
        93 -10.6902     71.0324    173.3528   1.1816195736e+02   3.0652924811e+01    0.2220346    0.1840817  72.77 0.0003561995    1.062    0.058
        94  -9.9233     12.3703    173.5231   1.2982884438e+02   3.7147437355e+01    0.1891184    0.1337158 -45.75  0.001300549    2.180    0.541
        95  -9.6057     55.6877    172.8568   1.2126624108e+02   3.2733625335e+01    0.2042095    0.1580086 -83.49  0.000800051    1.130    0.115
        96  -9.7289     51.6351    171.1679   1.2191934927e+02   3.3573562922e+01    0.2581078    0.1312853  48.74 0.0008142937    1.825    0.452
        97 -12.0146     10.1384    157.1440   1.2911010284e+02   4.0676873105e+01     0.548027    0.1976924  79.85  0.002401864    3.369    0.703
        98 -10.7020     12.4981    153.9389   1.2838616843e+02   4.1148186280e+01    0.2606119     0.132254 -75.59  0.001097139    1.538    0.350
        99 -11.3237     13.5982    167.1100   1.2915272257e+02   3.8333858827e+01    0.3306908    0.2154403  34.94  0.002125637    1.878    0.467
       100 -10.5009      2.2783    172.4142   1.3163333564e+02   3.8225700969e+01    0.3219973    0.1636692  68.67  0.001355151    1.628    0.386
       101 -10.8028      4.7985    167.3689   1.3085434787e+02   3.9027414675e+01    0.3005176    0.2067253  18.98  0.002114994    2.333    0.571
       102 -10.9732      9.2809    164.6937   1.2981913516e+02   3.9197308907e+01    0.3648996    0.1450913 -57.24  0.001939504    2.785    0.641
       103 -10.0881     27.2627    171.7075   1.2684429875e+02   3.6116962430e+01    0.2282683    0.1792649 -51.15 0.0004847922    1.752    0.429
       104  -9.6718     18.1362    171.9486   1.2862721125e+02   3.6942411903e+01    0.1795474    0.1116878  73.15 0.0008291421    1.304    0.233
       105 -10.3946     44.7876    164.9464   1.2269775368e+02   3.5669336567e+01    0.2890968     0.125453 -60.38  0.001477596    2.175    0.540
       106  -8.7031     91.3178    168.6797   1.1327641813e+02   2.8701723739e+01    0.1364025   0.08822579  74.26 0.0007042098    1.662    0.398
       107 -11.1387     39.0178    167.7377   1.2415593667e+02   3.5719589968e+01    0.2487238    0.2308039 -82.44 0.0003406589    1.358    0.264
       108 -11.8537     79.1553    165.2377   1.1542776844e+02   3.1225731659e+01    0.4781696    0.4269533  54.92  0.003176993    1.233    0.189
       109  -8.6597     64.7626    167.0057   1.1872927846e+02   3.2814104446e+01    0.1503064    0.1234481  77.68 0.0004367017    1.040    0.039
       110  -9.8694     68.1226    166.1240   1.1790969130e+02   3.2558916481e+01    0.2055101    0.1520253  88.13 0.0004640269    1.192    0.161
       111  -9.2214     29.7857    165.1375   1.2579291734e+02   3.7221263835e+01    0.1399167    0.1188828 -73.60 0.0003625062    1.322    0.244
       112  -9.9879     24.0321    161.9545   1.2668542942e+02   3.8444710121e+01    0.1684976    0.1279701  85.77 0.0003534072    1.019    0.019
       113  -9.0936     66.9256    161.1281   1.1755009350e+02   3.3782231822e+01    0.1725645    0.1440958 -42.96 0.0004391907    1.609    0.378
       114  -9.7242     28.7141    160.9897   1.2564579296e+02   3.8195125342e+01    0.1597289    0.1141397 -88.12 0.0002781082    1.089    0.082
       115 -10.2272     81.3513    157.1778   1.1383407368e+02   3.2634677223e+01    0.3061307    0.1976735 -85.68  0.001632508    1.619    0.382
       116 -10.3628     32.0034    154.1732   1.2431963029e+02   3.9315023927e+01    0.2747137    0.1657487 -60.83  0.001144208    1.620    0.383
       117 -10.9362     24.6258    155.0864   1.2596666996e+02   3.9832953193e+01    0.3512433    0.1689117  31.53  0.001979679    2.527    0.604
       118 -11.3026    249.6038    151.0541   7.8075924484e+01   1.4137297059e+00    0.4013789    0.2524405 -28.89  0.001903119    1.511    0.338
       119 -12.9848    248.0888    113.9133   6.9845425643e+01   7.1539335722e+00     1.134833    0.6769555 -23.76  0.005327772    1.640    0.390
       120 -10.6718     93.4031    150.0136   1.0999647828e+02   3.2365658603e+01    0.2799207    0.2677607  47.79 0.0009133928    1.233    0.189
       121 -11.0879     22.1934    149.3372   1.2596087070e+02   4.1279935727e+01    0.4622573    0.1373078  45.90  0.002174853    3.126    0.680
       122  -9.7527     81.3705    148.4681   1.1253731819e+02   3.4532565640e+01    0.2578192    0.2030889  60.34  0.001538938    1.224    0.183
       123 -11.7891     68.2118    143.9180   1.1492755994e+02   3.7375510137e+01    0.6466047    0.3761419  79.30  0.002711845    2.110    0.526
       124 -13.1930      9.3909    143.4516   1.2819166075e+02   4.3610585159e+01     0.673466    0.5309871  80.09  0.005137281    1.129    0.115
       125  -9.7660    236.0012    145.9969   7.9264654427e+01   4.7892073246e+00    0.2216144    0.1545422  11.98 0.0005280416    1.604    0.376
       126  -8.8578     96.8326    146.1929   1.0856089459e+02   3.2653610854e+01    0.1706156    0.1553731 -45.41  0.000338916    1.290    0.225
       127  -9.9427    133.1868    141.0456   9.9100004798e+01   2.7244004983e+01    0.3112614    0.2247577 -63.10 0.0009575842    1.483    0.326
       128 -11.4480     17.0308    139.9951   1.2621982990e+02   4.3734377080e+01     0.367393     0.167677  60.87  0.001967827    2.306    0.566
       129 -10.0231     36.9187    140.1190   1.2172903203e+02   4.1875713507e+01    0.1836445    0.1314137  79.87 0.0003743727    1.255    0.203
       130  -9.7114    107.0307    135.7602   1.0422505409e+02   3.3237422436e+01    0.3830119    0.2601171 -20.17  0.001643388    2.691    0.628
       131 -13.4536      3.7346    121.7711   1.2754970528e+02   4.8673809591e+01     0.879121    0.4969367 -79.07  0.005641582    1.324    0.245
       132 -11.3645    170.0946    247.6376   1.0869200143e+02   2.4487351674e+00    0.4066869    0.2537371  10.82  0.002137262    3.071    0.674
       133 -12.6292      9.1464    113.1499   1.2535003680e+02   5.0188353337e+01    0.5970821     0.185901 -66.43  0.002881977    2.261    0.558
       134  -9.8663     59.1454    146.8593   1.1744656095e+02   3.7886209889e+01    0.3107567     0.194142 -34.31  0.001521615    2.765    0.638
       135 -12.5752     15.1056    100.7418   1.2226875941e+02   5.2514080652e+01    0.4654611    0.2722004 -63.38  0.001955236    1.329    0.247
       136  -8.6993     41.4889    123.4159   1.1848198057e+02   4.5139443038e+01    0.1228522    0.1010694 -76.76 9.213322e-05    1.037    0.035
       137 -12.8801    248.0818    101.8276   6.6926979020e+01   8.9782865165e+00     1.054533    0.6398163 -19.52  0.004854842    1.733    0.423
       138 -12.2153     16.6399    120.9865   1.2436208811e+02   4.7916731510e+01    0.4202053    0.2176726  87.58  0.002309699    1.891    0.471
       139 -10.5428    232.1232    116.2050   7.2995094684e+01   1.0218957899e+01    0.2244055    0.1918506   7.34 0.0005663137    1.183    0.155
       140  -9.6279    168.1140    113.2093   8.4660796642e+01   2.5453301218e+01    0.3437774    0.2400659 -89.81  0.001379351    2.314    0.568
       141  -9.6607     54.0376    151.7607   1.1923148697e+02   3.7430138396e+01     0.225042    0.1510077 -64.33            0    1.381    0.276
       142 -12.0031    247.8899    142.5399   7.6489682197e+01   2.9547714476e+00    0.5863209    0.4768695  22.75  0.003405174    1.175    0.149
       143  -8.4859     71.7418    100.3396   1.0616482273e+02   4.6781865675e+01    0.1340862    0.0987886 -87.42 0.0002788385    1.582    0.368
       144  -9.0971     93.7382    133.1919   1.0698271265e+02   3.6035371361e+01    0.1722259    0.1555284 -38.98 0.0003722814    1.297    0.229
       145 -12.6955    248.3392    134.1570   7.4529679179e+01   4.0873177253e+00     1.267967    0.6323539 -19.40  0.005260474    2.339    0.572
       146 -10.1892     44.6931    130.3340   1.1864721557e+02   4.3244887750e+01    0.2945255    0.1642414  71.46    0.0012535    2.117    0.528
       147 -11.1725      2.3303     62.2620   1.2015146989e+02   6.1655730324e+01    0.3370599   0.07201377 -66.15  0.001363585    3.156    0.683
       148 -11.0178    198.1405    245.4805   1.0374044311e+02  -1.7694603398e+00     0.220127     0.148485  22.66  0.001452003    1.473    0.321
       149 -11.4657    180.2083    243.5362   1.0648272098e+02   1.3354618930e+00    0.4073808    0.1893572  30.72  0.002023527    2.440    0.590
