#   1 NUMBER                 Running object number                                     
#   2 MAG_AUTO               Kron-like elliptical aperture magnitude                    [mag]
#   3 X_IMAGE                Object position along x                                    [pixel]
#   4 Y_IMAGE                Object position along y                                    [pixel]
#   5 X_WORLD                Barycenter position along world x axis                     [deg]
#   6 Y_WORLD                Barycenter position along world y axis                     [deg]
#   7 A_WORLD                Profile RMS along major axis (world units)                 [deg]
#   8 B_WORLD                Profile RMS along minor axis (world units)                 [deg]
#   9 THETA_WORLD            Position angle (CCW/world-x)                               [deg]
#  10 FWHM_WORLD             FWHM assuming a gaussian core                              [deg]
#  11 ELONGATION             A_IMAGE/B_IMAGE                                           
#  12 ELLIPTICITY            1 - B_IMAGE/A_IMAGE                                       
         1 -12.3170    104.6900     13.4469   2.5305829160e+01   5.6732704071e+01     0.588608     0.529773 -48.10  0.002889065    1.182    0.154
         2 -12.0592    105.6976     20.6041   2.8022099884e+01   5.5736550562e+01     0.373731     0.301672 -49.51 0.0006163554    1.302    0.232
         3 -12.4079    160.0198     29.7253   2.2589957823e+01   4.1160383087e+01    0.3717713    0.3500071 -33.06 0.0005002393    1.211    0.174
         4 -11.7071     26.5016     28.3204   6.2832685929e+01   7.1419386668e+01    0.5247076     0.382186 -37.12  0.001903353    1.321    0.243
         5 -11.4209      5.8817     10.9292   6.8634105502e+01   7.7068034121e+01    0.9261488    0.4856348  12.44  0.004755046    2.056    0.514
         6 -11.9487     16.1358     14.2877   6.2154124321e+01   7.5294141664e+01    0.7002736    0.4052922 -22.41  0.003600311    1.944    0.486
         7 -11.8477     22.5621     11.3282   5.5446985184e+01   7.4859363619e+01    0.5678543    0.3240701  28.33  0.002165184    1.709    0.415
         8 -10.7557    135.8200     22.6702   2.3587838384e+01   4.7929093070e+01    0.5649197    0.3363937  66.41  0.002391134    1.552    0.356
         9 -10.0631    127.3467     11.6661   2.0975738331e+01   5.1189197814e+01    0.3511711    0.1982137 -67.97  0.001419198    1.979    0.495
        10 -10.4386    127.0715     16.6021   2.2769693931e+01   5.0773283389e+01     0.331147    0.2127476  46.78  0.001562881    1.684    0.406
        11 -11.0962    135.0356     14.9959   2.1098188566e+01   4.8934139799e+01    0.6415221    0.3172177  62.39  0.002912351    1.840    0.457
        12 -12.1677     47.7693     12.5686   4.1796303738e+01   7.0143431403e+01     0.708864    0.3584234  54.17  0.003354596    1.934    0.483
        13 -11.5785     35.5722     17.8147   5.1291750101e+01   7.1751994518e+01    0.6073635    0.2795731 -28.75  0.002398106    2.508    0.601
        14 -12.7779    164.4891     18.2625   1.8732232002e+01   4.1377698584e+01     0.524785    0.2961469  44.42  0.001681839    2.327    0.570
        15 -11.3918     67.8909     18.7544   3.7261873157e+01   6.5055662891e+01    0.4916719    0.4224417  77.53   0.00289337    1.302    0.232
        16 -12.0335     20.3378     22.1150   6.3678815446e+01   7.3382570670e+01    0.7877496    0.4157748 -28.48   0.00270865    2.144    0.534
        17 -11.5763     85.8382     14.0522   2.9661422023e+01   6.1346574561e+01    0.5212619    0.4476757 -18.71  0.001793937    1.288    0.223
        18 -10.2825     87.4504      7.6584   2.6303540654e+01   6.1563042529e+01    0.5729749    0.2959111  68.76  0.002224681    1.777    0.437
        19 -11.6790    228.6879     15.9437   1.3363329179e+01   2.7752020586e+01    0.3688121    0.2190427  73.99 0.0003960031    1.823    0.452
        20 -11.0519    225.6502     14.2841   1.3170856500e+01   2.8511935282e+01     0.259713    0.1676554 -50.08 0.0006594216    1.187    0.158
        21 -10.3339    148.0117     16.1051   1.9858596338e+01   4.5597672155e+01    0.3986514    0.2000926  49.21  0.001630388    2.279    0.561
        22  -9.9123    218.6213     13.0970   1.3301620117e+01   3.0018258396e+01    0.2110367    0.1475055 -14.68  0.001298443    1.901    0.474
        23  -9.7362     74.6654     13.6430   3.2488923841e+01   6.4067729537e+01    0.2437669     0.172924 -71.18  0.001029534    1.876    0.467
        24 -11.1141    192.1552      8.6374   1.3869302320e+01   3.6017462247e+01    0.5659348    0.3221945  -7.66  0.002492027    2.836    0.647
        25 -11.4512    212.1397      9.2053   1.2787298112e+01   3.1724965141e+01    0.5137263    0.3269002  -5.10  0.002814848    2.572    0.611
        26 -10.9394    218.5255      3.8855   1.1256706452e+01   3.0962232154e+01    0.2890635    0.2265497 -64.80  0.001100446    1.058    0.055
        27 -11.5383    223.8193      2.7094   1.0751968061e+01   3.0032961516e+01    0.4076543    0.2218371 -83.20 0.0002795997    1.728    0.421
        28  -9.8588    120.9014     11.6866   2.1903143465e+01   5.2812466677e+01    0.3252564    0.1336022  65.30  0.000693995    2.099    0.524
        29 -11.2332    169.9163      9.2139   1.5664001181e+01   4.1009813426e+01    0.3985569    0.1967744  62.08  0.001977371    2.031    0.508
        30  -9.8759    164.2981      4.9585   1.4919988243e+01   4.2732702403e+01    0.3758681    0.2084119  18.63  0.001585861    3.659    0.727
        31  -9.9826    145.1888      9.7197   1.8147945910e+01   4.6919346541e+01    0.2056381    0.1876102 -14.42 0.0004379489    1.318    0.241
        32 -11.4629    246.9440      6.5807   1.0558477826e+01   2.5346959325e+01    0.2943667     0.230251 -28.00  0.001759303    1.473    0.321
        33 -10.9197    242.2534      3.5687   1.0146976971e+01   2.6484914245e+01    0.2904795    0.1450598  86.09  0.001792443    2.048    0.512
        34  -9.8992    245.7403      1.3681   9.5738358527e+00   2.6073174216e+01    0.1641697    0.0958732  79.11 0.0003118448    1.850    0.460
        35  -9.9090      1.2319      7.7868   7.1018670747e+01   7.8077286005e+01    0.3489502    0.0843432 -49.76  0.001360779    3.479    0.713
        36 -10.9775      2.6332      1.9381   6.5542401007e+01   7.8940555701e+01    0.3595397    0.1924628  12.45  0.001909491    2.000    0.500
        37 -10.4141    232.4058      7.2745   1.1331450853e+01   2.7936917575e+01    0.2274504    0.1463137 -57.52 0.0008177339    1.181    0.153
        38 -12.0862    233.5055      2.8519   1.0359300346e+01   2.8166419526e+01    0.4030003    0.1751254 -59.38 0.0008915964    1.846    0.458
        39  -9.2962    157.4761      7.5595   1.6264096650e+01   4.4123508040e+01    0.2091605    0.1276512  -4.63  0.001027675    2.394    0.582
        40  -9.8535     62.1809      6.9869   3.2850621004e+01   6.7631490031e+01    0.2641608    0.1952515  21.34 0.0009806535    1.442    0.306
        41  -9.8972    185.3582      7.3071   1.3989357444e+01   3.7654104707e+01    0.2039003    0.1604837  77.37 0.0008646995    1.291    0.225
        42 -10.3158    183.5024      4.5446   1.3400041321e+01   3.8333556431e+01    0.1959451    0.1771522 -16.63 0.0007824241    1.398    0.285
        43  -8.7626     78.0448      7.5286   2.8488284544e+01   6.3863454057e+01    0.3561342    0.1940732 -89.52   0.00143214    2.743    0.635
        44  -9.7829     76.5303      3.4973   2.6837566093e+01   6.4578412695e+01    0.2831876    0.1946652  35.86  0.001246065    1.481    0.325
        45 -10.1871     73.0037      2.9842   2.7467983057e+01   6.5465730784e+01    0.4090192    0.2231512  38.97   0.00199456    1.860    0.462
        46 -10.2420    176.8023      5.8901   1.4220593375e+01   3.9729511261e+01    0.3135189    0.1540132  87.33  0.001071139    1.947    0.486
        47  -8.8927     18.6655      6.2774   5.4749578889e+01   7.6195727350e+01    0.1093147    0.0984791  61.02 0.0006999322    1.607    0.378
        48 -11.1332    206.0510      3.2145   1.1735210254e+01   3.3569946967e+01     0.395911    0.2726305  88.31   0.00239853    1.376    0.273
        49 -10.1671    122.0802      5.0356   1.9290658120e+01   5.3108775908e+01    0.1974622    0.1711069  88.81  0.000465437    1.022    0.021
        50 -10.0857     41.3938      4.1239   3.9387943585e+01   7.2402798945e+01    0.2943114    0.1861439  17.94  0.001424087    1.800    0.444
        51 -11.4952    134.0256      2.7378   1.7057956226e+01   5.0305930366e+01       0.4261    0.2593608  84.08  0.001600149    1.491    0.329
        52  -9.6963    128.7524      1.3620   1.7165503851e+01   5.1734795220e+01    0.1815167    0.1052285  67.80 0.0006155549    1.529    0.346
        53 -10.8782    105.2726      2.3379   2.0645938993e+01   5.7562379660e+01    0.3768021    0.2421306 -71.62   0.00152289    1.699    0.411
        54 -10.9069     22.0337      3.3600   5.0115082724e+01   7.6066325084e+01    0.2267932    0.1852307   6.56 0.0004929949    1.085    0.078
        55  -8.9455     25.7943      3.6771   4.7805986055e+01   7.5392365924e+01    0.1423062   0.09887263  37.83 0.0001500085    1.311    0.237
        56  -9.4286    156.6388      3.3040   1.5071243952e+01   4.4709631959e+01    0.2453267     0.136181 -80.80  0.001203924    1.728    0.421
        57 -10.0105    152.8909      1.4546   1.4834346046e+01   4.5773875896e+01    0.3004301    0.1142104  81.65 0.0009033646    2.485    0.598
        58 -10.1998    141.5893      3.1978   1.6423841630e+01   4.8390434881e+01    0.3063383    0.1725426  89.86  0.001541244    1.676    0.403
        59 -10.8175    113.8229      2.2328   1.9347939374e+01   5.5417877490e+01    0.3853647    0.2241688  80.66 0.0008613518    1.583    0.368
        60  -9.4553     64.1571      2.0993   2.9460688972e+01   6.7620082668e+01    0.1873401    0.1496938  37.76 0.0003384287    1.168    0.144
        61  -9.8481     13.2139      2.1544   5.5950958130e+01   7.7583905251e+01    0.2089405    0.1445416  19.15 0.0005233593    1.330    0.248
        62  -8.9553     33.5076      1.5199   4.1594299849e+01   7.4236087231e+01    0.1256724     0.107399  25.32  6.81837e-05    1.009    0.009
        63 -10.8323     39.9178    137.8431   8.6271413426e+01   4.2911626335e+01    0.3974054     0.262731  51.33 0.0009798107    1.533    0.347
        64 -10.5366     50.9807    249.7349   9.3789252150e+01   1.5791032378e+01    0.1760587    0.1272852  37.76  0.001170108    1.094    0.086
        65  -9.4413    103.9368    130.9212   6.4190988183e+01   3.4983755439e+01     0.224222    0.2026938  -7.80 0.0004270607    1.223    0.182
        66 -11.2723     10.9158    126.9449   9.5202374821e+01   4.8498217631e+01     0.614321    0.3490354 -54.00   0.00197826    1.714    0.416
        67  -9.1777     93.4918    129.5176   6.7003057260e+01   3.7220555941e+01    0.1530414     0.149548  80.92 0.0008102788    1.022    0.021
        68  -9.0178     26.5510    127.4907   8.9587551278e+01   4.7074275722e+01    0.1430248    0.1309546 -83.82 0.0001098262    1.010    0.010
        69  -9.1046     22.7226    127.0175   9.0921689079e+01   4.7547916567e+01    0.1961794     0.164303 -80.20 0.0004059999    1.097    0.088
        70  -9.8398     32.9101    125.7815   8.7028248597e+01   4.6914644633e+01    0.2995551    0.1685898  72.48  0.001228469    2.192    0.544
        71  -9.8604      2.2370    125.8384   9.8228952455e+01   4.9351476222e+01    0.2714295    0.1757438  67.62  0.001262166    1.507    0.337
        72  -9.3491     82.8870    124.7339   6.9291859373e+01   4.0266656161e+01     0.273847    0.1686867 -17.67 0.0009608922    2.951    0.661
        73 -11.5645    104.0828    122.4775   6.2180392884e+01   3.6975805135e+01    0.3888269    0.3514312  40.21  0.001058417    1.115    0.104
        74 -10.3375     49.4806    123.2028   8.0542611949e+01   4.5698442047e+01    0.3167061    0.2517103   8.73  0.001587571    1.455    0.313
        75 -10.2161     44.6148    119.8111   8.1723587564e+01   4.7215419685e+01     0.293626    0.2435192  86.31 0.0007041904    1.236    0.191
        76 -10.2521     43.5004    116.4824   8.1539795511e+01   4.8244391547e+01     0.356011     0.257896  24.91  0.001743542    1.466    0.318
        77 -10.3485     33.3817    119.2142   8.5854766366e+01   4.8643446839e+01    0.4539759    0.1907589 -26.37  0.001135252    6.464    0.845
        78  -9.6338     37.4399    115.7947   8.3736618824e+01   4.9131318453e+01    0.2390433    0.1375039 -65.96  0.001051267    1.618    0.382
        79 -10.4219      7.1849    115.6266   9.5450704257e+01   5.1792971258e+01    0.4746302    0.1872581 -57.28  0.001637552    2.233    0.552
        80 -12.2031      2.4983    111.9373   9.6902235201e+01   5.3058157971e+01    0.4947411    0.3551128 -76.32  0.001210591    1.225    0.183
        81 -11.4356      5.0381    105.4949   9.5213813428e+01   5.4643722623e+01    0.4444588    0.4015791  33.35  0.002706653    1.217    0.178
        82  -9.7940     58.1030    115.4008   7.5853464777e+01   4.6601150137e+01    0.3079314    0.1987297 -84.63 0.0008404867    1.930    0.482
        83  -9.7932     79.0207    114.6600   6.8259018970e+01   4.3475497522e+01    0.2959643    0.2237598 -47.42 0.0008732677    1.321    0.243
        84  -9.0476     67.5038    114.9892   7.2352900491e+01   4.5292751884e+01    0.2136131    0.1340975  88.89  0.000801418    2.398    0.583
        85 -11.3791     27.1459     85.4503   8.2178996577e+01   5.8278928100e+01    0.8102688    0.5658763  14.04  0.003184004    1.575    0.365
        86 -11.7472      9.4677     97.3201   9.2319749463e+01   5.6565270358e+01     0.601983    0.5331265  11.43 0.0009401691    1.259    0.206
        87 -11.6065     25.7869    106.8108   8.6852139481e+01   5.2741869219e+01    0.8561461      0.53212 -38.56  0.003990238    1.751    0.429
        88 -10.4188     35.7160    102.9499   8.2057000545e+01   5.2769668954e+01    0.6056946    0.3400662   2.88  0.002036268    2.499    0.600
        89 -12.8294     17.6888    100.4320   8.9223585620e+01   5.5149156934e+01    0.3736109     0.365866 -88.69 0.0004032128    1.077    0.072
        90 -11.1010     22.8648     94.6234   8.5980776601e+01   5.6268702337e+01    0.3805369    0.3020447  11.37  0.001017104    1.388    0.280
        91 -11.1117     17.9097     90.8514   8.7527574718e+01   5.7684290913e+01    0.5749216    0.3205123 -81.06  0.002160698    1.869    0.465
        92 -11.2261     21.5156    114.5125   8.9735467009e+01   5.1039019767e+01    0.5770199    0.3009829   2.00  0.002262705    2.585    0.613
        93 -11.3285     28.1810    113.2349   8.6923405061e+01   5.0781667073e+01    0.4160649    0.3320727  -7.34 0.0007043597    1.464    0.317
        94  -8.9688     86.3265    113.6801   6.5574910456e+01   4.2427247814e+01    0.1612741    0.1215005  75.35 0.0007046886    1.682    0.405
        95  -9.9380     48.7812    112.3018   7.8716849375e+01   4.8699559338e+01    0.2707827    0.2492043 -60.17  0.001026444    1.048    0.046
        96  -9.0480    170.3336    110.3215   4.3078084721e+01   2.6073174726e+01    0.1451071    0.1123057   1.33 0.0007049904    1.703    0.413
        97  -9.6995    121.2089    108.7690   5.3862158911e+01   3.6683804340e+01    0.3661559    0.2512343  -6.92  0.001347022    2.469    0.595
        98 -11.1217     79.9192    108.3584   6.6403201107e+01   4.4896971260e+01    0.4946605    0.3358413  27.39 0.0009267232    1.626    0.385
        99  -9.3358     67.2392    110.5925   7.1437762381e+01   4.6469165851e+01    0.3019035    0.1428302  36.61  0.001148056    2.102    0.524
       100  -9.6399    102.4702    109.4729   5.9394392323e+01   4.0363492719e+01    0.1536719     0.151742 -53.85 0.0004043882    1.013    0.013
       101 -10.2644     15.0716    108.9992   9.1550364130e+01   5.3042737030e+01    0.3940147    0.1686814  29.10  0.001638849    2.339    0.572
       102  -9.7826    181.3455    105.2120   3.9824343014e+01   2.4773476888e+01    0.3718972    0.2389174  15.46  0.001543051    2.820    0.645
       103  -9.4888    143.6202    106.2859   4.7643038735e+01   3.2443996295e+01    0.2389465    0.1791457 -76.38  0.001096262    1.738    0.424
       104  -9.7013     85.8320    103.8327   6.3211037461e+01   4.4928950517e+01    0.2307107    0.2108864 -22.80  0.000558219    1.176    0.149
       105  -8.6750     82.2595    102.6832   6.4120522434e+01   4.5871505324e+01    0.1522732    0.1213671  85.40 0.0002768844    1.540    0.351
       106  -9.8855     50.7719    102.0061   7.5715128734e+01   5.1148245923e+01    0.3911701    0.1947686 -63.56  0.001548938    1.989    0.497
       107 -10.0599     52.7523     98.3086   7.4044878062e+01   5.1830341649e+01    0.4939749    0.1985044 -56.86  0.001223857    2.302    0.566
       108  -8.8627    120.4642    101.4949   5.2091640488e+01   3.8425226127e+01    0.1527364    0.1495757 -51.61 2.706374e-05    1.015    0.014
       109  -9.1595     64.6842    101.7100   7.0223838061e+01   4.9148751195e+01    0.2395293    0.1333576  20.82 0.0005801789    2.294    0.564
       110 -11.5287     68.6121     95.8501   6.7201078945e+01   4.9969291627e+01     0.458031    0.3583404  11.87 0.0007529024    1.513    0.339
       111 -10.6969     30.0233     97.7885   8.3450372141e+01   5.4747794889e+01    0.6345153     0.384117 -46.11  0.002937596    1.623    0.384
       112  -9.5918     81.0423     98.2537   6.3338048208e+01   4.7170216459e+01    0.2158762    0.2013156  41.74 0.0004977417    1.086    0.079
       113 -11.1978     79.5898     93.3677   6.2471999185e+01   4.8611438876e+01    0.8005382    0.5725555  38.38  0.003726262    1.418    0.295
       114 -11.0915     42.4689     93.8053   7.7238303414e+01   5.4379841857e+01    0.5175841    0.3692191  49.16   0.00222681    1.532    0.347
       115 -11.7433    125.9151     94.6950   4.8753597201e+01   3.8671867024e+01    0.2772481    0.2693436 -44.20 0.0001883695    1.035    0.034
       116 -11.0125    121.7651     93.9773   4.9624223777e+01   3.9737008596e+01    0.7042368    0.5401582 -85.78  0.002488001    1.691    0.409
       117 -11.2326     99.2317     91.3142   5.5306010754e+01   4.5176386461e+01    0.6335078    0.2876593  52.56  0.001758049    2.542    0.607
       118 -10.3356     49.6600     91.4778   7.3612801162e+01   5.4019645580e+01    0.4345637    0.3409083  50.34  0.002188463    1.377    0.274
       119 -10.4987     35.2874     92.5778   8.0070834307e+01   5.5558362175e+01    0.4450081    0.2851313 -83.25  0.001276231    1.821    0.451
       120 -11.6855     44.6826     84.9019   7.4040348126e+01   5.6370182656e+01    0.4743072    0.4150734   7.42  0.001056677    1.220    0.180
       121 -10.6429     37.0202     86.0126   7.7761544014e+01   5.7058508572e+01    0.5128614    0.2478081  18.80   0.00165103    2.435    0.589
       122 -11.1563     89.5444     89.3290   5.7839344457e+01   4.7615167361e+01    0.5907375    0.3362884 -40.04  0.002142019    1.863    0.463
       123  -9.4748     89.5265     84.5423   5.6375852611e+01   4.8693584136e+01     0.242763    0.1938113  39.18 0.0006684577    1.272    0.214
       124 -11.6128      6.9776     88.8085   9.2223188328e+01   5.8976753109e+01    0.6047289    0.4010985  10.94   0.00209886    1.689    0.408
       125  -9.6362     66.1679     88.8201   6.6170783849e+01   5.2108479638e+01    0.3719408    0.2433307  11.92  0.001310726    2.136    0.532
       126  -8.5768    199.6894     88.3132   3.2872973479e+01   2.3941746864e+01    0.1377771   0.09362806 -62.33 0.0004488076    1.631    0.387
       127  -9.8439    104.0373     87.6589   5.2735040822e+01   4.4953243994e+01    0.2206001    0.2064117  35.46  0.001155745    1.103    0.094
       128 -10.5315    143.2406     84.5608   4.1764808623e+01   3.6756817519e+01    0.2607732    0.2440648 -47.23 0.0003503444    1.046    0.044
       129  -9.4395    120.5199     85.1200   4.7340130405e+01   4.1830022050e+01     0.312454    0.1774749  42.43  0.001279199    1.872    0.466
       130 -10.1223     79.5038     84.0086   5.9699341482e+01   5.0812285584e+01    0.5361301    0.3563865  30.41  0.002372911    1.659    0.397
       131 -11.2052     76.6372     80.2726   5.9567452430e+01   5.2214297480e+01    0.6977786    0.4004671 -58.41  0.002078756    1.970    0.492
       132  -9.8691     72.5061     78.0013   6.0390779821e+01   5.3513317507e+01    0.2875749     0.227772 -70.97  0.001375609    1.473    0.321
       133  -9.0203    133.3213     84.6764   4.4033723419e+01   3.9002546316e+01    0.1569753    0.1172305 -77.35 0.0004245137    1.678    0.404
       134 -10.0833    113.2571     82.8071   4.8585711442e+01   4.3935419847e+01    0.3102471    0.2844117 -71.83 0.0008901883    1.121    0.108
       135  -9.7057     66.8689     81.7482   6.3779058874e+01   5.3676229587e+01    0.4355565    0.3105836  26.17  0.002035758    1.532    0.347
       136  -9.4158     46.7647     76.2064   7.0638093243e+01   5.8229558177e+01    0.2665946    0.1874444  15.51  0.001268654    1.614    0.380
       137 -11.1139     59.3408     77.9358   6.5660338991e+01   5.5864154257e+01     0.655035    0.4770345 -33.41  0.003143166    1.478    0.324
       138  -9.7585      1.3079     80.6765   9.3732470169e+01   6.1406216444e+01    0.2871971    0.1141222 -78.16 0.0005435392    2.365    0.577
       139  -8.7404    103.2974     80.3065   5.0664505773e+01   4.6667349110e+01    0.1514963    0.1231607   2.30 0.0004080043    1.589    0.371
       140  -9.6217     89.9153     73.0687   5.2503682437e+01   5.1076370660e+01    0.5468761    0.3066875  26.72  0.001223951    2.712    0.631
       141 -10.0383     87.4956     77.4738   5.4793349516e+01   5.0656885352e+01    0.6214073    0.3406311  56.74  0.002406583    2.219    0.549
       142  -9.9092     94.1742     76.5976   5.2291926168e+01   4.9428481478e+01    0.4957176    0.3098849  43.40  0.002168128    1.608    0.378
       143  -9.9666    233.1563     77.8704   2.6455250558e+01   1.9242104767e+01    0.1907146    0.1391762 -51.06 0.0005213509    1.179    0.152
       144 -11.5507     13.3843     73.7817   8.6419480372e+01   6.2466738512e+01    0.6618676    0.4490778 -72.20  0.003221197    1.410    0.291
       145  -9.3488     14.8456     67.4309   8.4218904866e+01   6.3959480373e+01    0.3883902    0.2083586  13.00  0.001798132    2.054    0.513
       146  -8.5999    134.6459     77.3057   4.1533143826e+01   4.0083260496e+01    0.1572922    0.1153829 -78.69  0.000704142    1.715    0.417
       147 -10.8603    186.9227     72.1726   3.0696357179e+01   2.9099048288e+01    0.4888167    0.3267527 -41.93  0.002582844    1.323    0.244
       148  -9.6635    103.5692     74.6857   4.8759717743e+01   4.7751372961e+01    0.3408724     0.225044  82.94  0.001320464    2.495    0.599
       149  -8.1988     24.5371     74.5410   8.0888919718e+01   6.1326956385e+01    0.4931284    0.2070531 -40.23  0.001341398    2.581    0.612
       150 -11.8758     40.5748     69.9107   7.1619657076e+01   6.0605473700e+01    0.4782421    0.3472515 -59.27  0.001534774    1.370    0.270
       151 -11.2737     35.3090     71.9870   7.4820285325e+01   6.0780451030e+01    0.9400088    0.2618909  29.25  0.003080883    3.516    0.716
       152 -11.0371      2.0064     71.7801   9.1984590320e+01   6.3665728902e+01    0.4053143    0.1931041 -64.18  0.001497734    1.748    0.428
       153  -9.3011     80.8797     73.9029   5.5915339333e+01   5.2782001893e+01    0.2228941    0.2009729  -9.37 0.0006401691    1.211    0.174
       154 -11.3720     53.1984     75.5960   6.7567134517e+01   5.7409532603e+01    0.7071003     0.400025 -62.92  0.002961985    1.994    0.498
       155  -9.9185    153.5062     72.8260   3.6318093715e+01   3.6476745067e+01    0.3753931    0.1768418  43.23  0.001426838    2.641    0.621
       156 -11.4410    123.0167     68.8503   4.1619860567e+01   4.4359083132e+01    0.5554543    0.3005589  50.48  0.002320855    1.843    0.458
       157 -10.4095     78.8760     67.7742   5.4512420758e+01   5.4484311987e+01    0.4452424    0.3349235  71.20  0.002080048    1.710    0.415
       158 -10.4574    219.5094     66.9469   2.5462030908e+01   2.3263463922e+01    0.3835203     0.186132  69.01  0.001893641    2.487    0.598
       159  -9.1815     52.1259     65.8365   6.4817168026e+01   5.9837666932e+01    0.1978781    0.1657651   1.95 0.0007177011    1.298    0.230
       160 -12.6292      4.8870     61.9892   8.8530660323e+01   6.5981005049e+01    0.8600295    0.4309323 -41.01  0.001155865    1.853    0.460
       161 -10.9701      9.5212     62.4871   8.5999688160e+01   6.5572633606e+01     0.477381    0.2595865 -48.23  0.001467907    1.611    0.379
       162  -9.1078    112.4553     75.4600   4.6483943284e+01   4.5581728933e+01    0.1512681    0.1459734 -82.97 0.0001575754    1.026    0.026
       163  -9.3620     96.0552     64.9898   4.7719073956e+01   5.1338524415e+01    0.2320524    0.2079394 -87.79 0.0008355331    1.223    0.182
       164 -10.7223     91.6807     62.4974   4.8205519871e+01   5.2793413534e+01    0.3907412    0.2715529  61.09  0.001025334    1.575    0.365
       165 -10.4874     58.8425     63.1984   6.0870164804e+01   5.9284013796e+01    0.4318513    0.3307812  56.76  0.001378685    1.521    0.342
       166  -9.3277     65.2861     61.4828   5.7494625015e+01   5.8469992662e+01    0.3763144    0.2379468  47.38 0.0009968174    1.642    0.391
       167  -9.4499     51.0285     56.6502   6.1954733599e+01   6.2027826823e+01    0.2605608    0.1960719 -43.66  0.001343181    1.306    0.235
       168 -10.1711     51.9464     48.2258   5.8106405072e+01   6.3593795700e+01    0.3191795    0.2543187  47.66 0.0005674942    1.342    0.255
       169 -11.2176     60.8987     47.9176   5.3919835536e+01   6.1999600988e+01    0.9660866    0.4808276 -46.75  0.004062294    2.113    0.527
       170  -9.5530     55.5496     50.5300   5.7397802733e+01   6.2495972579e+01    0.2054667    0.1340685  48.95 7.561593e-05    1.657    0.396
       171 -10.9305     40.6643     56.9492   6.7172851530e+01   6.3579079414e+01    0.3959413    0.2451749  35.09 0.0008091317    1.640    0.390
       172 -11.4482     45.1205     48.9526   6.1759230392e+01   6.4600858070e+01    0.6376333     0.385314 -47.39  0.003048339    1.647    0.393
       173 -10.3528     50.5390     61.5030   6.4005845697e+01   6.1059287455e+01    0.3969211     0.253492  45.68  0.001485684    1.697    0.411
       174 -11.1549     44.0401     43.9603   6.0174654047e+01   6.5776829002e+01    0.3083402    0.2655258  22.45 0.0002977195    1.130    0.115
       175 -11.3434     40.0004     43.9939   6.2319451946e+01   6.6414113960e+01    0.6837701    0.3449108  23.86  0.002544818    2.396    0.583
       176 -11.3391     43.2430     62.2665   6.7787156897e+01   6.2012384465e+01    0.3077858    0.2608982 -41.30 0.0004932978    1.130    0.115
       177 -10.8151     46.1540     59.1459   6.5238006520e+01   6.2272365637e+01    0.3416668     0.257179 -55.35 0.0009776724    1.372    0.271
       178 -10.2736    158.3074     63.1720   3.2677248956e+01   3.6934088897e+01    0.4162229    0.2149998  53.04  0.001430928    2.017    0.504
       179  -9.8560    154.8507     60.8204   3.2583151857e+01   3.8116599982e+01    0.1927005    0.1899518 -65.99            0    1.114    0.102
       180  -9.6213    106.3428     63.4278   4.4140835071e+01   4.9269899302e+01    0.3326174    0.2033426  41.82 0.0008250974    1.737    0.424
       181 -10.0540    106.5904     58.6656   4.2394812370e+01   5.0062823534e+01    0.3943333    0.2474778 -76.57  0.001409242    2.716    0.632
       182 -10.8800    234.7292     60.8925   2.2647058344e+01   2.1264056493e+01    0.3223623    0.2492235  74.26  0.002175075    1.516    0.340
       183 -11.2213     76.0098     55.0000   5.0777980829e+01   5.7613652222e+01    0.4523391    0.2894095  37.97  0.001046926    1.599    0.375
       184 -11.7419     74.1711     50.8988   4.9817803413e+01   5.8763118853e+01     1.053411    0.3596728 -47.42 0.0006650435    3.375    0.704
       185 -11.1204     72.5134     47.4741   4.9024016071e+01   5.9730543538e+01    0.2514876    0.2310003  36.54  8.22191e-05    1.051    0.048
       186  -9.4273    113.8075     61.3602   4.1425577125e+01   4.7878832591e+01    0.2128979    0.1894803 -61.02  0.001130931    1.141    0.124
       187  -9.3412     84.4494     61.5008   5.0247628936e+01   5.4571331161e+01    0.2741529    0.1411082  58.30  0.001030338    2.387    0.581
       188 -10.5406    109.7676     40.5352   3.4917352473e+01   5.2188906895e+01    0.5469167    0.3997803 -15.46  0.001705794    1.673    0.402
       189 -11.4346    117.4482     54.6437   3.8199350153e+01   4.8139817866e+01     1.096628    0.5333506 -58.50   0.00379096    3.140    0.682
       190 -10.2932    122.9385     44.5071   3.3421954785e+01   4.8358533267e+01    0.2888937      0.24466  56.96 0.0006933888    1.164    0.141
       191 -10.5150    112.2211     50.8004   3.8109123107e+01   5.0029539529e+01    0.3456932    0.3010614 -12.36  0.001005085    1.324    0.245
       192 -10.5466    116.1705     48.8281   3.6452581233e+01   4.9376695771e+01    0.3094952    0.2655839  46.25 0.0008783526    1.200    0.166
       193 -11.3891    117.5428     44.2269   3.4491106382e+01   4.9733943321e+01    0.6105153    0.3899551 -78.19   0.00194546    2.161    0.537
       194 -12.6442    119.9533     37.9590   3.1715405363e+01   5.0023910851e+01    0.7148622    0.4337768 -44.04  0.002203231    1.672    0.402
       195 -11.4497     24.8282     57.7480   7.5983818529e+01   6.5390859778e+01    0.8078473    0.4999983  37.27  0.003535747    1.746    0.427
       196 -10.5945     32.5534     52.8270   6.9963821331e+01   6.5603714551e+01     0.553289    0.2608557  20.91  0.002257808    2.483    0.597
       197  -9.4838     80.1025     58.5383   5.0659502367e+01   5.6074314607e+01    0.2664965     0.173234 -18.12 0.0006374813    2.202    0.546
       198 -10.0625     91.6715     57.1647   4.6236979976e+01   5.3787130042e+01     0.336325    0.2299462  62.31 0.0007518091    1.601    0.375
       199 -10.1852     87.9888     55.8110   4.6911111582e+01   5.4861537905e+01    0.4388576    0.2077845 -31.58  0.001362328    2.556    0.609
       200 -10.6277    157.9502     55.5093   3.0507871674e+01   3.8193546333e+01    0.5054465    0.3623025 -80.84  0.002528365    1.545    0.353
       201  -9.7997    154.4102     51.0850   2.9767056255e+01   3.9689534652e+01    0.3138705    0.1980963 -12.81 0.0009084513    2.335    0.572
       202  -9.8342    125.4804     56.5801   3.7006679157e+01   4.5872451017e+01    0.2596739    0.2475476 -85.25 0.0009416627    1.003    0.003
       203  -9.1816     66.9997     55.2788   5.4392736145e+01   5.9394958854e+01    0.1971433    0.1858738  33.41 0.0006058742    1.047    0.045
       204  -9.4497    201.2518     53.5639   2.4253752032e+01   2.8757481053e+01     0.159887    0.1190554  57.20 0.0004868055    1.554    0.357
       205  -9.9785    144.7982     50.9139   3.1332853941e+01   4.2038001180e+01    0.3083208    0.2019503 -29.61 0.0008056629    1.631    0.387
       206  -9.7123    146.4956     47.4700   2.9964686681e+01   4.2125353254e+01    0.2606759    0.1974175 -33.88 0.0007751664    1.355    0.262
       207 -10.0325    240.1188     50.7682   2.0038187584e+01   2.1597233537e+01    0.1777094    0.1592667  46.47 0.0007760079    1.527    0.345
       208  -9.4783     81.7031     50.3654   4.6888479865e+01   5.7233379186e+01     0.262537    0.2167401  66.83 0.0006318447    1.323    0.244
       209 -11.0183     83.2695     46.8308   4.4919184069e+01   5.7494895736e+01      0.29493    0.2657786  37.87 0.0004676162    1.087    0.080
       210  -9.8963    173.5524     48.8349   2.6331868329e+01   3.5501509151e+01    0.4303682    0.1822721  78.35  0.001592798    3.230    0.690
       211 -10.0175      1.9448     49.0738   8.7303565754e+01   6.9277250165e+01    0.4332016    0.1795379 -68.53  0.001663253    2.225    0.550
       212 -11.0135      4.8731     36.1746   8.1430634326e+01   7.2065335262e+01     0.589034     0.387823 -58.05  0.003029789    1.406    0.289
       213 -10.5599      9.6283     29.9839   7.5492896921e+01   7.3023144073e+01    0.5519338    0.3361815   6.73  0.002535326    1.718    0.418
       214 -10.7789     20.8342     45.8396   7.4228503388e+01   6.8529965233e+01    0.6934592    0.2895352 -37.95  0.002718567    2.569    0.611
       215 -10.7388     26.3313     43.0434   6.9752882244e+01   6.8510281871e+01    0.5419825    0.2906823  49.66  0.001983034    2.684    0.627
       216 -10.1780     22.6810     37.3308   6.9619902634e+01   7.0145388723e+01     0.458773    0.1909931  41.04  0.001874742    2.835    0.647
       217  -9.9145     13.4691     46.3981   7.9078372957e+01   6.9106745677e+01    0.3101147    0.1588327 -35.71  0.001407137    1.944    0.486
       218 -10.2579    200.1985     45.1754   2.2301801181e+01   3.0091947869e+01    0.3415509    0.1726516  87.60  0.001569194    2.494    0.599
       219  -9.4860    161.0234     43.6373   2.6562088614e+01   3.9150560029e+01    0.3420898     0.173677  89.72  0.001341946    2.764    0.638
       220 -10.3964    155.9208     42.3493   2.6913483631e+01   4.0548492739e+01    0.2829924    0.2548895  48.96 0.0009781121    1.264    0.209
       221 -10.7576    137.5087     44.7493   3.0663238644e+01   4.4717773275e+01    0.6908938    0.2582212  48.35  0.002451987    3.014    0.668
       222  -9.3233    189.1450     39.5965   2.2027448458e+01   3.3199934889e+01    0.2446858   0.07531925 -33.93 0.0006130344    2.782    0.640
       223 -11.6690     79.3251     35.3489   4.1329866944e+01   6.0215075071e+01    0.7562391    0.5828278 -26.98  0.004026974    1.390    0.280
       224  -9.2899    194.1160     38.8171   2.1322104416e+01   3.2207840845e+01    0.1583447    0.1509373   5.93 0.0004788979    1.358    0.264
       225  -9.3192    183.7156     38.0571   2.2200782050e+01   3.4606130101e+01    0.1800467    0.1465228 -52.03  0.000409243    1.085    0.078
       226  -9.4420    153.4376     37.7371   2.5876529185e+01   4.1758824579e+01    0.1869741    0.1357099 -16.14 0.0006959194    1.707    0.414
       227  -9.6160    133.0004     37.2572   2.8978477748e+01   4.6862672817e+01    0.3670962    0.1960921 -78.51  0.001378289    2.906    0.656
       228 -11.0867     61.1852     35.8621   4.8367217791e+01   6.4066682553e+01    0.4947388    0.3499246   4.00  0.001971126    1.870    0.465
       229  -9.5986     70.6310     34.2529   4.3878797573e+01   6.2323320359e+01    0.2009428    0.1971229 -73.20 0.0009619259    1.124    0.110
       230  -9.9825     67.5507     32.0596   4.4002211032e+01   6.3325657192e+01    0.3001072    0.2249927  24.49 0.0009617993    1.456    0.313
       231 -10.9104     56.9208     31.0016   4.7832784403e+01   6.5710255253e+01    0.4198648     0.316546 -14.44  0.001365453    1.477    0.323
       232 -11.5266     48.9551     30.4509   5.1238773727e+01   6.7349099201e+01    0.7178563    0.2717362  40.73  0.001901753    2.577    0.612
       233 -10.3473     43.0183     28.0769   5.3007247093e+01   6.8825846090e+01    0.1964009    0.1757475  10.95 0.0002850173    1.020    0.019
       234  -9.4493    206.3224     37.4410   1.9841933314e+01   2.9780511647e+01    0.1537549    0.1087933 -80.91 0.0004043802    1.393    0.282
       235 -11.0016    176.1885     34.1941   2.1981580228e+01   3.6803559478e+01    0.6186351    0.2265446 -42.34  0.002146517    2.322    0.569
       236  -9.2100     12.9778     36.6945   7.5864554662e+01   7.1301269174e+01    0.2566722    0.1583951 -48.67 0.0009293932    1.455    0.313
       237  -9.9687    214.7868    248.7633   6.0825026293e+01  -2.8411670641e+00    0.2740299    0.1008284  35.85  0.001418696    2.979    0.664
       238  -9.0138    113.3251    249.3272   8.0336262439e+01   8.6720960925e+00    0.1196489   0.08337642  -4.03 0.0006201057    1.696    0.410
       239 -11.7754    106.8627     32.1614   3.2372813373e+01   5.4055706798e+01    0.6427574    0.3837785  20.14  0.002387224    2.833    0.647
       240 -12.0740    113.6857     24.9422   2.8133680374e+01   5.3240134175e+01     0.696597    0.3114228  62.23  0.001904852    2.006    0.502
       241  -9.6888    174.6765    246.5661   6.7657310554e+01   1.7696488615e+00    0.2256363   0.09301599  24.67  0.001143428    2.143    0.533
       242 -11.8377    164.3837     27.6611   2.1467198514e+01   4.0357787440e+01    0.2720072    0.2437372 -81.08 0.0004612005    1.057    0.054
       243 -11.1149     32.3806     30.7160   6.0393496815e+01   7.0125000113e+01    0.3551672    0.2277199 -51.29 0.0004242162    1.750    0.429
       244 -11.6770    126.3038    241.6071   7.6724664908e+01   8.3486559341e+00    0.3187821     0.275859  66.46  0.001648303    1.542    0.352
       245 -10.4115    198.1132     28.7714   1.8437742066e+01   3.2555113763e+01    0.3519931    0.2821255 -38.74  0.002253138    1.224    0.183
       246 -10.9409    189.0661     28.3105   1.9118792075e+01   3.4588261450e+01    0.3885689    0.2837901 -11.14  0.001946752    1.832    0.454
       247 -12.0475    126.0510     28.3599   2.7116641748e+01   4.9725570417e+01    0.5078449    0.3859088  89.35  0.002732876    1.313    0.239
       248  -9.5523    231.5021     38.4362   1.8050961327e+01   2.4681009448e+01    0.2562112   0.09768063 -32.93  0.001225966    2.219    0.549
       249  -9.2075     88.4864     28.5704   3.5528452956e+01   5.9015725020e+01    0.2679129    0.1955625  83.58  0.001345202    1.617    0.382
       250 -10.7899    183.1600     25.7198   1.8987072569e+01   3.6211935062e+01    0.3910702    0.3024895  34.16  0.001854445    1.800    0.444
       251  -9.3375    187.4763     23.0506   1.7899748648e+01   3.5541688507e+01    0.2061511    0.1505233 -30.49 0.0006188505    1.423    0.297
       252 -10.0710    240.4318     32.6324   1.6206361663e+01   2.3718333383e+01     0.255384    0.1558677  62.46   0.00160938    2.010    0.502
       253  -9.3096    149.8141     27.6818   2.3270765985e+01   4.3884561332e+01    0.2732063   0.09812344  61.11  0.001072507    2.537    0.606
       254  -9.5231    230.4741     26.5407   1.5544527671e+01   2.6255748091e+01    0.1184293   0.09046378 -54.68 0.0008087025    1.002    0.002
       255  -9.5490      6.3808     21.7943   7.4256807041e+01   7.4973560762e+01    0.3903203    0.2040506  -7.54  0.001833918    2.382    0.580
       256 -10.5939    131.0192    240.9327   7.5649527611e+01   7.8719951222e+00    0.1922691    0.1549882  15.19 0.0009822466    1.059    0.056
       257 -11.2062    147.2927    238.1807   7.1926269198e+01   6.2848815874e+00    0.4037161    0.2688935  33.06  0.001701338    1.349    0.259
       258 -10.5207    167.2060    237.7995   6.7896764090e+01   3.9003735680e+00    0.1785636    0.1554158 -32.41  0.001015872    1.390    0.281
       259 -11.1847    144.9154     24.3025   2.2854748482e+01   4.5481335179e+01    0.6551436    0.2621948  56.65  0.002705267    2.404    0.584
       260 -10.3247    200.0015    234.7418   6.1355306885e+01   5.0579664604e-01    0.1516203   0.09381992  33.05 0.0006405644    1.688    0.408
       261  -9.0702     15.3704    233.8156   1.0071841731e+02   2.2386760064e+01    0.1494279   0.09976246 -71.00  0.000942959    1.700    0.412
       262 -11.3773     67.6945    240.9233   8.9491694399e+01   1.5577819709e+01     0.438918    0.2058028  31.52  0.002273571    1.709    0.415
       263  -9.6501    247.4556    231.4659   5.3121975410e+01  -3.9948504982e+00    0.1059253   0.07332003  -8.22 0.0001948635    1.008    0.008
       264 -10.1554     91.0820     22.7596   3.2279292356e+01   5.9109632429e+01    0.3112043    0.2629333  -4.09  0.001756156    1.351    0.260
       265  -9.9993     59.7699     23.5930   4.2830629913e+01   6.6213360376e+01     0.225031    0.1791283 -28.18 0.0004104957    1.321    0.243
       266  -9.0371    183.3175     32.3108   2.0719095914e+01   3.5403590463e+01     0.121562   0.09967539  34.41 0.0003314936    1.640    0.390
       267  -8.8872    189.7318    229.6747   6.2460132576e+01   2.3834842029e+00    0.1180463   0.07420018  -7.47 0.0003693881    1.571    0.364
       268 -10.8841     38.8586     22.1823   5.2005098293e+01   7.0508549258e+01    0.2310665    0.2036023   1.55 0.0004139941    1.054    0.051
       269  -9.2744    200.5080    226.4693   6.0028951817e+01   1.5725414226e+00     0.117052   0.08942817  -1.17 0.0001560571    1.016    0.015
       270  -9.7022    223.6060     22.1790   1.5024312616e+01   2.8062916275e+01    0.1937185    0.1324321 -74.47  0.000614063    1.337    0.252
       271 -10.8955    178.9941     20.7718   1.8048214059e+01   3.7714036339e+01    0.4507199    0.2338785  44.96    0.0020629    2.735    0.634
       272  -9.4923    216.4503     20.7375   1.5159118227e+01   2.9639822058e+01     0.149959    0.1075093 -25.00 0.0007579287    1.561    0.359
       273  -9.1546     75.4977    224.4935   8.6253168732e+01   1.7836953419e+01    0.1284049    0.1088692  38.85 0.0008106577    1.003    0.003
       274 -10.2367    155.0242     24.2497   2.1552670846e+01   4.3004612070e+01     0.350747    0.1584489 -85.32  0.001328291    3.020    0.669
       275  -9.4200    234.4228    223.5007   5.3900583060e+01  -1.7532060727e+00    0.1093895   0.07967567  -8.82 9.930934e-05    1.020    0.020
       276 -10.4814    246.4845     19.9524   1.3254991765e+01   2.4043852123e+01     0.172606   0.08753975 -35.38  0.001036184    1.602    0.376
       277 -10.0119     74.6729     19.5251   3.5417843200e+01   6.3407230374e+01    0.2584064    0.1940646  35.19 0.0006582151    1.335    0.251
       278  -9.7823     47.1350     19.2527   4.6038852604e+01   6.9396544568e+01     0.234606    0.1767787  -7.96  0.001313658    1.442    0.307
       279  -9.7042     65.6920    222.3540   8.8375380500e+01   1.9450905985e+01     0.137483   0.08120807  56.75 0.0007042795    1.720    0.419
       280  -9.2658     81.0562     19.4830   3.3488914535e+01   6.1908876189e+01    0.2723868    0.1183705  56.93  0.001142878    2.026    0.506
       281  -9.2006    153.3033    219.3382   6.8072088228e+01   8.5687642800e+00    0.1298772   0.08694561  -7.26  0.000409887    1.670    0.401
       282  -8.9578     44.6919    215.3212   9.2853683771e+01   2.3322529577e+01     0.137775   0.07814489  55.81  0.000480601    1.643    0.391
       283 -11.4147    239.0740     16.4188   1.2912360924e+01   2.5755807798e+01    0.2622253    0.1449693 -71.57  0.001622825    1.679    0.404
       284  -9.4045    164.6663    212.0060   6.4617674990e+01   8.2652471644e+00    0.1686538     0.145401  -9.70 0.0004552363    1.095    0.087
       285  -9.7973    152.8638    207.5157   6.6372679524e+01   1.0656475039e+01     0.237065    0.1794212 -67.55  0.001321793    1.984    0.496
       286  -9.1048     61.5056    206.5256   8.7923821162e+01   2.3315730045e+01    0.1328673    0.1158624  46.83 0.0002057365    1.002    0.002
       287 -10.1226    186.7814     15.1619   1.5914259581e+01   3.6547314394e+01    0.2115267    0.1839005 -86.92 0.0006108827    1.146    0.128
       288  -9.7367    120.1820     15.7945   2.3535358340e+01   5.2593466957e+01    0.1850388    0.1517344  41.40 0.0004916241    1.343    0.255
       289  -9.6205     16.3437    205.3141   9.9175542686e+01   2.8353656508e+01    0.1185908   0.09265471 -36.11 0.0007047398    1.710    0.415
       290  -9.6919      4.4613    205.0859   1.0206963434e+02   2.9418754974e+01    0.1810189    0.1087458 -87.75 0.0008257707    1.589    0.371
       291  -9.5054     78.3831    203.7939   8.3369612115e+01   2.1795671830e+01    0.1888036    0.1523434  45.47 0.0005928063    1.122    0.109
       292 -10.8647      5.8884    198.3863   1.0143912665e+02   3.0818791975e+01    0.3131616    0.1599762 -73.78  0.001629076    1.937    0.484
       293  -9.5518    139.4593    198.5206   6.7887265159e+01   1.4227931089e+01    0.1336344    0.1192466  11.17 3.468746e-05    1.003    0.003
       294  -9.4636    233.8172    196.6212   4.9642638456e+01   1.8128746919e+00    0.1864727    0.1120789 -33.99  0.000990057    1.461    0.315
       295  -9.2902     79.4842    190.4947   8.1474848602e+01   2.4613912610e+01     0.138804    0.1267781  44.26 1.101473e-05    1.002    0.002
       296 -12.1213      4.6333    184.1336   1.0111111622e+02   3.4259231278e+01    0.6320277     0.429169  74.14  0.003090298    1.294    0.227
       297  -9.6605     28.1321    176.2299   9.4130794731e+01   3.4149663168e+01    0.2362945    0.1713162 -66.88   0.00110238    1.400    0.286
       298  -9.5199     52.0742    174.2024   8.7060725471e+01   3.2048742217e+01    0.2838224    0.1623611  69.93  0.001237731    2.071    0.517
       299  -9.3486     66.3490     10.4087   3.3370209704e+01   6.6338603267e+01    0.2743343    0.1065535  55.27  0.001144763    2.179    0.541
       300  -9.7583     39.7558    173.7347   9.0569118453e+01   3.3575519559e+01    0.1979294     0.142889  61.09 0.0006329847    1.319    0.242
       301  -8.8162    170.3338    172.2647   5.6577490816e+01   1.4404196790e+01    0.1361953   0.09774331  -1.19 0.0003361847    1.582    0.368
       302 -10.6046     14.0572    159.2215   9.6929644534e+01   3.9724031041e+01    0.3191119    0.2649876 -61.83  0.001120013    1.264    0.209
       303 -12.0932      8.9566    166.8693   9.8967644230e+01   3.8175543957e+01    0.5304651    0.3684707  41.49  0.002087388    1.345    0.256
       304 -11.2829     11.3955    163.1830   9.8011879748e+01   3.8920540910e+01    0.4096464    0.2052639  75.86  0.001855839    2.000    0.500
       305 -10.3735     18.8955    164.8075   9.5901185423e+01   3.7883888047e+01     0.304007    0.2624416  -8.04  0.001446181    1.421    0.296
       306  -9.6452    204.9353    163.2061   4.8307437263e+01   1.0618695176e+01     0.217068    0.1589865 -30.69  0.000573474    1.184    0.155
       307 -10.6739     28.0007    161.9373   9.2915006708e+01   3.7785767707e+01    0.3591155    0.2825707 -58.89  0.001874564    1.327    0.247
       308  -9.5750     38.0767    160.3402   8.9668955548e+01   3.7170418626e+01    0.2019185    0.1757988  39.77 0.0008442089    1.142    0.124
       309 -10.9652      9.3406    155.4045   9.8096024108e+01   4.1077647071e+01    0.2969453    0.2221651  89.31  0.001040283    1.202    0.168
       310  -9.9208    104.1884    154.9131   6.9100648247e+01   2.9202452933e+01    0.2654828    0.2620859  66.02  0.001495434    1.029    0.028
       311 -12.4505     23.0022    149.1133   9.3254428542e+01   4.1602672530e+01    0.7765874    0.3887886 -40.23  0.003208671    2.568    0.611
       312 -11.0084     16.5474    147.8514   9.5224995396e+01   4.2489165609e+01    0.3380979    0.2254933 -84.17  0.000346379    1.385    0.278
       313 -10.3607     30.6345    152.3060   9.1128775268e+01   4.0039345587e+01    0.3629871    0.2402778  53.31  0.001815644    1.466    0.318
       314 -10.5046      4.2090    153.7801   9.9567335816e+01   4.1866221101e+01     0.279941    0.1525671  38.44 0.0008384217    1.726    0.421
       315  -9.9868     63.4603    150.9724   8.0499413881e+01   3.6495830452e+01    0.6525153    0.3486155  -2.13  0.002008582    4.386    0.772
       316 -11.3681     47.2978    146.8787   8.5069234713e+01   3.9650176467e+01    0.6629862    0.4263192 -39.17  0.003034247    1.848    0.459
       317 -11.9016      5.7031    142.1699   9.8300919160e+01   4.4796410535e+01    0.6045578    0.3724735  70.07 0.0003340971    1.550    0.355
       318 -10.8821      2.2984    140.3128   9.9288965785e+01   4.5506640433e+01     0.338622    0.1989432 -72.71  0.001460748    1.524    0.344
       319 -10.4433      3.0683    147.7598   9.9538457407e+01   4.3505527452e+01    0.2349665    0.1770235 -84.09  0.000784552    1.187    0.157
       320 -11.0779     33.1790    144.1843   8.9375738379e+01   4.1935543245e+01    0.3198061    0.2785778  72.21   0.00079413    1.084    0.078
       321 -10.4295     16.1763    141.1687   9.4739627948e+01   4.4291285769e+01      0.22882    0.1736947  59.42 0.0005541704    1.263    0.209
       322 -11.2636     12.3651    136.0848   9.5560768954e+01   4.5942066803e+01    0.5930496    0.3510155 -50.75  0.002874346    1.747    0.427
       323  -9.1813    217.5061    138.9527   4.1428886470e+01   1.2612760211e+01      0.18972    0.1072193 -36.27 0.0003881716    1.487    0.328
       324 -10.4958     80.1206    138.2201   7.2993502726e+01   3.7297947638e+01    0.3582708    0.2942062  42.41 0.0009101143    1.205    0.170
       325  -9.7482     39.3930    133.4448   8.5823327914e+01   4.4151669142e+01     0.262859    0.1459281  23.76  0.000636332    1.915    0.478
       326 -11.5007     23.4519    136.9153   9.1826687644e+01   4.4814180397e+01    0.5932364    0.4089364  43.42   0.00179821    1.434    0.303
       327  -9.8759     32.0382    137.5324   8.8938831874e+01   4.3832316585e+01     0.333465    0.2434729  20.40 0.0009199681    1.492    0.330
       328 -10.8456     30.0201    133.0603   8.9068857538e+01   4.5237347138e+01    0.4306602    0.3354086 -44.70 0.0008466028    1.373    0.271
       329  -9.5562     47.4185    134.8109   8.3237123604e+01   4.2847216859e+01    0.2799107    0.1425952 -73.36  0.001001256    2.029    0.507
