#   1 NUMBER                 Running object number                                     
#   2 MAG_AUTO               Kron-like elliptical aperture magnitude                    [mag]
#   3 X_IMAGE                Object position along x                                    [pixel]
#   4 Y_IMAGE                Object position along y                                    [pixel]
#   5 X_WORLD                Barycenter position along world x axis                     [deg]
#   6 Y_WORLD                Barycenter position along world y axis                     [deg]
#   7 A_WORLD                Profile RMS along major axis (world units)                 [deg]
#   8 B_WORLD                Profile RMS along minor axis (world units)                 [deg]
#   9 THETA_WORLD            Position angle (CCW/world-x)                               [deg]
#  10 FWHM_WORLD             FWHM assuming a gaussian core                              [deg]
#  11 ELONGATION             A_IMAGE/B_IMAGE                                           
#  12 ELLIPTICITY            1 - B_IMAGE/A_IMAGE                                       
         1 -17.0912    105.9724    207.0820   1.0945334147e+02   1.7690912120e+01     3.809967     2.918527 -41.72   0.02222899    1.724    0.420
         2 -19.0478     78.2516    183.6511   1.1246478374e+02   2.6874438535e+01      6.87286     5.841107  44.83   0.04272443    1.257    0.204
         3 -15.9231    247.1965    124.2015   6.4347127335e+01   5.7587679613e+00     3.338334     1.391767 -38.69   0.01368013    2.140    0.533
         4 -13.0095    230.5070      2.2737   3.7143523486e+01   2.6904898510e+01     0.448744    0.3166623 -84.20  0.001746366    1.264    0.209
         5 -13.3569    249.6163     11.1056   3.7693379206e+01   2.1605221167e+01     1.943799    0.2492481 -29.56  0.005248096    6.900    0.855
         6 -14.6035    240.7103      8.6449   3.7819381849e+01   2.3874477833e+01     1.261115    0.7252415 -46.06  0.006795629    1.516    0.340
         7 -15.0928    248.1941     50.1551   4.6746156731e+01   1.6986818539e+01     4.423063          nan -36.97   0.01044332    6.877    0.855
         8 -10.4756    190.7955     10.8531   4.3080221103e+01   3.5764141459e+01    0.1933426    0.1445192 -68.75 0.0004358952    1.325    0.245
         9 -11.0244     64.9148     10.8320   7.0017993121e+01   6.5291321783e+01    0.2173449    0.1623272 -10.95 0.0008103845    1.213    0.175
        10 -10.6442     85.8249      7.8527   6.1647722750e+01   6.1637098727e+01    0.1957683    0.1499528  22.60  0.000295232    1.159    0.137
        11 -10.8490    178.0598      7.4942   4.3629242299e+01   3.9363790373e+01    0.2078012    0.1234432  71.57 0.0003855824    1.517    0.341
        12 -10.1385    113.4412      1.5083   5.1978349877e+01   5.6098382257e+01    0.1355458    0.1135938  39.28 0.0008072212    1.047    0.045
        13 -13.3576    129.7110    233.5184   1.0799714437e+02   9.0166037893e+00    0.4396317    0.4113106 -88.93  0.003128232    1.235    0.190
        14 -12.1163    153.1924    210.3358   1.0012555974e+02   9.0199134273e+00    0.3726395    0.2043202 -38.17  0.001298245    2.312    0.568
        15 -12.1098    156.9594    249.0942   1.0480142708e+02   2.2079980961e+00     0.232738    0.1514987  36.04 0.0003137034    1.265    0.209
        16 -12.1389    157.2050    212.1887   9.9595886582e+01   7.9879534122e+00    0.7617531    0.3996345 -58.87  0.003477664    2.645    0.622
        17 -14.3204    160.0478    230.9347   1.0180325732e+02   4.4223179303e+00     1.338453     0.546502  30.02  0.005195242    3.233    0.691
        18 -15.5383    180.2195    205.9092   9.3931475536e+01   4.9364587229e+00     2.436168     1.313004  48.08  0.008072719    1.819    0.450
        19 -16.6055    186.2600    245.7348   9.8974796764e+01  -1.9938799980e+00     3.690708     2.789927  -0.87   0.02424119    1.528    0.346
        20 -14.9452    196.0072    237.7531   9.6021053076e+01  -2.4847937499e+00     1.350493    0.6404926 -38.18  0.002630021    2.512    0.602
        21 -14.6275    167.0386    214.2633   9.7941944058e+01   5.9028447307e+00     1.152981    0.8637571 -40.19  0.006765913    1.547    0.354
        22 -13.6182    169.9648    204.9586   9.5837717934e+01   6.9463369920e+00    0.4888036    0.3654966  11.85  0.001866414    1.581    0.368
        23 -11.5282    137.0083    250.4228   1.0862372184e+02   5.1667262379e+00    0.2602303    0.1175411  47.31  0.001350352    1.784    0.440
        24 -11.1265    127.3070    249.9121   1.1034144784e+02   6.7563234791e+00    0.1711163     0.132645  16.67  0.001098029    1.738    0.425
        25  99.0000    117.7858    250.8077   1.1217026693e+02   8.0780402107e+00    0.3457799   0.07528552  40.06  0.001252538    3.750    0.733
        26 -12.4213    140.5880    241.3657   1.0688712045e+02   5.9901058779e+00    0.3983265    0.3085172 -12.22   0.00245923    1.957    0.489
        27 -12.1899    144.5714    239.1892   1.0586446354e+02   5.6868051996e+00    0.4797393    0.2261081  53.57  0.002298642    2.204    0.546
        28 -15.6272     48.1224    162.0813   1.1677002735e+02   3.5746133304e+01     1.231846    0.8302898  88.26  0.007048995    1.364    0.267
        29 -12.0443    123.5695    218.8242   1.0735783987e+02   1.2586403706e+01     1.690104     1.018617 -38.59  0.008573313    2.414    0.586
        30  -9.1014    151.2653    247.7127   1.0567836973e+02   3.3156912698e+00    0.1928094    0.1333853  54.64 0.0002843366    1.389    0.280
        31 -11.9832    147.5222    246.7442   1.0625149636e+02   4.0562271433e+00    0.1949734    0.1296474  47.64 0.0009546312    1.235    0.190
        32 -10.8116    164.2083    182.8956   9.3140374042e+01   1.2006256503e+01    0.1929468    0.1828279  61.13 0.0002394358    1.119    0.107
        33 -11.8720    154.8891    181.4117   9.4885338074e+01   1.4089717473e+01    0.2200552     0.213479 -29.89 0.0002326542    1.115    0.103
        34 -12.3894    140.8600    180.6546   9.7851434812e+01   1.6916166591e+01    0.3446445    0.2887843  68.40  0.001197363    1.257    0.204
        35 -10.3837    213.0000    179.9358   8.2612252351e+01   3.1844905549e+00    0.2192307   0.07616094 -38.01 0.0008022978    2.941    0.660
        36 -14.2207    200.1558    247.1834   9.6666122889e+01  -4.3546873940e+00    0.6213396    0.4307313  30.76 0.0004880088    1.126    0.112
        37 -11.3379      4.3728    178.3573   1.2779548002e+02   3.6439808205e+01    0.2386205    0.1288663 -59.62  0.001437508    1.980    0.495
        38 -10.8261    135.3924    206.3557   1.0320151280e+02   1.2878068898e+01    0.3242619    0.1559914  50.47    0.0014454    1.979    0.495
        39 -12.8111    155.5545    175.8000   9.3690423218e+01   1.5069014495e+01    0.3047801     0.255579  59.42 0.0006617334    1.235    0.190
        40 -12.2732    140.0547    174.0318   9.6837816383e+01   1.8433188727e+01     0.339136    0.2575448  34.74 0.0004438481    1.326    0.246
        41 -14.4985    246.2160     85.1372   5.5308194736e+01   1.2221336874e+01    0.9880608    0.5795622 -39.32  0.001625422    1.495    0.331
        42 -13.4287    243.6232    158.2450   7.2509601361e+01   1.0146102801e+00    0.5622791    0.3605068 -42.20   0.00200927    1.650    0.394
        43 -14.2008    246.3769    169.0831   7.4326162108e+01  -1.1202505798e+00    0.7593781    0.6080644 -23.31  0.004497308    1.156    0.135
        44 -15.4497    247.0938    146.1609   6.9301740857e+01   2.2715740564e+00      2.52814     1.511801 -52.59   0.01154409    2.302    0.566
        45 -12.1263    143.6123    247.1741   1.0702747397e+02   4.6143791424e+00    0.1998574    0.1580749  42.46 0.0006767532    1.035    0.034
        46 -10.7015    186.1082    163.1064   8.4514873400e+01   1.1388481587e+01    0.2055132    0.1806781   6.13 0.0002774948    1.157    0.136
        47 -10.3702      6.9636    162.9407   1.2621367826e+02   3.9580270511e+01    0.1218999   0.09211644  87.59 0.0008458575    1.013    0.013
        48 -11.4313    142.5198    160.6261   9.3689525112e+01   2.0784792697e+01      0.34736    0.2297924  45.77  0.001612624    1.452    0.311
        49 -11.6011     20.9278    158.7762   1.2276583626e+02   3.9324488922e+01    0.3030716    0.1357193 -76.29  0.001535928    1.836    0.455
        50 -11.3855    150.6197    158.3376   9.1337356261e+01   1.9638531250e+01    0.3117209    0.2565361  18.80  0.001394994    1.387    0.279
        51 -11.9692      1.6073    158.3871   1.2704828223e+02   4.1001288657e+01    0.1776339    0.1096363 -81.57   0.00100622    1.242    0.195
        52 -10.3122    190.1189    157.1229   8.2385385346e+01   1.1685591997e+01    0.1969657    0.1768662  72.74 0.0006837212    1.337    0.252
        53 -10.7076    157.6068    154.9546   8.9015945184e+01   1.8908845673e+01    0.1985277    0.1786791 -47.91 0.0002863086    1.151    0.132
        54 -11.3571      7.6724    155.4849   1.2548995811e+02   4.1186128136e+01    0.1177652    0.1079968 -72.82 0.0005298515    1.328    0.247
        55 -10.7718    144.6964    153.5439   9.1719274238e+01   2.1868910180e+01    0.2402676    0.1987437  36.60  0.000846372    1.214    0.176
        56 -11.5704     22.3818    151.0151   1.2168980173e+02   4.0971240822e+01     0.208122    0.1629911  74.32 0.0007191722    1.159    0.137
        57 -12.3337     40.1353    149.3825   1.1718878429e+02   3.9609920798e+01    0.2264482    0.1961961 -73.16 0.0004293378    1.148    0.129
        58 -10.7429     10.2806    204.9028   1.2822430157e+02   3.0420351235e+01    0.1435959    0.0746993 -73.95 0.0008922687    1.704    0.413
        59 -10.3941    180.6811    144.0524   8.1440605087e+01   1.6207997954e+01    0.1960351    0.1825448 -28.65  0.000314814    1.075    0.070
        60 -11.5402    131.9131    143.6598   9.2699899426e+01   2.6640814134e+01     0.307722    0.2450552  12.45 0.0006379746    1.617    0.382
        61 -11.2940    139.1118    140.4357   9.0209054962e+01   2.5890136609e+01    0.2600739    0.2172925 -59.39  0.000338151    1.236    0.191
        62 -11.7559      1.9698    139.9652   1.2554837140e+02   4.5109335211e+01    0.2029377    0.1621022 -12.44  0.001411175    1.870    0.465
        63 -10.9176    167.1129    138.9974   8.3258582712e+01   2.0193019633e+01    0.2152256    0.2133646 -57.41 0.0003124142    1.042    0.041
        64 -11.0669     38.9869    138.5114   1.1610124443e+02   4.2307576097e+01    0.1837331    0.1467505 -77.78 -6.55176e-05    1.043    0.041
        65 -12.0603     28.1036    134.9729   1.1849409961e+02   4.4206471169e+01    0.2585201    0.1977249  52.29  0.001639344    1.398    0.285
        66 -11.7837     30.5653    129.0029   1.1707820461e+02   4.5398001195e+01    0.2587149    0.2145858   3.81 0.0005256698    1.643    0.392
        67  99.0000      2.4634    202.4901   1.2951074862e+02   3.1617166846e+01    0.2753226     0.152944 -69.49  0.001814639    1.742    0.426
        68 -10.0228     20.3379    132.3148   1.2020454368e+02   4.5505975899e+01    0.1242741   0.07956607 -47.98 0.0007047417    1.697    0.411
        69  99.0000      7.0206    200.5818   1.2858273426e+02   3.1590831525e+01    0.3090389   0.09792382 -66.67  0.001543198    2.820    0.645
        70 -12.6219     45.3759    129.6814   1.1312942587e+02   4.3744584013e+01    0.5869821    0.2704106 -44.22  0.001512346    2.607    0.616
        71 -11.9805     52.4297    124.5273   1.1032468053e+02   4.4189847057e+01    0.2393432    0.2032053 -74.30 5.820589e-05    1.020    0.020
        72 -13.4686     50.3696    121.3391   1.1036902354e+02   4.5199079032e+01    0.5482283    0.3897997 -15.85   0.00285254    2.075    0.518
        73 -12.0779    222.2733    128.5825   6.9553115240e+01   1.0101744666e+01    0.3256336    0.1908513 -39.86 0.0007625443    1.623    0.384
        74 -12.2282    161.9465    201.3424   9.6877091084e+01   9.0359271846e+00    0.2475664    0.2155799 -24.34 0.0003362061    1.308    0.235
        75 -11.9001    161.9920    196.0105   9.5962292852e+01   9.9872368877e+00     0.323248    0.2319997 -54.09  0.001714938    1.622    0.384
        76 -10.9592      1.3587    193.9865   1.2927387239e+02   3.3430303842e+01    0.1749042   0.07720342 -74.97  0.001018729    1.869    0.465
        77 -11.2569     37.3329    119.9616   1.1389221821e+02   4.6916102760e+01    0.2965369     0.192794  73.52  0.001576112    1.767    0.434
        78 -11.1663     43.3330    119.5714   1.1210256592e+02   4.6399043876e+01    0.2586338    0.1425703 -62.38 0.0007397065    1.515    0.340
        79 -10.3256    189.4439    118.2678   7.3313411352e+01   1.9296502268e+01    0.2014031    0.1450021 -49.46 0.0002304091    1.450    0.310
        80 -11.6598    145.5593    116.1189   8.2707086059e+01   2.9854425735e+01    0.2851298    0.2497371  41.44 0.0003106822    1.156    0.135
        81 -10.5306    166.7793    115.5592   7.7515479420e+01   2.5112409186e+01    0.3126277    0.1927389 -18.52  0.001146974    2.428    0.588
        82 -11.3951     44.2597    114.1978   1.1091801390e+02   4.7593818513e+01    0.2452843    0.1960812 -81.85  0.000624746    1.177    0.150
        83 -10.2279      6.2403    113.2539   1.2180903610e+02   5.0978628098e+01    0.1111493   0.07146327 -55.37            0    1.407    0.289
        84 -10.3728    154.5826    108.0104   7.8350739193e+01   2.9517907950e+01    0.2461613    0.1540452 -41.02   0.00101733    1.588    0.370
        85 -12.3306    136.6628    105.2384   8.2053051536e+01   3.4198557640e+01     0.469308    0.3110175 -80.43  0.001436001    2.649    0.623
        86 -13.9462    118.0441    106.5296   8.7390289058e+01   3.7899467887e+01    0.7233474    0.3137467  40.19  0.002581292    2.448    0.591
        87 -13.1314    113.0361    101.6673   8.7479694488e+01   4.0005636608e+01    0.4961193    0.2885107  60.37  0.001909475    2.358    0.576
        88 -13.8822    126.1330    104.5454   8.4643600835e+01   3.6649690602e+01    0.7301681    0.4381625  61.55  0.002842637    2.196    0.545
        89 -11.4631    129.0118    101.0224   8.2896818309e+01   3.6798586769e+01    0.3128275     0.231333 -35.72 0.0004951527    1.384    0.277
        90 -12.2076    208.3967    193.7694   8.6198683929e+01   1.8138738739e+00    0.2376005    0.2110486  57.60 0.0007752718    1.432    0.302
        91 -11.8382      1.6197    105.3622   1.2220069083e+02   5.3071331458e+01    0.2181593    0.1185787 -68.51  0.000696998    1.373    0.272
        92 -13.6064    105.4931     99.7109   8.9115974569e+01   4.1926999611e+01    0.6110615    0.2945927  42.46  0.002378797    2.165    0.538
        93 -12.0476    166.4550    190.8414   9.4115763708e+01   1.0095575713e+01    0.4420902    0.2847314  27.98  0.002135465    1.665    0.399
        94 -14.8809    168.2304    243.0204   1.0192290040e+02   1.2686955738e+00    0.9971093    0.7750151 -44.63  0.006661698    1.617    0.381
        95 -12.4807    201.9685    190.3353   8.6792225450e+01   3.5296171110e+00    0.3007267    0.2148424  15.20  0.001180338    1.487    0.328
        96 -10.4146     80.5778     94.7623   9.5370555899e+01   4.7437207726e+01     0.193024     0.132859 -62.19 0.0003042673    1.499    0.333
        97 -10.3623     19.4191     95.2432   1.1534341895e+02   5.4295707897e+01    0.1706408    0.1017817 -79.20 0.0005907815    1.583    0.368
        98 -12.3805    103.1685     93.2636   8.8005206847e+01   4.3814714169e+01    0.3126943    0.2691656  30.76 0.0004472026    1.233    0.189
        99 -12.7011    110.1627     90.3379   8.5099224907e+01   4.3081249371e+01    0.3601416    0.2839083  27.88   0.00173052    1.393    0.282
       100 -12.7144    110.8048     85.9499   8.3607799644e+01   4.3891370272e+01    0.2841012    0.2668357  77.42 0.0005170676    1.184    0.156
       101 -10.6884     15.5803     88.7048   1.1549063181e+02   5.6073882266e+01    0.2427148   0.08988872 -63.60  0.001123249    2.002    0.501
       102 -12.8233     89.5027     86.1324   9.0151104291e+01   4.7894314298e+01    0.3957925    0.2673688 -38.67 0.0008097757    1.437    0.304
       103 -11.6553     29.2654     87.3313   1.1063902256e+02   5.5366524615e+01    0.3103251    0.1456632 -58.23 0.0008881742    1.666    0.400
       104 -11.7015     72.3095     87.5880   9.6127442073e+01   5.0344054459e+01    0.2523226    0.1351458  39.76 0.0008914467    2.052    0.513
       105 -10.2112     53.0187     85.0365   1.0196961324e+02   5.3498097201e+01    0.1512043    0.1409456 -37.77            0    1.093    0.085
       106 -10.7560     43.1027     82.7321   1.0484568334e+02   5.5127571768e+01     0.234801    0.1705925 -16.02  0.001311292    1.653    0.395
       107 -12.4008    127.3480     80.1595   7.7174130190e+01   4.1523164168e+01     0.308454    0.2407718 -75.23  0.001406681    1.690    0.408
       108 -12.4684     80.9619     79.4960   9.0957949548e+01   5.0791036443e+01    0.2264306    0.1899605 -42.92  0.001099756    1.096    0.088
       109 -10.9484      4.8718    191.5052   1.2847914927e+02   3.3636201216e+01    0.1554874   0.09365465  44.49  0.001040354    1.634    0.388
       110 -11.9189    184.1111    188.2960   8.9980738634e+01   7.2085364178e+00    0.3266336    0.2876162 -25.11  0.001084351    1.201    0.167
       111 -12.6795     56.4455     73.9974   9.7815023562e+01   5.5550910852e+01     0.288584    0.2176856 -47.47 0.0006238142    1.153    0.133
       112 -11.6980     65.9520     75.0000   9.4732558096e+01   5.4059573123e+01    0.2131818   0.07994982  34.12 0.0008043383    2.956    0.662
       113 -13.0434     77.0482     71.3937   8.9782870251e+01   5.3153371260e+01    0.2970498    0.2524526  38.30 0.0008263871    1.293    0.227
       114 -10.4304     36.7891     71.8900   1.0444017427e+02   5.8192660123e+01    0.1594781    0.1442945 -82.29 0.0007924029    1.283    0.221
       115 -12.3680     43.1194     70.6334   1.0175309146e+02   5.7832741670e+01    0.3124995     0.233439  48.93  0.001613578    1.711    0.416
       116 -12.6653     82.9677     68.7868   8.6935276314e+01   5.2710561077e+01    0.2547814    0.1962588 -41.41 0.0003857019    1.210    0.173
       117 -13.0317    152.1774     65.0785   6.6227290316e+01   3.8387843175e+01    0.4609734    0.2718028 -34.54  0.001817552    1.715    0.417
       118  99.0000    147.4110    223.9857   1.0329473809e+02   7.6791517084e+00    0.3700954    0.2983993 -73.36  0.002296343    1.552    0.356
       119 -11.9607    131.9723    246.2202   1.0907048766e+02   6.6022134554e+00    0.2649029    0.1566536 -76.73  0.001407114    2.679    0.627
       120 -10.8900    133.7361    240.3791   1.0805846073e+02   7.2459189342e+00    0.4165914    0.2185908  40.13  0.002033934    1.570    0.363
       121 -10.4692    144.8832    211.4520   1.0199513535e+02   1.0285186387e+01    0.1835078    0.1688733 -49.77  0.001166649    1.261    0.207
       122 -13.4669     98.8931     62.2288   7.9536705210e+01   5.1056511505e+01    0.3981699    0.3644064  27.63  0.001473955    1.108    0.097
       123 -13.3766    239.2918     24.9183   4.1698450256e+01   2.2307705295e+01    0.3859723    0.2856137 -38.16 0.0002781527    1.300    0.231
       124 -13.7279     79.9195     61.0811   8.5383697830e+01   5.4768095884e+01    0.4148659    0.3352034  45.49  0.001450155    1.406    0.289
       125 -12.4241     43.8685     60.3195   9.8490350590e+01   5.9959143549e+01    0.1864471     0.165709  49.08 0.0007315443    1.438    0.304
       126 -10.1535      9.9870     59.9989   1.1185709894e+02   6.2820776257e+01    0.1450029    0.1100068 -52.85 0.0003178636    1.009    0.009
       127 -10.6533    145.1370    169.9019   9.4904780841e+01   1.8309491021e+01    0.2058373    0.1893688  78.84 0.0003953884    1.138    0.121
       128 -12.6466     92.5576     53.8964   7.8586514070e+01   5.3823735169e+01    0.3120042     0.235058  28.78 0.0008124684    1.359    0.264
       129 -12.1456    159.9229    241.4812   1.0326812921e+02   2.8401995009e+00    0.1823395    0.1789842  14.61 0.0002929434    1.239    0.193
       130 -13.6931     56.5917     45.6903   8.8467377743e+01   6.1276656630e+01    0.4810908    0.2837078  26.27  0.001839688    1.851    0.460
       131 -10.9233      2.4894    173.8065   1.2789055880e+02   3.7568247109e+01    0.1385974   0.09824597  50.84 0.0005098364    1.422    0.297
       132 -11.3719     38.4887     45.4970   9.5835076216e+01   6.3520987458e+01    0.1278584    0.1039636 -31.08 -2.227572e-05    1.003    0.003
       133 -12.6251    125.8982     40.3226   6.4019304906e+01   4.8763583164e+01    0.5736591    0.3127392  46.48  0.001851827    1.742    0.426
       134 -11.1531    104.8819     42.1239   7.0357257066e+01   5.3271699167e+01    0.2072383    0.1997033 -70.67 0.0004667173    1.247    0.198
       135 -12.5355     64.4791     41.7712   8.3880702198e+01   6.0830500434e+01    0.2324307    0.1812562  27.67 0.0006696049    1.323    0.244
       136 -11.1624     23.7946     42.6117   1.0123751039e+02   6.5465285929e+01    0.1437495    0.1101815  29.19 0.0003153884    1.602    0.376
       137 -11.1641    217.9656     37.4660   4.7046975045e+01   2.5780617235e+01    0.2835189    0.1708198 -50.50   0.00105968    1.590    0.371
       138 -12.9763     76.8082     37.8676   7.7750898213e+01   5.9449027706e+01    0.6413407    0.1671693  41.88   0.00212496    3.894    0.743
       139 -12.3663     40.3037     36.5314   9.1742617869e+01   6.4996267216e+01    0.2526082    0.1994601 -24.50  0.001080601    1.035    0.033
       140 -10.8676    174.6584     33.1101   5.1813798819e+01   3.7379877476e+01    0.1914178      0.18254 -26.21 0.0004021967    1.130    0.115
       141  -9.9550    133.3085     24.2740   5.6468925330e+01   4.9049489164e+01    0.1468805     0.099431  33.10 0.0001993373    1.549    0.354
       142 -10.3233    204.4992     65.5771   5.6431057465e+01   2.5034598117e+01    0.1479676    0.1406133 -69.18  0.000147752    1.013    0.013
       143 -11.5471    216.8982     19.1890   4.2473623047e+01   2.8309553228e+01    0.2180161    0.1619974 -68.93 0.0005629668    1.264    0.209
       144  -9.9815    144.5413     16.4995   5.1515529457e+01   4.7087274402e+01    0.1414745    0.1278414  51.84 0.0001397675    1.024    0.024
       145 -10.0957     34.4314     14.5068   8.4850917417e+01   6.9299676754e+01    0.1198553   0.09426665 -14.40  6.17534e-05    1.039    0.038
       146  -9.8839    146.3506     12.2360   4.9730884884e+01   4.7058139273e+01    0.1458326   0.09077848  43.56  0.000268867    1.568    0.362
       147 -13.6341    155.5103    240.1599   1.0392306231e+02   3.7562479155e+00    0.3980137    0.2884176  57.08  0.001740427    1.421    0.296
       148 -11.1611    139.5094    210.6154   1.0297515026e+02   1.1374022448e+01    0.1985683    0.1361108  25.95  0.001037255    1.674    0.403
       149 -14.0971    147.9085    232.6935   1.0438471916e+02   6.1683937310e+00    0.5688981    0.4566809  42.25  0.003703597    1.026    0.025
       150 -12.2848    136.2428    231.4019   1.0647163045e+02   8.3052279870e+00    0.3485696    0.2023277  58.52   0.00182971    1.838    0.456
       151  99.0000    126.7647    239.2577   1.0924220391e+02   8.5386511898e+00    0.4545673    0.2963019 -74.47  0.002664331    2.025    0.506
