#   1 NUMBER                 Running object number                                     
#   2 MAG_AUTO               Kron-like elliptical aperture magnitude                    [mag]
#   3 X_IMAGE                Object position along x                                    [pixel]
#   4 Y_IMAGE                Object position along y                                    [pixel]
#   5 X_WORLD                Barycenter position along world x axis                     [deg]
#   6 Y_WORLD                Barycenter position along world y axis                     [deg]
#   7 A_WORLD                Profile RMS along major axis (world units)                 [deg]
#   8 B_WORLD                Profile RMS along minor axis (world units)                 [deg]
#   9 THETA_WORLD            Position angle (CCW/world-x)                               [deg]
#  10 FWHM_WORLD             FWHM assuming a gaussian core                              [deg]
#  11 ELONGATION             A_IMAGE/B_IMAGE                                           
#  12 ELLIPTICITY            1 - B_IMAGE/A_IMAGE                                       
         1 -13.5941    218.7045     47.8891   3.5392097278e+02   2.7157497864e+01    0.8033152    0.7159197  20.11  0.001343566    1.670    0.401
         2 -12.8203    246.6952     26.0443   3.4756937430e+02   2.4928711288e+01    0.7856944     0.429083 -40.67  0.005272008    1.353    0.261
         3  -9.8028    227.3205      9.5391   3.4521078728e+02   3.0012584961e+01    0.2088558    0.1491041 -54.22 0.0006928947    1.021    0.021
         4 -10.3921      2.2414      2.5065   3.7469055002e+01   7.9222258086e+01    0.2883587    0.1561584 -46.47  0.001569704    1.923    0.480
         5 -10.0995     20.9911      4.5021   2.2533673068e+01   7.6201817241e+01    0.2175644    0.1325678 -22.73  0.001180068    1.817    0.450
         6  -9.7513    210.7876    198.8526   2.5000025928e+01   5.2390436156e+00    0.2082791    0.1507671  -9.31 0.0004935443    1.192    0.161
         7  -9.2208    101.0148    250.4256   5.4031690186e+01   9.2382154731e+00    0.1658956    0.1241777  21.43   0.00107902    1.097    0.089
         8  -9.2015     74.5776    250.4985   5.9888313297e+01   1.2039799216e+01     0.193608    0.1564138  17.28 0.0006899575    1.136    0.120
         9  -9.8003     75.3325    247.3048   5.9453380471e+01   1.2545446989e+01    0.3732053    0.1222705 -53.90  0.001641754    3.360    0.702
        10  -9.8052     52.1111    250.3705   6.4919716930e+01   1.4347862014e+01    0.3368254    0.1190409  29.64  0.001578444    2.126    0.530
        11 -16.3619     29.3620    171.6058   6.4854151291e+01   3.4448909610e+01     11.10097     5.680345  69.94   0.04643787    2.219    0.549
        12 -10.1408    191.5891    192.5988   2.7268312579e+01   8.4668211043e+00     0.517899    0.2920458 -64.42  0.001706537    6.768    0.852
        13  -9.0317    234.4666    191.0656   2.0030356624e+01   3.8126566146e+00    0.1646465   0.08619821 -35.86 0.0004370348    1.517    0.341
        14 -13.3516     18.9703    234.4526   7.1633544024e+01   2.0595236134e+01    0.3767462    0.2827893  88.36 0.0005755008    1.401    0.286
        15 -14.9999      9.9377    206.4043   7.2582413650e+01   2.7520890299e+01     1.046035    0.6617672  -1.32  0.003153053    2.053    0.513
        16 -10.7930     64.7438    185.0175   5.5858418867e+01   2.7143677369e+01    0.4225355    0.2556404  83.48  0.001132338    2.165    0.538
        17 -14.8386      5.4730    228.4861   7.4550113464e+01   2.2968785109e+01    0.6721802     0.531714  77.56  0.002659647    1.231    0.187
        18  -9.0775    125.1627    238.8286   4.7509699326e+01   8.5648044735e+00     0.165204    0.1240837 -11.49 0.0002921344    1.335    0.251
        19  -9.6850     94.9954    182.9004   4.7239695124e+01   2.3665592587e+01    0.4195999    0.2454235  33.52 0.0009350035    1.605    0.377
        20  -9.0379     83.7079    181.7038   5.0126121994e+01   2.5497339959e+01    0.2596813    0.1663564  85.56 0.0009558889    2.234    0.552
        21 -11.1819    178.9768    165.6182   2.4769503650e+01   1.4813294121e+01     0.520984    0.4537078 -82.27  0.003148379    1.686    0.407
        22 -10.8605    171.6265    173.7690   2.7713481336e+01   1.4386468621e+01    0.3914701    0.3409844 -15.85  0.001773959    1.016    0.016
        23 -10.8611    176.4826    169.9947   2.6068083001e+01   1.4380056911e+01     0.313626     0.215995 -38.98  0.001767122    1.308    0.235
        24 -10.4584    172.7708    169.5813   2.6712264253e+01   1.4992146995e+01     0.265518    0.2314132  65.66  0.001160468    1.622    0.383
        25 -10.6352     60.0236    173.7076   5.5825320833e+01   3.0542357912e+01    0.3200129    0.2393997  61.03 0.0004607915    1.389    0.280
        26  -9.2492     80.1939    174.2222   5.0028081343e+01   2.7784253468e+01    0.3003002    0.1862199  86.95  0.001082843    2.331    0.571
        27 -11.1898     88.4664    169.5555   4.6965900665e+01   2.7761012842e+01    0.5523724    0.3934739  31.17   0.00136022    1.362    0.266
        28 -10.9251     99.2184    169.4171   4.3958149608e+01   2.6215471559e+01    0.3497988    0.2232457  42.59  0.001364653    1.577    0.366
        29 -10.3171    110.4875    166.9746   4.0514378997e+01   2.5074143397e+01    0.2786749    0.2566954 -64.05  0.000428531    1.155    0.134
        30 -10.2087     50.7085    119.0505   5.0386517637e+01   4.6348218120e+01    0.5809104    0.2267261  27.54  0.001927104    2.631    0.620
        31 -11.5831     52.2985    113.8038   4.8724712503e+01   4.7556845381e+01      0.86287    0.2758799 -60.60   0.00277096    2.874    0.652
        32 -12.4291     58.0824    129.4572   4.9656770977e+01   4.2520347883e+01     1.191254    0.8737566  67.09   0.00219956    1.549    0.355
        33 -11.5056     76.0450    150.0034   4.7385261920e+01   3.4491344487e+01     0.625405    0.3645656 -58.16 0.0004294026    1.686    0.407
        34 -14.0874     65.7522    144.5107   4.9724013411e+01   3.7410916293e+01     1.915776     1.437115  67.42  0.002454681    1.494    0.331
        35 -12.0905     61.6625    160.7329   5.3575761390e+01   3.3681561697e+01    0.5915104    0.5196143  87.22  0.002275878    1.158    0.136
        36 -11.4383     66.8629    156.8509   5.1376428731e+01   3.4007241360e+01    0.4105723    0.3915374  43.13  0.002288984    1.037    0.035
        37  -9.5745    141.9284    163.7018   3.2150804911e+01   2.0846961988e+01    0.2592075    0.1952807 -55.34 0.0007155763    1.421    0.296
        38 -10.5196    236.1389    159.7159   1.4412263116e+01   8.1602309117e+00    0.1556651    0.1448965 -46.56 0.0007243799    1.445    0.308
        39 -12.2253     44.5343    157.2744   5.8549544952e+01   3.6676074444e+01    0.3497972    0.2576173  64.92 0.0006715493    1.400    0.286
        40 -16.7877      5.9391    216.3775   7.4001967400e+01   2.5567259369e+01      3.44313     1.970049  51.98    0.0152224    1.457    0.314
        41  -9.6652     72.0997    232.8473   5.8940901921e+01   1.5664279088e+01    0.2632796    0.1743286  34.33  0.001348423    1.272    0.214
        42 -11.8918    126.5849    229.3148   4.6022791604e+01   1.0064653258e+01    0.4402753    0.3827978   5.90  0.002777343    1.038    0.037
        43 -10.2600    134.0093    147.7531   3.0834856506e+01   2.5558919630e+01    0.6111071    0.2009907 -51.94  0.002003667    3.163    0.684
        44 -10.2819    133.0000    142.0269   2.9871493828e+01   2.6986967507e+01    0.6645073    0.1765519 -53.39   0.00178243    4.680    0.786
        45 -11.3696     83.8967    144.3746   4.3926234134e+01   3.4747801794e+01    0.6929673    0.4723223 -28.07  0.003031172    1.848    0.459
        46 -10.5257     41.1869    146.7004   5.8296989485e+01   3.9916122754e+01    0.2780246    0.2556252  47.70 0.0005419873    1.078    0.072
        47 -10.6166    108.8640    145.2584   3.6809954925e+01   3.0434956623e+01    0.2865475    0.2794446  64.04 0.0006349485    1.069    0.065
        48  -9.8735    100.8796    143.7212   3.8741512743e+01   3.2152418224e+01    0.2527297    0.2130142 -62.93 0.0003745059    1.214    0.176
        49 -10.9718     48.3948    141.0124   5.5008267425e+01   4.0632325980e+01    0.5425963    0.3036806  42.21 0.0008265207    1.767    0.434
        50  -9.3934     41.9805    139.5073   5.7025122531e+01   4.1800446941e+01    0.2615088    0.2204268  57.13 0.0006141705    1.182    0.154
        51 -10.1743     36.8318    142.4170   5.9233397890e+01   4.1566051643e+01    0.3012941    0.2219011 -77.13 0.0008399786    1.318    0.241
        52 -10.5436    125.2862    134.1993   3.0077621619e+01   3.0106793579e+01    0.6236904    0.3422626 -69.35  0.001711841    3.219    0.689
        53 -10.4747    122.4609    129.7471   2.9796593629e+01   3.1630888877e+01    0.3047116    0.2509359 -75.41 0.0007344905    1.408    0.290
        54  -8.4452    194.5798    227.5023   3.2246928339e+01   2.7459327017e+00    0.1139793   0.08774114  -9.17  0.000111401    1.020    0.019
        55 -11.3084    102.5482    131.8500   3.5743166538e+01   3.4755155710e+01    0.9690881    0.5229198  17.70  0.002366584    3.145    0.682
        56  -9.1954     32.3189    133.3374   5.9635720807e+01   4.4550410102e+01    0.3148368    0.1717486  58.39  0.001276229    2.083    0.520
        57  -8.7200    223.7490    132.6044   1.1055666760e+01   1.3910075686e+01    0.2853698    0.1181079 -47.89  0.001002398    2.372    0.578
        58  -8.9310    221.5177    127.5741   1.0372489441e+01   1.5019982462e+01    0.2597313    0.1189996 -52.12  0.001184175    2.567    0.610
        59 -11.5862     86.1951    131.7948   4.0683698679e+01   3.7586599027e+01    0.2981101    0.2824772 -35.19 0.0004066637    1.082    0.076
        60  -9.8058     43.5493    131.2106   5.5202262008e+01   4.3906188227e+01    0.3655879    0.1325672 -63.89  0.001265824    2.508    0.601
        61 -10.0222     33.6884    127.5952   5.8311984026e+01   4.6007548357e+01    0.3554989    0.2291033  60.66 0.0004232585    1.703    0.413
        62  -9.4664    109.4244    126.0764   3.2467928814e+01   3.4893135652e+01    0.2734947     0.215345  15.43 0.0007244382    1.516    0.340
        63  -8.7403     98.8827    125.7955   3.5457997033e+01   3.6883084095e+01    0.2078702     0.178173  81.39 0.0003989591    1.328    0.247
        64 -10.6691     11.8957    125.0339   6.6339360215e+01   4.8639400395e+01    0.3165336    0.2049672  27.33 0.0007757719    1.595    0.373
        65  -9.9053    218.9932    121.8017   9.5626702197e+00   1.6305036334e+01    0.2468172    0.1413397 -45.51 0.0003740965    1.487    0.328
        66  -9.0584    115.0304    121.5152   2.9839724415e+01   3.4906784125e+01    0.2321034    0.1512236  40.86  0.001031587    1.587    0.370
        67  -9.9087     96.4167    120.9845   3.5081592249e+01   3.8504682961e+01    0.2753102    0.2225364  20.35 0.0006046128    1.396    0.284
        68 -11.0277    164.3390    224.1743   3.7424197078e+01   6.5435025136e+00    0.3583208    0.1769232 -44.93  0.001903982    2.068    0.516
        69  -8.1400     76.3143    120.6704   4.1495691276e+01   4.2082425971e+01    0.1619228    0.1195684  72.43 0.0007044683    1.676    0.403
        70  -9.2282    222.1681    224.2226   2.7131834323e+01   4.7594607168e-01    0.1312872    0.1079621 -16.89 0.0003257185    1.293    0.227
        71 -10.5318    243.9009    115.1234   5.1914098141e+00   1.3721319426e+01    0.2491251    0.1077784 -52.01  0.001194501    2.640    0.621
        72 -10.0853    174.5844    223.1846   3.5287433180e+01   5.5444557092e+00     0.275521    0.1425563   7.67  0.001178709    2.317    0.568
        73  -8.4692     32.6121    109.7351   5.5845782195e+01   5.1082806083e+01    0.1568518    0.1074699 -28.70 0.0006981585    1.700    0.412
        74  -9.3019    106.2234    116.0399   3.0971729876e+01   3.7860278676e+01    0.2202409      0.19942 -28.56 0.0003430125    1.164    0.141
        75 -10.9594     37.2961    104.7535   5.2940390226e+01   5.1928210354e+01    0.3252364    0.2798814   8.72  0.001653584    1.261    0.207
        76  -8.9707     69.1122    101.8702   3.9546781183e+01   4.8113287651e+01    0.2357905    0.2043569  82.04 0.0005119733    1.273    0.214
        77 -10.9562     30.1846     99.9997   5.5078318963e+01   5.4013729655e+01    0.4736703    0.2452948  42.16 0.0007717474    2.031    0.508
        78 -10.5211    243.1073     93.8855   1.1771528343e+00   1.6868203211e+01      0.18308    0.1282788 -51.51  0.001244161    1.249    0.199
        79 -10.5024     45.9792     91.3855   4.6186691435e+01   5.4391895339e+01     0.339758    0.2605973  46.25  0.001220627    1.372    0.271
        80 -14.1743     54.3603    229.0231   6.2869707985e+01   1.8339972698e+01     2.166225    0.8545015 -60.74  0.009895731    2.714    0.632
        81  -9.3824    239.6768     83.3116   3.5942646781e+02   1.8864248576e+01    0.1192757   0.07025871 -57.04  0.000251095    1.655    0.396
        82 -10.1633     28.5700     79.6921   5.1382776767e+01   5.9602938112e+01    0.6182449    0.2064977  43.01  0.001998626    3.531    0.717
        83  -9.3574     38.8909     76.4210   4.5420125765e+01   5.9178439583e+01     0.417391    0.1932881  48.85 0.0009193072    2.763    0.638
        84  -9.1588    101.8675     77.0403   2.1269757103e+01   4.7413341142e+01    0.2277073     0.192473 -82.96 0.0005227281    1.313    0.238
        85 -12.2301    195.9687     62.9037   3.5956168849e+02   2.9404139517e+01    0.6539544    0.5270332 -22.83 0.0007515303    1.458    0.314
        86 -13.0102    208.3134     55.4297   3.5652904355e+02   2.8083517045e+01    0.8754525    0.6887614 -52.78  0.003345151    1.005    0.005
        87  -9.5078    102.9542    238.8998   5.2409182047e+01   1.1064387868e+01      0.18691    0.1773203 -28.60 0.0006157744    1.210    0.173
        88  -9.4846     23.4788     68.4965   5.1130072542e+01   6.3002813987e+01    0.2406156    0.1183041  35.73 0.0007632945    2.089    0.521
        89 -10.1226     72.1720    224.3898   5.8137396547e+01   1.7372277786e+01    0.2204005     0.201444  21.54 0.0003554955    1.073    0.068
        90 -10.3232     23.0884     47.7572   4.4697459629e+01   6.7982947763e+01     0.328442    0.1916185  40.45  0.001041456    1.862    0.463
        91  -9.2691    125.0000    244.4320   4.8206592382e+01   7.6343985366e+00    0.2221908   0.06809478 -54.71 0.0009177509    3.799    0.737
        92 -10.1999      2.2467     22.8420   4.9710344138e+01   7.5429918315e+01     0.260065    0.1475474 -62.02 0.0009066064    1.880    0.468
        93  -9.5799     60.5894     21.0693   1.2453196529e+01   6.6178857608e+01    0.2401882    0.1826173  72.76   0.00069837    1.479    0.324
        94  -8.9651    189.4599     15.0005   3.4857180712e+02   3.6757016998e+01    0.1749645    0.1024794 -35.71 0.0005703502    1.553    0.356
        95  -8.6232    132.3876    211.4950   4.2317708360e+01   1.2626623449e+01    0.1273831     0.112503  -0.78 0.0007996358    1.026    0.026
        96 -15.2796     14.1323    241.7870   7.3044265013e+01   1.9515643886e+01     1.266691      1.01923   5.12  0.006925329    1.464    0.317
