#   1 NUMBER                 Running object number                                     
#   2 MAG_AUTO               Kron-like elliptical aperture magnitude                    [mag]
#   3 X_IMAGE                Object position along x                                    [pixel]
#   4 Y_IMAGE                Object position along y                                    [pixel]
#   5 X_WORLD                Barycenter position along world x axis                     [deg]
#   6 Y_WORLD                Barycenter position along world y axis                     [deg]
#   7 A_WORLD                Profile RMS along major axis (world units)                 [deg]
#   8 B_WORLD                Profile RMS along minor axis (world units)                 [deg]
#   9 THETA_WORLD            Position angle (CCW/world-x)                               [deg]
#  10 FWHM_WORLD             FWHM assuming a gaussian core                              [deg]
#  11 ELONGATION             A_IMAGE/B_IMAGE                                           
#  12 ELLIPTICITY            1 - B_IMAGE/A_IMAGE                                       
         1 -14.2792    174.6352     55.1368   5.4861815845e+01   3.4563788542e+01     1.772084     1.017365  28.29  0.005315905    2.673    0.626
         2 -14.3477    189.9225     41.6544   4.8445940693e+01   3.2657279397e+01    0.9973756    0.9398394  36.26  0.003572381    1.166    0.143
         3 -14.5397    214.6411     10.2680   3.7273234368e+01   3.0378764807e+01    0.9180576    0.8489396 -59.65  0.003770619    1.135    0.119
         4 -12.2536    246.3754      2.3804   3.3004053566e+01   2.4120782865e+01    0.6195297    0.1990696  78.39  0.002626775    3.162    0.684
         5  -9.7611    167.6408    229.2513   9.6835509692e+01   3.2637968013e+00    0.1532125    0.1178373 -27.73 0.0003672853    1.491    0.330
         6 -12.8345    249.2852    248.9219   8.4782874030e+01  -1.1428955765e+01     0.487076    0.2611822  35.20  0.002987532    1.751    0.429
         7 -11.3323     56.6312    201.2740   1.1652322412e+02   2.5541355257e+01    0.3083657    0.2002474 -42.47   0.00167151    2.224    0.550
         8 -11.8811    192.8420    194.7214   8.5822561575e+01   4.7214708222e+00    0.9007064    0.4669913 -62.04  0.002550392    6.745    0.852
         9 -12.0050     62.0455    246.7447   1.1934888779e+02   1.5920892836e+01    0.2233511    0.1438346 -75.81 0.0008443019    1.621    0.383
        10 -18.9731     16.2634    100.2309   1.1455152118e+02   5.3278720771e+01     14.78236     1.013693 -68.49   0.02763933   12.189    0.918
        11 -10.8360     82.0109    194.7115   1.1025596247e+02   2.3578726919e+01    0.2436447    0.1956739  75.27 0.0007768158    1.168    0.144
        12 -11.9208    151.8576    193.3612   9.4305498056e+01   1.2345905549e+01    0.3351633    0.2076919 -60.22  0.001525046    2.046    0.511
        13 -12.8878    149.1428    187.5186   9.3870968725e+01   1.3994018859e+01    0.4151522    0.3471569 -72.37  0.001811922    1.443    0.307
        14 -10.0904      8.1626    192.8225   1.2580234438e+02   3.2431793444e+01    0.2885694   0.09223579  30.87  0.001381331    3.276    0.695
        15 -12.7601     60.0534    193.6662   1.1501105124e+02   2.6767631588e+01     0.366173     0.304317 -42.75  0.001310364    1.567    0.362
        16 -11.3772     96.7035    190.6810   1.0638641413e+02   2.2269750389e+01    0.2370354    0.1945918  81.75 0.0007388626    1.221    0.181
        17 -11.9050     94.5664    187.3806   1.0641203867e+02   2.3325499205e+01    0.4348855    0.2665478  34.76 0.0004078917    1.667    0.400
        18 -13.1019     98.8614    181.4891   1.0453673346e+02   2.3968082338e+01    0.5771859    0.3942613 -55.60  0.002308033    1.498    0.332
        19 -11.8417     75.4655    248.2163   1.1703290209e+02   1.3934050318e+01    0.3521135    0.1377034 -58.30  0.001791948    2.953    0.661
        20 -11.7718     62.7668    250.6739   1.1951111873e+02   1.5136340854e+01     0.176363   0.08958178  40.80 0.0005725439    1.674    0.403
        21 -12.5618    143.2582    178.1133   9.3486698198e+01   1.7006129528e+01    0.4316103    0.1910954 -46.37  0.001452915    2.365    0.577
        22 -11.5255    187.1722    175.8192   8.3269688283e+01   9.1409712119e+00    0.3499545    0.2936333 -40.12  0.001025582    1.261    0.207
        23 -11.6188    149.1044    176.6632   9.1861414625e+01   1.6217228155e+01    0.2523316    0.2063994 -70.55 0.0003876669    1.470    0.320
        24 -10.3861     49.3463    171.8125   1.1504195358e+02   3.3026194635e+01    0.3909695    0.2655694  51.35   0.00161249    1.437    0.304
        25  -9.8466    193.5747    170.8049   8.0885647370e+01   8.8516119110e+00    0.1935909    0.1365781 -48.12 0.0008916232    1.592    0.372
        26 -12.2130    138.7843    170.3077   9.3051008174e+01   1.9502889507e+01    0.3556465    0.2598291  41.43  0.001022495    1.321    0.243
        27 -10.4634     29.7864    170.3846   1.1946126577e+02   3.5436737710e+01    0.2602655     0.138481 -46.42 0.0009105863    2.395    0.582
        28 -11.2205    240.4907    169.4987   7.1606528059e+01   5.7652003419e-01    0.1365913    0.1148776  -9.45 -0.0001375141    1.010    0.010
        29 -10.4964    185.3353    169.0759   8.2255808938e+01   1.0761703584e+01     0.207765    0.1833987 -31.33 0.0008706528    1.145    0.126
        30 -11.4891     43.4135    209.7218   1.1999594254e+02   2.5328776054e+01    0.2903174    0.1227661  57.10  0.001285055    2.234    0.552
        31 -11.8194     91.0137    156.9671   1.0249002225e+02   3.0903627286e+01    0.2736021    0.2430378 -55.04 0.0003605492    1.137    0.121
        32 -11.9531    133.7770    145.3544   8.9105418863e+01   2.6017450556e+01     1.262652    0.2849405 -53.76  0.002662792    7.037    0.858
        33 -12.8224     96.7496    150.5576   9.9824405046e+01   3.1519018851e+01     0.609422    0.4706302 -27.06  0.003033079    1.618    0.382
        34 -10.8422    187.2146    151.5856   7.8018691135e+01   1.3764891072e+01    0.2128979    0.1388908  31.21 0.0006946969    1.625    0.385
        35  -9.8532     43.4802    205.7203   1.1965328495e+02   2.6157795341e+01    0.2861578    0.1729037 -56.83  0.001146459    1.880    0.468
        36 -10.5805    174.8799    149.1329   8.0151176681e+01   1.6795457329e+01    0.2286962    0.2149119 -85.64 0.0006561836    1.256    0.204
        37 -10.9567    108.8561    147.1060   9.5943128150e+01   3.0280949294e+01    0.2255531    0.1965758  82.58 0.0003036821    1.239    0.193
        38 -12.1464    108.1585    137.3664   9.4081358469e+01   3.2722535274e+01     0.525708    0.3500473 -48.20  0.002413268    1.462    0.316
        39 -11.9610    105.6374    131.0038   9.3367301407e+01   3.4693082734e+01    0.4689535    0.4060625 -21.34  0.002421869    1.293    0.226
        40 -12.4598     96.3967    136.6729   9.7167254522e+01   3.4926115892e+01    0.3305445    0.2695733 -64.83  0.001453703    1.203    0.168
        41 -11.8969     66.1126    204.5888   1.1484735694e+02   2.3628810433e+01    0.3050217    0.1628524 -58.56  0.001171974    1.959    0.490
        42 -11.2544    115.1593    128.5828   9.0176183373e+01   3.3514047709e+01    0.2969928    0.2436329 -27.96 0.0007057763    1.331    0.248
        43 -10.6918     93.2451    205.5922   1.0913336069e+02   1.9615378971e+01    0.2802567    0.2169176  18.97 0.0009911439    1.657    0.397
        44 -11.2595    102.8181    124.1272   9.2581549706e+01   3.6839106589e+01    0.3039693    0.2482865 -17.48  0.000903381    1.446    0.309
        45 -10.8098    120.0005    123.1933   8.7547379355e+01   3.3839497650e+01    0.2554677      0.18459   3.02   0.00107384    1.996    0.499
        46 -10.2343    110.3090    117.9915   8.8960433306e+01   3.6918132358e+01    0.2133498    0.1880999 -47.80  0.000317432    1.090    0.082
        47 -10.8055    231.2583    113.7974   6.0678548018e+01   1.1605540541e+01    0.2463755    0.2307458   6.82 0.0007284933    1.124    0.110
        48 -10.5388    167.6898    112.6603   7.2752811998e+01   2.5861398908e+01    0.3228084    0.2343404 -78.41  0.001326523    2.098    0.523
        49 -12.0031    118.6369    110.7245   8.4728329408e+01   3.6975807409e+01    0.5520759    0.3537009  63.01  0.002204149    2.196    0.545
        50 -10.4796    205.5174    110.2175   6.4295032108e+01   1.7741465132e+01    0.2649057    0.2149615  48.28 0.0006194162    1.310    0.237
        51  -9.6226    154.3105     82.6631   6.7369360455e+01   3.4913132716e+01    0.1605781    0.1241006 -72.84 0.0004180318    1.684    0.406
        52 -11.1094     71.8095    243.6812   1.1732915898e+02   1.5219337170e+01    0.2394132    0.1365546 -87.28 0.0007357856    1.961    0.490
        53 -11.7317     96.4102    202.2269   1.0801392108e+02   1.9841443829e+01    0.2552097    0.2316121  76.67 0.0008915044    1.056    0.053
        54 -13.5056    194.6854     35.6401   4.6100083137e+01   3.2262550782e+01    0.5528213     0.488044  71.68  0.001231196    1.099    0.090
        55 -12.2374    198.2023     23.3712   4.2332411185e+01   3.2881642791e+01    0.2715029    0.2066838  22.05 0.0009420316    1.752    0.429
        56 -17.5102     39.4890    233.4469   1.2247962540e+02   2.1064656253e+01     9.212622     8.285127  52.89   0.07226874    1.360    0.265
