#   1 NUMBER                 Running object number                                     
#   2 MAG_AUTO               Kron-like elliptical aperture magnitude                    [mag]
#   3 X_IMAGE                Object position along x                                    [pixel]
#   4 Y_IMAGE                Object position along y                                    [pixel]
#   5 X_WORLD                Barycenter position along world x axis                     [deg]
#   6 Y_WORLD                Barycenter position along world y axis                     [deg]
#   7 A_WORLD                Profile RMS along major axis (world units)                 [deg]
#   8 B_WORLD                Profile RMS along minor axis (world units)                 [deg]
#   9 THETA_WORLD            Position angle (CCW/world-x)                               [deg]
#  10 FWHM_WORLD             FWHM assuming a gaussian core                              [deg]
#  11 ELONGATION             A_IMAGE/B_IMAGE                                           
#  12 ELLIPTICITY            1 - B_IMAGE/A_IMAGE                                       
         1 -11.2255     47.0346     28.1536   6.6797598386e+01   6.6804188934e+01    0.4593444    0.4076363   6.62  0.001785433    1.109    0.098
         2 -11.2593    236.2669     29.2610   2.7994492147e+01   2.4372952259e+01    0.4706466    0.3649316 -19.72  0.002494647    1.567    0.362
         3 -12.2697     46.0147      9.2473   5.7431495964e+01   6.9554904975e+01    0.3060609    0.2305105  15.51 0.0003438397    1.159    0.137
         4 -11.5336     56.9359     15.5708   5.6020078480e+01   6.6791767884e+01     1.458696    0.6998155  20.81  0.005663733    3.251    0.692
         5 -11.2291      9.3073     17.1169   8.3457410760e+01   7.3383111994e+01    0.7633721    0.3670825 -33.84  0.003888536    1.813    0.448
         6 -11.7284     28.3884     18.3084   7.1786514538e+01   7.1084096338e+01    0.6423258    0.3703109  -6.48  0.003213543    2.100    0.524
         7 -11.1174     34.9403     27.6227   7.2759726867e+01   6.8700043669e+01    0.5170399    0.3034133 -27.06  0.001716015    1.663    0.399
         8 -10.9374     29.5851     27.2119   7.5548865407e+01   6.9473007109e+01    0.6837047    0.2898948 -42.12  0.003164354    2.217    0.549
         9 -11.5248     37.0075     18.0969   6.6825155303e+01   6.9888868534e+01    0.8603649    0.4059803  14.71  0.002678654    3.856    0.741
        10 -12.1470     23.7915     12.1088   7.1181889498e+01   7.2627292717e+01    0.3695045    0.2519344   4.06 0.0004155102    1.345    0.256
        11 -12.3626     16.1152     13.5077   7.6935855476e+01   7.3325997217e+01    0.2395715    0.1915191  -4.71 0.0002773222    1.054    0.051
        12 -10.7660     73.0134     25.5633   5.4663152567e+01   6.2352256321e+01    0.5405309    0.2984594  28.44  0.002385838    2.017    0.504
        13 -10.5707    222.1480     18.0417   2.6624758155e+01   2.8444836346e+01    0.4590246    0.1843563 -28.53  0.002184157    2.524    0.604
        14 -12.4281    122.2889     11.2897   3.6105787864e+01   5.2455792099e+01    0.8721625    0.5013838  20.63 0.0008828351    2.408    0.585
        15  -9.8646    116.9689      8.9339   3.6192016523e+01   5.3965555701e+01    0.2970693    0.2120347 -75.07 0.0008489721    1.665    0.399
        16 -12.2978    127.8656      4.9476   3.2960576999e+01   5.1621704169e+01    0.9095508    0.2969494  59.87  0.001041037    2.394    0.582
        17 -12.3917    111.8574     19.1279   4.1037263087e+01   5.4254017089e+01    0.5237796    0.3829445  18.82  0.002819454    1.574    0.365
        18 -10.8704    153.7848      3.0203   2.8973305694e+01   4.5426822425e+01    0.4999077    0.2739861  45.29  0.001947709    2.010    0.503
        19 -11.4014    150.6033     18.3590   3.4030516640e+01   4.4808444850e+01    0.3348321    0.2813127 -33.54 0.0005638978    1.287    0.223
        20 -11.8737    155.4408     13.6873   3.1965045266e+01   4.4080064002e+01    0.6827853    0.4883704 -46.56  0.001751757    1.430    0.301
        21 -11.5200    100.5664     16.1826   4.2432995075e+01   5.7254743775e+01    0.4810242     0.250882  46.59  0.001383808    1.705    0.414
        22 -10.6888     76.0647     13.5019   4.8013472999e+01   6.3106165910e+01    0.5272398     0.343958 -49.05  0.002700555    2.105    0.525
        23 -10.5914    188.8338      7.9357   2.6897498402e+01   3.6713222625e+01    0.4389587    0.3023473  78.72  0.002647098    1.325    0.246
        24 -12.4907    187.1033     13.6789   2.8512117008e+01   3.6555843581e+01    0.3129941    0.2486175 -83.70 0.0003568191    1.126    0.112
        25 -11.8065    182.5937     12.2634   2.8574020038e+01   3.7736467811e+01    0.3924268    0.3097618  16.14  0.001520215    1.734    0.423
        26 -10.3147    144.1858     12.3866   3.3057143287e+01   4.6960390717e+01    0.4266473    0.2735062 -39.37   0.00228769    1.638    0.389
        27 -11.2278    247.1067     12.7791   2.3884195046e+01   2.4081172736e+01    0.2067849    0.1639123 -60.29 0.0002910841    1.030    0.029
        28 -10.0972    102.7378      8.4673   3.8809004808e+01   5.7451236449e+01    0.4662617    0.2186802  64.05  0.002124191    1.893    0.472
        29 -11.0349     93.5269     11.0270   4.1991953987e+01   5.9402445842e+01    0.5429854    0.2717432  61.26  0.001821138    1.801    0.445
        30 -11.9422     89.4206      3.5937   3.9765831687e+01   6.0995276207e+01    0.5596297     0.348326  58.46   0.00295826    1.378    0.274
        31 -10.7312    105.7676      3.5351   3.6218351530e+01   5.7125577617e+01    0.6761258    0.4017629 -85.84  0.003199358    2.244    0.554
        32  -9.2272     99.1470      4.1800   3.7821342836e+01   5.8660910414e+01    0.1951896    0.1478564  41.59 0.0002802509    1.206    0.171
        33 -11.3785    209.8298      8.7195   2.5429917823e+01   3.1988037624e+01    0.5173267    0.4223152  -3.77  0.002522343    1.674    0.403
        34 -11.0764    216.8618      6.1475   2.4362536624e+01   3.0747111421e+01    0.3957856    0.2549065 -12.54   0.00167296    2.162    0.538
        35  -9.9740    212.4426     22.1379   2.8320539338e+01   3.0045696669e+01    0.4122702    0.2302798 -13.69   0.00201304    2.665    0.625
        36 -10.3482     34.4934      9.0772   6.3161584453e+01   7.1510636901e+01    0.2845691    0.2132328  -2.61 0.0009669339    1.182    0.154
        37 -10.6759      8.4352      8.4508   7.9541187256e+01   7.4921750654e+01    0.3452256    0.1881791 -33.16 0.0002328331    1.578    0.366
        38 -10.4602     13.9647      3.9235   7.2853696153e+01   7.5027674944e+01    0.4526716    0.2500883  -8.90  0.002419226    2.018    0.504
        39 -10.1798     18.0260      4.1756   7.0203862591e+01   7.4500041950e+01    0.4010151    0.2068223 -11.83  0.001955094    2.436    0.589
        40  -9.8499     10.2604      1.4490   7.3984131436e+01   7.5802070905e+01    0.2868598     0.163479  30.33  0.001708895    1.765    0.434
        41 -11.3020    167.7233      5.3854   2.8180410770e+01   4.1872517447e+01    0.4802288      0.41255 -34.97  0.002783879    1.277    0.217
        42  -9.0621    137.5827      8.0105   3.2571363138e+01   4.8975079537e+01    0.1871954    0.1258841 -28.97  0.001022191    1.633    0.388
        43 -10.1295     77.6781      6.5992   4.4252415382e+01   6.3413734364e+01    0.3023545    0.2327054  44.21  0.001014137    1.101    0.092
        44  -8.6944    238.5939      7.5255   2.3318023002e+01   2.6234111027e+01    0.1144799   0.08605922 -59.90 7.478148e-05    1.046    0.044
        45  -8.7158    179.0742      6.9870   2.7521240863e+01   3.9052382453e+01    0.1456269     0.127794 -72.68 0.0003574127    1.051    0.049
        46  -9.9967    204.2042      2.1017   2.4301110657e+01   3.3828698523e+01    0.4396332    0.2214864  46.98  0.002193571    2.710    0.631
        47  -9.8881    176.1986     12.2110   2.9191797369e+01   3.9237341419e+01    0.4366823    0.2249642 -75.93  0.001404825    2.250    0.556
        48 -10.0421    198.8822      3.5173   2.5014503543e+01   3.4866010937e+01    0.3362428    0.2521948   7.05  0.001167153    1.965    0.491
        49 -10.7526    195.4698      1.5277   2.4789085045e+01   3.5803537187e+01    0.5247729    0.1484809  73.42  0.002142444    3.113    0.679
        50 -11.2114      2.8047      4.3008   8.1465717794e+01   7.6095796313e+01    0.4908552    0.3174738 -61.53  0.002768762    2.607    0.616
        51  -8.6920    175.4741      5.4433   2.7445796774e+01   4.0034010033e+01    0.1243035    0.1085846  88.20 0.0001406968    1.048    0.046
        52  -9.3110     40.8800      5.1643   5.7543263415e+01   7.0924225190e+01    0.1697499    0.1455141  24.63 0.0002827852    1.169    0.145
        53  -9.2451     22.9951      4.3403   6.7061059669e+01   7.3821877007e+01    0.1862955    0.1348406  -5.38 0.0003124098    1.183    0.155
        54  -9.0921     25.7750      1.3219   6.3426239620e+01   7.3805912779e+01    0.2076271   0.09369078  37.19  0.001054761    2.020    0.505
        55  -9.2486    185.8963      4.1203   2.6181571160e+01   3.7734859590e+01    0.2240841    0.1469013  72.15  0.001038534    1.404    0.288
        56  -8.8989     33.0692      2.9965   6.0284945094e+01   7.2478924968e+01    0.2228074    0.1312805  36.90  0.001014905    1.519    0.342
        57  -9.3148    246.1869      1.6204   2.1736542516e+01   2.5366403155e+01    0.2043023    0.1291905  68.67  0.001217546    1.745    0.427
        58  -9.0106    242.0097      1.2032   2.1864579169e+01   2.6195461319e+01    0.1975063   0.07080038  75.44 0.0007491467    2.720    0.632
        59  -9.2583    120.1324      1.9985   3.3116528826e+01   5.3749508900e+01    0.2358245     0.164094  69.04 0.0007637466    1.251    0.201
        60  -9.2447      9.1973    179.7649   1.1344731205e+02   3.5082524247e+01    0.1569888    0.1336995 -57.18 0.0004222251    1.316    0.240
        61  -8.6282    157.8255    250.6481   8.6528374585e+01   2.6577492566e+00    0.1612361   0.09120043  35.11 0.0001728935    1.514    0.339
        62  -9.4230     84.0208    250.4611   1.0185896999e+02   1.2294742226e+01    0.1734802    0.1202951  35.41 0.0003240976    1.173    0.147
        63 -10.5177     15.1001    249.6936   1.1574144808e+02   1.9928860037e+01     0.361183    0.1609675  37.59  0.001072786    1.740    0.425
        64  -9.5506      2.1736    250.0571   1.1819234090e+02   2.1012419414e+01    0.1709992    0.1629902  47.58 0.0007298869    1.372    0.271
        65  -9.7558      4.5646    246.0848   1.1760841292e+02   2.1535311022e+01    0.2680087    0.1290129  38.52  0.001673858    1.639    0.390
        66  -8.9215     53.4845    183.4788   1.0234364408e+02   2.9928447184e+01    0.1322954    0.1226908  68.19 0.0001084595    1.017    0.017
        67 -10.7703    100.9991    175.9971   8.8624958947e+01   2.5184371433e+01     0.202591    0.1941643  29.06            0    1.009    0.009
        68  -9.5348    103.9090    173.8731   8.7496290335e+01   2.5214004512e+01    0.3856641    0.1778992  43.77   0.00152072    2.174    0.540
        69  -9.8344    138.4512    178.7644   7.9575024377e+01   1.8437740816e+01    0.2410857    0.2113184  15.24 0.0002426474    1.076    0.071
        70  -9.5474    170.8950    173.3091   7.1022850599e+01   1.3960357335e+01    0.1979976    0.1715324  11.45 0.0003672917    1.069    0.064
        71 -10.8195     36.5894    172.5219   1.0570079680e+02   3.4391689746e+01    0.2343668    0.2147013 -88.79 0.0003036302    1.051    0.048
        72  -8.4272     25.0017    173.7848   1.0893076665e+02   3.5187596045e+01    0.1540666    0.1016622  27.61 0.0003592623    1.587    0.370
        73 -10.2984     68.2931    171.4383   9.6831284680e+01   3.0980350189e+01    0.3778685    0.2497742  13.46 1.227389e-05    1.842    0.457
        74  -9.5210     87.8397    171.3856   9.1425167775e+01   2.8260240510e+01    0.2379642    0.1767447  23.42 0.0005540511    1.398    0.285
        75  -9.2428    118.4708    170.0097   8.2976523765e+01   2.3708796205e+01    0.2098933    0.1457826 -52.17 0.0003813491    1.505    0.336
        76 -10.9440     54.1185    168.5867   1.0040962179e+02   3.3441092806e+01    0.2667204    0.2220016 -59.91 0.0003631811    1.209    0.173
        77  -8.4301     20.3273    170.3011   1.0988229787e+02   3.6434869502e+01    0.1268366   0.09092429 -42.46 0.0007030868    1.641    0.390
        78  -9.8176    148.0039    167.6386   7.5125739000e+01   1.9089974785e+01    0.2257056    0.2042821 -54.34 0.0004332551    1.254    0.203
        79  -9.2275     39.8844    168.2783   1.0435038958e+02   3.5091698813e+01    0.2244856    0.1452986  48.07  0.001166404    1.504    0.335
        80  -9.7783     28.7335    163.6882   1.0698435715e+02   3.7309983789e+01    0.2208449    0.1220845  62.22   0.00104324    1.937    0.484
        81 -10.4448      3.6152    160.2250   1.1361586443e+02   4.0135788571e+01    0.2993475     0.203143 -28.54  0.001698553    1.922    0.480
        82 -10.6664     10.2841    163.3282   1.1203458064e+02   3.8918081890e+01    0.3248179    0.2163099  19.51  0.001857762    1.717    0.418
        83 -10.3216     22.2760    160.6713   1.0850611565e+02   3.8623607440e+01    0.2499707    0.1480468  88.20 0.0007942915    1.666    0.400
        84  -9.8235    113.6768    159.1389   8.2184605200e+01   2.6992229019e+01    0.2577705    0.2247287   4.30 0.0002064476    1.212    0.175
        85 -11.4156     10.6267    155.6999   1.1134918104e+02   4.0759244819e+01    0.3431734    0.1820146  48.69   0.00135808    1.865    0.464
        86  -9.0269      1.4051    153.7691   1.1377924770e+02   4.1847539105e+01    0.1730481   0.09873471 -68.54 0.0004011488    1.536    0.349
        87 -10.4306     80.6335    152.2390   9.0262581337e+01   3.3967414564e+01    0.2475096    0.2407573  29.57 0.0002434596    1.039    0.038
        88 -10.7618    125.5063    147.6254   7.6634476485e+01   2.7514050654e+01    0.3437512    0.2966616  88.74  0.001438443    1.451    0.311
        89 -11.0599     16.6706    150.0778   1.0912595315e+02   4.1708857477e+01    0.3558422    0.1886396  21.12  0.001204828    2.096    0.523
        90 -10.9691     11.4190    145.0574   1.1021292147e+02   4.3347809818e+01    0.3390577     0.235757  70.01 0.0002909168    1.416    0.294
        91  -8.8347     92.9131    146.6918   8.5600217330e+01   3.3424787529e+01    0.2003054    0.1816568  34.72 0.0002090902    1.097    0.089
        92  -9.9466     30.9724    147.0358   1.0453003351e+02   4.1275693035e+01     0.199128     0.182308 -83.09 0.0003198996    1.013    0.013
        93  -9.5773     36.7098    144.7519   1.0248566171e+02   4.1311037903e+01    0.2987698    0.2568198 -80.06  0.001748486    1.079    0.073
        94  -9.3959     18.0350    145.7265   1.0830001441e+02   4.2696718365e+01    0.1755429    0.1638454  85.43 0.0004542542    1.069    0.064
        95 -10.6472      2.2646    143.6991   1.1279977883e+02   4.4274283745e+01    0.3560732    0.2181574 -75.96  0.001041961    1.390    0.281
        96  -8.7734    120.1528    143.8280   7.7251677675e+01   2.9365179750e+01     0.203049    0.1745785  -7.16 0.0003027786    1.257    0.205
        97 -10.6995     21.2395    141.9356   1.0693012533e+02   4.3404556887e+01    0.5264068    0.2099777  50.70  0.001596224    2.859    0.650
        98  -9.3436     44.8068    141.4263   9.9493588861e+01   4.1324033562e+01    0.1803201    0.1366859   1.17 0.0005214414    1.597    0.374
        99 -11.0267     28.6167    139.4875   1.0434684890e+02   4.3409709778e+01    0.5180022    0.2876525 -73.43  0.001247529    1.657    0.396
       100  -9.7485     37.5847    138.0053   1.0130144791e+02   4.2950059496e+01    0.3721964    0.1890526 -60.70  0.001680205    1.755    0.430
       101  -9.3691     46.9951    136.4537   9.8040834420e+01   4.2358086688e+01    0.2219875     0.174758 -67.29 0.0004681393    1.192    0.161
       102  -8.3680     41.2986    136.2788   9.9857541338e+01   4.3016061552e+01    0.1395185    0.1001004 -36.15 0.0002762963    1.539    0.350
       103 -11.9227     15.2531    131.3686   1.0765750918e+02   4.6539207260e+01    0.6585284    0.4724995 -74.41  0.001520374    1.222    0.182
       104  -9.4918     11.7038    128.7242   1.0851841099e+02   4.7451878434e+01    0.1998051    0.1917369 -55.79  0.000393847    1.133    0.118
       105 -10.4708    145.3164    135.0000   6.8666613465e+01   2.6479422039e+01    0.2610874    0.2170168  35.31  0.000258055    1.204    0.169
       106 -11.2620    227.5174    133.3759   5.1853529837e+01   1.1198313724e+01    0.3068734    0.2557186 -14.07  0.001892686    1.124    0.111
       107  -9.5262      1.3171    131.8680   1.1212494234e+02   4.7277642275e+01    0.3550677   0.04071445 -66.81  0.001093797    4.284    0.767
       108  -9.2313     21.6782    129.6973   1.0536937610e+02   4.6490180888e+01    0.2269352    0.1972056  79.87  0.001014457    1.139    0.122
       109 -10.5303     24.2394    126.1166   1.0405712726e+02   4.7204647542e+01    0.5310799    0.2768454  86.78  0.002266955    2.332    0.571
       110 -11.9685    230.5931    124.0652   4.9387237664e+01   1.2160657333e+01    0.8605332    0.4934279 -54.34  0.004083267    2.247    0.555
       111 -11.3652    232.9332    117.1798   4.7560337024e+01   1.2840244173e+01    0.2919261    0.2558917  -7.90  0.000381636    1.174    0.148
       112  -8.2753    114.3123    129.7131   7.5669352380e+01   3.3711558068e+01    0.1520243    0.1236003  75.23 0.0003552111    1.580    0.367
       113 -11.0104     48.5683    126.5193   9.5874624397e+01   4.4731979778e+01    0.5687436    0.4261756  15.96  0.001960809    1.487    0.327
       114 -10.5944     45.7643    124.7685   9.6524891297e+01   4.5496855869e+01    0.3480129    0.2370621 -73.75  0.001714575    1.471    0.320
       115  -9.8719     32.1141    123.1860   1.0095746164e+02   4.7280990654e+01    0.4184735    0.2064653 -44.94  0.001820832    2.048    0.512
       116 -10.4666      2.3245    123.6979   1.1106736895e+02   4.9275866834e+01    0.3096283    0.2627041 -34.99  0.001977972    1.297    0.229
       117 -10.7388     93.8921    123.0773   8.0208790796e+01   3.9003734109e+01    0.2473239    0.2308305 -12.16  0.001308734    1.088    0.081
       118  -9.7192     12.6201    114.3513   1.0653129728e+02   5.1049794935e+01    0.6247919    0.1796041 -39.56  0.001951685    4.653    0.785
       119 -10.2501     11.3873    122.2574   1.0790854108e+02   4.9116015853e+01    0.3777101    0.2580852  24.31   0.00173564    1.640    0.390
       120 -11.5662      2.3902    111.8192   1.0983795576e+02   5.2265259461e+01    0.5843419    0.3667834 -42.30  0.001228084    1.583    0.368
       121 -11.2231      6.5609    117.2031   1.0898106197e+02   5.0686464758e+01    0.4860126    0.2827211  63.23   0.00152931    1.956    0.489
       122 -10.5059      1.9938    116.2606   1.1044379652e+02   5.1166163225e+01    0.2516491    0.1633314 -89.62 0.0003076929    1.446    0.308
       123  -9.1393     17.0113    122.0133   1.0597415488e+02   4.8802095756e+01    0.2139947    0.1363156 -40.89  0.000470348    1.626    0.385
       124  -9.5476     83.3495    119.0969   8.2648936359e+01   4.1755760316e+01    0.2856983    0.2192127  37.77 0.0006861776    1.329    0.248
       125 -10.3169     45.3580    109.0176   9.3718907054e+01   4.9567243187e+01    0.4023874    0.2650277  47.02  0.001768177    1.725    0.420
       126 -10.1849     45.9023    117.3518   9.5142245208e+01   4.7383439864e+01    0.3475841    0.2361577 -39.20  0.001618147    1.510    0.338
       127  -9.2876     44.1818    113.6326   9.5056155044e+01   4.8523770411e+01    0.2574123    0.1911883 -62.84 0.0004734402    1.252    0.201
       128  -9.4123     58.5151    118.2779   9.0885964760e+01   4.5622753155e+01    0.3526459    0.1785477  39.69  0.001412071    2.065    0.516
       129  -9.9113     67.6562    116.9861   8.7443231014e+01   4.4696612062e+01    0.4246357     0.224259  30.64  0.001769732    1.959    0.489
       130  -9.7332     28.2137    116.6635   1.0132045997e+02   4.9301204430e+01    0.4078566    0.1676111  31.93  0.001649026    2.485    0.598
       131  -9.7522     38.5068    114.9967   9.7355984028e+01   4.8771352099e+01    0.2269257    0.1753183  80.90 0.0008660545    1.470    0.320
       132  -9.3408     35.4215    115.5332   9.8558917129e+01   4.8937355834e+01    0.2335177    0.1596401 -20.42 8.558318e-05    1.748    0.428
       133  -8.9110     80.8084    112.4180   8.1894847290e+01   4.3801801364e+01    0.1976554    0.1468052  16.67 0.0003741653    1.510    0.338
       134  -8.7582     62.4798    112.4861   8.8253466122e+01   4.6552093211e+01    0.1475019    0.1389475 -41.96 9.377335e-05    1.008    0.008
       135 -10.0671     34.7832    108.6052   9.7566334106e+01   5.0769126835e+01    0.5036643    0.1581528 -60.42  0.001832196    2.598    0.615
       136 -10.6844     20.9409    107.9162   1.0260705125e+02   5.2117894977e+01    0.5090172    0.3262135  84.87  0.002524392    1.797    0.443
       137 -10.6690     17.2961    106.0374   1.0367945216e+02   5.2855829415e+01    0.5165654      0.19818 -72.55  0.001561368    2.413    0.586
       138  -9.2133     13.3170    108.2588   1.0547439407e+02   5.2554086101e+01    0.3531091    0.1309312  39.98 0.0009914433    3.013    0.668
       139  -9.9086    119.6351    107.8535   6.8595182334e+01   3.7593410344e+01    0.4846105    0.2137902  38.18   0.00171965    2.372    0.578
       140  -9.3837     72.1800    107.5629   8.3673134645e+01   4.6356595197e+01    0.2717064    0.1408499  37.09 0.0006089385    1.967    0.492
       141 -10.8253     66.1453    105.4381   8.5302834340e+01   4.7781647254e+01    0.4267339    0.3255032 -39.14  0.002138655    1.283    0.221
       142  -9.0765    126.8416    105.7977   6.6033377665e+01   3.6529278820e+01    0.2089687    0.1867451  87.84 0.0005453988    1.335    0.251
       143  -8.9559     88.0416    105.4997   7.7708223561e+01   4.4226021300e+01    0.2213013    0.1508541  34.55  0.000362656    1.490    0.329
       144 -10.0729     76.2221    104.1716   8.1401486392e+01   4.6541410994e+01     0.252517    0.2099201 -52.31 0.0002856489    1.183    0.154
       145 -11.2732     80.8089    103.0742   7.9519962941e+01   4.6047335570e+01    0.4002111     0.327456  -2.43 0.0002201384    1.368    0.269
       146 -10.1131     57.2113    103.9597   8.8219712975e+01   4.9389360629e+01    0.3043101    0.2645719  81.21    0.0010745    1.346    0.257
       147  -9.6873     52.8478    100.5457   8.9059905456e+01   5.0799628428e+01      0.33599     0.250847 -42.79  0.001019241    1.263    0.208
       148  -8.8578      1.3109    104.8535   1.0944481606e+02   5.4067389447e+01    0.1848153   0.09299054 -65.23 0.0003648633    1.599    0.375
       149  -9.5184    114.4022    104.2054   6.9101842493e+01   3.9465895708e+01    0.2132953    0.1912383 -89.34 0.0004531222    1.331    0.249
       150  -9.9363    118.0109    103.1809   6.7774027913e+01   3.8943877098e+01    0.2752045    0.2101328  18.84 0.0004336854    1.508    0.337
       151  -8.6078    106.4328    103.4220   7.1265839115e+01   4.1245523086e+01    0.1529781    0.1478163  -5.17 7.845041e-05    1.003    0.003
       152 -10.8356     44.5029    100.9902   9.2353784006e+01   5.1684927229e+01    0.4652979    0.3530529  75.40  0.002151837    1.675    0.403
       153  -9.2713      8.8866    102.8885   1.0638602926e+02   5.4176214338e+01    0.2110327    0.1537102 -46.51  0.001213006    1.272    0.214
       154  -9.0768    131.5290    105.8941   6.4803122039e+01   3.5511174807e+01    0.2308178    0.1511097 -44.16 0.0005501132    1.522    0.343
       155  -8.9601     29.2672    100.8124   9.8223209580e+01   5.3249141315e+01    0.1865754     0.146791 -29.33 0.0005415112    1.300    0.231
       156  -8.9518    109.0286     80.5158   6.3678244605e+01   4.5555958137e+01     0.227377      0.14833  43.91 0.0006281148    1.517    0.341
       157 -10.9324    102.8124     85.0046   6.6990141437e+01   4.5952073674e+01    0.7784765     0.372788 -28.96  0.002593852    3.030    0.670
       158 -10.9124    104.7130     80.2280   6.4898941684e+01   4.6530823201e+01    0.7179298    0.4938137 -74.80  0.002888008    2.483    0.597
       159 -11.7444    101.6053     97.9436   7.1222176773e+01   4.3417127085e+01    0.3087489    0.2999905  13.21 0.0001634173    1.033    0.032
       160 -10.6273     96.9126     96.2142   7.2224106785e+01   4.4715067857e+01    0.7346826    0.3101769 -42.34  0.002615195    2.394    0.582
       161 -10.5963    104.4828     73.7181   6.2861088940e+01   4.7858781811e+01    0.3952284    0.3345705  82.21 0.0009939356    1.521    0.343
       162 -10.9401    101.9709     68.9992   6.2058627696e+01   4.9292794338e+01    0.4759646    0.3957716   8.72  0.002437531    1.306    0.234
       163  -9.7253     34.4044     97.5767   9.5570994763e+01   5.3591991700e+01    0.4160682    0.2202565 -52.59  0.001387245    1.641    0.390
       164  -9.6565    115.7619     97.6038   6.6844963142e+01   4.0608235358e+01     0.257549    0.2288918  21.71 0.0007413644    1.146    0.127
       165 -10.8551    116.4518     93.5276   6.5462363003e+01   4.1320128919e+01    0.3083202    0.2775266 -59.70  0.001077208    1.213    0.176
       166 -10.0423    112.4448     93.4674   6.6613398413e+01   4.2179217466e+01     0.275357    0.2593296  36.88 6.542331e-05    1.070    0.065
       167  -9.4816    106.8186     97.6292   6.9514730762e+01   4.2446050601e+01    0.3274881    0.2245813 -57.39  0.001014565    1.669    0.401
       168 -10.1857     70.6818     96.6549   8.1409082999e+01   4.9218929901e+01    0.4195955    0.3116646  61.14  0.001294896    1.748    0.428
       169 -10.3432     61.3550     97.3050   8.5043946277e+01   5.0454213303e+01    0.3338527    0.2680838  79.75  0.001122905    1.627    0.385
       170 -10.3642     51.6351     94.9998   8.8196144581e+01   5.2316683658e+01    0.3286435    0.2119834 -13.02  0.001462013    2.013    0.503
       171  -9.8846     16.1315     94.9120   1.0235929103e+02   5.5740193640e+01    0.2408849    0.1994195  49.82  0.001065963    1.392    0.282
       172  -9.0036     79.9981     94.0057   7.7322788917e+01   4.8306941922e+01    0.2339621    0.1898412  77.19  0.001123786    1.660    0.398
       173  -9.9500     46.0962     93.8803   9.0106801741e+01   5.3264305161e+01    0.3217286    0.1755598  58.54  0.001214923    3.064    0.674
       174 -10.4044     30.0357     93.0439   9.6388110248e+01   5.5127940368e+01    0.2767016    0.1840262 -46.04 0.0003146101    1.350    0.259
       175 -12.0585     34.8394     89.7439   9.3705165137e+01   5.5493122796e+01    0.3902721    0.2863341 -74.27  0.002049942    1.465    0.317
       176 -10.4219     27.8981     85.1426   9.5586532999e+01   5.7263847063e+01    0.4758568    0.2142852  36.84   0.00188992    2.486    0.598
       177  -9.8552      5.0496     93.7908   1.0660328900e+02   5.6656907278e+01     0.230814    0.1776512 -18.26 0.0004386831    1.422    0.297
       178  -8.5194    136.6581     92.2797   5.9656903542e+01   3.7144391173e+01    0.1523207    0.1230643 -88.92 0.0007008296    1.627    0.386
       179 -10.9463    126.4470     91.3791   6.2048199504e+01   3.9592612489e+01    0.2887296    0.2721098  34.19  0.000268094    1.054    0.051
       180  -9.6768     92.5184     91.3703   7.2253263375e+01   4.6630322925e+01     0.296246    0.1874291  35.73  0.001038658    1.601    0.375
       181  -8.8960     63.6233     90.7780   8.2453519568e+01   5.1686559563e+01    0.1960995    0.1383582 -63.98 0.0003284534    1.578    0.366
       182 -10.1759     56.6457     89.9065   8.4925053895e+01   5.2887752100e+01    0.3840678     0.301532  61.57  0.001944108    1.628    0.386
       183 -11.0659     86.8473     86.7250   7.2784518359e+01   4.8718217544e+01    0.4363303     0.420585 -46.40  0.000930822    1.105    0.095
       184  -8.9597      3.5773     90.5013   1.0672194015e+02   5.7543804330e+01    0.1326661    0.1063856 -57.18 0.0008050419    1.051    0.048
       185  -9.3193     50.8391     89.3528   8.7085892381e+01   5.3785976122e+01    0.1916278    0.1334039   8.49 0.0002851878    1.637    0.389
       186  -9.2097     13.2528     88.2160   1.0238394220e+02   5.7590344802e+01    0.2163019    0.1578479 -80.45 0.0006993005    1.384    0.277
       187 -10.3500    139.2054     87.3741   5.7604085723e+01   3.7511643023e+01    0.2773327    0.2445979 -46.19 0.0001808399    1.151    0.132
       188  -9.6115    124.1939     84.8816   6.0716335205e+01   4.1375272260e+01    0.3146539    0.2452598  -5.57 0.0008184371    1.568    0.362
       189 -10.6303    120.7625     87.5699   6.2469861549e+01   4.1603961050e+01    0.3481278    0.3171514  85.02 7.257851e-05    1.273    0.214
       190 -10.8058    115.9803     84.9669   6.3028658992e+01   4.3168092151e+01    0.4636421     0.290981 -51.94            0    1.785    0.440
       191 -10.6849    131.1848     85.9706   5.9199530105e+01   3.9596494281e+01    0.2706879    0.2408236  44.71 0.0002972038    1.120    0.107
       192 -11.0559     76.6238     82.2048   7.5047649155e+01   5.1549963823e+01    0.5723718    0.3970359  21.18  0.002681479    1.583    0.368
       193 -10.4922     70.9666     82.1756   7.7155042027e+01   5.2514437316e+01    0.3039084    0.2373262  33.03            0    1.304    0.233
       194  -9.5943     13.3372     83.5137   1.0149797810e+02   5.8743087939e+01    0.3067353    0.1835314 -17.99  0.001554098    1.882    0.469
       195  -9.4437     20.1878     82.0707   9.8246561100e+01   5.8632654321e+01    0.2997291    0.2275055 -68.26  0.001083933    1.265    0.209
       196  -8.8271      1.5573     83.0299   1.0644939466e+02   5.9471904550e+01     0.185334    0.1086141 -69.93 3.574948e-05    1.453    0.312
       197  -9.6152     53.9302     81.1953   8.3603363415e+01   5.5305479817e+01    0.2778506    0.1889527 -41.21 0.0007151961    1.376    0.273
       198  -9.1699    143.7299     81.0841   5.4682576499e+01   3.7634280307e+01    0.2152379    0.2030066 -23.32  0.001165278    1.069    0.065
       199  -8.9550     95.9955     80.8271   6.7863557975e+01   4.8203826713e+01    0.2333811    0.1964928   5.92 0.0006857263    1.276    0.216
       200  -9.5919     91.9350     80.3725   6.9067602917e+01   4.9104601933e+01     0.272654    0.2470909 -24.81  0.000613839    1.080    0.074
       201  -9.1212     45.4327     80.7323   8.7016448375e+01   5.6504725146e+01    0.3395577    0.1925362  59.11  0.001297542    3.184    0.686
       202  -8.8213    154.8059     79.4031   5.1743727262e+01   3.5359590031e+01    0.2016403    0.1365127  42.94 0.0002941426    1.538    0.350
       203  -9.5810    121.6339     77.9028   5.9255640775e+01   4.3284885404e+01    0.3172085    0.2267521  62.11  0.001299439    1.608    0.378
       204 -10.4493      4.4013     76.1869   1.0408467035e+02   6.1008212550e+01    0.4695508    0.2168325 -51.58  0.002295178    1.714    0.417
       205 -10.9165     83.3300     74.7969   7.0240351814e+01   5.1917330480e+01    0.3441591    0.2726974 -28.80 0.0004580694    1.263    0.208
       206  -9.3719     73.2069     77.0601   7.4705249914e+01   5.3261315991e+01     0.254507    0.2021226 -41.59 0.0004811144    1.226    0.185
       207 -11.0415     77.4141     74.7778   7.2386938516e+01   5.3009301171e+01    0.4542362    0.4088533  50.29  0.001672713    1.253    0.202
       208  -9.7991     60.7978     76.1316   7.9281176445e+01   5.5468712084e+01    0.2616935    0.2044263  -8.91            0    1.370    0.270
       209 -10.9974     47.4404     73.9588   8.4219140467e+01   5.7821254420e+01    0.6317707    0.4118527  57.97  0.002845221    2.344    0.573
       210  -9.1413    131.0174     74.9780   5.5892860770e+01   4.1678108642e+01    0.2319689    0.1803181  12.47 0.0004697547    1.581    0.368
       211 -11.1434     17.2918     71.3498   9.7189047240e+01   6.1415555714e+01    0.4738882    0.2284467 -47.56    0.0015092    1.721    0.419
       212 -10.3729    140.1735     72.5924   5.2955745292e+01   3.9961389884e+01    0.3918803    0.2459758  38.46  0.001210864    1.734    0.423
       213 -11.5290    136.9680     69.5432   5.2760650242e+01   4.1237818807e+01    0.5639452     0.306381 -29.43 0.0003313797    2.043    0.511
       214  -9.8393     56.9402     72.5746   7.9749377551e+01   5.6829124191e+01     0.372994    0.2152135 -23.99  0.001267751    2.224    0.550
       215 -10.3525    152.2602     72.2591   5.0201235534e+01   3.7170367259e+01    0.2855127    0.2272226   6.15 0.0007336198    1.573    0.364
       216  -9.0574     87.9862     73.5274   6.8181676483e+01   5.1283487974e+01    0.2244239    0.1446433  40.96 0.0005207167    1.544    0.352
       217  -8.6991    117.5313     72.5670   5.8678055357e+01   4.5201011263e+01    0.1509119    0.1428647  19.98 0.0002201171    1.035    0.033
       218  -9.5144     26.8576     56.1796   8.8369641026e+01   6.4084051643e+01     0.201987    0.1685149  19.41 0.0006357271    1.290    0.225
       219 -11.2458     30.5098     53.5792   8.5664762184e+01   6.4276193739e+01    0.9295422    0.5339571  55.81  0.003819837    3.437    0.709
       220 -10.6936     32.6985     45.6077   8.1672120388e+01   6.5677174459e+01    0.6320249    0.2946669 -30.12   0.00235124    2.432    0.589
       221  -9.7374     18.1299     48.6938   9.0549671047e+01   6.6472569420e+01    0.5186315    0.3548994 -41.08   0.00238548    1.228    0.186
       222 -10.1906     33.1933     71.9538   8.9982892178e+01   5.9912265441e+01    0.2451508    0.2155101 -33.18  0.000483238    1.009    0.009
       223 -10.4044     35.4863     67.5426   8.7669159429e+01   6.0683469577e+01    0.4195264     0.220822 -55.97  0.001164135    1.785    0.440
       224 -10.7327     32.8886     62.3379   8.7322893744e+01   6.2125158286e+01    0.4637336    0.3303163   5.81  0.001716533    1.468    0.319
       225 -10.0487     26.7812     47.7991   8.5594881238e+01   6.5872694070e+01    0.2434486    0.2186845 -32.47 0.0004828588    1.140    0.123
       226  -9.1145    128.9160     70.8575   5.5126002071e+01   4.2896915621e+01    0.2200088    0.1969945  12.61 0.0003050161    1.189    0.159
       227  -9.8300     97.0656     69.7431   6.3865756946e+01   5.0190712477e+01    0.3795195    0.2059226 -35.76  0.001282508    1.913    0.477
       228  -9.7381     63.4030     69.9317   7.6224459529e+01   5.6413226342e+01    0.2763402    0.2541132  73.86  0.001104661    1.387    0.279
       229 -10.1430     59.3945     65.7982   7.6485280209e+01   5.7917059375e+01    0.5418702    0.3334085   2.71  0.001634585    2.315    0.568
       230 -12.2862     59.7443     57.1724   7.3262328100e+01   5.9616498787e+01    0.5345683    0.2901284  40.93  0.001224415    1.936    0.484
       231  -9.1739    165.5485     69.4783   4.6783474810e+01   3.4495759516e+01    0.1404884    0.1393192 -45.11 1.301805e-05    1.038    0.037
       232  -9.6737    180.7654     67.0585   4.3483218859e+01   3.1340917715e+01    0.4107929    0.2688324 -58.84  0.001972355    1.705    0.414
       233  -9.9781     89.8739     67.2865   6.5406948009e+01   5.2138458074e+01    0.3706997    0.2416763 -56.79  0.001045678    1.971    0.493
       234  -9.8942     90.9693     62.5065   6.3351982092e+01   5.2813983679e+01     0.338755    0.2910972  84.35  0.001044225    1.554    0.356
       235 -10.2338     95.5289     56.5964   5.9717992825e+01   5.2906018045e+01     0.419185    0.3633603 -80.67  0.002214048    1.509    0.337
       236  -9.9145     91.6857     57.5524   6.1318602041e+01   5.3556452947e+01    0.4700552    0.3042641  32.58  0.002178543    1.593    0.372
       237  -8.7266     10.7123     67.3680   9.9399089860e+01   6.2778883556e+01    0.3250411    0.1504233  57.05  0.001161685    4.480    0.777
       238 -11.4655    110.9925     65.8516   5.8296336344e+01   4.7885298971e+01     0.297719    0.2575806 -14.48 0.0003026387    1.211    0.174
       239  -9.7070    108.4454     62.5561   5.7904490647e+01   4.9036081833e+01    0.2801647    0.2358178 -22.11 0.0006975163    1.232    0.188
       240 -11.9874     70.7426     63.9388   7.1226042837e+01   5.6417827228e+01    0.3982114      0.34671  40.30 0.0004344157    1.233    0.189
       241  -9.6192     76.8917     66.0778   6.9625701701e+01   5.4884103909e+01    0.2534866    0.2257339  55.00 0.0006259422    1.315    0.239
       242  -9.8477     47.8514     66.7395   8.1793641292e+01   5.9376506421e+01    0.2945154    0.2530015   3.40  0.001272487    1.139    0.122
       243 -10.4680     42.5776     64.5777   8.3477598685e+01   6.0524328028e+01    0.4413907    0.3066683 -19.26  0.001377212    1.510    0.338
       244 -10.2160      2.5808     66.5344   1.0312792454e+02   6.3391516269e+01    0.3376001    0.2505495  63.99  0.001980456    1.736    0.424
       245  -8.7975    121.4833     66.4811   5.5623936719e+01   4.5383549004e+01    0.2665651    0.2175315 -80.46  2.42181e-05    1.570    0.363
       246  -8.9393    118.8028     64.0219   5.5519350403e+01   4.6425831931e+01    0.1983245    0.1770484 -65.51 -0.0006383859    1.273    0.214
       247  -9.7983    116.3003     60.8956   5.5136489865e+01   4.7532771690e+01    0.2785743    0.2406498  70.81 0.0008725708    1.288    0.223
       248 -10.4802     23.8378     50.8117   8.8187593168e+01   6.5524567335e+01    0.2650673    0.1940258 -25.26 0.0003180906    1.228    0.185
       249 -10.6047    194.4793     63.3167   4.0427667206e+01   2.8797657079e+01    0.5220618    0.2990268 -12.24   0.00117105    2.885    0.653
       250 -10.8521    200.6158     54.8965   3.7477163206e+01   2.8621604354e+01    0.3055197    0.2705479  15.04 0.0006834687    1.410    0.291
       251 -10.5383    201.3470     50.1697   3.6208403394e+01   2.9094695768e+01     0.303477    0.2384077  72.38  0.001300148    1.301    0.231
       252  -8.6866    211.9772     64.0427   3.8283958879e+01   2.4911362207e+01    0.1559308    0.1363896 -50.57 0.0003247389    1.018    0.018
       253 -11.0291    147.1048     61.6575   4.8090403390e+01   4.0111098999e+01    0.2710393    0.2254982 -40.96 0.0004100463    1.216    0.178
       254 -12.9210    150.8043     57.6877   4.6134267420e+01   3.9830066559e+01     0.428417    0.3498681 -36.84 0.0004606042    1.243    0.196
       255  -9.1275    172.1926     62.8841   4.3758164483e+01   3.3956594966e+01    0.2227996    0.1833011 -66.66  0.000916245    1.271    0.213
       256  -9.9221     83.1427     63.0502   6.6260694510e+01   5.4284703169e+01    0.2140988    0.2010027   2.67  0.000385441    1.024    0.023
       257 -10.2394    219.1526     59.4386   3.6342514365e+01   2.4057891718e+01     0.311719    0.2183842 -19.60 0.0009997763    1.673    0.402
       258 -10.1468    101.8915     59.3522   5.8728881522e+01   5.1047213135e+01    0.5480255    0.2997783  32.21  0.001432979    2.164    0.538
       259  -9.7352     80.6655     44.2762   5.9982144476e+01   5.8070921371e+01     0.390595    0.2773722   4.15  0.001655644    1.685    0.406
       260  -9.4643     90.7182     43.9277   5.6446577914e+01   5.6006386717e+01    0.2464412    0.2038998   2.80 0.0002843801    1.263    0.208
       261 -10.1960     91.1118     40.1803   5.4833115320e+01   5.6481600587e+01    0.2786232    0.2227741  33.84  0.001514026    1.169    0.145
       262 -11.4633     78.9009     55.7815   6.5124801172e+01   5.6459672842e+01    0.4838168    0.3631071  34.85  0.001387229    1.285    0.222
       263 -11.5523     84.9145     49.2349   6.0463030022e+01   5.6389483267e+01    0.6163459    0.4750614  -4.59  0.001912511    1.431    0.301
       264  -9.5130      4.0653     59.3092   1.0087575298e+02   6.5005485407e+01    0.1928182    0.1786659 -10.42 0.0003702454    1.202    0.168
       265 -10.3331      8.8169     56.4955   9.7759334763e+01   6.5397257320e+01    0.4378306    0.2227098 -28.58  0.001095193    1.935    0.483
       266  -9.1506    213.8474     58.1473   3.6653251725e+01   2.5334743415e+01    0.2014814    0.1524666 -55.15 0.0006890159    1.213    0.176
       267 -10.9838    161.0993     55.8141   4.3658268887e+01   3.7631121111e+01    0.4781689    0.3920077 -19.49  0.001623726    1.355    0.262
       268 -10.9337    176.0798     55.2298   4.1009085307e+01   3.4160467160e+01    0.4204523    0.2964984 -54.59  0.001158905    1.445    0.308
       269 -10.1741    246.0377     55.6928   3.2767423875e+01   1.9308547504e+01    0.2049273    0.1447012 -41.66 0.0002161027    1.175    0.149
       270  -9.4708    131.1502     60.6045   5.1287625235e+01   4.4095618333e+01    0.2897282    0.2292655 -66.52  0.001026773    1.514    0.339
       271 -10.0740    184.5735     54.0716   3.9428272170e+01   3.2348940346e+01    0.4454919    0.2025037 -49.16  0.001015716    2.296    0.564
       272  -8.9883    135.7307     53.6908   4.7998666643e+01   4.4070592857e+01    0.2667989    0.1850012   8.78 0.0005577155    2.061    0.515
       273 -11.7080    137.2786     47.1445   4.5538220722e+01   4.4643628561e+01    0.3580861    0.2908776 -57.17 0.0007254686    1.340    0.254
       274 -10.7473    121.7786     48.3807   4.9425837272e+01   4.8212279075e+01    0.3710893    0.2740944  75.61  0.000296167    1.587    0.370
       275 -10.8651    128.2382     53.4069   4.9600670674e+01   4.5916367068e+01    0.4243596    0.2643455  54.85 0.0008709148    1.535    0.349
       276 -10.1207    126.7717     49.9806   4.8789794680e+01   4.6780693486e+01     0.222086    0.2144072 -23.88            0    1.082    0.076
       277  -9.2015     69.3137     53.9160   6.8083658764e+01   5.8598838763e+01    0.2542107    0.1768153  17.27  0.001241432    1.574    0.365
       278  -9.3216    143.9559     51.5287   4.5584221294e+01   4.2395202715e+01    0.3283865    0.1615655 -51.39  0.001273757    2.507    0.601
       279  -9.8207     35.0724     51.3619   8.2585862982e+01   6.4234255065e+01    0.2160719    0.1804148 -46.39 0.0003667829    1.233    0.189
       280  -9.5391      1.6815     51.7009   1.0034510252e+02   6.6843453304e+01    0.3147433    0.1220341 -44.98  0.001121745    1.989    0.497
       281 -10.2479      5.1529     49.9596   9.8017700673e+01   6.7062801756e+01     0.519935    0.2399795 -56.78  0.002608238    1.741    0.426
       282 -11.0664    212.1603     49.5632   3.4805151974e+01   2.6833502456e+01    0.3570725    0.2261484  76.56  0.001166891    1.701    0.412
       283  -9.0829     73.0591     50.2882   6.5203936231e+01   5.8559896088e+01    0.1934798    0.1718138  24.23 0.0002823914    1.078    0.072
       284 -10.2288     63.4899     48.7162   6.8415485407e+01   6.0581604535e+01    0.3035831    0.2563476  82.06 0.0005909759    1.842    0.457
       285  -9.0018     55.2695     49.7637   7.2377271835e+01   6.1760186272e+01    0.1955809    0.1462193 -10.08  0.001033707    1.377    0.274
       286  -9.7816    246.1291     48.2381   3.1196641009e+01   2.0231660921e+01    0.2137378    0.1716978 -20.99 0.0007086085    1.450    0.310
       287  -8.8240    111.4620     49.5222   5.2459965322e+01   5.0476083337e+01    0.1434123    0.1376885  44.96 8.462933e-05    1.048    0.045
       288  -9.3558    104.5741     49.2021   5.4254523419e+01   5.2110870652e+01    0.2675884    0.1786635  77.68  0.001138937    2.298    0.565
       289  -8.7917    233.1397     48.1840   3.2348366125e+01   2.2719556296e+01     0.169216    0.1200301 -60.82 0.0003911248    1.293    0.227
       290  -9.6076    151.8170     47.2084   4.2743022225e+01   4.1090086292e+01    0.1964659    0.1665069  28.85 0.0009650846    1.330    0.248
       291 -12.0343    163.0711     42.3474   3.9386033958e+01   3.9005251182e+01    0.3879529    0.2891452 -85.77 0.0003129583    1.460    0.315
       292  -9.6190    161.7197     35.7887   3.7669262491e+01   4.0155381271e+01     0.299881    0.2440378 -82.29  0.001604697    1.243    0.195
       293  -9.0108     73.4440     45.1262   6.2984904393e+01   5.9369412558e+01    0.2096565    0.1346634 -33.07 0.0009026454    1.579    0.367
       294  -8.4580     67.4341     45.4261   6.5462745290e+01   6.0452745671e+01    0.1380778    0.1264593   8.17 3.066654e-05    1.057    0.054
       295 -10.7191    108.8708     43.3421   5.0899585954e+01   5.1994364445e+01    0.3289661    0.2390663  59.97 0.0003732479    1.389    0.280
       296 -10.6155     71.8834     36.7982   6.0080961425e+01   6.1000159758e+01    0.6172761    0.3638502  10.43  0.002564279    2.583    0.613
       297 -10.5622     54.3661     36.9086   6.7405036603e+01   6.4187858882e+01    0.3049467    0.1983278  30.78  0.000368888    1.465    0.317
       298 -12.0794     56.9507     41.7672   6.8356747129e+01   6.2929893194e+01    0.4587649     0.322562  11.54 0.0002987252    1.509    0.337
       299 -11.2121     62.7350     37.3452   6.3962450411e+01   6.2651286959e+01    0.3934896    0.3097102 -22.40 0.0008257628    1.244    0.196
       300  -9.3579     39.6864     44.3081   7.7582305849e+01   6.5066182678e+01    0.1918819    0.1639552 -52.28 0.0005640356    1.399    0.285
       301  -8.2977     42.5347     43.5292   7.5847410639e+01   6.4829021260e+01    0.2002676    0.1214831  18.63  2.55589e-05    1.726    0.421
       302 -10.0422    141.4770     43.0269   4.3363225790e+01   4.4181268793e+01    0.3340256     0.182491  52.65 0.0004579054    1.720    0.418
       303  -8.9386    129.0350     43.3034   4.6011835232e+01   4.7181750847e+01    0.2019774    0.1830729  61.76  0.001142659    1.058    0.055
       304 -11.2194     17.9035     41.2190   8.8127715693e+01   6.8055619885e+01    0.3476083    0.2618098 -57.86  0.001154342    1.439    0.305
       305 -10.1357    204.7492     41.6575   3.3716401196e+01   2.9439910557e+01    0.2610972    0.1636219 -56.83 0.0009210589    1.541    0.351
       306  -9.2025    147.1144     41.4624   4.1810823553e+01   4.3006815692e+01    0.2287479    0.1852379 -65.35  0.000750065    1.329    0.247
       307  -8.9973    217.9965     41.4828   3.2295831176e+01   2.6625952897e+01    0.1724261    0.1182337  75.19  0.000405761    1.509    0.337
       308  -8.6644     97.5997     41.4605   5.3356044895e+01   5.4852677177e+01     0.139837     0.131365  26.85 0.0001922315    1.031    0.030
       309  -9.4106     28.5890     40.7030   8.1960168749e+01   6.7110470870e+01    0.2674824    0.1575587 -27.02 0.0006731162    1.664    0.399
       310  -9.6144    230.7119     39.4749   3.0657111083e+01   2.4274207738e+01    0.2282636    0.1646018 -64.37 0.0006295242    1.264    0.209
       311  -9.5914    112.1919     37.7093   4.7956391172e+01   5.1989974752e+01    0.4860038    0.1554545 -39.80  0.001536271    3.341    0.701
       312  -9.3315     76.1935     39.3531   5.9563198703e+01   5.9750612199e+01    0.2591235    0.1817534 -31.22  0.001008108    1.464    0.317
       313  -9.7786     44.0321     39.4638   7.3408272867e+01   6.5364781150e+01    0.2352641    0.1593997 -25.85 0.0004785096    1.416    0.294
       314 -11.4138    140.2621     37.8645   4.1924081748e+01   4.5150506898e+01    0.2528407    0.2490674  -6.62 0.0002321149    1.094    0.086
       315 -10.3144    127.5774     37.4351   4.4314985196e+01   4.8314300661e+01    0.3842323    0.2631275  62.51  0.001930632    1.392    0.282
       316 -10.4870     83.0739     35.5626   5.5553716148e+01   5.8885347702e+01    0.5106704    0.3859704 -48.98  0.002705107    1.626    0.385
       317 -10.9045    194.2303     36.6761   3.3650865304e+01   3.2394719978e+01    0.4337585    0.2781234  80.55   0.00178531    1.598    0.374
       318  -9.7691      2.4702     38.0068   9.6137557848e+01   6.9785639843e+01    0.2778655    0.1646336   0.41 0.0003458781    1.736    0.424
       319  -9.4664      7.6665     37.4213   9.2809917598e+01   6.9605194204e+01    0.2263565    0.1159433  12.76 0.0006360351    2.032    0.508
       320  -8.9298     32.9572     37.4797   7.8273713780e+01   6.7215597390e+01    0.1798271    0.1202638  21.88  0.000331671    1.467    0.318
       321  -9.5298    241.0510     36.2992   2.9111156469e+01   2.2633436142e+01    0.1588245    0.1298812 -67.81 0.0002384548    1.098    0.089
       322  -9.0713    207.4142     36.3123   3.2138153867e+01   2.9512163580e+01    0.1837502    0.1016176 -43.48 0.0009403153    1.607    0.378
       323 -10.9498    170.1981     33.1453   3.5693919764e+01   3.8427388964e+01    0.4877253    0.3006184  -8.67 0.0008669412    2.333    0.571
       324  -9.5351    115.1349     34.3907   4.6017248526e+01   5.1717182086e+01    0.4092957    0.1412803 -36.81  0.001499322    2.962    0.662
       325  -9.2032     27.2914     36.7329   8.1070741495e+01   6.8019702079e+01    0.3452321    0.1127814  20.93   0.00121985    3.884    0.743
       326  -8.9550    153.1414     35.7044   3.8987072198e+01   4.2257046540e+01     0.274655    0.1237152  72.52  0.001073298    2.487    0.598
       327 -10.0280    106.7989     34.8541   4.8253171869e+01   5.3640400844e+01    0.2401068    0.1936354  38.12 0.0003165673    1.174    0.148
       328 -11.4618     40.2999     33.2476   7.2547211134e+01   6.6996439530e+01    0.3353942    0.2348693  33.44            0    1.461    0.315
       329 -10.4343     29.9764    244.7980   1.1259297451e+02   1.9409401031e+01    0.2671574    0.1835744  72.87 0.0009529808    1.338    0.253
       330 -10.9467    246.4171     32.4028   2.7893328846e+01   2.2070729903e+01    0.3418775    0.1859828 -49.15   0.00117881    1.488    0.328
       331  -9.1414     10.7092     33.6895   8.9627242944e+01   7.0152802776e+01    0.2200858    0.1523749 -82.71  0.001161087    2.441    0.590
       332  -9.5142    150.7662     32.0914   3.8258434610e+01   4.3272768440e+01    0.3246285      0.21514  13.99  0.001517381    2.223    0.550
       333  -9.2982    154.9535     31.8642   3.7527422188e+01   4.2273086519e+01    0.2373046    0.1835982  71.74 0.0004444251    1.218    0.179
       334  -8.8995    120.6454     33.1920   4.4322977026e+01   5.0535792978e+01    0.1897214     0.177995   6.91  0.000341069    1.133    0.117
       335 -10.1443    124.0136     30.5876   4.2671394421e+01   5.0029865903e+01     0.240871     0.222668 -41.16 0.0003597542    1.168    0.144
       336  -9.5701     97.1396     33.2102   5.0232283176e+01   5.6095882613e+01    0.1980553    0.1685398  34.23 0.0002552373    1.086    0.079
       337  -8.9303     16.8551     32.8832   8.5563963725e+01   6.9807033450e+01    0.1997147    0.1384234 -24.68 0.0005491487    1.244    0.196
       338 -10.6269    106.1970    244.1501   9.6529286756e+01   1.0575509220e+01    0.2745845    0.2403123  51.52 0.0008695918    1.188    0.158
       339 -10.8890    238.3828     21.0271   2.6109984161e+01   2.4873407508e+01     0.312583    0.2959502  77.80  0.001409039    1.314    0.239
       340  -9.3479    244.0120     18.3003   2.5179605579e+01   2.4085893875e+01    0.2418247    0.1749171 -74.18  0.001678622    1.233    0.189
       341 -10.7150    236.6490     15.9904   2.5177340927e+01   2.5747534495e+01    0.4005764    0.1761712  65.61  0.001892321    2.365    0.577
       342  -8.4592    148.6808     38.2897   4.0538238766e+01   4.3029499550e+01    0.1421793    0.1027899 -71.41 0.0007007271    1.600    0.375
       343 -11.0394    132.1526     29.5798   4.0700945685e+01   4.8150441760e+01    0.3144615    0.2654384 -12.54            0    1.335    0.251
       344  -9.8504    166.1522    243.4956   8.3872219261e+01   2.6246241124e+00    0.2731031     0.164072  44.30   0.00101372    1.928    0.481
       345 -10.5472     16.1461     28.0576   8.3980740747e+01   7.0788950473e+01     0.476019    0.2509558   0.37  0.002348393    2.195    0.544
       346  -9.7706     23.1709     25.5266   7.8517030223e+01   7.0527900155e+01    0.2679727    0.1740738 -22.00  0.001043285    1.410    0.291
       347  -9.3602    159.5021    243.0344   8.5159335582e+01   3.5847360292e+00    0.1623502    0.1194419 -38.25 0.0009293921    1.561    0.359
       348 -10.2894     42.4558    241.4485   1.0985058433e+02   1.8756243533e+01    0.3017618     0.221096  46.78  0.001633838    1.102    0.092
       349  -8.9406    248.3199    241.6747   6.8486996556e+01  -7.0797780558e+00   0.09152953   0.08141106   0.00 0.0007046302    1.679    0.404
       350  -9.4945     51.9559    238.6990   1.0767019878e+02   1.8246542897e+01    0.1678471    0.1575157 -74.40 0.0004382503    1.275    0.216
       351 -10.5465     15.1287    237.7628   1.1521914104e+02   2.2167571355e+01    0.2017491      0.18173  13.40   0.00109706    1.452    0.311
       352 -11.0405     47.0186     19.6880   6.2585087472e+01   6.8051338736e+01    0.5040024    0.2508672  53.26  0.001463842    2.936    0.659
       353  -9.7613      4.8406    238.6820   1.1728604636e+02   2.2902439717e+01    0.1682664    0.1353015 -87.97 0.0008019373    1.291    0.225
       354  -9.7698    125.3907    236.3003   9.1464766765e+01   9.3574218182e+00    0.2663816    0.1947634 -32.28   0.00159999    1.600    0.375
       355 -11.9253    119.3294    230.8811   9.2109019607e+01   1.1158350531e+01    0.3940172    0.2890595 -48.28 0.0003812991    1.577    0.366
       356  -9.5022    110.3478     29.6299   4.5378520707e+01   5.3451145955e+01    0.2522596    0.2122253  64.51  0.001059043    1.170    0.145
       357  -9.4218    216.0010     29.0124   2.9601983582e+01   2.8524808428e+01     0.188251    0.1597432 -63.08 0.0004664652    1.006    0.006
       358 -10.9727    179.9400     28.6310   3.3207751807e+01   3.6637253867e+01    0.3793364    0.2206226  74.11  0.001139047    1.672    0.402
       359  -9.9582    183.2987     25.0256   3.1858374123e+01   3.6253365341e+01    0.2603525    0.1695453 -45.40 0.0007217145    1.460    0.315
       360 -10.3033    179.2984     21.9427   3.1480853772e+01   3.7522694570e+01    0.3234914    0.2410655 -55.04  0.001891845    1.281    0.219
       361 -10.7614     80.0860     27.3749   5.3031225694e+01   6.0631719558e+01    0.5694361    0.2985398  40.06  0.002624514    1.780    0.438
       362 -10.0417    121.8756    224.7280   9.0743764186e+01   1.1924426409e+01    0.2693335    0.1946941 -54.48  0.001025633    1.621    0.383
       363  -9.7292     66.4273     25.9480   5.7299251315e+01   6.3630152468e+01    0.2195816     0.192451  76.34 0.0003631015    1.595    0.373
       364  -9.4551    154.9032     27.0712   3.6079167189e+01   4.2832854595e+01    0.2506853    0.1681844  21.03 0.0009444833    2.095    0.523
       365 -10.2310    158.5911     22.7949   3.4271079803e+01   4.2396466792e+01    0.2422727     0.213925  62.12 0.0003358111    1.118    0.105
       366 -10.0717    207.0130     25.4943   2.9585900604e+01   3.0849155507e+01    0.2182518    0.1706685 -35.40 0.0004186678    1.294    0.227
       367  -9.2504    121.2035     26.5736   4.1822533348e+01   5.1180604710e+01    0.2736272     0.130522  66.68  0.001142063    2.101    0.524
       368 -10.0975      1.5671     22.7806   9.1350367186e+01   7.2907496504e+01    0.3540594    0.1620486 -60.39   0.00150692    2.292    0.564
       369  -9.0845      2.4736     19.4679   8.9336579641e+01   7.3478050636e+01    0.1888086     0.135826 -21.14 0.0007421792    1.126    0.112
       370 -10.1992    224.4519     23.3556   2.7624188687e+01   2.7398587665e+01    0.3358113    0.1960793  66.93 0.0008081984    1.774    0.436
       371  -9.0449     98.7180    237.0285   9.7378487062e+01   1.2835403390e+01    0.1578587    0.1502134  44.14 0.0003452723    1.137    0.120
       372 -10.0166     99.1106     23.3038   4.5694886661e+01   5.6843939483e+01    0.3680686    0.2183195  47.65  0.001811989    1.496    0.332
       373 -10.7230    165.5700     21.6587   3.3025750547e+01   4.0823879911e+01    0.5221384     0.257189  55.69  0.002450764    1.941    0.485
       374  -9.3887    166.9648    234.5256   8.2416732779e+01   3.8867229078e+00    0.1871572   0.09452162  12.38 0.0008100523    2.630    0.620
       375  -9.8552     27.2388    233.4896   1.1253409353e+02   2.1853431471e+01    0.3641873    0.1298435  58.59  0.001659028    2.772    0.639
       376 -10.8942      6.4481    234.3071   1.1680147683e+02   2.3606340887e+01    0.3714543    0.1070635  31.47  0.001789822    2.744    0.636
       377 -11.6588    140.6400    227.1991   8.6927712615e+01   8.7980186394e+00    0.2579913    0.2181216  23.34 0.0002726123    1.033    0.031
       378  -9.2531    248.6325     22.2283   2.5677020112e+01   2.2795001053e+01     0.174755    0.1261124 -76.15 0.0004800516    1.273    0.215
       379  -9.3930    142.9664     21.2728   3.6080704691e+01   4.6391865762e+01    0.1920455    0.1687054  71.58 0.0007150227    1.034    0.033
       380 -10.5340      3.8610    228.3724   1.1708412602e+02   2.4991011571e+01    0.2236303    0.1672691 -26.32  0.001486965    2.100    0.524
       381 -10.9828     19.3023    227.9690   1.1389313434e+02   2.3708328746e+01    0.2468316    0.2068798 -65.92  0.001005533    1.413    0.292
       382 -10.6082     23.6690    224.0616   1.1275761635e+02   2.4088391322e+01     0.278493    0.2234903  17.52 0.0001522098    1.494    0.331
       383  -9.2689     81.0420     19.4990   4.9209217085e+01   6.1373128832e+01    0.2401434    0.1722629 -40.57 0.0007810603    1.642    0.391
       384  -8.9766    131.4193     19.6791   3.7455368129e+01   4.9406667785e+01     0.342794    0.1146308  65.64  0.001266061    2.708    0.631
       385  -8.6054     69.1189     18.8684   5.2931400729e+01   6.3982634724e+01    0.2197852    0.1864252  48.25 0.0004108971    1.218    0.179
       386  -9.7553     65.5562     18.9148   5.4273683526e+01   6.4701217072e+01    0.2494405    0.1602791 -25.74 0.0006625209    1.626    0.385
       387  -8.9964    226.6026     18.1317   2.6318924540e+01   2.7523154112e+01    0.1495669    0.1083564 -19.95 0.0008460574    1.682    0.405
       388 -10.1395     97.9327    225.5643   9.6268534929e+01   1.5099076081e+01    0.2535392    0.1901917 -19.59   0.00102469    1.731    0.422
       389 -10.3395    193.4853     16.9118   2.8735601890e+01   3.4773786400e+01    0.2209072    0.1843657 -88.87 0.0003569058    1.088    0.081
       390  -9.4967    197.6941     16.5994   2.8276470653e+01   3.3858913210e+01    0.2787321    0.1508689 -88.69 0.0008454669    1.923    0.480
       391 -10.4834      7.6848    225.4498   1.1618435011e+02   2.5251237647e+01    0.2451298    0.1250886  65.65  0.001423845    1.705    0.414
       392  -9.3908    160.8764    224.9852   8.2255303953e+01   6.2738244449e+00    0.1943048    0.1495507   0.16 0.0004811543    1.245    0.197
       393  -9.2736     14.3121    223.3023   1.1470511332e+02   2.5106708820e+01    0.1020532   0.08577541 -42.01 0.0003247981    1.610    0.379
       394 -10.9668     77.6026    218.8216   1.0020116746e+02   1.9127950869e+01    0.7338052     0.446429   7.20  0.003481325    2.433    0.589
       395 -11.6204     72.8862    213.8892   1.0078845994e+02   2.0751996005e+01    0.7969689    0.5583311  23.80  0.004507226    1.452    0.311
       396 -11.2218    108.3180    220.2384   9.3242245431e+01   1.4696463174e+01    0.4391814    0.2327697  42.37  0.001328137    1.713    0.416
       397  -8.5427     85.3388     14.6439   4.5746490876e+01   6.0934880618e+01    0.1323665     0.102492 -69.25 0.0007040545    1.810    0.448
       398  -9.0116    201.2145     12.7704   2.7046458538e+01   3.3464398465e+01    0.1501957    0.1357574  62.92 0.0004393497    1.275    0.216
       399  -8.6884    132.5276     13.5246   3.5173227880e+01   4.9730440817e+01    0.1335656    0.1189846  68.30 -4.363861e-05    1.004    0.004
       400 -11.4920    118.6263    216.3957   9.0356378757e+01   1.3964689360e+01    0.4435295    0.3634467 -81.64  0.002610312    1.585    0.369
       401 -11.4429     13.0070    214.3870   1.1453558329e+02   2.7068026608e+01    0.4131819     0.168553 -60.50  0.002048601    2.646    0.622
       402  -9.9408      3.0930    216.7550   1.1676819284e+02   2.7408052406e+01    0.1891292    0.1613413  -0.34  0.001361628    1.609    0.378
       403  -9.2609     91.2112    214.5927   9.6534066329e+01   1.8196013516e+01    0.2554938    0.1062991  36.19 0.0008965465    2.039    0.509
       404 -11.0454    148.8957    211.0345   8.2682576026e+01   1.0461557727e+01    0.3107308    0.2299189 -12.28 0.0005011423    1.479    0.324
       405 -10.4663     23.8151    212.6498   1.1205068538e+02   2.6455767025e+01    0.2605447    0.2000169 -65.32  0.001496091    1.431    0.301
       406  -9.0915     38.4412    210.7673   1.0858800934e+02   2.5407861479e+01    0.1701932    0.1051523 -61.17 0.0009535513    1.736    0.424
       407  -9.1295    209.0391    210.2753   7.0178995547e+01   1.8066139968e+00    0.1730963    0.1369164  11.41 0.0003662254    1.113    0.102
       408  -8.3604    132.4771    210.4936   8.6312435357e+01   1.3045917674e+01    0.1358943    0.1189644  19.19 0.0008101558    1.017    0.017
       409  -9.6330      2.5977    210.1894   1.1659091848e+02   2.8821122597e+01    0.1519424   0.09383142 -72.71 0.0004263415    1.602    0.376
       410  -9.6415     99.8432    215.8268   9.4653500008e+01   1.6755884130e+01    0.2789918    0.1883332 -70.64  0.001143416    1.806    0.446
       411 -10.8651     90.2119    204.4143   9.5518082928e+01   2.0461751374e+01    0.4498358    0.2902369 -79.66  0.001893663    1.973    0.493
       412  -8.9598     61.5044    206.8938   1.0278882183e+02   2.3656202700e+01    0.1785851    0.1245683 -72.67 0.0007438785    1.508    0.337
       413 -12.0482     11.5172    202.6120   1.1424132200e+02   2.9722964265e+01       0.4073    0.2929431 -89.31  0.002076118    1.262    0.208
       414  -9.5533    133.3428    204.1906   8.5139978487e+01   1.4129805963e+01    0.3020825    0.2125024  53.91   0.00155267    1.709    0.415
       415  -9.4940     73.6883    205.1539   9.9646519019e+01   2.2515489060e+01    0.3037674    0.1850694  15.70  0.001471038    2.003    0.501
       416 -10.3370      2.5775    199.2859   1.1609602066e+02   3.1170656500e+01     0.227795     0.099059 -89.29  0.001139744    2.141    0.533
       417 -10.6578    167.0171    198.2080   7.6542631250e+01   9.9869812959e+00    0.2482188    0.2133657   3.67 0.0002444459    1.025    0.024
       418  -8.9104    135.9543    198.4754   8.3610881156e+01   1.4844633208e+01    0.2146567    0.1248502  34.92 0.0007614027    1.565    0.361
       419 -10.0808     57.8122    196.6351   1.0264795995e+02   2.6376032508e+01    0.2310354    0.1859308  56.67 0.0003742822    1.147    0.128
       420  -9.9963    103.6530    194.1699   9.0781592566e+01   2.0727636716e+01    0.3934807     0.250608 -18.47   0.00166414    2.411    0.585
       421  -9.3445     93.8707    194.6721   9.3310643479e+01   2.2054555223e+01    0.2133271    0.1681647   7.72 0.0009970759    1.447    0.309
       422  -8.7936    173.2999    191.6850   7.4015463522e+01   1.0165530582e+01    0.1236932    0.1112668  70.59 0.0002602026    1.611    0.379
       423  -9.1340    164.4837    189.4848   7.5527725149e+01   1.1988258643e+01     0.139822    0.1235263   6.22 -1.669986e-05    1.011    0.010
       424  -9.4645     63.1193    188.3502   1.0037999423e+02   2.7629592883e+01    0.2011038    0.1794984 -54.49 0.0005350814    1.214    0.176
       425  -9.3012    132.5452    188.0558   8.2668642200e+01   1.7493930611e+01     0.201556    0.1396317 -47.57 0.0004303781    1.533    0.348
       426  -9.3279      1.1085    184.1212   1.1567954854e+02   3.4675915704e+01    0.2736411   0.06373917 -79.45 0.0009896227    3.788    0.736
       427  -9.5770    113.7749    184.1382   8.6657514098e+01   2.1350240886e+01    0.2124366     0.186643  50.88 0.0005551812    1.178    0.151
       428  -9.7053     28.3386    183.8734   1.0891163166e+02   3.2482161103e+01    0.2040332     0.182663  27.02 0.0004457954    1.246    0.197
       429  -8.8248    142.5505    180.4914   7.8907959509e+01   1.7388909907e+01    0.1436677    0.1319504   9.68  5.74969e-05    1.006    0.006
       430  -9.8481    110.7968    179.3216   8.6614705398e+01   2.2887071524e+01    0.2440818    0.2240176  69.73 0.0004962769    1.201    0.167
