#   1 NUMBER                 Running object number                                     
#   2 MAG_AUTO               Kron-like elliptical aperture magnitude                    [mag]
#   3 X_IMAGE                Object position along x                                    [pixel]
#   4 Y_IMAGE                Object position along y                                    [pixel]
#   5 X_WORLD                Barycenter position along world x axis                     [deg]
#   6 Y_WORLD                Barycenter position along world y axis                     [deg]
#   7 A_WORLD                Profile RMS along major axis (world units)                 [deg]
#   8 B_WORLD                Profile RMS along minor axis (world units)                 [deg]
#   9 THETA_WORLD            Position angle (CCW/world-x)                               [deg]
#  10 FWHM_WORLD             FWHM assuming a gaussian core                              [deg]
#  11 ELONGATION             A_IMAGE/B_IMAGE                                           
#  12 ELLIPTICITY            1 - B_IMAGE/A_IMAGE                                       
         1 -11.8727    119.1378     58.0976   7.7419171467e+01   4.7461775761e+01     1.870014     1.474828 -65.48  0.008902632    1.488    0.328
         2 -12.1562    124.6409     27.8068   6.4249201454e+01   5.1149924767e+01    0.9522812    0.7727324  -2.15  0.003428741    1.364    0.267
         3 -12.8659    116.3259     41.6619   7.2056916342e+01   5.1096983237e+01     1.048408    0.7664678 -77.52  0.004619518    1.902    0.474
         4 -12.8652    120.2131     38.5426   6.9757271264e+01   5.0650018436e+01    0.9447439    0.5809687 -58.04  0.002646307    2.136    0.532
         5 -10.4254     59.9355     24.4574   8.4869975792e+01   6.6218176451e+01    0.7065925    0.2924599 -36.46  0.002747352    2.483    0.597
         6 -12.2471     60.4934     45.0926   9.3513326582e+01   6.1899059545e+01     1.070471     0.540651 -50.17  0.004700713    1.826    0.452
         7 -11.2240    178.3483     21.2953   5.2173441782e+01   3.7426347520e+01     0.650369    0.3739868  42.78  0.002000536    1.936    0.483
         8 -12.3558    104.6187     13.0111   6.2646039226e+01   5.8292931213e+01     0.864695    0.4807338 -31.12  0.003768441    1.782    0.439
         9 -12.3532    105.9761     20.2254   6.5718015029e+01   5.6996601156e+01    0.4541155    0.2884943 -32.35 0.0003526919    1.566    0.361
        10 -12.4283    105.7500     32.9369   7.1499585355e+01   5.5123114996e+01    0.9165065    0.5436582   6.71  0.003077376    3.273    0.694
        11 -11.8573    111.2063     24.9075   6.6416639993e+01   5.5018602971e+01    0.5106542    0.3029041 -45.61  0.001804356    1.836    0.455
        12 -11.1171      3.2887      1.7696   1.1049439238e+02   7.7318241342e+01    0.4113048    0.1943108  -1.26     0.002108    2.609    0.617
        13  -9.8694      7.4820     31.6046   1.1700352259e+02   7.0414383708e+01     1.340605    0.2758301 -57.92  0.005230797    2.945    0.660
        14 -11.0397      5.1812      8.8618   1.1184302949e+02   7.5694129986e+01     0.816197    0.6068041 -81.78  0.005233631    1.462    0.316
        15 -11.4585     26.5196     27.7322   1.0442892363e+02   6.9993860713e+01     0.520062    0.3268064 -65.47  0.001925476    1.531    0.347
        16 -12.3370     16.8580     13.5701   1.0501949668e+02   7.3924388813e+01    0.5284421    0.3721324 -56.45 0.0002267896    1.229    0.186
        17 -11.8318     22.6983     11.2582   9.9784119189e+01   7.3900354700e+01    0.4996935    0.3468204 -20.71   0.00218143    1.504    0.335
        18 -11.1359    138.2166     21.7061   5.8797026088e+01   4.8338759279e+01     1.137027    0.3171819  50.76  0.003445305    3.306    0.698
        19 -10.6898    146.7314     16.1467   5.5031989005e+01   4.6668790686e+01    0.5862564    0.4428304  59.52  0.002878563    1.273    0.214
        20 -12.3914    163.5062     28.1122   5.6695726644e+01   4.0642685947e+01    0.6411062    0.4509493  31.77 0.0005813575    1.636    0.389
        21 -11.1688    165.1229     17.6784   5.2736801715e+01   4.1429885839e+01    0.5321594    0.3305611  31.06  0.001545783    1.963    0.491
        22 -11.2423    154.3832     25.1750   5.7157989523e+01   4.3495623348e+01    0.9610142    0.5537756  59.21   0.00400304    1.660    0.398
        23 -12.0761    132.1736     14.7902   5.7137985764e+01   5.0813873402e+01     1.396552    0.6629198  79.03  0.004267497    2.757    0.637
        24  -9.7423    141.4763     12.3315   5.4412603683e+01   4.8539911651e+01    0.2592179     0.206121 -15.81 0.0007013436    1.322    0.244
        25 -10.7932    189.4752     28.5085   5.3076392358e+01   3.3637401111e+01    0.6475983    0.3168795 -20.80  0.002590706    2.122    0.529
        26 -11.0345    198.6501     28.4221   5.1916065701e+01   3.1265991294e+01    0.6390471    0.4013019  -7.81  0.002734173    1.865    0.464
        27 -10.7835     91.0408     21.2226   7.0755308028e+01   6.0443117896e+01    0.6639313    0.4348851 -26.16  0.002355527    1.544    0.352
        28 -11.1620     84.9633     15.5375   6.9947224834e+01   6.2678504044e+01    0.8875195    0.6122749  -0.74  0.004187908    1.756    0.430
        29  -9.5772     87.1261      7.3536   6.4830717369e+01   6.3282302821e+01    0.6745048    0.3819352  54.07  0.002898726    1.709    0.415
        30 -10.0359     50.2444      6.5886   7.9778518334e+01   7.1022042291e+01    0.2604371    0.1864876  36.56 0.0004677965    1.447    0.309
        31 -11.0590     32.7039     12.6087   9.3743096112e+01   7.2533080173e+01     0.248878    0.2091698  53.97 0.0004316739    1.568    0.362
        32 -11.6011     35.8861     17.9866   9.4545250922e+01   7.1068274187e+01    0.6602553    0.2980857 -38.25  0.002077531    2.189    0.543
        33 -12.2940     48.9345     12.9444   8.4309608429e+01   7.0163478751e+01    0.7399417    0.3677522  38.64  0.003429134    2.145    0.534
        34 -11.9007     68.4571     17.9877   7.7669692984e+01   6.5795122020e+01    0.5534207    0.4991625  18.07  0.002265165    1.095    0.087
        35 -12.1391    239.3449     16.0634   4.4582810280e+01   2.2728647132e+01     1.031309    0.5330583  53.58  0.004480874    2.184    0.542
        36 -11.2763    245.6906      7.8326   4.2040324337e+01   2.2101215744e+01    0.4582464    0.2832818  -9.81  0.002362001    1.775    0.437
        37 -11.1251    218.7479      3.2918   4.2631928724e+01   2.8777180393e+01    0.3445277    0.2849011 -32.57  0.001177694    1.133    0.118
        38 -11.0367    224.6200      2.2335   4.1931208874e+01   2.7452515382e+01    0.6045686     0.256947  88.39  0.002250617    2.725    0.633
        39 -10.5518    186.4212     15.1039   4.9144002886e+01   3.5928606751e+01      0.31808    0.2607066  63.61 0.0004681691    1.227    0.185
        40 -11.6439    192.7813      7.1800   4.5943520934e+01   3.5026282591e+01    0.8599761     0.522987  12.37  0.003135595    2.218    0.549
        41 -10.0247    191.8004     16.9884   4.9146395755e+01   3.4305870370e+01    0.3672657    0.2392711  34.83  0.001693079    1.831    0.454
        42 -10.1039    225.9477     15.5819   4.5491649787e+01   2.5873579044e+01    0.4049563    0.1659024 -28.97  0.001524221    2.075    0.518
        43 -10.6451    242.2868      3.6887   4.1196150866e+01   2.3234327311e+01    0.3636499    0.2217647  74.93  0.001976209    1.764    0.433
        44 -11.7856    234.6224      7.0102   4.2543501319e+01   2.4668132673e+01    0.8393641    0.4098446  80.14    0.0039367    2.229    0.551
        45 -11.2723    211.9568      9.6980   4.4988157788e+01   2.9857914235e+01    0.5427432    0.3319622   9.20  0.001711589    2.214    0.548
        46 -10.3670     64.1411     10.6100   7.5435750175e+01   6.7825624067e+01    0.6279925    0.2792396  39.32   0.00250042    2.415    0.586
        47 -10.1443     63.0589      6.3590   7.3368770447e+01   6.8674975230e+01    0.3356633    0.2427531  14.04  0.001413612    1.524    0.344
        48  -9.8805    168.9483      9.9499   4.9477135815e+01   4.1191140637e+01    0.3364123    0.2077879  47.43  0.001483814    1.681    0.405
        49  -9.2277    163.3764     10.2139   5.0288915321e+01   4.2699944685e+01    0.2530356    0.2134026  85.69 0.0009255558    1.175    0.149
        50  -9.4466    162.8491      5.9168   4.8793206165e+01   4.3265579959e+01    0.2754354    0.2195664  -7.56 0.0006552727    1.366    0.268
        51 -10.1749    151.6972      7.5443   5.0906233670e+01   4.6202806189e+01    0.5244953    0.2357657  65.90 0.0009452824    2.055    0.513
        52  -9.9001    185.0440      7.1984   4.6716271804e+01   3.7082892011e+01    0.2689498     0.198705 -35.55 0.0005195498    1.301    0.232
        53 -12.1634     19.2328     22.6031   1.0703624202e+02   7.1759811393e+01    0.9050128    0.6845069  40.80  0.005586917    1.593    0.372
        54 -10.5158     72.8264      3.1549   6.7380781826e+01   6.7065724803e+01    0.5073376    0.3015009  35.63   0.00240528    1.735    0.424
        55  -8.9304     78.4790      7.4754   6.7837473632e+01   6.5256658576e+01    0.3006605    0.2024567  59.95  0.001484045    1.618    0.382
        56 -10.4916     76.6109      3.7585   6.6345582902e+01   6.6151243609e+01    0.4407198    0.2644016  -4.91  0.001594608    2.017    0.504
        57 -10.6572     41.1755      4.8743   8.3832454907e+01   7.2784460724e+01    0.4133544    0.2385582 -18.63  0.001939652    2.163    0.538
        58 -10.4044    175.5098      5.2338   4.7068940077e+01   3.9847918733e+01    0.4590042    0.2713429  83.06  0.002048226    1.739    0.425
        59  -9.4972    122.6613      1.3263   5.3040822593e+01   5.4808811892e+01    0.4825024     0.132812  69.36  0.001443943    3.597    0.722
        60  -9.4752    117.1776      2.6069   5.4698063835e+01   5.6167272720e+01     0.350097    0.2381649  45.60  0.001468776    1.414    0.293
        61 -10.4174    111.5670      2.1390   5.5647555815e+01   5.7707087907e+01     0.558301    0.2893272  76.54  0.002234999    2.227    0.551
        62 -10.7437    105.1200      1.7893   5.6926180016e+01   5.9430479409e+01    0.5515974    0.3448903 -82.19  0.001016344    2.264    0.558
        63  -9.9433     21.9138      3.7912   9.6266730410e+01   7.5473353408e+01    0.3254269    0.1645463 -63.18  0.001468579    2.679    0.627
        64 -10.9463    142.5861      2.8687   5.0391366915e+01   4.9180442265e+01     0.385217    0.3313154  41.37  0.001104093    1.174    0.148
        65 -11.9032    133.3550      2.7088   5.1777937494e+01   5.1751543519e+01    0.4954902    0.3070623  64.97  0.001164741    1.510    0.338
        66 -11.2875    205.1414      2.6195   4.3465480871e+01   3.2237846695e+01    0.4847576    0.3453464  81.81   0.00130906    1.409    0.291
        67  -9.4360    157.6571      2.6763   4.8247449147e+01   4.5005440448e+01    0.2697466    0.2190426  38.68  0.001231817    1.297    0.229
        68  -9.3006    161.1174      1.0000   4.7201431548e+01   4.4193997934e+01    0.5163685    0.1255253  67.69  0.001159327    3.399    0.706
        69 -10.0679     13.0344      1.8915   1.0222515158e+02   7.6664238249e+01    0.2547039    0.1912928  -0.48   0.00117631    1.427    0.299
        70 -10.6306     82.1966      1.3406   6.3011940432e+01   6.5156649968e+01    0.2194214    0.1253425  55.84 0.0003359246    1.699    0.412
        71 -11.1264     46.9462    146.6483   1.1838237060e+02   3.9735752981e+01    0.4993466    0.4334587 -56.53  0.003331753    1.393    0.282
        72 -10.0385    214.7827    150.8770   8.0758557198e+01   1.0947275021e+01    0.2680804    0.2189016  -3.70 0.0009844883    1.121    0.108
        73 -11.3154     62.9112    150.0143   1.1457546128e+02   3.7098782401e+01    0.4358829    0.3602437  31.94  0.001743923    1.330    0.248
        74  -9.9096    234.5834    150.2472   7.7363654221e+01   7.6346712439e+00    0.1772074    0.1045383 -13.54 0.0009581676    1.695    0.410
        75  -9.7691    239.8167    146.8239   7.5866318742e+01   7.1701289500e+00    0.1904628     0.141605   9.55 0.0006110652    1.165    0.142
        76 -10.8423    249.3042    142.7597   7.3624829103e+01   6.0838942306e+00    0.5016804    0.2052948 -25.89  0.002405863    2.258    0.557
        77 -10.6573     33.0090    144.2252   1.2183132450e+02   4.1725088875e+01    0.2836861    0.2045006  58.10 0.0008141563    1.179    0.152
        78 -10.1291    133.2427    140.2032   9.5290233522e+01   2.7947270948e+01    0.3486095    0.2608657  33.06  0.001093084    1.309    0.236
        79 -12.0389     29.9227    132.8533   1.2174320232e+02   4.4566058392e+01    0.5571615    0.3507504  79.75 0.0003747284    1.426    0.299
        80 -10.0407     27.0114    139.9515   1.2309486722e+02   4.3237040459e+01    0.2129598    0.1804939 -59.05 0.0003382328    1.408    0.290
        81 -11.6488     23.3234    136.1442   1.2381206788e+02   4.4414930027e+01    0.5165502    0.3492329  58.58    0.0016729    1.267    0.211
        82  -8.7683    186.4720    139.4976   8.3619747971e+01   1.7801762887e+01    0.1368025     0.122082  19.53 0.0007308556    1.014    0.014
        83 -10.5443     80.4276    136.2374   1.0812703013e+02   3.7720374288e+01    0.4382641    0.3309135   4.35  0.001395855    1.972    0.493
        84 -10.3173     47.4223    135.3792   1.1711464585e+02   4.2199114733e+01    0.4076571    0.1662806 -60.56  0.001528784    2.396    0.583
        85  -9.1594     44.1546    133.1636   1.1779140620e+02   4.3063500649e+01    0.2504646    0.1219198  53.82 0.0008472868    1.936    0.483
        86  -8.9798     40.5794    137.8395   1.1924864157e+02   4.2384047310e+01     0.177184    0.1026141  84.90 0.0009377521    1.681    0.405
        87  -8.9908    216.6255    135.1924   7.7215623662e+01   1.2696627233e+01    0.1803486    0.1143678 -15.76 0.0007078978    1.622    0.384
        88 -10.7182     92.9216    129.5182   1.0362648261e+02   3.7270960509e+01     0.385209    0.2649711 -86.42  0.001910798    1.749    0.428
        89  -9.9656    107.2212    145.9722   1.0267781523e+02   3.1412484478e+01    0.2381202    0.1819816  43.51  0.000648745    1.185    0.156
        90  -9.9527     62.2272    131.4516   1.1249183833e+02   4.1312598933e+01    0.3950941    0.2551836 -35.48  0.001940735    2.310    0.567
        91 -10.3853     82.6118    124.6161   1.0565622363e+02   3.9995731736e+01    0.5084429    0.3682555  12.62   0.00171013    1.946    0.486
        92  -9.8845     73.6808    132.7582   1.0946378687e+02   3.9470134010e+01      0.26608     0.207538  53.54  0.001230067    1.174    0.148
        93  -8.9540    223.8410    126.7934   7.4202829996e+01   1.2473499353e+01    0.1669706     0.150588 -34.95 0.0004061951    1.318    0.241
        94 -10.7704     18.5902    124.3154   1.2428294614e+02   4.7494518352e+01    0.3313922    0.1734495 -76.83  0.001576027    1.674    0.403
        95 -10.3708     17.3102    100.9013   1.2274226118e+02   5.3098916296e+01    0.3325553    0.2721804  32.48 0.0006642862    1.379    0.275
        96 -11.3864      9.6668     97.4515   1.2499667074e+02   5.4433620734e+01    0.6934264    0.4422733  72.79  0.004117317    1.404    0.288
        97 -11.9885      7.1803     88.7716   1.2514074034e+02   5.6658590024e+01    0.7648768    0.5200486  25.27  0.002925825    1.695    0.410
        98 -11.7045     36.6634     93.1552   1.1514118967e+02   5.3349539120e+01     1.377822    0.4874395  52.07  0.001911215    3.434    0.709
        99 -11.8755     21.9162     95.1659   1.2058720823e+02   5.4140619124e+01    0.7007504    0.4722607  -8.40  0.002918651    2.127    0.530
       100 -12.4113     18.3428     90.2910   1.2130455229e+02   5.5587667179e+01    0.5865063    0.3589655 -41.13 0.0004765057    1.947    0.486
       101 -11.5970      2.4622    112.0912   1.2825682048e+02   5.1422784631e+01    0.5967821    0.2869239  70.23  0.002550665    1.831    0.454
       102 -11.9157      3.7698    105.6660   1.2748974386e+02   5.2840632526e+01    0.5498101     0.318417  73.54   0.00150013    1.490    0.329
       103 -13.4347     24.7812    110.4997   1.2124375178e+02   5.0225717026e+01     1.944832     1.296161 -30.87   0.01075823    2.123    0.529
       104 -12.0535     18.7613    106.1623   1.2275307385e+02   5.1734756247e+01    0.2321483    0.2088407  81.31 0.0002551475    1.108    0.097
       105 -11.8729     43.3391     85.4121   1.1143432819e+02   5.4562187677e+01    0.5686814    0.4099824  22.23   0.00167738    1.626    0.385
       106 -11.1973     37.3305     85.8232   1.1373878973e+02   5.5081569525e+01    0.4127361    0.3212774  56.85  0.001890506    1.311    0.237
       107 -10.7196     55.9279    123.2783   1.1321266201e+02   4.3990405595e+01    0.5263851     0.348079  21.18  0.001957285    1.865    0.464
       108 -10.6786     46.1204    120.7191   1.1580346789e+02   4.5732802144e+01     0.571062    0.2930176  65.06  0.002425626    2.154    0.536
       109 -11.6724    104.5275    121.8055   9.9004552986e+01   3.6990562617e+01      0.45797    0.4285185  82.90  0.001392628    1.054    0.051
       110  -9.7982     67.6023    124.0602   1.0989593592e+02   4.2298497526e+01    0.3445469    0.2053504  12.07  0.001477273    2.837    0.648
       111 -10.7072     33.2093    119.5862   1.1955933427e+02   4.7325384339e+01    0.2918283    0.2515311  75.71 0.0006168669    1.039    0.038
       112  -9.1624     22.8153    126.8176   1.2325954528e+02   4.6574614134e+01    0.1713596    0.1133027  62.83 0.0003569009    1.323    0.244
       113  -9.4817    148.3434    119.9444   8.7455210962e+01   2.8848816316e+01    0.2609784    0.1990886  18.05 0.0005811923    1.543    0.352
       114  -8.7816    137.9940    122.6924   9.0538782610e+01   3.0432231882e+01    0.2360818    0.1114117  26.60 0.0007026694    4.121    0.757
       115  -9.4675    185.3815    118.8112   7.9249529946e+01   2.1281217804e+01     0.202631    0.1314879 -21.72 0.0009534654    1.699    0.411
       116  -8.9378     81.5606    117.4789   1.0470174423e+02   4.1787415083e+01    0.1384591    0.1277894  77.85 7.975342e-05    1.011    0.011
       117  -9.8371    113.2910    115.9928   9.5404763002e+01   3.6642973528e+01    0.2603213    0.2071021  33.75 0.0003871249    1.297    0.229
       118 -10.6636    107.7787    112.2358   9.6097007638e+01   3.8489990740e+01    0.7080986    0.4152148 -74.18  0.002799924    2.598    0.615
       119 -10.8880    101.7980    109.7179   9.7235818340e+01   4.0144606944e+01    0.4706658    0.3478062  30.09  0.002347104    1.493    0.330
       120  -9.9348    103.1273    106.1054   9.6042062157e+01   4.0705040425e+01     0.308871    0.2051909  45.15 0.0004248004    1.464    0.317
       121  -9.7442     67.4924    113.9999   1.0831964305e+02   4.4661644166e+01    0.3186601    0.2024328  69.90  0.001538838    1.797    0.443
       122  -9.8002     66.9767    110.5199   1.0788287040e+02   4.5554857762e+01    0.3211553    0.2341944  36.40  0.001602383    1.413    0.292
       123  -9.3272     81.9814    102.7995   1.0168762832e+02   4.5127456553e+01    0.2055265    0.1909054 -31.89 0.0005381618    1.236    0.191
       124 -10.5653     90.2648    103.0546   9.9178884408e+01   4.3690258788e+01    0.4761433    0.3824041  76.24  0.002180685    1.351    0.260
       125 -11.2866     79.5276    108.4500   1.0360479855e+02   4.4195967741e+01    0.6194801      0.41345  46.20  0.002435329    1.463    0.317
       126 -10.1588     85.9062    103.9576   1.0071429841e+02   4.4216869561e+01    0.3778025    0.2309749 -46.13  0.001056305    1.761    0.432
       127 -11.2096    170.7001    110.3113   8.0189468273e+01   2.5829955533e+01    0.5200895    0.3945144  33.49  0.001906751    1.311    0.237
       128  -9.7595     94.6437    111.9481   9.9784383774e+01   4.0909749332e+01    0.2916123    0.2129244  48.90  0.001486517    1.326    0.246
       129  -9.6878     48.9771    112.0922   1.1378549552e+02   4.7456586462e+01    0.2483031    0.1789667  39.71  0.001211688    1.399    0.285
       130 -10.0088    120.2628    109.1885   9.1982034413e+01   3.6739096548e+01    0.2726084    0.2254274 -15.00  0.000774175    1.511    0.338
       131 -10.0975    130.4892    109.2485   8.9311798916e+01   3.4650825707e+01    0.2956643    0.2072805  43.66  0.001412796    1.373    0.271
       132  -9.4472     58.4725    108.4137   1.1021140078e+02   4.7187985189e+01     0.263394     0.126676 -68.91 0.0006845403    2.014    0.504
       133 -10.7956    157.5338    106.4010   8.2083762973e+01   2.9407888225e+01    0.4208086    0.3078973   2.26  0.001407511    1.836    0.455
       134  -9.1822    161.9585    105.0133   8.0746991414e+01   2.8682828368e+01    0.1989349    0.1780103 -87.60 0.0003163822    1.337    0.252
       135 -10.8101    143.4588    106.0989   8.5299308639e+01   3.2535348391e+01    0.3388946    0.2656493  56.12  0.001288378    1.308    0.236
       136 -11.9641    145.7964    100.3590   8.3266737431e+01   3.3132608000e+01    0.5729955    0.5095664  -5.90  0.001810609    1.233    0.189
       137  -8.9621     47.7489     90.9830   1.1083766188e+02   5.2707847676e+01    0.3848021    0.1906111  49.39  0.001465353    2.159    0.537
       138 -10.3233     47.4534    103.8070   1.1306136707e+02   4.9621494136e+01    0.3957267    0.2431365 -33.12  0.001348611    2.371    0.578
       139 -10.8362     52.1914     97.8332   1.1049705808e+02   5.0517760585e+01    0.8728847    0.2405023 -66.40  0.002955308    3.407    0.706
       140 -10.5682     57.8202     97.4469   1.0851336526e+02   4.9911251535e+01    0.5346119     0.317373  58.40  0.002535129    1.871    0.466
       141 -10.2061     57.5200    102.4812   1.0951771894e+02   4.8733873831e+01    0.3975574    0.3451749  25.43  0.002360707    1.324    0.245
       142 -10.4125     64.3157     99.1699   1.0665842539e+02   4.8630920560e+01    0.2968518    0.2563502  -8.69 0.0006290995    1.487    0.327
       143 -10.5680     68.5286     95.4435   1.0450202362e+02   4.8929249708e+01    0.3996698    0.3663878  12.04   0.00189072    1.289    0.224
       144  -9.5628    120.9561    101.0538   8.9811897838e+01   3.8315719484e+01    0.2384651    0.1891327  -1.75  0.001133258    1.701    0.412
       145 -12.3095     78.9795     95.7366   1.0110632125e+02   4.7265773474e+01    0.7551412    0.5228685 -40.40  0.000637851    1.652    0.395
       146 -11.1428     89.8779     89.4270   9.6061062411e+01   4.6890610436e+01    0.6671106    0.3742148 -39.27  0.002779281    2.112    0.527
       147 -10.0900     60.5335     83.4228   1.0468973724e+02   5.2947284649e+01    0.2761766    0.2640234  48.50 0.0005970697    1.126    0.112
       148 -12.9039     52.6327     73.7920   1.0545069144e+02   5.6314411995e+01    0.5571613    0.3133555 -68.40 0.0009054338    1.740    0.425
       149 -10.2521     58.3449     78.3308   1.0432694693e+02   5.4473250217e+01    0.3353197    0.2888096  62.34 0.0008839307    1.206    0.171
       150 -10.8207     46.9510     74.5431   1.0786323312e+02   5.6818706816e+01    0.3919155    0.2070579 -65.35  0.001823657    1.722    0.419
       151 -11.0516     66.8100     81.8577   1.0204700749e+02   5.2433676753e+01    0.9821892    0.4641505 -58.89  0.004133063    1.990    0.497
       152 -10.4248     81.1657     83.6070   9.7449114493e+01   4.9749615428e+01    0.6381918    0.5395128  77.33  0.003432675    1.274    0.215
       153 -11.5248     73.0122     78.5015   9.8967144500e+01   5.2281665743e+01    0.6660399    0.6026028   6.38  0.003764577    1.290    0.225
       154 -10.0898    210.6993     97.6697   6.9543951845e+01   1.9120372851e+01    0.3666884    0.2680919  21.88  0.001897496    1.471    0.320
       155  -9.6934    141.0925     96.3357   8.3349482970e+01   3.4955148925e+01    0.4696021     0.234755  38.95  0.001799636    2.151    0.535
       156  -9.8776    138.9639     93.1263   8.3010540040e+01   3.6057926604e+01    0.3080239    0.2205951  38.39   0.00117794    1.425    0.298
       157 -10.3499    117.5782     93.1064   8.8682022688e+01   4.0696094338e+01    0.5206612    0.3401311  29.50  0.001390416    1.844    0.458
       158 -10.6274    120.9793     89.5227   8.6757945371e+01   4.0733165163e+01    0.4539756    0.2942936  27.82  0.001636108    1.957    0.489
       159 -10.8227    120.8209     85.3206   8.5619219841e+01   4.1642197099e+01    0.4520713     0.306642  50.18  0.002062557    1.473    0.321
       160 -10.4722    126.3485     93.7032   8.6436493803e+01   3.8714159942e+01    0.4521148    0.3377318 -66.32  0.001292235    1.597    0.374
       161 -10.4502    122.5071     93.5399   8.7432580299e+01   3.9568884596e+01    0.3008164    0.2792203 -81.73 0.0008880664    1.135    0.119
       162  -9.4937    160.7291     93.8263   7.8082146812e+01   3.0968407656e+01    0.2875708    0.2053738  81.12  0.001237843    2.063    0.515
       163 -10.6674    152.8091     91.7136   7.9291691503e+01   3.3177960251e+01    0.5683829    0.3615421  53.88  0.002342429    1.599    0.375
       164 -12.9105    101.8261     90.1294   9.2499756838e+01   4.4510329684e+01    0.5318751    0.4084955 -37.59 0.0005898201    1.417    0.294
       165 -10.1491    104.9495     76.5138   8.7690234667e+01   4.6868625519e+01    0.4749257    0.4457198  -9.38  0.002570496    1.163    0.140
       166 -11.0487    113.5036     84.2799   8.7406011781e+01   4.3424565367e+01    0.6871881    0.3614285 -38.02  0.002064733    2.108    0.526
       167 -10.6783    109.3379     80.5961   8.7569085774e+01   4.5082862724e+01    0.3906747    0.3559995 -11.04  0.001073215    1.231    0.188
       168  -9.7768     66.9529     88.4630   1.0353249759e+02   5.0830642068e+01    0.2681682    0.2094304 -32.89  0.001272999    1.532    0.347
       169  -9.3461    211.1653     88.1660   6.7061608608e+01   2.0371006501e+01    0.2158629    0.1823434  13.17  0.000671069    1.195    0.163
       170  -9.2135    199.9772     88.0133   6.8865668950e+01   2.2885614508e+01    0.1763218    0.1651498  27.54 0.0007430455    1.071    0.066
       171 -10.4365    183.5833     85.6524   7.1171758792e+01   2.7025750884e+01     0.680971    0.2900119 -45.66  0.002427632    2.704    0.630
       172 -10.4747    165.6889     83.4275   7.4116975501e+01   3.1632882279e+01     0.426222    0.3527937 -58.30  0.001575501    1.362    0.266
       173 -11.2492    143.1593     83.9130   7.9373348139e+01   3.6877849277e+01    0.3703428    0.3338975 -59.64  0.000871251    1.181    0.153
       174 -10.5029    127.3593     83.1547   8.3201258259e+01   4.0643952190e+01    0.3441175    0.3142312 -41.78  0.001565189    1.109    0.098
       175  -8.8375    239.6410     82.6739   6.1583138557e+01   1.5086921597e+01     0.141871    0.0941491  16.68 0.0007043428    1.782    0.439
       176 -10.4337    232.6268     77.4684   6.1213239228e+01   1.7185104199e+01    0.4663728    0.2587582 -34.44  0.002253159    1.628    0.386
       177 -11.7884     13.9512     74.8606   1.2115397760e+02   5.9639604120e+01    0.5150493    0.3830557 -67.91  0.002119059    1.168    0.144
       178  -9.3000    170.2043     77.8044   7.1564028196e+01   3.1497786707e+01    0.2257662    0.2102456 -73.43 0.0006259796    1.182    0.154
       179 -10.5885     93.8773     76.4567   9.1205147296e+01   4.9086727038e+01    0.5850928    0.3496307  34.32  0.001842812    1.870    0.465
       180 -11.6755     85.7544     73.6013   9.3102054975e+01   5.1244642961e+01    0.7175916    0.6499754  69.73  0.003952722    1.156    0.135
       181 -11.0460     79.0403     67.5386   9.3662153971e+01   5.3814330429e+01    0.6974118    0.5231038  84.83  0.003343937    1.762    0.432
       182 -11.2123     76.1536     57.6985   9.1561784174e+01   5.6523843337e+01    0.5910594    0.4060367 -66.23   0.00192047    1.691    0.409
       183 -11.9711     72.9475     47.8464   8.9288194912e+01   5.9227682337e+01     1.098762    0.8831263  75.65  0.003561891    1.604    0.377
       184  -9.5516     33.1751     77.6306   1.1392672096e+02   5.7491006121e+01    0.2163669    0.1736657 -66.87  0.001039392    1.109    0.098
       185 -10.4050     53.1204     49.2240   9.8282893617e+01   6.2057218538e+01     1.035744    0.5979631  76.54  0.003477133    4.470    0.776
       186 -10.5709     22.9448     37.0191   1.0954709629e+02   6.8173531392e+01    0.4781681    0.2960591  59.64  0.001948172    2.171    0.539
       187 -10.8865     33.9701     42.8117   1.0542424320e+02   6.5827989251e+01    0.5923309    0.3766369 -44.77  0.001947017    1.453    0.312
       188 -11.7469     21.3964     47.2420   1.1303645822e+02   6.5869707517e+01    0.5215397    0.3665573 -44.58 0.0008727837    1.355    0.262
       189 -10.1265     29.0191     46.6133   1.0903410672e+02   6.5402660907e+01    0.2702329    0.1907264 -34.55 0.0004594128    1.492    0.330
       190 -11.7982      1.9688     71.5626   1.2559525707e+02   6.1062152767e+01    0.6510912    0.1573978 -76.15  0.002498826    3.109    0.678
       191 -12.5716      6.6388     62.4329   1.2266143460e+02   6.3062871210e+01    0.7959238    0.4711896 -38.99  0.004104983    1.858    0.462
       192 -11.9892     25.8422     55.3933   1.1271724514e+02   6.3562963554e+01     0.962214    0.7186139  -0.86  0.005642022    1.655    0.396
       193 -11.1938     57.6224     61.6942   1.0024431388e+02   5.8543043147e+01    0.7930062    0.5022911  65.84  0.003565195    2.237    0.553
       194 -11.4434     40.0993     56.3637   1.0635886055e+02   6.1984324580e+01    0.6057978    0.4305205  65.45  0.002461341    1.710    0.415
       195 -11.4721     46.4217     49.0904   1.0131714016e+02   6.2965626053e+01    0.4965817    0.4044534  -1.53  0.001674635    1.453    0.312
       196 -11.9654     41.6877     45.3942   1.0238740023e+02   6.4390239988e+01    0.4447601    0.3871728  25.65 0.0003309294    1.282    0.220
       197 -11.8197     50.7060     61.0696   1.0297298009e+02   5.9613659415e+01    0.3586393    0.2998519  53.80 0.0005321127    1.309    0.236
       198 -11.4982     46.0996     58.1780   1.0416728008e+02   6.0868819494e+01     0.584264    0.2913803 -60.14  0.001969197    1.792    0.442
       199  -9.8476    134.8089     77.5569   7.9571779668e+01   4.0044102160e+01    0.3551938    0.1511272  58.59  0.001142645    2.993    0.666
       200  -9.4937    126.8770     76.8651   8.1448693418e+01   4.2012554255e+01    0.2314599     0.210562  13.64 0.0002959922    1.198    0.165
       201 -10.0295     14.4627     67.2958   1.1993758579e+02   6.1456908866e+01    0.3391551    0.3253774 -30.78  0.002224736    1.232    0.188
       202 -12.1038    186.6347     70.5551   6.6358126582e+01   2.8647361912e+01    0.8960069    0.6288264 -30.48  0.003167461    1.383    0.277
       203  -9.7955    184.2861     61.2840   6.4032979189e+01   3.0612726376e+01    0.3382423    0.2738261 -19.18 0.0007566154    1.251    0.201
       204  -8.9068    242.3402     75.6936   5.9532290015e+01   1.5398630706e+01    0.1341693   0.09519275 -54.15 0.0007042019    1.682    0.406
       205 -11.7561     40.7757     70.7231   1.0951620703e+02   5.8435326027e+01     0.553058    0.2823611 -57.64   0.00261881    1.708    0.415
       206 -11.4332     32.0907     71.9979   1.1334133135e+02   5.8974065027e+01    0.5764733    0.2946649  26.86  0.002804392    2.170    0.539
       207  -9.3333    151.2816     73.4517   7.4323470591e+01   3.6862611262e+01     0.301345    0.1422644  47.60  0.001121561    2.094    0.522
       208  -9.8034    128.5223     64.4705   7.7039681066e+01   4.4029011196e+01     0.559642    0.3823424 -28.31  0.002230257    1.597    0.374
       209 -10.6583    123.3393     72.9394   8.1195246789e+01   4.3601208521e+01    0.4024278    0.3762929  72.81  0.000964594    1.111    0.100
       210 -11.1951    123.5012     68.4822   7.9721521051e+01   4.4442792746e+01    0.4180368    0.3528937 -52.42   0.00118218    1.221    0.181
       211 -10.8640    119.8328     68.6108   8.0788063484e+01   4.5262303524e+01    0.4841613    0.3041618 -51.95  0.001437728    1.720    0.419
       212  -9.2183     61.4678     72.9874   1.0181650900e+02   5.5325271235e+01    0.2360822    0.1375464  43.79 0.0007313543    1.814    0.449
       213  -9.8750    162.1567     70.6587   7.1088321380e+01   3.4667509626e+01    0.3369947    0.2588364 -82.43  0.001316005    1.707    0.414
       214 -10.7279    171.7448     66.9723   6.8034928033e+01   3.2881674653e+01    0.6237553    0.3596142 -43.18  0.002617867    1.771    0.435
       215 -11.4635    219.7450     66.4455   6.0085915184e+01   2.1415106719e+01    0.6678337    0.3704342  52.83  0.002470031    1.877    0.467
       216  -9.0252     70.0436     66.9809   9.6856886875e+01   5.5447056139e+01    0.1731597    0.1537505 -57.76   0.00045785    1.061    0.058
       217 -10.1871     21.5633     65.4681   1.1660650330e+02   6.1432692038e+01     0.348174    0.2011735  67.55  0.001239702    2.013    0.503
       218 -10.2466     25.9485     65.3138   1.1467982720e+02   6.1136661299e+01     0.226767    0.1762575 -63.50 0.0002996751    1.123    0.109
       219  -9.8483    192.5732     65.7401   6.3955704862e+01   2.7913247228e+01    0.2756482    0.2367847 -80.49 0.0007824546    1.351    0.260
       220  -9.3693     53.3729     65.9249   1.0317702110e+02   5.8113341143e+01    0.2685728    0.1675233  56.24  0.001266678    1.941    0.485
       221 -10.3940    106.2442     63.9615   8.3276640750e+01   4.9231862177e+01    0.3857912    0.2958679  24.28  0.001642525    1.550    0.355
       222 -10.1539     98.9516     61.7798   8.4863440645e+01   5.1237584707e+01     0.449948    0.3210488 -17.13    0.0016437    1.888    0.470
       223 -11.4408     91.2371     62.8960   8.7835113204e+01   5.2570158513e+01    0.8850832    0.4695314  51.45  0.001033222    2.083    0.520
       224 -10.9374     91.5001     57.9387   8.6041131010e+01   5.3570630917e+01    0.4055388    0.2968588  43.13  0.001337477    1.405    0.288
       225 -10.8191     87.5987     56.7870   8.7006731412e+01   5.4588611427e+01    0.5367668    0.2433438 -40.78  0.001772662    2.248    0.555
       226  -9.7020    197.9131     62.7516   6.2239305361e+01   2.7040082428e+01    0.2746574    0.2118856 -82.39  0.001168325    1.624    0.384
       227 -10.7540    159.4944     61.6701   6.8829976404e+01   3.6826399967e+01    0.5184978    0.3428339  34.46  0.002236277    1.735    0.424
       228 -10.0413    162.4029     45.0102   6.2752058129e+01   3.8649919104e+01    0.5451436    0.3573481  -8.42  0.002302932    1.903    0.474
       229 -11.1353    157.5139     54.9350   6.7042298080e+01   3.8418325251e+01    0.5870153    0.5454389 -62.87  0.003000518    1.123    0.110
       230 -10.8575    155.1637     49.5214   6.5700410728e+01   3.9876848859e+01    0.4639629    0.3165022  -4.95 0.0006061691    1.896    0.473
       231 -11.5866    156.0834     41.7959   6.2843729329e+01   4.0792689736e+01    0.4670555    0.3921575 -35.20  0.001168349    1.185    0.156
       232 -10.9315    153.0478     36.0829   6.1394313432e+01   4.2417924009e+01    0.3270027    0.2953784 -67.51 0.0003815047    1.159    0.137
       233 -10.2320    143.0913    249.3369   1.0811452434e+02   9.5249269796e+00    0.1745886    0.1007251  29.22  0.001186851    1.445    0.308
       234  -9.6113    175.0291    246.4927   1.0239004058e+02   5.6108866317e+00    0.1716518   0.07493649  36.94 0.0008826712    1.611    0.379
       235 -11.4125    113.2522     49.4675   7.5959374076e+01   5.0458908368e+01    0.6247376    0.4266482  30.09  0.001855383    1.747    0.428
       236  -9.2346    156.6556    246.3395   1.0548637611e+02   8.0723825612e+00    0.1048107   0.06636043  52.87 -0.0002512271    1.779    0.438
       237  -9.5083    199.0923    244.5190   9.8198430032e+01   2.6407440941e+00    0.1665474    0.0743361  35.92  0.001035288    1.600    0.375
       238  -9.6440    147.2579     60.8561   7.1224702808e+01   4.0062524169e+01    0.3764718    0.2031202  54.48  0.001391009    1.836    0.455
       239 -11.3694    140.2102     43.3181   6.6703777413e+01   4.4753341077e+01    0.8426069    0.5238346  31.72  0.001524259    1.999    0.500
       240 -10.9373    138.5425     32.7472   6.3085104054e+01   4.6773400199e+01    0.6254279    0.5510459 -67.00  0.002023846    1.222    0.181
       241 -10.8566    136.4977     56.3233   7.2228286580e+01   4.3551688337e+01    0.7815819    0.5414272   3.28  0.002318367    2.102    0.524
       242 -10.7460    133.8106     49.7239   7.0546871979e+01   4.5360603145e+01     0.435884    0.3063952 -65.37  0.001188825    1.831    0.454
       243 -11.1934    145.9496     47.3401   6.6883582656e+01   4.2624139395e+01    0.6677362    0.4727373  -0.95  0.002246507    1.836    0.455
       244  -9.9984    146.2339     43.0246   6.5278799783e+01   4.3218514784e+01    0.2851884    0.2008488 -27.58 0.0003379476    1.448    0.309
       245 -10.1057    101.4855     56.6583   8.2240940133e+01   5.1745691569e+01    0.4754342     0.325283 -79.55    0.0016275    2.388    0.581
       246  -9.7713    105.4009     56.6352   8.0986631833e+01   5.0892145001e+01    0.4842116    0.2324267 -56.83  0.001614051    3.056    0.673
       247  -9.4038      1.9702     56.3117   1.2400726657e+02   6.4742811938e+01    0.1545349     0.140907 -68.97 0.0003959858    1.140    0.123
       248  -9.3718    237.4023     54.2665   5.4710968051e+01   1.9010359531e+01    0.2540322    0.1792207 -73.31 0.0007477829    1.820    0.451
       249 -10.1241    244.7274     51.0087   5.3098139903e+01   1.7819582745e+01    0.2410166    0.1808945 -22.81 0.0008293578    1.185    0.156
       250 -10.9373    240.3479     50.3970   5.3397479004e+01   1.8824506820e+01    0.3495641    0.3149545 -27.02 0.0006720967    1.022    0.021
       251  -9.8986     67.0381     54.5839   9.4112267264e+01   5.8757849354e+01    0.2722965    0.1955411 -68.22 0.0008183046    1.567    0.362
       252 -10.8071    127.5880    241.2358   1.1007066405e+02   1.2562091208e+01    0.1992009    0.1698544 -55.36  0.001401207    1.640    0.390
       253  -8.9792    163.5142    243.5211   1.0401369204e+02   7.4697059945e+00    0.1084991   0.07629512  34.56 7.100844e-05    1.041    0.039
       254 -11.1786     60.7262     36.0930   8.9828797681e+01   6.3779957716e+01     0.477714    0.2333967 -43.27  0.001730947    1.914    0.477
       255 -11.4027     56.7512     31.2206   8.9570578355e+01   6.5420428422e+01    0.3812211    0.3542049  -3.01 0.0008918302    1.093    0.085
       256 -11.4088     48.1117     30.7374   9.3646296597e+01   6.6817003199e+01    0.6467886    0.3033725  29.10  0.002709242    2.509    0.601
       257 -11.0262     32.9220     58.8982   1.1024705637e+02   6.2097067584e+01    0.4258509    0.2524243 -27.18 0.0003437218    2.237    0.553
       258  -9.6880    187.8580     55.1586   6.1593245076e+01   3.0598646761e+01    0.3153661    0.2044735  54.69  0.001256644    1.555    0.357
       259 -10.3147    211.1592     53.0701   5.7572374258e+01   2.5145333609e+01     0.412945    0.2016004  63.13  0.001309588    2.183    0.542
       260 -10.8623    202.0506     47.1539   5.7097092471e+01   2.8123314028e+01    0.5483138    0.3862774 -19.33  0.002362794    1.428    0.300
       261 -10.8440    174.1006     48.1114   6.1681708589e+01   3.5130050526e+01    0.5979762    0.4479765  78.83   0.00231106    1.496    0.331
       262  -9.6732    176.4859     43.6954   5.9852376499e+01   3.5123296793e+01    0.3101948    0.2368368 -84.06  0.001192857    1.531    0.347
       263 -10.1302     90.8333     47.8356   8.2533564042e+01   5.5772416260e+01    0.3365481     0.248779 -49.24  0.001181122    1.364    0.267
       264  -9.5192      2.8178     48.8888   1.2265066381e+02   6.6497060980e+01    0.2678043    0.1987574  10.79  0.001721929    1.653    0.395
       265  -9.5606      2.9708     44.5220   1.2193578691e+02   6.7538102644e+01    0.3205452    0.1249133 -32.59  0.001409784    3.085    0.676
       266  -9.1037      6.0000     42.9572   1.2010684167e+02   6.7790215355e+01    0.5112895    0.2054789  83.65  0.002025532    3.341    0.701
       267  -9.2945     14.3264     46.3105   1.1642735110e+02   6.6560708900e+01     0.306174    0.1591377 -37.38  0.001538519    2.068    0.516
       268 -10.3394     17.7146     41.5702   1.1360324831e+02   6.7481120204e+01    0.8499014    0.2215477 -41.73  0.002750273    4.663    0.786
       269  -9.8363    208.9724     47.0858   5.6158280274e+01   2.6432221397e+01    0.3140525    0.2214762 -76.49  0.001511633    1.755    0.430
       270 -10.1032    194.9034     46.5406   5.7915434578e+01   2.9992141951e+01    0.5491042    0.2732651  88.70  0.001778688    3.786    0.736
       271  -9.8944    234.7826     45.5023   5.2712637516e+01   2.0606878608e+01    0.2735364    0.1838036 -51.32 0.0007397546    1.526    0.345
       272 -10.2532    145.6186     52.2209   6.8668412563e+01   4.1925882727e+01    0.4108705    0.3344363  23.45  0.001453041    1.383    0.277
       273 -11.2475     95.8404     41.8259   7.8406230003e+01   5.5854928253e+01    0.9512735    0.4233188  57.49  0.003349567    2.818    0.645
       274 -10.7788    189.0206     41.4406   5.7202787942e+01   3.2159444317e+01    0.5367656    0.2444396 -23.55 0.0009453015    2.249    0.555
       275  -9.0491    193.4027     39.2773   5.5915235177e+01   3.1308023502e+01    0.2265278    0.2003266  34.49 0.0005370845    1.208    0.172
       276  -9.9362     86.9158     29.4242   7.6104271888e+01   6.0033758369e+01    0.5452524    0.2488778 -25.40  0.001907985    2.921    0.658
       277 -10.7392     81.1069     39.7667   8.2842842017e+01   5.9340478135e+01     0.710834    0.4593711  51.58  0.003315076    1.691    0.409
       278 -10.7500     77.7040     34.4389   8.1865937457e+01   6.1038797181e+01    0.4913098    0.2957571  48.52  0.001237319    1.768    0.434
       279 -10.6062     81.9337     31.7684   7.9023334294e+01   6.0677445255e+01    0.4424385    0.3129393 -61.01  0.002071613    1.821    0.451
       280 -10.5472    230.9397     38.9950   5.1385686129e+01   2.2214518882e+01    0.5134525    0.2675602 -63.85   0.00170979    2.622    0.619
       281  -9.1906    217.7316     38.9803   5.2798323052e+01   2.5301928634e+01     0.202902    0.1731111 -32.96 0.0004896759    1.077    0.072
       282  -9.8452    182.4138     32.2278   5.5223285082e+01   3.5051877795e+01    0.2812692    0.2147028  24.35  0.001029391    1.526    0.345
       283 -10.8375    176.8122     36.6950   5.7513971087e+01   3.5971723534e+01    0.4595986    0.3522849   6.86  0.001442462    1.540    0.351
       284 -10.0966    172.1319     32.8881   5.6973014786e+01   3.7710211967e+01    0.4465734    0.2462571  65.14  0.001863643    1.811    0.448
       285  -9.1992     68.3320    240.3041   1.2065480834e+02   2.0099437387e+01   0.08994517   0.07401407  18.56 0.0007037001    1.658    0.397
       286 -10.6404    176.5996     29.8132   5.5265319647e+01   3.6896789291e+01    0.4963955    0.2964676  39.48  0.001298499    1.916    0.478
       287 -11.5046    182.5170     25.3565   5.2968587876e+01   3.5845446222e+01    0.4804505    0.3687562  56.88  0.001276477    1.313    0.239
       288  -9.1895    187.5223     22.5595   5.1422856064e+01   3.4832896462e+01    0.2297391    0.1895797  -9.11 0.0005715057    1.298    0.229
       289  -9.6744    133.0996     36.8311   6.5881903778e+01   4.7610774118e+01    0.4123007    0.2715899 -70.04  0.001671623    2.141    0.533
       290  -9.8529    206.8529     37.0132   5.3503053646e+01   2.8187615602e+01    0.2288805    0.2148775  77.16 0.0007124607    1.116    0.104
       291  -8.6563    221.5203    239.4912   9.4001037044e+01   2.1231936147e-01    0.1056175   0.07144427  21.82 0.0008102627    1.009    0.009
       292 -10.7609    149.8560    237.9748   1.0579532852e+02   9.9642278639e+00    0.2668951    0.1638786  33.93  0.001846682    1.199    0.166
       293  -9.5674    167.6749    237.3332   1.0261119871e+02   7.5984655941e+00    0.1035751   0.07099455  52.39 0.0007051065    1.711    0.415
       294 -11.8359    115.0967     24.9323   6.5396220110e+01   5.4027764024e+01    0.4373182    0.2953277  47.94 0.0007923208    1.447    0.309
       295 -10.7119    198.0530    232.9258   9.6927315437e+01   3.9192840313e+00    0.2360235    0.2308275  89.27  0.002006168    1.777    0.437
       296  -8.8774     93.9832     35.9611   7.6562807065e+01   5.7333693412e+01    0.2233655    0.1810026 -78.04 0.0005765697    1.604    0.377
       297  -9.8241     15.0411    233.5902   1.2982869001e+02   2.6627987313e+01    0.1769844    0.1181518  74.66  0.001081389    1.323    0.244
       298 -10.2566    247.3480    231.5372   8.8993771947e+01  -2.3360902282e+00    0.1705383    0.1052806 -11.40 0.0007129954    1.564    0.361
       299  -9.1614    241.3277    230.6855   8.9773572639e+01  -1.5234395382e+00    0.1326518   0.07973311  -6.19  0.000779309    1.597    0.374
       300  -9.6907     23.4170    231.6807   1.2830329533e+02   2.6148472660e+01    0.1792184   0.07491354  44.49 0.0007292154    1.563    0.360
       301 -10.6630     31.5124     28.0406   1.0161178819e+02   6.9434807897e+01    0.3426369    0.2209223 -55.00  0.001873456    1.355    0.262
       302  -9.2999    108.0000    229.9996   1.1263138943e+02   1.6679271980e+01    0.1379791   0.06370812 -61.22 0.0006825011    2.894    0.654
       303  -9.9207    234.1997    223.0205   8.9776489114e+01   5.0574830509e-02    0.1715722    0.1048802  15.09 0.0007621336    1.312    0.238
       304 -10.5988    240.4666     32.1966   4.8686133362e+01   2.0823124191e+01    0.5532043    0.3994009 -28.45  0.003136417    1.218    0.179
       305  -9.5771    248.8644     33.2791   4.8235222657e+01   1.8886683839e+01    0.2512084    0.1482042 -35.77  0.001323569    1.427    0.299
       306 -10.3515    144.5550     25.2699   5.8974622216e+01   4.6164605566e+01    0.5576571    0.3604882  73.46  0.002446522    1.646    0.393
       307  -9.2082      9.6404    217.7700   1.3039328273e+02   2.9654886821e+01    0.1344451   0.06898279  74.01  0.000940279    1.615    0.381
       308 -10.4837    165.3999    212.4892   9.9983709042e+01   1.0921850209e+01     0.241373    0.1489645  49.95  0.001464481    1.693    0.409
       309  -9.2158    204.6614    208.3242   9.2428198047e+01   5.5977153281e+00    0.1025603   0.08406606  51.59 0.0002909149    1.722    0.419
       310  -9.6314    152.9242    207.9151   1.0172634860e+02   1.3405538614e+01    0.1803962    0.1257907  56.68 0.0009671061    1.666    0.400
       311  -9.2730     60.9037    207.0922   1.2000131236e+02   2.6244037379e+01     0.175482    0.1112867  56.32  0.000492578    1.240    0.194
       312 -11.0452      4.9615    202.8242   1.3090464257e+02   3.2610578776e+01    0.7089787   0.09462921 -72.73  0.002726995    6.408    0.844
       313 -12.1613      4.7433    184.5391   1.3047372424e+02   3.5959145677e+01    0.5871605    0.3570754  61.85   0.00420947    1.199    0.166
       314 -10.2727     68.5119     32.9910   8.5016178078e+01   6.3060834681e+01    0.4658912    0.3340225  42.79  0.002310748    1.477    0.323
       315  -9.6847    238.6676    204.3421   8.6280923579e+01   1.1916315326e+00    0.2207723    0.1183323 -16.09  0.001375667    1.912    0.477
       316  -9.3042    216.6072     32.2561   5.1024296238e+01   2.6346559809e+01    0.1887159    0.1298424 -11.84 0.0004344757    1.546    0.353
       317 -10.5666    245.6386    200.8840   8.4661890861e+01   5.7288083858e-01    0.1933877    0.1145873  23.41 0.0007309939    1.319    0.242
       318 -10.3127    157.2938     20.3511   5.4891286122e+01   4.3277842631e+01    0.4960439    0.2385959  68.47  0.001923974    2.068    0.517
       319  -9.0221     35.9641     31.1884   1.0032217300e+02   6.8258235951e+01    0.2031649    0.1420293  60.70  0.001052599    2.000    0.500
       320 -10.0165    230.5524     27.6269   4.8369545058e+01   2.3552646180e+01    0.4398068    0.1751844 -31.98  0.001546983    2.077    0.518
       321  -9.5301    221.3157     29.6384   4.9802056980e+01   2.5505847002e+01    0.2332854    0.1845107 -23.84  0.000685024    1.198    0.165
       322 -10.0565     98.5074     28.3129   7.1678613129e+01   5.7594413416e+01    0.5306838    0.2934204 -51.83  0.001770543    2.282    0.562
       323  -9.3563     41.3511     27.8971   9.6000566896e+01   6.8324742602e+01    0.3641158     0.150562 -38.05  0.001141295    2.686    0.628
       324  -9.1440     66.9291     27.8802   8.3341490892e+01   6.4328998950e+01    0.2888133    0.1738679  17.33  0.001054134    2.589    0.614
       325 -10.1007    250.5544     26.3332   4.6355707767e+01   1.9246477362e+01    0.3266377    0.1079357 -25.01 0.0006796084    2.550    0.608
       326  -9.5476    205.2543     17.4100   4.7870544043e+01   3.0778261299e+01     0.383835    0.2014465 -57.95  0.001627127    2.103    0.524
       327 -10.6184    214.2031     23.7994   4.8857002726e+01   2.7865409132e+01    0.4221096    0.3256453 -14.29  0.001649701    1.334    0.250
       328 -10.5977    211.3688     18.8126   4.7690288854e+01   2.9093786994e+01    0.3546101    0.2274176  57.52 0.0002628614    1.632    0.387
       329  -9.5780    161.5254     23.4678   5.5355565466e+01   4.1750103400e+01    0.2480187    0.1995697 -34.27 1.324736e-05    1.235    0.190
       330  -9.5502     86.2666     23.6867   7.3608034356e+01   6.1134701200e+01    0.2016293    0.1751469  59.10            0    1.253    0.202
       331  -8.5725    207.3196    201.3096   9.0917063785e+01   5.9886780156e+00     0.119791   0.07277123  14.36 0.0007034436    1.642    0.391
       332  -8.5628      1.3090    200.2916   1.3155064609e+02   3.3357201557e+01   0.08177683   0.07601717 -68.73 0.0002757914    1.582    0.368
       333 -10.2439    234.5892    196.8112   8.5720419814e+01   2.4995904223e+00    0.3789732    0.1998805  20.24  0.002095521    1.754    0.430
       334  -9.2063    141.4395    194.5379   1.0221658368e+02   1.7119386388e+01    0.1230261   0.09934482  35.44 7.581784e-05    1.035    0.034
       335 -10.3259     47.0474     18.9494   8.8618032491e+01   6.9346931348e+01     0.347725    0.3119564  23.21  0.001547279    1.192    0.161
       336  -8.5912     83.7402    195.9780   1.1438452712e+02   2.5330339299e+01     0.128197   0.09875675 -78.17 0.0005950977    1.473    0.321
       337  -9.8774     38.8325     21.6506   9.4583839307e+01   6.9950601259e+01    0.3575579     0.191328 -39.16  0.001259385    1.754    0.430
       338 -10.0559    169.5657    191.4764   9.6248223949e+01   1.3092328673e+01    0.3211179    0.1417103  31.04   0.00112954    2.210    0.548
       339  -9.8866    239.8847    184.6464   8.2864046379e+01   2.9820874039e+00    0.1881139    0.1292941   0.13 0.0005995589    1.261    0.207
       340  -9.6541    242.5061     22.1235   4.5911812870e+01   2.1419783379e+01    0.2768148     0.186015  81.08  0.001024636    1.669    0.401
       341  -9.5440    222.4141     21.2873   4.7370606992e+01   2.6136368406e+01     0.473598    0.1547242 -51.43  0.001558584    3.661    0.727
       342 -10.3993     74.4591     19.5604   7.5999165570e+01   6.4328919232e+01    0.2720105     0.228324  12.83  0.000664259    1.232    0.188
       343 -10.0804    213.0198    181.3057   8.6687779100e+01   7.4330970432e+00    0.3012945     0.153992  21.40  0.001506958    2.162    0.537
       344  -9.5899    123.4098     20.2006   6.1307748733e+01   5.2506092565e+01    0.3371639    0.2584885 -69.46  0.001604232    1.559    0.358
       345  -8.9037    120.2817     20.6639   6.2237092053e+01   5.3270037073e+01    0.1952985    0.1472582 -12.42 0.0002320398    1.429    0.300
       346  -9.3282    120.4637     17.5182   6.0809571903e+01   5.3626887853e+01    0.2903008    0.2135389 -25.99  0.001115065    1.380    0.275
       347  -9.5346    250.0058    179.5314   8.0428243478e+01   2.0436453301e+00    0.2000039    0.1049687 -15.20  0.001164235    1.849    0.459
       348  -9.5959     28.3430    176.2652   1.2504624046e+02   3.5476058348e+01    0.2082721    0.1764872 -49.66  0.001520382    1.656    0.396
       349 -10.0646     52.0623    173.7438   1.1947621943e+02   3.3472818615e+01     0.368294    0.1621932  82.40  0.001685683    2.877    0.652
       350  -9.2708     57.2695    174.9583   1.1837327732e+02   3.2622490937e+01    0.1618561    0.1338894  64.94 0.0004214307    1.053    0.050
       351  -9.8433    247.3632    173.9823   7.9846506965e+01   2.9930821513e+00    0.3508251    0.1152746  28.86  0.001358939    3.931    0.746
       352  -9.6861     39.4978    173.5042   1.2235309447e+02   3.4902242471e+01    0.1775264    0.1417572 -85.03  0.000771149    1.281    0.219
       353  -9.6069    194.5502     18.4604   4.9306595859e+01   3.3428893764e+01    0.2483915    0.2315172 -58.37 2.068663e-05    1.022    0.022
       354 -10.4490     35.6824    170.6949   1.2304902938e+02   3.5861285347e+01    0.3702215     0.157729  65.66  0.001854186    2.267    0.559
       355  -9.6265    115.4271     17.7165   6.2094029881e+01   5.4921848264e+01    0.2847754    0.1381983 -31.03  0.001125731    2.024    0.506
       356  -8.4704    170.6540    172.2685   9.2963094768e+01   1.5688292214e+01    0.1228685   0.09467577  59.44 0.0005089951    1.614    0.380
       357 -11.7809      9.9536    166.3973   1.2874578070e+02   3.9078861896e+01    0.5282913    0.3325454 -84.15  0.002576004    1.472    0.321
       358 -10.9519     14.0901    158.5742   1.2745386204e+02   4.0344076061e+01    0.3719151    0.1972729  83.90  0.002054739    1.632    0.387
       359  -9.5113    219.6316     12.6939   4.5206211499e+01   2.7675809804e+01    0.3381782    0.1610134  69.75   0.00150118    2.147    0.534
       360  -9.1128    197.9884    167.7504   8.6956489729e+01   1.1622865067e+01     0.178748    0.1444948  23.90  0.000748675    1.036    0.035
       361  -9.6319    231.0792    175.2955   8.2630082304e+01   5.3046540313e+00    0.3293746   0.08547574  40.26  0.001317206    3.349    0.701
       362  -9.7727     40.4554    163.9405   1.2146039880e+02   3.6748118883e+01    0.4350871    0.1081219 -75.64  0.001660077    4.063    0.754
       363 -10.0386     18.8996    165.0046   1.2662568432e+02   3.8608896626e+01    0.2434721    0.2139267  31.90  0.001841138    1.394    0.283
       364  -9.9730    188.8842    164.1578   8.7993503947e+01   1.3697212597e+01    0.2521622     0.178467 -20.29 0.0009421033    1.533    0.348
       365 -10.4502     28.4171    162.7137   1.2425863621e+02   3.8210917551e+01    0.4448802    0.1713811 -83.86  0.002165946    2.532    0.605
       366  -9.6749    208.7595    162.1959   8.3997104536e+01   1.0515056506e+01    0.4082342     0.139295 -42.03  0.001583573    3.817    0.738
       367  -9.6297    204.9757    163.0075   8.4820509808e+01   1.1057327418e+01    0.2279884    0.1595176  24.14 0.0005984145    1.271    0.213
       368 -10.4658    246.4461    158.7679   7.7180835147e+01   4.7547418056e+00    0.2810496    0.1048875 -25.02  0.001297997    2.628    0.619
       369  -9.3624     79.3938    160.1879   1.1160842885e+02   3.2753638553e+01    0.1770006    0.1135909 -87.97 0.0009475573    1.762    0.433
       370  -9.6929    215.7089    158.0902   8.2008112587e+01   9.8556290097e+00    0.2391477    0.1589495  -4.62  0.001323313    1.578    0.366
       371 -10.4626    104.7702    154.5511   1.0463254167e+02   3.0079375081e+01      0.41651     0.312842 -75.16  0.002366241    1.506    0.336
       372 -10.2058      8.9074    156.2610   1.2858929129e+02   4.1240818050e+01    0.2486838    0.1358995 -78.18   0.00152357    1.702    0.412
       373  -9.2793    224.1573    156.6177   8.0298974951e+01   8.6083814182e+00    0.1797749   0.09840664  31.81 0.0006560899    1.681    0.405
       374 -10.8961     31.4495    153.1638   1.2289520000e+02   3.9932908257e+01    0.4344958    0.2755452  77.59  0.002663395    1.385    0.278
       375 -12.2166     22.7607    149.4569   1.2483898248e+02   4.1535203908e+01     0.563827    0.3755469 -47.44  0.001421109    2.027    0.507
       376 -11.0860     10.5408    127.7111   1.2678532346e+02   4.7326498016e+01    0.5152473    0.2220639 -68.01  0.002378113    2.126    0.530
       377 -10.5779     15.4916    147.8335   1.2658107334e+02   4.2502477036e+01    0.3512634    0.1841211  47.40  0.001230272    1.592    0.372
       378 -11.7700     12.6528    139.3972   1.2686196481e+02   4.4563469123e+01    0.7928619    0.4028328  83.06  0.004445266    1.710    0.415
       379 -11.7726      3.7192    147.4117   1.2950063218e+02   4.3490070800e+01    0.6538786     0.376089  89.74  0.003360813    1.468    0.319
       380 -10.8901      5.2250    141.8041   1.2889861574e+02   4.4586219911e+01    0.2514596    0.2279856  51.22 0.0009177421    1.270    0.213
       381 -12.4726      3.8783    137.3390   1.2905770828e+02   4.5651075884e+01    0.3944373    0.2038601 -67.79  0.000396095    1.902    0.474
       382  -8.8128    141.3012    153.3109   9.5852966361e+01   2.4024896871e+01    0.1330897    0.1032937   7.07 0.0003535924    1.606    0.377
       383  -9.9825     70.7866    151.3256   1.1270235024e+02   3.5789484898e+01    0.3741023    0.1481198  41.56   0.00145118    2.149    0.535
       384  -9.3729     47.9014    151.8786   1.1862380118e+02   3.8489923834e+01    0.2671728    0.1980081  27.83 0.0009455658    1.515    0.340
