#   1 NUMBER                 Running object number                                     
#   2 MAG_AUTO               Kron-like elliptical aperture magnitude                    [mag]
#   3 X_IMAGE                Object position along x                                    [pixel]
#   4 Y_IMAGE                Object position along y                                    [pixel]
#   5 X_WORLD                Barycenter position along world x axis                     [deg]
#   6 Y_WORLD                Barycenter position along world y axis                     [deg]
#   7 A_WORLD                Profile RMS along major axis (world units)                 [deg]
#   8 B_WORLD                Profile RMS along minor axis (world units)                 [deg]
#   9 THETA_WORLD            Position angle (CCW/world-x)                               [deg]
#  10 FWHM_WORLD             FWHM assuming a gaussian core                              [deg]
#  11 ELONGATION             A_IMAGE/B_IMAGE                                           
#  12 ELLIPTICITY            1 - B_IMAGE/A_IMAGE                                       
         1 -15.2124    247.9254    120.2744   1.7687660839e+01   8.8544722750e+00      3.68005    0.4485947 -41.49   0.01001887    6.198    0.839
         2 -15.6170    248.4164     65.2370   6.4978843356e+00   1.6876936055e+01     3.355234      1.07997 -32.92   0.01357021    3.065    0.674
         3 -15.5829    247.4868     17.4261   3.5683847919e+02   2.3167988091e+01     3.450507     1.315257 -28.31   0.01579424    3.074    0.675
         4 -14.5461    245.8620     44.5246   2.4606622270e+00   2.0146595017e+01     1.084348    0.9510819  40.78  0.007576693    1.661    0.398
         5 -13.2734     11.7618     24.3029   6.0786048373e+01   7.3175845951e+01    0.7032897    0.2988574 -33.11  0.003192769    2.441    0.590
         6 -11.6259     26.3284     16.2458   4.6478838082e+01   7.3175723447e+01    0.3203376    0.1285278 -35.32  0.001370429    2.738    0.635
         7 -12.3010     15.4531      7.3644   4.9597435734e+01   7.5955242112e+01    0.4385983    0.2477299 -17.88  0.002319256    2.016    0.504
         8 -13.2112      6.5898     11.3804   5.9161036752e+01   7.6058991778e+01    0.7801726    0.3964961 -35.65  0.004266792    1.764    0.433
         9 -12.2576     10.0692      2.3433   5.1124891917e+01   7.7341640483e+01    0.6057056    0.2607995  13.50  0.002786292    2.787    0.641
        10 -11.9709     13.2480     12.9184   5.4439986027e+01   7.5215866915e+01     0.285495    0.1824657 -24.70  0.001159786    1.475    0.322
        11 -12.3190     25.1553      7.8947   4.2514652449e+01   7.4681992229e+01    0.3168998    0.2012112 -14.39   0.00163063    1.744    0.427
        12 -11.0816     41.1233      2.7818   2.9176218395e+01   7.2832016177e+01    0.3156248    0.1633141  24.02  0.001447977    2.440    0.590
        13 -12.2488     23.6586      2.3806   4.0088049221e+01   7.5705835149e+01    0.5815839    0.1685822  32.91  0.002228696    3.548    0.718
        14 -12.2234     19.7587     14.5123   5.0254251398e+01   7.4263025133e+01     0.371669    0.1985626 -29.05  0.001906918    1.969    0.492
        15 -11.4952      1.5859     95.2175   8.1361942975e+01   5.6958737879e+01    0.3364866    0.1059496 -74.76  0.001295666    2.634    0.620
        16 -12.4760    233.7224    245.8426   4.1639605603e+01  -6.8720503962e+00    0.5677833    0.2564837 -23.56  0.003300994    2.209    0.547
        17 -12.1374    247.9111    215.6884   3.4801038024e+01  -4.7352875778e+00    0.5298359    0.2119203 -30.74   0.00287168    2.220    0.550
        18 -12.7922    246.8463    226.6154   3.6669511332e+01  -5.9673891733e+00    0.6988682    0.3137634 -22.52  0.003934557    2.191    0.544
        19 -11.6263    240.0148    239.4904   3.9690978027e+01  -6.7849735918e+00    0.2943879    0.1793145 -13.77  0.001468293    1.394    0.282
        20 -11.3091    243.4811    235.9733   3.8614955497e+01  -6.7315515279e+00    0.2183026    0.1476878 -21.13  0.001037686    1.278    0.217
        21 -12.1693    242.4955    247.0482   4.0388955083e+01  -7.9066045524e+00     0.480118    0.2309551 -23.81  0.002873449    1.897    0.473
        22 -10.9883    249.3076    250.1385   3.9753246099e+01  -8.9158512072e+00    0.2761913    0.1494215  17.51  0.001485648    1.546    0.353
        23 -11.0496    248.6977    245.8373   3.9233762580e+01  -8.3842246665e+00    0.2793834    0.1497548 -12.33  0.001851207    1.692    0.409
        24 -11.8006    246.6788    240.1519   3.8724902893e+01  -7.5431914940e+00    0.3933964    0.1897906 -27.57  0.001895799    1.829    0.453
        25 -11.7082    249.4701    233.5014   3.7301418757e+01  -7.0572866668e+00    0.3867963    0.1718214 -32.29  0.002183734    2.008    0.502
        26 -12.1402    230.6980    235.0704   4.0566221146e+01  -5.2569263669e+00    0.3514756    0.1977708 -21.07  0.002251846    1.627    0.386
        27 -11.6146    225.2675    249.0373   4.3504950384e+01  -6.3535696256e+00    0.2824272    0.1917518 -12.89   0.00177464    1.256    0.204
        28 -12.2162    225.5928    241.7162   4.2402018815e+01  -5.5107044315e+00    0.3966672    0.1873037 -25.23  0.002303735    2.103    0.525
        29 -12.6685    211.1505    247.9312   4.5788026488e+01  -4.6650741106e+00    0.4578504    0.2716706   1.47  0.002894754    1.631    0.387
        30 -11.7366     36.3653    248.5075   8.1827533959e+01   1.7321117599e+01    0.5068351    0.1908074  48.68  0.002592293    1.930    0.482
        31 -13.7780     12.2129    205.3619   8.5206844653e+01   2.8691261180e+01    0.9317071    0.4024335  68.55  0.004495013    2.109    0.526
        32 -13.1752     11.8587    216.8833   8.5764544092e+01   2.6206891545e+01    0.7733446    0.2767952  50.69  0.003730056    2.071    0.517
        33 -12.0440     20.1833    249.0819   8.5206831600e+01   1.8914927001e+01    0.6294644    0.2054768  36.33  0.003176598    2.093    0.522
        34 -12.3557      2.2412    211.4267   8.7750003355e+01   2.8242930880e+01    0.8157644    0.2332153  89.46  0.003283464    3.503    0.715
        35 -12.5409      3.5831    197.1734   8.6941128610e+01   3.1290706385e+01    0.5961449    0.3531703  81.45  0.002635661    1.476    0.323
        36 -12.4010      3.9121    188.6825   8.6530342860e+01   3.3217685643e+01    0.8264861    0.2577637  63.64  0.003285941    2.979    0.664
        37 -11.9488     11.9817    249.0589   8.6870144847e+01   1.9730046478e+01    0.4897535    0.1699231  41.28  0.001832064    1.884    0.469
        38 -11.8853     14.0098    232.3751   8.5880118008e+01   2.2782898883e+01    0.4674451    0.2187361  53.19  0.002563786    1.596    0.374
        39 -11.8445     11.1054    226.1087   8.6280133819e+01   2.4338718016e+01    0.4728766    0.1933419  51.35  0.001775282    1.800    0.444
        40 -12.7161     15.7697    240.5206   8.5804740834e+01   2.0995566047e+01     0.747471    0.2469782  43.03   0.00309516    1.992    0.498
        41 -12.1877      6.3687    236.3335   8.7628165783e+01   2.2715227521e+01    0.5081571    0.2512407  53.00  0.002684359    1.467    0.318
        42 -12.1948      4.6838    228.4841   8.7746420476e+01   2.4444414487e+01    0.5291852    0.2542196  62.35  0.002142471    1.646    0.392
        43 -11.7312      2.1230    221.1269   8.8077613615e+01   2.6190271653e+01    0.4358852    0.2020433  78.55  0.001676413    1.935    0.483
        44 -11.5250      3.9143    250.2086   8.8511180232e+01   2.0278018021e+01     0.336117    0.1966278  27.88  0.001745771    1.675    0.403
        45 -12.6379      3.4106    243.6954   8.8442012522e+01   2.1555189067e+01    0.5532291     0.288523  68.96  0.003433464    1.583    0.368
        46 -10.8872     39.9908    231.5050   8.0129495235e+01   2.0243416152e+01    0.2466284    0.1428877  69.99  0.001391707    1.651    0.394
        47 -12.2595     26.0743    229.0068   8.3103553202e+01   2.2258518569e+01    0.5275692    0.2632121  80.67  0.002819469    2.017    0.504
        48 -12.1194    236.0251    228.2478   3.8656422535e+01  -4.9985184400e+00    0.4182588    0.1817037 -28.42   0.00227634    2.167    0.538
        49 -10.1671     48.6529    230.3332   7.8100707689e+01   1.9486891489e+01    0.1412744   0.06925131  55.21 0.0004883417    1.769    0.435
        50 -10.7671     32.4946    229.5221   8.1698513175e+01   2.1472946884e+01    0.2412327    0.1170406  56.57  0.001219904    1.708    0.415
        51 -11.6840    216.4054    231.7930   4.2522555228e+01  -3.2099809853e+00    0.3647609    0.1743769 -26.15  0.002001574    2.157    0.536
        52 -11.1075    190.7522    233.4619   4.7461560435e+01  -2.7522759489e-01    0.2456646    0.1268018 -26.83  0.001305141    2.184    0.542
        53 -11.5897    238.3077    218.7605   3.6813511371e+01  -4.0543519502e+00     0.376666    0.1691124 -30.89  0.002124271    2.010    0.503
        54 -11.5861    227.6364    219.5577   3.8706071895e+01  -2.9225293117e+00    0.3281833    0.1161094 -34.20  0.001583299    2.689    0.628
        55 -10.9608     24.1183    217.4670   8.2982719837e+01   2.4883594546e+01    0.2583737    0.1261424  69.73  0.001315946    1.919    0.479
        56 -12.3619      3.1782    180.4362   8.6375532211e+01   3.5219605307e+01    0.7458944    0.2810344  71.78  0.003192398    2.521    0.603
        57 -10.7190    233.1109    211.9405   3.6577677004e+01  -2.5566047340e+00    0.2570368    0.1237001 -23.30  0.001370651    2.120    0.528
        58 -10.8689     28.3541    211.6596   8.1679694329e+01   2.5708481231e+01    0.2181015    0.1094476  57.37  0.001113743    1.687    0.407
        59 -11.3750    240.0779    208.2482   3.4845503683e+01  -2.8874533908e+00    0.2974248    0.1427669 -46.18  0.001532573    2.798    0.643
        60 -10.5604    246.8497    206.7251   3.3527786828e+01  -3.4705936347e+00    0.2429657    0.1237549 -41.65  0.001400204    2.123    0.529
        61 -10.7995    250.1221    201.3365   3.2140611417e+01  -3.1418174785e+00    0.2993467    0.1387365 -34.70  0.001715528    1.866    0.464
        62 -12.0906     18.6266    222.2648   8.4459816207e+01   2.4414609469e+01    0.3954071    0.1993243  63.82  0.002157062    1.688    0.408
        63 -10.5093    242.9343    200.5077   3.3118652570e+01  -2.1908709954e+00      0.22919    0.1289029 -22.17   0.00137341    1.606    0.377
        64 -10.4945    237.0000    197.9788   3.3641959457e+01  -1.1247753614e+00    0.1852978    0.0568875 -38.11 0.0008023108    2.942    0.660
        65 -11.1795    246.5318    193.0167   3.1301859144e+01  -1.6080439954e+00    0.2765276    0.1385899 -41.00  0.001556935    1.983    0.496
        66 -11.6957     11.1164    191.3760   8.4842375334e+01   3.1980539665e+01     0.258724    0.1583149  77.37  0.001449626    1.435    0.303
        67 -11.7678     17.0226    190.2356   8.3288516934e+01   3.1714064264e+01    0.3639563    0.1409635  69.12   0.00150896    2.629    0.620
        68 -12.6134     10.6987    167.3376   8.3700442405e+01   3.7809647814e+01    0.5519142    0.1337346  44.13  0.002053863    3.103    0.678
        69 -12.9182      3.1797    154.7664   8.5151190646e+01   4.1519509125e+01    0.7137132     0.239347 -70.48  0.002934835    2.598    0.615
        70 -13.0695      3.3588    145.4383   8.4573565052e+01   4.3873637389e+01    0.9240746    0.2627507  61.77  0.003040242    4.033    0.752
        71 -12.9377     11.8970    184.2464   8.4293196564e+01   3.3592754555e+01     0.503067    0.2061907  84.39  0.002201816    2.402    0.584
        72 -12.2120      9.0878    178.3555   8.4731485274e+01   3.5243709042e+01    0.3709641    0.1906755  81.63  0.001557388    1.778    0.438
        73 -12.7498      6.1888    172.5951   8.5220522315e+01   3.6874749766e+01    0.6859996    0.2043877 -88.93  0.002515485    3.348    0.701
        74 -10.9882      1.5684    170.7233   8.6380068755e+01   3.7680720490e+01    0.3230621    0.1634716 -78.00  0.001635782    1.800    0.445
        75 -12.0315      1.8861    165.5981   8.6060572670e+01   3.8912403120e+01    0.4182272    0.2761273  75.65  0.001918051    1.288    0.224
        76 -10.3705    249.4227    184.8095   2.9459816823e+01  -8.3548446063e-01    0.2617781    0.1187512 -36.99  0.001423148    1.903    0.475
        77 -11.4656     18.5050    175.0141   8.2003913689e+01   3.5241022934e+01    0.2031072    0.1178392 -85.31  0.001036391    1.604    0.377
        78 -11.5061     11.2596    172.6460   8.3845484133e+01   3.6453170356e+01    0.2532767    0.1362901  78.73  0.001261369    1.702    0.413
        79 -13.3804      8.9414    158.0311   8.3654863878e+01   4.0278358086e+01    0.5693663    0.2740201 -67.23  0.002707007    1.956    0.489
        80 -10.5593    235.1068    146.6717   2.4645929454e+01   6.7679336293e+00    0.2316258    0.1486752 -42.53  0.001327049    1.428    0.300
        81 -12.6501      4.0985    136.9086   8.3810840922e+01   4.6016691841e+01    0.4882036     0.205368  87.02  0.002066938    2.275    0.560
        82 -11.8336     10.0276    133.7155   8.1643829724e+01   4.6454425168e+01    0.1883426    0.1712125  70.85  0.001172599    1.074    0.069
        83 -12.7127      3.1915    128.9830   8.3573194551e+01   4.8122754891e+01    0.6024142    0.2135449  78.55  0.002182934    3.195    0.687
        84 -12.5676      5.0051    122.5149   8.2473845881e+01   4.9698539057e+01    0.3341859    0.1977111 -65.40  0.001236714    1.526    0.345
        85 -11.1126     65.1711    248.9246   7.5712615859e+01   1.3903548809e+01    0.3322038    0.1111215  40.25  0.001542238    2.081    0.519
        86 -12.0736    192.5167    245.5958   4.8846500117e+01  -2.1722985423e+00    0.4370042    0.2618799  -7.62  0.002589149    1.852    0.460
        87 -11.2907    140.9956    247.1587   5.9259286858e+01   4.2523959114e+00    0.2092162    0.1254568   9.01  0.001097246    2.033    0.508
        88 -10.5644      9.4911     90.9759   7.7543139427e+01   5.7656373782e+01    0.1974439   0.09642097  73.21 0.0008102166    2.545    0.607
        89 -11.9536      5.8782     86.3895   7.8538305315e+01   5.9021777930e+01    0.3490718     0.106029 -66.80  0.001353813    2.554    0.608
        90 -10.3762      9.4753     69.4802   7.4323500473e+01   6.3088958901e+01     0.131569     0.115135 -54.27 0.0003580983    1.016    0.016
        91 -12.0793      5.1566    110.5104   8.1407060467e+01   5.2821514674e+01    0.2945979    0.1340642 -60.51   0.00133618    1.929    0.482
        92 -12.7107      3.3651     74.4154   7.8112514261e+01   6.2157178936e+01    0.7508809   0.06389833 -66.87  0.002217286    4.614    0.783
        93 -12.6029      3.4408     50.6652   7.4041707267e+01   6.7896586585e+01    0.5533477     0.221257 -54.57   0.00259003    1.973    0.493
        94 -12.1466      2.2391     40.8320   7.2600299495e+01   7.0199709820e+01    0.3917123    0.1805902 -64.17  0.001954014    1.869    0.465
        95 -11.3589      2.8386    104.8514   8.1778293989e+01   5.4413031040e+01    0.1914328    0.1408222  69.42 0.0008381589    1.340    0.254
        96 -11.6910     18.4378     31.3987   5.8894150447e+01   7.1182115109e+01    0.3836624    0.1705263 -26.58  0.001570176    2.951    0.661
        97 -11.7315    167.4678    249.3133   5.4155144101e+01   4.4798047748e-01    0.3768952    0.1748325  18.82  0.001815854    2.342    0.573
        98 -12.0341      1.4923     25.5035   6.8879746933e+01   7.3563991869e+01    0.4711581    0.1050928 -66.07  0.001680676    4.121    0.757
        99 -12.1003    176.9459    244.5341   5.1669454256e+01  -8.3205066437e-02    0.3740387    0.2062897  -2.49  0.001854044    2.598    0.615
       100 -10.1550    156.0000     17.0006   4.6497619885e+00   4.3916407597e+01    0.2096104     0.077374 -28.57 0.0008037132    2.951    0.661
       101 -10.9913     45.1892    245.2725   7.9782072076e+01   1.6948751640e+01    0.3302947    0.1503277  47.30  0.001778372    1.639    0.390
       102 -12.1078     29.6108    241.0547   8.2901091959e+01   1.9476649681e+01    0.4689088    0.2472052  64.18  0.002400638    1.661    0.398
       103 -10.9349     50.2362    250.1220   7.8985465165e+01   1.5458552298e+01    0.4126366    0.1172736  34.30  0.001820202    2.452    0.592
       104 -11.3266    202.1102    240.9823   4.6428242464e+01  -2.7183431949e+00    0.2423697     0.128534 -21.99  0.001367646    2.070    0.517
       105 -10.8778     57.0724    241.9026   7.6991437773e+01   1.6202459087e+01    0.3309458    0.1130398  40.85   0.00153178    2.060    0.515
       106 -10.4143     38.4473    240.9317   8.0995445100e+01   1.8542117548e+01    0.2520382    0.1163598  46.16  0.001360952    1.593    0.372
       107 -11.4660    219.8599    239.0823   4.2999542248e+01  -4.5457688272e+00    0.1959907    0.1297641 -20.07  0.001258482    1.368    0.269
       108 -10.5622     45.0392    237.4778   7.9359511391e+01   1.8475768192e+01    0.2411888    0.1178959  53.79  0.001281536    1.689    0.408
       109 -11.7936    205.3062    233.7376   4.4794864297e+01  -2.1358170166e+00    0.2832611    0.1530654 -23.37  0.001614777    1.946    0.486
