#   1 NUMBER                 Running object number                                     
#   2 MAG_AUTO               Kron-like elliptical aperture magnitude                    [mag]
#   3 X_IMAGE                Object position along x                                    [pixel]
#   4 Y_IMAGE                Object position along y                                    [pixel]
#   5 X_WORLD                Barycenter position along world x axis                     [deg]
#   6 Y_WORLD                Barycenter position along world y axis                     [deg]
#   7 A_WORLD                Profile RMS along major axis (world units)                 [deg]
#   8 B_WORLD                Profile RMS along minor axis (world units)                 [deg]
#   9 THETA_WORLD            Position angle (CCW/world-x)                               [deg]
#  10 FWHM_WORLD             FWHM assuming a gaussian core                              [deg]
#  11 ELONGATION             A_IMAGE/B_IMAGE                                           
#  12 ELLIPTICITY            1 - B_IMAGE/A_IMAGE                                       
         1 -12.0026     77.4054     31.9756   1.1271606848e+01   6.1100689867e+01     0.996228    0.3738388 -34.95  0.003811078    2.847    0.649
         2 -13.4807     73.1870     45.5474   1.8536696467e+01   5.9881266300e+01    0.9741498    0.6585439  46.34  0.003485926    1.417    0.294
         3 -13.3216     33.8153      8.4632   1.7044164529e+01   7.3605973866e+01     0.890524    0.4889484  42.70  0.004599254    1.625    0.384
         4 -15.1410     10.6648      9.2865   3.4613796097e+01   7.7290389711e+01     2.105175     1.432538  -3.79   0.01207205    1.610    0.379
         5 -13.7157     17.5024     21.2271   3.6285787572e+01   7.4306778287e+01    0.9768019    0.6157317  27.81  0.005337054    1.497    0.332
         6 -12.3581    158.7502     13.9562   3.5011795039e+02   4.3774109221e+01    0.3446514    0.1650592 -53.15   0.00171805    1.859    0.462
         7 -12.6814    176.1271     15.6148   3.4908716028e+02   3.9736397918e+01    0.4089254    0.2739408 -81.80  0.001167081    1.340    0.254
         8 -12.8403    168.0582     15.7822   3.4979566876e+02   4.1487691791e+01    0.4356687    0.2648294  77.27  0.001296055    1.567    0.362
         9 -12.1234    142.5084      7.4881   3.4975003812e+02   4.8189636587e+01    0.2171708    0.1760093 -77.57  0.001243343    1.035    0.034
        10 -12.1222     65.1012      6.1088   2.5058211793e+00   6.7086291440e+01    0.3241495    0.2819541  37.99 0.0007677471    1.159    0.137
        11 -10.8616     81.7832      6.3414   3.5831708136e+02   6.3080136850e+01    0.2545779    0.2070395  34.81  0.001441289    1.353    0.261
        12 -12.6215    154.3145      3.8206   3.4761098731e+02   4.5787626800e+01    0.4320685     0.225683 -74.00  0.001503305    1.804    0.446
        13 -11.9268    144.8153      2.8142   3.4810715841e+02   4.8080565855e+01    0.5647801    0.1405121  70.00  0.002159861    3.285    0.696
        14 -10.3954     55.7959      1.4123   2.7847278713e+00   6.9673833627e+01      0.19287   0.09741495  52.60  0.000717965    1.673    0.402
        15 -11.1683    219.6194    173.8651   1.8316469800e+01   8.2121685382e+00    0.2331544    0.1296771 -47.83  0.001305344    1.904    0.475
        16 -13.2710     14.8365    163.6214   6.8033645083e+01   3.7963018301e+01    0.9248475    0.3658773  25.72  0.003735284    2.340    0.573
        17 -12.2475     19.4217    157.1229   6.6040359272e+01   3.9339526714e+01    0.3627118    0.2341531  25.78  0.001774954    1.545    0.353
        18 -12.0468     20.7131    153.2075   6.5269627794e+01   4.0296423755e+01    0.4768589    0.2203558  60.30   0.00186178    2.363    0.577
        19 -12.8544     24.5820    147.6697   6.3416948698e+01   4.1478610132e+01    0.8626116    0.4373869  74.69  0.003418992    2.294    0.564
        20 -10.8774      1.6950    150.1078   7.1451691600e+01   4.2532391375e+01    0.3398238    0.1177884 -63.58  0.001227933    2.626    0.619
        21 -10.8493     36.4377    145.2168   5.9005362120e+01   4.0999548434e+01    0.2132498    0.1362955  87.44 0.0009444161    1.681    0.405
        22 -10.7354     42.8304    144.3193   5.6656334989e+01   4.0546599663e+01    0.3113341    0.1072913  33.13   0.00107978    2.587    0.613
        23 -10.2060    174.4774    140.4714   1.9643490624e+01   2.0331792246e+01    0.1354712     0.119778 -33.75 0.0008095575    1.003    0.003
        24 -10.6590     51.5603    139.0210   5.2818942883e+01   4.0952028854e+01    0.2213192    0.2109386  42.36 0.0007799658    1.059    0.056
        25 -12.3905     12.5989    136.1287   6.6585546992e+01   4.5654401938e+01    0.4999659     0.337672  11.78 0.0005712171    1.638    0.389
        26 -10.2596    237.4845    132.0373   8.2592428737e+00   1.2327963087e+01    0.1853786   0.08941136 -37.95  0.001028718    1.581    0.367
        27 -11.3258     68.9512    128.5240   4.4854895594e+01   4.1363145191e+01     0.264901    0.2045674 -49.02 0.0004529162    1.306    0.234
        28 -10.3150    165.6098    127.8428   1.8648396536e+01   2.4261315662e+01    0.2061709     0.119938 -52.11 0.0009498889    1.725    0.420
        29  -9.8732    132.3741    126.7111   2.5668343867e+01   3.0610406842e+01    0.1506186    0.1167371  81.95 0.0007020576    1.723    0.420
        30 -10.7738     39.1997    126.1799   5.5315909131e+01   4.5978961925e+01    0.2166839    0.1683514  65.15  0.000633928    1.346    0.257
        31 -10.2963     20.5145    126.4847   6.2584471549e+01   4.7733291212e+01    0.1472109    0.1357925  81.18 0.0001567046    1.032    0.031
        32 -12.6944     75.4322    122.7974   4.1430030220e+01   4.1847568924e+01    0.5152815    0.4185708 -19.05  0.002477375    1.472    0.321
        33 -11.3878     61.0725    122.5431   4.6458838255e+01   4.4137124117e+01    0.3552434     0.291311  34.25 0.0009053681    1.230    0.187
        34 -12.3374     67.6998    119.9186   4.3518084418e+01   4.3836535571e+01    0.4079663    0.3430593  68.35 0.0007491976    1.277    0.217
        35  -9.9269    220.2986    119.6543   8.0765957470e+00   1.6652132483e+01    0.1226034   0.08207961 -58.22  0.000428698    1.677    0.404
        36 -11.6198     87.5297    117.8625   3.6270930745e+01   4.1043486632e+01    0.4387461    0.2644264 -86.07  0.001517239    2.994    0.666
        37 -11.0865     53.5147    117.8934   4.8352522372e+01   4.6465693452e+01    0.2867016    0.2262875  31.10 0.0005430157    1.288    0.224
        38 -11.5476    208.0781    114.5385   8.6995188937e+00   1.9375278570e+01    0.5335363    0.1488679 -36.03  0.001880382    3.519    0.716
        39 -12.6064     23.7902    115.1105   5.9780300552e+01   5.0636239158e+01     0.492177    0.3173003 -68.97 0.0009012266    1.447    0.309
        40 -10.5885    149.2082    116.3907   1.9389285163e+01   2.9571162509e+01    0.1984265    0.1375259  58.97 0.0009517281    1.687    0.407
        41 -12.0359    222.5890    113.0186   6.4576844820e+00   1.7340947416e+01    0.2771891    0.1929562  -5.00   0.00156879    2.164    0.538
        42 -10.6483    157.6766    120.0281   1.8470472597e+01   2.7236108935e+01    0.2071792    0.1702728 -44.81 0.0005908763    1.112    0.101
        43 -10.6631     38.6376    112.3189   5.3184624948e+01   4.9884337996e+01    0.3089567    0.2083685  48.18   0.00129356    1.548    0.354
        44 -11.0409     40.4846    109.4809   5.1890597670e+01   5.0446184290e+01     0.246296     0.240041 -76.69 0.0007983419    1.012    0.012
        45 -10.5274    154.6072    108.8029   1.6445017874e+01   3.0027753434e+01    0.2145244    0.1236174 -52.15 0.0009546212    1.714    0.417
        46 -12.1221    136.5417    108.6132   2.0319415386e+01   3.3665244609e+01    0.2613088    0.2493145 -22.09  0.000344191    1.120    0.107
        47 -11.2645    115.7477    107.3142   2.5208647100e+01   3.8148280773e+01    0.2976672    0.2645208 -28.30  0.001167829    1.219    0.180
        48 -11.2031     38.9831    104.9681   5.1636740142e+01   5.1859721145e+01    0.3406052    0.2140744  26.89  0.001523681    1.628    0.386
        49 -11.1758     86.4506    101.9726   3.2648430264e+01   4.5156668557e+01    0.2944273    0.2272741  48.26 0.0005593996    1.315    0.240
        50 -11.6329     10.7059     98.0578   6.3110611724e+01   5.6403086992e+01    0.4477222    0.2347122 -45.66  0.001482498    1.881    0.468
        51 -10.4173    160.2976     96.6762   1.2361943313e+01   3.1196486544e+01     0.143921     0.103625 -70.17 0.0005179805    1.625    0.385
        52 -10.6985    240.6622     92.9829   4.5417315501e-01   1.7585601970e+01    0.3754427   0.06529353 -40.70  0.001357613    3.795    0.736
        53 -10.7842      1.7520     95.1361   6.6939522980e+01   5.7722394258e+01    0.2212935     0.183459  70.22  0.001229235    1.234    0.190
        54 -11.6676     34.1217     77.3200   4.7501971481e+01   5.9761823967e+01    0.4682685    0.2919854 -64.65  0.001683709    1.612    0.380
        55 -12.0756     24.9867     92.5182   5.5465297905e+01   5.6759413083e+01    0.4196578    0.3168755 -56.67  0.001669082    1.244    0.196
        56 -13.6958     27.5904     85.0913   5.2657071425e+01   5.8486191624e+01     1.064982    0.7042402  49.17  0.004539331    1.673    0.402
        57 -11.7443    145.0085     90.7015   1.3831953231e+01   3.5481356207e+01    0.3393028    0.2039663 -44.37  0.001376343    1.552    0.356
        58 -11.2589     52.1333     89.8718   4.2481894686e+01   5.4085012787e+01    0.2729116    0.2009999  42.21 0.0006449049    1.381    0.276
        59 -11.6688     57.4132     82.8120   3.8249768435e+01   5.5016690369e+01    0.4306266     0.155153 -46.60  0.001425399    2.856    0.650
        60 -10.8683      3.5021     86.7676   6.5046462004e+01   5.9914195242e+01    0.3850436    0.1703643   7.21  0.001561284    2.526    0.604
        61 -11.3023     63.8080     81.5367   3.5202245890e+01   5.4233202875e+01    0.4704926    0.2820978 -25.51  0.001773793    2.606    0.616
        62 -11.7030     12.6634     80.3215   5.9291497270e+01   6.1077097924e+01     0.333911    0.2858089 -81.00  0.001296718    1.169    0.144
        63 -11.1669     11.4800     76.4834   5.9196971113e+01   6.2177083753e+01     0.238919    0.2338636  71.40 0.0006332099    1.092    0.085
        64 -13.5097     13.0283     69.3523   5.6857643346e+01   6.3917991311e+01    0.7016761    0.5331448 -37.71  0.002143675    1.268    0.211
        65 -10.7909    107.3776     79.9521   1.9818423408e+01   4.5786656880e+01     0.267087    0.2190565  42.93 0.0005238683    1.279    0.218
        66 -11.2313    225.0838     75.8026   3.5856293246e+02   2.2483734536e+01      0.28141    0.1460067 -35.32  0.001552388    1.646    0.392
        67 -11.7469    111.4536     74.6264   1.7066039427e+01   4.5945856341e+01    0.3644012    0.2800588  -4.65   0.00168424    1.944    0.486
        68 -10.9647     55.8602     76.1384   3.6900147247e+01   5.6883760819e+01    0.2324035    0.2094266  71.18  0.000969941    1.211    0.174
        69 -12.3919     17.0853     62.9805   5.2945729581e+01   6.5191386831e+01    0.5405949    0.2735128  23.12  0.001013767    1.983    0.496
        70 -11.9646    117.4153     68.0100   1.3477487304e+01   4.5844608950e+01    0.4285505     0.249292 -56.00  0.001841411    1.890    0.471
        71 -11.5273     44.3347     70.4595   4.0438365104e+01   6.0065536111e+01    0.4185131    0.2521366  50.42  0.001819946    1.927    0.481
        72 -10.3774     53.1722     68.6724   3.5683804285e+01   5.9079690831e+01    0.2083006    0.1829993  29.55  0.001113443    1.138    0.122
        73 -11.1677      2.5511     69.0711   6.2839193345e+01   6.4658706756e+01    0.2717193    0.2017955 -11.78   0.00147687    1.405    0.288
        74 -12.0736    138.5051     79.6994   1.2187806384e+01   3.8946858686e+01    0.3199208    0.2802991 -68.85 0.0005866534    1.096    0.088
        75 -12.2731    233.2554     56.4981   3.5385221735e+02   2.3733750925e+01    0.2145898    0.1582779 -49.61 0.0003647876    1.012    0.012
        76 -10.7575    250.5282     56.0692   3.5246971183e+02   2.1014976808e+01    0.1617794   0.08137392 -38.83   0.00030118    1.479    0.324
        77 -11.2798     66.5068     56.5223   2.5506319017e+01   5.9227121544e+01    0.5826239    0.3106226  21.97  0.001881928    3.892    0.743
        78 -11.1543     62.1159     55.5364   2.6948426687e+01   6.0291598077e+01    0.3277191    0.2593209  53.38 0.0009046564    1.298    0.230
        79 -11.5135    198.0652     53.9365   3.5649710978e+02   3.0455944901e+01    0.2214829    0.1500048 -42.91 0.0003503338    1.248    0.199
        80 -10.6749    183.6366    245.6022   3.5619933755e+01   1.3919411538e+00    0.1971769    0.1614142   3.15 0.0007805526    1.183    0.155
        81 -12.5979     87.5506     51.0319   1.5848603555e+01   5.5731370591e+01      1.07976    0.3851407  49.89  0.003145075    2.666    0.625
        82 -10.9936     81.3074    238.9759   5.6354490863e+01   1.3509289625e+01    0.2502986    0.2277552 -50.51  0.001715844    1.287    0.223
        83 -11.8658      4.2894     50.0671   5.7692714806e+01   6.9332357925e+01    0.4753219    0.2758014  18.64   0.00198954    1.749    0.428
        84 -10.3943    153.7714     49.6037   8.8053982698e-01   4.0467207742e+01    0.2577246    0.1214131  61.57  0.001146393    2.126    0.530
        85 -12.1609    135.3853     47.9424   3.3809230017e+00   4.4969171377e+01    0.5913047    0.2460351  50.37  0.002330935    2.645    0.622
        86 -11.3013     53.9719     48.1774   2.7600524911e+01   6.3307235227e+01    0.3611727    0.2944977   8.97  0.001921145    1.405    0.288
        87 -12.1079     34.4199     44.6576   3.6315049095e+01   6.7335808278e+01    0.5556722    0.4425531  15.04  0.002782872    1.273    0.215
        88 -11.7535     28.9895     43.4792   3.9074488650e+01   6.8364019141e+01    0.5207099    0.2756736  48.08  0.002248035    2.350    0.575
        89 -11.0994     16.0162     46.6658   4.8679430276e+01   6.9195216149e+01    0.2118746    0.1774905 -51.69   0.00059052    1.169    0.144
        90 -10.2021     17.5037     42.9997   4.6351645262e+01   6.9870869283e+01    0.1963654    0.1276874 -56.16 0.0004368461    1.521    0.342
        91 -10.6644    175.0000     45.4993   3.5695690570e+02   3.6347432693e+01    0.2888363   0.06656174 -33.71 0.0009439149    4.009    0.751
        92 -10.8899     15.0024     53.7127   5.1612565447e+01   6.7640067142e+01    0.1966051    0.1760502   3.14  0.001168626    1.110    0.099
        93 -10.5723    151.9643     34.5175   3.5678523003e+02   4.2945883325e+01    0.2066568     0.161996 -46.65 0.0005462436    1.208    0.172
        94 -10.8251     15.0768     34.0650   4.4481195324e+01   7.2065599809e+01    0.1951419    0.1759735 -16.13 0.0003440483    1.014    0.014
        95  -9.9251    117.1984     31.3252   1.2000160565e+00   5.1646295464e+01    0.1836278    0.1185619  77.81 0.0003016019    1.532    0.347
        96 -12.1390     65.4627     46.5158   2.1911291116e+01   6.1348951848e+01    0.4384539    0.3897899  83.66  0.001798615    1.272    0.214
        97 -12.0526    240.0561    232.5600   2.4509304243e+01  -1.9963324355e+00    0.3205815    0.2464405  40.80   0.00240055    2.448    0.592
        98 -10.6073    246.5632    226.2898   2.2662016687e+01  -1.7649861280e+00    0.1876543   0.07916307 -39.67  0.001138758    2.122    0.529
        99 -10.7412     94.5328     23.1869   2.8093041746e+00   5.8190394143e+01    0.2591793    0.1917555 -74.18 0.0008159222    1.484    0.326
       100 -10.6835     28.2301    227.0106   6.8245655506e+01   2.1379133594e+01    0.1552464    0.1015043 -82.99 0.0008389896    1.659    0.397
       101 -11.4527    107.5751     21.8301   3.5953691305e+02   5.5161535375e+01    0.2358527    0.2018392  81.10 0.0003074633    1.051    0.048
       102 -11.8246    154.9941     20.2195   3.5227566880e+02   4.3958605546e+01    0.3207576    0.2484732  55.09  0.001336934    1.503    0.334
       103 -11.0436     32.9643     27.4667   2.9028875678e+01   7.0869656132e+01    0.2039319    0.1767747 -29.73 0.0005895623    1.182    0.154
       104 -12.3082    137.0984    219.0784   4.1268968263e+01   1.0739567080e+01    0.3997963    0.2550295 -72.27  0.001965508    2.746    0.636
       105  -9.7318    191.6492     13.2852   3.4738901912e+02   3.6709786912e+01     0.129286   0.06662823 -62.05  0.000496414    1.659    0.397
       106 -10.2539     98.6039    219.2359   5.0163637337e+01   1.5409561673e+01    0.1802725    0.1155759 -44.80 0.0009566677    1.703    0.413
       107  -9.6150    208.2643     10.6801   3.4579693538e+02   3.3675566464e+01    0.1211949   0.06051612 -56.05 0.0005133504    1.554    0.356
       108 -10.2385     62.8458    216.8766   5.8812562182e+01   2.0079277124e+01    0.1887624    0.1377062  51.78 0.0005940229    1.324    0.245
       109 -10.6443     82.2919    202.6481   5.2278957259e+01   2.0945955763e+01    0.1424115   0.09735373  59.15  0.000507392    1.676    0.403
       110 -10.3437    186.3079    193.8551   2.7372956323e+01   9.0690570799e+00    0.2367942    0.1033347 -49.32  0.001081495    2.555    0.609
       111 -10.2872     40.4003    192.7788   6.2682793437e+01   2.8095520148e+01    0.1892762    0.1222009 -61.49 0.0009493013    1.631    0.387
       112 -10.2447    100.9939    175.9941   4.3577709381e+01   2.4539343352e+01    0.1973514    0.1881806  17.49  0.001133951    1.008    0.008
       113 -10.8513    226.8963     25.9415   3.4800870448e+02   2.8558303431e+01     0.288945    0.1381574 -62.08  0.001229616    1.827    0.453
       114 -11.2409     67.9092    175.4249   5.2834561125e+01   2.9247967158e+01    0.3109762    0.2504782  31.42 0.0008254315    1.187    0.157
