#   1 NUMBER                 Running object number                                     
#   2 MAG_AUTO               Kron-like elliptical aperture magnitude                    [mag]
#   3 X_IMAGE                Object position along x                                    [pixel]
#   4 Y_IMAGE                Object position along y                                    [pixel]
#   5 X_WORLD                Barycenter position along world x axis                     [deg]
#   6 Y_WORLD                Barycenter position along world y axis                     [deg]
#   7 A_WORLD                Profile RMS along major axis (world units)                 [deg]
#   8 B_WORLD                Profile RMS along minor axis (world units)                 [deg]
#   9 THETA_WORLD            Position angle (CCW/world-x)                               [deg]
#  10 FWHM_WORLD             FWHM assuming a gaussian core                              [deg]
#  11 ELONGATION             A_IMAGE/B_IMAGE                                           
#  12 ELLIPTICITY            1 - B_IMAGE/A_IMAGE                                       
         1 -13.8577     31.9564    186.7135   1.1069153334e+02   3.1084919076e+01     8.441265     3.172486  83.69   0.02292843    5.896    0.830
         2 -12.1301    208.4096     45.0819   3.6715649887e+01   2.8487959732e+01     1.013765    0.8756638  24.13  0.006181898    1.739    0.425
         3 -11.9145    216.0585     40.3866   3.4890962136e+01   2.7500612561e+01    0.8872392    0.6298727 -65.17  0.004476142    1.208    0.173
         4 -11.3665    224.1565     33.5235   3.2694009760e+01   2.6718772601e+01    0.5804358    0.4167195  63.12  0.001414643    1.560    0.359
         5 -11.6998    236.6236     23.0715   2.9619485984e+01   2.5526622700e+01    0.6460245    0.4793123 -63.37  0.002781446    1.065    0.061
         6 -10.2270      2.8935      3.0076   7.8976984287e+01   7.4511517144e+01    0.4191733    0.2126383 -28.19  0.002597375    1.725    0.420
         7 -10.8363      2.0000     18.0431   8.6856598168e+01   7.2429365713e+01    0.5881804    0.1662089 -48.50  0.002622835    3.279    0.695
         8 -10.8424      7.4883     12.7708   8.1067265003e+01   7.2747688626e+01    0.2455041    0.1970068 -15.34  0.001828448    1.192    0.161
         9 -11.7229     86.0189    224.5213   1.0167675092e+02   1.5130846612e+01     1.075286    0.3967224  45.70  0.004150983    2.582    0.613
        10 -12.7082      8.4886    208.2542   1.1809800254e+02   2.8126685577e+01     1.240995    0.8720691 -64.73  0.005391954    1.449    0.310
        11 -11.4936      8.1628    230.2144   1.1950595881e+02   2.3197071263e+01    0.9955329    0.5134176  58.20  0.004114879    1.646    0.393
        12 -13.4740     16.2569    246.7382   1.1881676310e+02   1.8888150986e+01     3.260971     1.136459  24.04   0.01339677    3.983    0.749
        13 -12.0571     53.2432    238.9124   1.1060876758e+02   1.6358327750e+01     1.148283    0.8413747  27.59  0.006443408    1.483    0.326
        14 -10.4073    124.2960    229.3185   9.3397824891e+01   8.3741876741e+00    0.6573264    0.2723733 -56.27  0.002672966    2.716    0.632
        15  -9.0676     21.7256    231.1308   1.1675302705e+02   2.1648281182e+01    0.2217949    0.1706383  35.74  0.001181437    1.382    0.277
        16  -9.1235     59.0743    225.9471   1.0809955560e+02   1.8474221017e+01    0.3304644    0.1940763  86.91 0.0009958659    1.948    0.487
        17  -8.6328     23.8261    226.1895   1.1596835756e+02   2.2524455665e+01    0.2503602    0.1211822  86.08 0.0009984995    2.117    0.528
        18  -8.0081     31.2378    223.6050   1.1416156110e+02   2.2313421647e+01    0.1612469    0.1202309  21.39  0.000949565    1.637    0.389
        19  -8.1589     28.8199    220.7428   1.1447467119e+02   2.3226939841e+01    0.1809662    0.1224909  68.14 0.0006831328    1.314    0.239
        20 -11.6511     23.6780    200.0528   1.1398320669e+02   2.8636830619e+01     0.707013     0.477683 -85.44   0.00168967    1.317    0.241
        21  -8.9402     81.1023    248.9349   1.0551159381e+02   1.0644964283e+01    0.2722149    0.1667252  32.31  0.001471243    1.510    0.338
        22 -10.9561      1.9385    164.8382   1.1644488390e+02   3.9242778513e+01     1.432904    0.1657324 -75.46  0.003449083    7.097    0.859
        23 -11.3141      6.9978    188.9058   1.1708421473e+02   3.2879239116e+01    0.7256009    0.3253577  77.41  0.003212068    2.383    0.580
        24 -10.2147     46.0113    180.0755   1.0625112776e+02   3.1214054702e+01    0.3989581    0.2789846 -69.28  0.001293684    1.318    0.241
        25 -10.5890      2.0824    185.6383   1.1802484090e+02   3.4072462456e+01     1.030962    0.1640996 -78.23  0.002764718    6.130    0.837
        26 -10.2959     54.5172    174.8374   1.0324606147e+02   3.1532526588e+01    0.4880445    0.3214305 -25.34  0.001687065    2.184    0.542
        27 -10.2696     60.3744    169.6351   1.0085736338e+02   3.2131618488e+01    0.3685114    0.2960196 -39.81  0.001041775    1.374    0.272
        28  -8.9714     51.0200    185.8230   1.0562744675e+02   2.9146821469e+01    0.3675596    0.2247337 -88.10   0.00127849    1.765    0.434
        29  -8.3028     73.8286    207.3583   1.0248645731e+02   2.0819085959e+01    0.2869323    0.1739161 -89.08 0.0009923782    2.032    0.508
        30 -10.0863     71.3143    160.6833   9.6265941610e+01   3.2963737294e+01    0.3578294    0.3227785 -50.89 0.0004917538    1.109    0.098
        31 -11.7053     78.5005    154.4613   9.3030910649e+01   3.3521880394e+01     1.130488    0.9255086 -76.03  0.001932146    1.251    0.201
        32 -12.2847     68.3954    144.7438   9.4251081753e+01   3.7558259681e+01     1.385322    0.8399823  78.52  0.002966212    2.651    0.623
        33 -11.7848     57.7388    156.3847   9.9548736528e+01   3.5949159396e+01    0.6009578    0.3444986 -39.80  0.001634341    2.025    0.506
        34  -9.3075     95.9355    140.0844   8.4886808958e+01   3.4362989138e+01    0.6634833    0.4040749 -16.69  0.002299652    3.011    0.668
        35 -10.6922     82.3344    139.3170   8.8845129563e+01   3.6847680418e+01    0.3637642    0.2999122 -42.22 0.0006079809    1.204    0.169
        36  -9.0817    106.9519    130.7046   7.9463584643e+01   3.4689184336e+01    0.3807172    0.3116595  11.05  0.001114288    1.422    0.297
        37  -8.2002     13.2420    127.7947   1.0911123290e+02   4.7910265971e+01    0.1871805    0.1345921 -47.49 0.0006742401    1.303    0.232
        38  -7.8287     93.5185    126.4974   8.2489416945e+01   3.8193521903e+01    0.1562498    0.1493454 -35.84 -2.770755e-05    1.023    0.023
        39  -9.5157     64.2019    126.4341   9.1886579516e+01   4.2901358513e+01    0.3642071    0.2011116 -63.05  0.001336664    1.815    0.449
        40 -10.5783     55.3145    119.8140   9.3459500581e+01   4.5789956089e+01    0.6301293    0.3192908 -52.13   0.00220176    1.762    0.432
        41  -7.9453    104.8029    119.0276   7.7208432652e+01   3.7915681604e+01    0.2117788    0.1966927 -40.60            0    1.050    0.048
        42  -7.8418    205.5322    110.4854   5.1894602495e+01   1.8503876098e+01    0.1426696    0.1255503 -54.12  0.000105626    1.025    0.025
        43  -7.2686     68.4631    105.4799   8.5499135260e+01   4.7481295693e+01    0.1474414     0.140337 -41.25  0.000740032    1.047    0.045
        44 -10.0373      1.8815     75.6243   1.0457392733e+02   6.1250200821e+01    0.4778672    0.1507039 -70.48  0.001768862    3.487    0.713
        45  -8.9451     59.4999     74.4968   7.9974249067e+01   5.5751391971e+01     0.243823    0.1353592 -59.03 0.0008792428    2.336    0.572
        46  -9.9469     13.0521     59.8435   9.5649667954e+01   6.3990107349e+01     0.305266    0.2128981 -71.88  0.001148697    1.825    0.452
        47 -10.3443      1.7074     51.6811   9.8884577484e+01   6.6382439186e+01    0.5801291      0.11644 -62.98  0.001737003    5.920    0.831
        48  -9.0109    114.4005    238.0850   9.6859096616e+01   8.0892713043e+00    0.2519304    0.1701265 -70.04  0.001123596    1.832    0.454
        49  -9.6282     81.9765    214.7826   1.0142912965e+02   1.7919703540e+01    0.4889765    0.3547413 -80.14 0.0007864514    1.485    0.327
        50 -10.5270     73.1874    218.0646   1.0394384835e+02   1.8396872172e+01    0.6135154    0.3374198  70.13  0.002623147    2.415    0.586
        51 -10.5802      2.2990     39.6159   9.4914027886e+01   6.8693964991e+01    0.5507528    0.1634974 -58.02  0.002278632    3.336    0.700
        52 -11.9065     81.0466    234.2682   1.0396333821e+02   1.3702532792e+01    0.9697056    0.4447769  24.59  0.004015132    2.621    0.618
        53 -10.6687     78.9030    230.3958   1.0401982605e+02   1.4838658649e+01    0.4502544    0.2764557 -72.10  0.001969637    1.777    0.437
        54 -12.5500     99.7684    229.1275   9.9042183235e+01   1.2121409116e+01     2.129816    0.4339656  33.17  0.006177964    4.500    0.778
        55  -8.4632    128.1181     28.1119   4.3906264495e+01   4.9021903680e+01    0.1976349    0.1742797  74.94 0.0006089954    1.071    0.066
        56  -8.9277      7.3161     26.3187   8.7206294635e+01   7.0678792422e+01    0.1247393   0.06902113 -20.14 0.0007039572    1.655    0.396
