#   1 NUMBER                 Running object number                                     
#   2 MAG_AUTO               Kron-like elliptical aperture magnitude                    [mag]
#   3 X_IMAGE                Object position along x                                    [pixel]
#   4 Y_IMAGE                Object position along y                                    [pixel]
#   5 X_WORLD                Barycenter position along world x axis                     [deg]
#   6 Y_WORLD                Barycenter position along world y axis                     [deg]
#   7 A_WORLD                Profile RMS along major axis (world units)                 [deg]
#   8 B_WORLD                Profile RMS along minor axis (world units)                 [deg]
#   9 THETA_WORLD            Position angle (CCW/world-x)                               [deg]
#  10 FWHM_WORLD             FWHM assuming a gaussian core                              [deg]
#  11 ELONGATION             A_IMAGE/B_IMAGE                                           
#  12 ELLIPTICITY            1 - B_IMAGE/A_IMAGE                                       
         1 -12.7719    163.0429     48.9241   1.0404269917e+00   3.8197196719e+01     1.072947    0.8951974 -35.65   0.00393598    1.303    0.233
         2 -12.9247    177.5549     19.1749   3.5148643394e+02   3.8781974947e+01    0.9549907    0.7117227 -54.53  0.003885627    1.127    0.113
         3  -8.3678    124.5226      8.4752   3.5373462517e+02   5.2410117094e+01    0.2281916    0.1110832 -89.94 0.0008792243    2.123    0.529
         4 -10.7408    189.7759     15.3721   3.4958892468e+02   3.6569548448e+01    0.2272667    0.1801526 -51.97  0.001094212    1.139    0.122
         5 -11.2514    199.7367    247.4813   3.4439775346e+01  -8.2652926758e-01    0.3795099    0.1962449 -35.39  0.001441802    1.807    0.447
         6  -9.5696    139.7383    247.5238   4.5683184431e+01   5.3499294957e+00    0.2907878    0.2425969 -68.34  0.001338534    1.752    0.429
         7 -18.8782     67.9143    224.7387   5.9427479338e+01   1.7832776934e+01     4.870901     4.077678  25.82    0.0175871    1.106    0.096
         8 -15.2025     58.1054    143.0353   5.2563481684e+01   3.8917420388e+01     6.043392     4.035525  -7.31    0.0254923    2.180    0.541
         9 -11.2313     11.4662    206.3869   7.2506672934e+01   2.7670861652e+01    0.5050002     0.332153   5.81  0.001829421    1.850    0.460
        10  -9.4660     19.5841    197.2719   6.9894223842e+01   2.9115615326e+01    0.2243341    0.1945733 -24.34 0.0004967045    1.450    0.310
        11 -11.4800    188.3626    175.9467   2.5438125500e+01   1.1300574779e+01     0.733439    0.3660479 -52.19  0.002697364    2.388    0.581
        12  -9.7276    221.2833    176.2460   2.0029453223e+01   7.0122697901e+00    0.1940986    0.1639387 -41.50 0.0003610349    1.340    0.254
        13  -9.9715    149.0916    196.1145   3.6643114790e+01   1.3093352241e+01    0.2521922    0.2010497  -5.78  0.001504354    1.245    0.197
        14  -9.8194    194.8534    172.9678   2.3759087267e+01   1.0920384797e+01    0.2557456    0.1646615 -45.34  0.001463855    1.505    0.336
        15  -9.8052    177.2872    170.2433   2.6467850615e+01   1.3868529143e+01    0.2470102    0.1520472 -61.99  0.001161385    2.449    0.592
        16  -8.4740    134.7720    197.2268   3.9977250550e+01   1.4858789053e+01     0.174338    0.1439294  -7.92  0.000652356    1.218    0.179
        17  -9.8127    164.4431    158.2036   2.6739257336e+01   1.8078554010e+01    0.2422649    0.1965227 -72.72  0.001078373    1.617    0.381
        18 -10.5427    172.5750    245.2258   3.8985015177e+01   2.1718851992e+00    0.3661593    0.1680365 -51.42  0.001932693    2.890    0.654
        19  -8.6967    177.9440    156.5028   2.3771684548e+01   1.6274270704e+01    0.2086946    0.1570441 -38.51  0.000437714    1.198    0.165
        20 -10.3397    189.2797    153.8555   2.1201321730e+01   1.5014710507e+01    0.4984281    0.3510923 -38.78   0.00215974    1.246    0.198
        21 -10.3282    137.5195    153.4863   3.1706811922e+01   2.3491755307e+01    0.2569211    0.2302842 -54.78 0.0005876585    1.137    0.120
        22 -12.8904    134.1116    147.6897   3.1357615229e+01   2.5334891857e+01     1.437432    0.4375157 -47.67  0.004724646    3.155    0.683
        23 -11.7144    132.0998    138.8168   2.9999340804e+01   2.7642786204e+01    0.7548557    0.4588304  70.88  0.002792648    3.088    0.676
        24  -9.3988    127.7688    246.3865   4.8025956353e+01   6.8641489311e+00    0.2544797    0.1657467  26.72  0.001337585    1.274    0.215
        25  -8.6595    182.4368    153.2226   2.2305224315e+01   1.6176119263e+01    0.1973504    0.1636242  75.01 0.0005595168    1.722    0.419
        26 -10.3418    151.6310    152.4023   2.8297905470e+01   2.1330562346e+01    0.3255888    0.2339383 -32.64  0.001682001    1.415    0.293
        27 -10.4306    158.7930    150.9292   2.6476532641e+01   2.0427062940e+01    0.3500537    0.2749798 -81.01 0.0005080553    1.783    0.439
        28  -9.4234      8.0837    149.3139   7.0391726320e+01   4.2430237299e+01    0.3234886    0.1607807 -60.60  0.001109516    1.981    0.495
        29 -11.8017    144.0482    145.0325   2.8492139367e+01   2.4163493020e+01    0.9439251     0.436339 -62.89   0.00305076    3.875    0.742
        30 -10.8294    180.6868    243.9565   3.7324611041e+01   1.5177375281e+00    0.2098253    0.1410548  24.09 0.0008667414    1.365    0.268
        31  -9.4193      3.7527    140.5963   7.1297194566e+01   4.5101871854e+01    0.4276685    0.1706588 -88.79   0.00126352    2.442    0.590
        32  -8.9644     14.2491    243.5897   7.3303831305e+01   1.9403905339e+01    0.1511762    0.1023997  16.05 0.0009241003    1.558    0.358
        33 -10.1875     30.0712    134.6843   6.1250630301e+01   4.4558938784e+01    0.2868874    0.2028992 -64.92 0.0005840001    1.363    0.266
        34 -10.5249    197.0988    236.6875   3.3425916553e+01   8.7009466707e-01    0.2005256    0.1457555 -44.67  0.001293753    1.734    0.423
        35 -10.8855    196.1196    210.8133   2.9813452509e+01   4.7040924417e+00    0.2661819    0.1943615 -47.26 0.0003499845    1.648    0.393
        36 -10.6265    135.8460    128.6858   2.6878650430e+01   2.9165192631e+01    0.4134829    0.1997751 -49.07  0.001659111    1.997    0.499
        37 -10.6146    135.0758    121.9479   2.5519862695e+01   3.0772665695e+01    0.4875128    0.1912059 -51.85  0.001709579    2.623    0.619
        38 -10.4962    162.2960    127.4064   2.0820290793e+01   2.4477255053e+01    0.3894063    0.3164506  60.46  0.001066917    1.411    0.291
        39  -8.6513    160.8551    239.6267   4.0490693702e+01   4.2494484121e+00    0.1976107    0.1341505 -26.05 0.0009158759    1.443    0.307
        40 -10.4439      3.7413    127.6503   7.0382443631e+01   4.8660793879e+01    0.3795532    0.2697523 -78.69  0.001356306    1.287    0.223
        41 -10.9164    110.1981    123.2764   3.2265890427e+01   3.5293928327e+01    0.4062221    0.3086447 -66.27 0.0008988311    1.398    0.285
        42  -9.8359     23.1246    124.1962   6.2575282713e+01   4.8145866285e+01     0.335954    0.2013088  16.47  0.001069887    1.829    0.453
        43 -10.2282    139.1534    118.7399   2.3811913161e+01   3.0660070881e+01    0.3833196    0.2874705  77.15  0.001296102    1.717    0.418
        44 -10.2209    114.6728    117.3214   2.9623924612e+01   3.5815508161e+01    0.2814159    0.2656046 -27.23 0.0006418283    1.145    0.127
        45  -8.4665    148.8606    115.6035   2.0910247419e+01   2.9397979186e+01    0.1964336     0.136628  62.40 0.0005554098    1.691    0.409
        46  -8.8481    168.0242    113.5325   1.6595086309e+01   2.6083205308e+01    0.3142178     0.158733 -57.69  0.001257718    2.453    0.592
        47  -7.7890    179.3228    113.2567   1.4514619504e+01   2.4014675362e+01    0.1260514    0.1045662  -0.25 0.0002325709    1.547    0.353
        48  -9.9510    134.6767    109.9117   2.2723531619e+01   3.3429586272e+01    0.7057522    0.1316539 -46.73  0.001740521    5.165    0.806
        49 -10.5495    119.5879    112.7080   2.7180278973e+01   3.5886184134e+01    0.3445895    0.2588626  64.99  0.001034969    1.506    0.336
        50 -10.6687     30.6176    126.4774   5.9980526991e+01   4.6783734558e+01    0.3622749    0.2787285 -19.71  0.001500439    1.569    0.362
        51 -10.7440     44.6199    109.5052   5.1651275862e+01   4.9847684991e+01    0.4479695     0.241211 -59.46  0.001313065    1.755    0.430
        52  -8.5805      7.3146    112.3292   6.7610155752e+01   5.2679565631e+01    0.1522512   0.09524769 -44.51 0.0005277019    1.676    0.403
        53 -10.7683     83.9158    109.9762   3.7143590982e+01   4.3482229006e+01    0.4083945     0.292338 -28.07  0.001229027    1.818    0.450
        54 -11.0273    112.0034    109.4755   2.8423864262e+01   3.8150085952e+01    0.4322248    0.3171553  51.10  0.002046334    1.391    0.281
        55 -10.9062    153.3547    185.1613   3.3935547082e+01   1.4567200465e+01    0.3660005    0.2963527 -32.31  0.002025888    1.184    0.155
        56 -12.1695    147.4125    179.2313   3.4208806308e+01   1.6589482208e+01    0.6672814    0.4884726  50.86  0.002357742    1.634    0.388
        57  -9.1602     97.6905    103.4226   3.1050393558e+01   4.2435041707e+01    0.2008906    0.1508827  32.15 0.0003762159    1.476    0.322
        58 -11.9933    138.0620    171.2670   3.4917433451e+01   1.9636665151e+01    0.6959707    0.3648534 -53.69  0.003095277    2.008    0.502
        59 -10.2088    168.2805    235.7223   3.8540473967e+01   4.0290339135e+00    0.2431154    0.1877887 -32.20 0.0005231248    1.328    0.247
        60  -9.7370     74.0301     98.5265   3.7698226805e+01   4.8141085706e+01    0.3629563    0.1363517  42.92  0.001212236    2.636    0.621
        61  -8.5608    139.1051     94.8628   1.7868206317e+01   3.5599377052e+01    0.2150553    0.1856296 -76.39 0.0002601796    1.173    0.148
        62  -9.1506    182.8548     73.9013   4.7433924700e+00   3.0089958961e+01    0.2238178    0.1744413 -74.23 0.0002888842    1.280    0.218
        63 -11.8848    151.9605     62.7103   6.5599602366e+00   3.8590769821e+01    0.6804124    0.5889951  -1.27  0.001519207    1.593    0.372
        64 -11.8253    142.5096    171.4875   3.3938863603e+01   1.8896814779e+01    0.6905198    0.3371572  44.99  0.002806244    2.270    0.560
        65 -11.2888    167.8114     40.1358   3.5803647999e+02   3.8353141776e+01    0.4296148    0.3589816 -60.93 0.0007296762    1.047    0.045
        66  -7.4905     68.3131     62.2942   2.8729917327e+01   5.7633946803e+01    0.1453194    0.1180774   0.88 0.0002880763    1.596    0.373
        67  -8.0217    248.9451     56.2398   3.5418402435e+02   2.0589229334e+01    0.1189486   0.08826265  88.45 0.0004738606    1.551    0.355
        68  -8.2228     78.5221     35.4378   1.4285160156e+01   6.0353321393e+01    0.1408308    0.1298848  69.16 0.0001417807    1.027    0.026
        69  -8.2061    209.4270     33.4838   3.5238384182e+02   3.0451471033e+01    0.1203971   0.09441857 -56.77 0.0001310107    1.043    0.041
        70  -9.8279    162.9011    246.6108   4.0991235428e+01   2.9842844787e+00    0.3819059    0.1718456 -38.16  0.001418121    2.284    0.562
        71  -9.7436    208.0154     16.2832   3.4860765345e+02   3.2740676964e+01    0.1654068    0.1251629 -69.71 0.0004184009    1.102    0.092
        72  -9.4923     30.2864    247.1774   6.9833151230e+01   1.7233203134e+01    0.2107648    0.1330268  45.19 0.0008689556    1.244    0.196
