#   1 NUMBER                 Running object number                                     
#   2 MAG_AUTO               Kron-like elliptical aperture magnitude                    [mag]
#   3 X_IMAGE                Object position along x                                    [pixel]
#   4 Y_IMAGE                Object position along y                                    [pixel]
#   5 X_WORLD                Barycenter position along world x axis                     [deg]
#   6 Y_WORLD                Barycenter position along world y axis                     [deg]
#   7 A_WORLD                Profile RMS along major axis (world units)                 [deg]
#   8 B_WORLD                Profile RMS along minor axis (world units)                 [deg]
#   9 THETA_WORLD            Position angle (CCW/world-x)                               [deg]
#  10 FWHM_WORLD             FWHM assuming a gaussian core                              [deg]
#  11 ELONGATION             A_IMAGE/B_IMAGE                                           
#  12 ELLIPTICITY            1 - B_IMAGE/A_IMAGE                                       
         1 -13.3633     88.0414    164.5213   1.2725734511e+02   3.0061208425e+01     3.655977    0.9209208  50.54  0.002631919    6.166    0.838
         2 -12.7756    213.0446      2.0506   6.0270838638e+01   3.1758277581e+01     1.019935     0.664073  76.08    0.0022111    1.303    0.233
         3 -13.9911    189.0194     25.7325   6.8857867596e+01   3.4974662027e+01     1.582606     1.249337 -19.30  0.005758434    1.560    0.359
         4 -13.7698    196.4417     19.8793   6.6370253368e+01   3.3830621422e+01     1.227854    0.8847204 -63.66  0.004659153    1.405    0.288
         5 -13.2133    202.6312     11.9068   6.3664972786e+01   3.3211142763e+01     0.719917    0.6490216  41.62  0.001334675    1.360    0.264
         6 -11.0182     33.1195      2.4595   9.9647107337e+01   6.8995426391e+01    0.2643148    0.1054402 -27.60  0.001429302    2.294    0.564
         7 -16.5571      6.9601    239.6508   1.5092877522e+02   2.4260852620e+01     16.09912      1.38975 -74.55   0.04907017    8.159    0.877
         8 -12.3602    247.4934    248.3370   1.0856373315e+02  -1.3723849059e+01    0.5750676    0.3396767  28.70   0.00351363    1.424    0.298
         9 -11.2491    229.2232    248.5452   1.1183648874e+02  -1.1017460194e+01     0.211973    0.1966688 -39.23 0.0006993166    1.502    0.334
        10 -12.0890    190.9670    249.1919   1.1896288652e+02  -4.9110086542e+00     0.426625    0.1900813  38.81   0.00206614    1.873    0.466
        11 -13.3529     90.1638    245.7530   1.3735447771e+02   1.2485983968e+01      0.98852    0.4912674  49.73  0.005381227    1.637    0.389
        12 -13.3762     81.5190    235.4356   1.3789529415e+02   1.5727656426e+01      1.50547    0.6252439  68.70  0.005488541    3.896    0.743
        13 -12.4751     68.2353    222.3224   1.3905865117e+02   2.0252067839e+01    0.3408498    0.2339348  75.42  0.000600444    1.259    0.205
        14 -16.2743     56.4219    211.6693   1.4025457101e+02   2.4068107574e+01     8.597577     3.518877  51.76   0.04164736    2.202    0.546
        15 -13.1259     57.1777    128.5579   1.2885388508e+02   4.2909933155e+01     2.375571    0.7229113 -69.94  0.005605158    7.505    0.867
        16 -14.6246     11.9092    207.0434   1.4811859790e+02   3.0143222800e+01     1.314805    0.9126245  71.21  0.003412369    1.161    0.138
        17  -9.6368    164.5052    157.5364   1.0775551119e+02   1.6985031401e+01    0.1530071    0.1482524  66.91  0.000240459    1.013    0.013
        18 -10.2171    102.8373    148.9261   1.2077793002e+02   3.1261304945e+01    0.3322414    0.2808734 -27.42  0.000850785    1.457    0.314
        19  -9.7000    105.2024    144.9897   1.1938911199e+02   3.1769072082e+01    0.2904125    0.2150137 -26.29  0.001359304    1.830    0.454
        20 -12.1467     91.5184    148.3982   1.2353864820e+02   3.3303389304e+01    0.2842408    0.2498952 -42.64  0.001292019    1.255    0.203
        21 -12.1234     46.6577    148.5069   1.3481677317e+02   3.9475928677e+01    0.3896408    0.2398196 -57.46   0.00213105    1.453    0.312
        22 -10.0008    134.1169    146.2463   1.1242578457e+02   2.5916089704e+01     0.634282    0.1013451 -51.43  0.001271053    7.488    0.866
        23 -10.7385    216.9874    249.5141   1.1420759976e+02  -9.2248120459e+00    0.1946632    0.1008451  38.68  0.001041684    1.618    0.382
        24  -8.7056     82.6941    141.2854   1.2445532885e+02   3.6386364744e+01    0.1414899    0.1044888  78.75 0.0002430653    1.565    0.361
        25 -13.3819     72.2679    170.8576   1.3196582809e+02   3.0960598421e+01    0.4936239    0.2788667 -45.47  0.001528929    2.166    0.538
        26  -9.9238    112.3706    135.3223   1.1549000550e+02   3.2719285681e+01    0.3050757    0.2408074 -12.56 0.0009371545    1.748    0.428
        27 -10.7414    100.1335    132.1253   1.1799654631e+02   3.5684724934e+01    0.3095452    0.2347421 -28.23  0.000795421    1.631    0.387
        28 -11.8097     44.7704    130.1708   1.3246006266e+02   4.3960737604e+01    0.2967411    0.1849118 -60.00  0.001623075    1.343    0.256
        29  -9.7768    160.7565    127.7297   1.0171151788e+02   2.4263181972e+01    0.2602496    0.1253103 -53.96 0.0009010719    2.407    0.585
        30 -11.4824     84.2804    173.2483   1.2954093815e+02   2.8617154542e+01    0.3973084    0.2658485  88.19  0.001522802    1.648    0.393
        31  -9.2766    108.8768    122.6774   1.1351624484e+02   3.6295661069e+01    0.1975888    0.1836183  52.63 0.0004306892    1.115    0.103
        32 -13.0086     48.0375    224.7525   1.4302182551e+02   2.2464878245e+01    0.4177155    0.3669239 -45.25 0.0007519544    1.802    0.445
        33 -11.0089    168.2173    113.0308   9.6303405074e+01   2.5638270848e+01    0.3853062    0.3083331 -79.72   0.00100397    1.501    0.334
        34 -13.2337     67.6490    144.2362   1.2887321741e+02   3.7865777436e+01    0.8830708    0.5601668  86.28  0.002747543    1.984    0.496
        35 -13.4748     48.6213    231.0624   1.4344554004e+02   2.1136815739e+01    0.8471497    0.6678948 -44.01  0.004861373    2.113    0.527
        36  -8.8418    155.3176     76.3451   8.9201034818e+01   3.5841531674e+01    0.1574071    0.1197632  15.09 0.0007048774    1.722    0.419
        37 -10.6820    227.4370    203.2930   1.0415514377e+02  -4.2364906661e+00     0.269994     0.227085 -57.07 0.0009772279    1.581    0.368
        38 -11.1006    125.9243     52.9086   8.9044539276e+01   4.6558839837e+01    0.4114248     0.292655  82.15  0.001251239    2.118    0.528
        39 -11.0064    162.2527    249.3696   1.2438005295e+02  -4.3605919472e-02     0.241598    0.1391075  48.89  0.001302448    1.494    0.331
        40 -11.8821     71.6151    191.9647   1.3496734903e+02   2.6246086265e+01     0.392929    0.2522662 -46.85  0.001579519    1.992    0.498
        41 -11.7480     76.2058    185.1766   1.3308802859e+02   2.7103322191e+01    0.3064949     0.235145 -54.52 0.0005648315    1.439    0.305
        42  -8.8287    181.4734    192.4325   1.1118952697e+02   6.3504022806e+00    0.1438514    0.1323586  30.56 0.0001464996    1.039    0.037
        43 -10.8646    192.7970    194.4455   1.0923926107e+02   3.7432906893e+00    0.8213896    0.4166377 -65.46  0.002182423    6.755    0.852
