#   1 NUMBER                 Running object number                                     
#   2 MAG_AUTO               Kron-like elliptical aperture magnitude                    [mag]
#   3 X_IMAGE                Object position along x                                    [pixel]
#   4 Y_IMAGE                Object position along y                                    [pixel]
#   5 X_WORLD                Barycenter position along world x axis                     [deg]
#   6 Y_WORLD                Barycenter position along world y axis                     [deg]
#   7 A_WORLD                Profile RMS along major axis (world units)                 [deg]
#   8 B_WORLD                Profile RMS along minor axis (world units)                 [deg]
#   9 THETA_WORLD            Position angle (CCW/world-x)                               [deg]
#  10 FWHM_WORLD             FWHM assuming a gaussian core                              [deg]
#  11 ELONGATION             A_IMAGE/B_IMAGE                                           
#  12 ELLIPTICITY            1 - B_IMAGE/A_IMAGE                                       
         1 -11.3451      3.8304     36.6717   6.2939391299e+01   6.8768705753e+01    0.4732253    0.2759039 -40.01  0.001717102    1.417    0.294
         2 -12.4713    105.6482     19.9733   1.6808557887e+01   5.4514899900e+01    0.3682013    0.2893093 -85.94 0.0003472547    1.534    0.348
         3 -12.3442     58.2131     29.5088   3.4452409842e+01   6.3089640744e+01    0.5381439    0.3047976 -17.69  0.001109048    2.103    0.524
         4 -11.5840     20.4864     21.7583   4.8171390706e+01   6.9597345996e+01    0.5190797    0.3048296 -21.04  0.002079698    1.611    0.379
         5 -11.6824     35.6328     17.3057   3.8720474504e+01   6.8205524322e+01    0.5111758    0.3236921  -8.32  0.002644669    1.621    0.383
         6 -10.6417      5.8032      9.2444   5.0684142743e+01   7.2834425739e+01     0.415139      0.30026 -26.48  0.003049805    1.324    0.245
         7 -10.8733     13.1382      8.9121   4.6266910817e+01   7.2120732630e+01    0.3409321    0.2657179  -9.24    0.0019561    1.164    0.141
         8 -11.9115     22.8422     10.9215   4.1995830451e+01   7.0717906442e+01    0.4677335    0.2824111  11.72  0.002034804    1.512    0.339
         9 -11.3339     17.2673     11.0147   4.4992980999e+01   7.1388796099e+01     0.323427    0.1789428 -36.24  0.001361849    1.908    0.476
        10 -11.6877    165.1339     17.7492   6.2012427487e+00   4.0941471659e+01    0.4937813    0.2481336  47.51  0.002395897    2.349    0.574
        11 -11.4652     86.0992     13.9724   1.9439107395e+01   5.9351569970e+01    0.6289536    0.3276402  14.70  0.002771983    3.173    0.685
        12 -10.6123     89.2413      8.4913   1.6639117379e+01   5.9165140001e+01    0.2443152    0.2116852 -16.48  0.001024624    1.373    0.272
        13  -9.9998    128.4226     12.2185   9.9863294145e+00   5.0035719834e+01    0.2888377    0.1933883 -69.28  0.001078635    1.775    0.437
        14 -11.1503    134.7594     14.8476   9.7138743149e+00   4.8316182282e+01    0.6855593    0.1834187  59.38  0.002686059    2.746    0.636
        15 -10.7273    225.6854     13.6832   3.5950660436e+02   2.8183919458e+01    0.2183978     0.153789 -66.14 0.0005442549    1.131    0.116
        16 -11.8191    104.8136     12.8540   1.4620496242e+01   5.5374186129e+01    0.3613934    0.3042713   4.91  0.001387752    1.414    0.293
        17 -10.8014    192.7255      7.6056   9.7455956216e-01   3.5765613997e+01     0.307324     0.196759 -10.06  0.001668745    2.942    0.660
        18 -12.2450     48.9990     12.9896   3.1070894679e+01   6.6577583038e+01    0.5983467    0.2241585  46.03  0.002824366    2.323    0.570
        19 -11.7894    212.1110      9.6586   3.5977176098e+02   3.1407136486e+01    0.4184325    0.3109612 -21.80  0.002339688    2.047    0.512
        20 -11.5322     64.0822      8.9937   2.3924856166e+01   6.4238539916e+01    0.3852386    0.2809487 -38.24 0.0008195763    1.775    0.437
        21 -10.5972    168.7712      9.6176   3.8107163182e+00   4.0927584296e+01    0.3236302    0.1640044  57.53  0.001301838    1.850    0.459
        22 -10.1301      1.0731      8.8987   5.3391359162e+01   7.3309100725e+01    0.2803169   0.05356189 -46.21  0.001003273    5.806    0.828
        23 -10.1753    155.5792      7.4628   4.8200595525e+00   4.4163469963e+01    0.3324101    0.1504734  86.67 0.0009272734    2.451    0.592
        24 -11.1266    231.8680      6.1440   3.5769828408e+02   2.7789829730e+01    0.2158592    0.1595802 -70.78 0.0008188475    1.067    0.063
        25 -11.6708    234.0708      2.8439   3.5697174474e+02   2.7714350851e+01    0.4185115    0.1939933 -75.02   0.00111881    1.922    0.480
        26 -10.2773    185.0181      6.5797   1.4588010365e+00   3.7565677645e+01    0.2888593     0.151124 -75.86  0.001534607    1.910    0.476
        27 -11.8952    244.3792      2.5641   3.5630581299e+02   2.5779584206e+01    0.3759211    0.2645172  87.37  0.002829304    1.259    0.206
        28  -9.7566     77.8980      7.2508   1.9096719418e+01   6.1649009636e+01    0.1751184    0.1475805  63.49 0.0005786745    1.259    0.205
        29 -11.2877    137.8380      4.1472   6.2620041038e+00   4.8559081192e+01    0.4457621    0.1594054  59.16 0.0003945224    2.159    0.537
        30 -11.8088    133.2404      2.5334   6.4637294318e+00   4.9753654374e+01    0.4372208    0.2336627  64.88  0.002409869    1.472    0.321
        31 -10.5022    112.9837      2.0003   9.5211157609e+00   5.4430872868e+01    0.2649536    0.1536963  78.56  0.001041115    1.704    0.413
        32 -10.8547     41.6684      3.9355   2.9898574162e+01   6.8690314254e+01    0.3723167    0.1699208  25.78  0.001857663    2.359    0.576
        33 -10.6338    218.4227      3.6120   3.5814474382e+02   3.0745340819e+01    0.2297543    0.1575025  78.92 0.0008495772    1.303    0.233
        34 -10.9831    223.5940      2.6530   3.5761266813e+02   2.9800343656e+01    0.2261423    0.1668337 -81.74 0.0004327716    1.049    0.047
        35  -9.5182    164.9653      4.5113   3.0122978976e+00   4.2279376156e+01    0.1727105   0.07225998  53.27 0.0008085048    2.426    0.588
        36  -8.7404     76.4773      3.4838   1.8017545917e+01   6.2244215674e+01    0.1797227    0.1036423  64.72 0.0009858512    1.733    0.423
        37  -9.8192     72.8329      2.9748   1.8818226112e+01   6.3024079664e+01    0.2637815    0.1228433  31.44  0.001293972    2.313    0.568
        38 -10.4549      2.0575      2.0201   4.9421492852e+01   7.4114875264e+01     0.213063    0.1287111 -11.13  0.000964255    1.398    0.285
        39 -10.7913    205.9444      2.0052   3.5874420306e+02   3.3494434550e+01    0.4228435    0.1347934  84.13  0.001739952    3.364    0.703
        40 -10.1820    105.2794      1.7796   1.0859677784e+01   5.6179775697e+01    0.2193175    0.1409955  73.27 0.0009434666    1.431    0.301
        41  -9.3910     64.4207      2.2248   2.0985712352e+01   6.4745007638e+01    0.1311752    0.1106218 -25.47 0.0003896295    1.465    0.318
        42  -9.2253     33.7721      1.9814   3.2356112320e+01   7.0130157867e+01     0.131086   0.08531263 -17.21 0.0004539084    1.580    0.367
        43  -9.4087    152.1657      1.3365   3.6812823641e+00   4.5491122851e+01    0.1711443   0.09325718  81.47 0.0004685791    1.597    0.374
        44  -9.8741     82.0687      1.3029   1.5735601964e+01   6.1251742799e+01    0.1776341   0.08929619  58.13 0.0003969665    1.600    0.375
        45 -11.2384     15.1637     15.8256   4.8385353228e+01   7.1003014927e+01    0.3210219    0.2251199   0.42 0.0007519778    1.144    0.126
        46  -9.5647     32.0474    137.4978   7.4516415722e+01   4.4052068292e+01     0.195382    0.1401937  24.18 0.0006505862    1.548    0.354
        47  -9.4156    188.4004    250.1647   5.2536608291e+01  -5.5961666964e+00    0.1612668    0.1206424 -50.28  0.000953246    1.729    0.422
        48 -11.5628     23.7834    136.7482   7.7052669485e+01   4.5024346438e+01     0.515561    0.3175316 -28.21  0.002480426    1.985    0.496
        49 -10.4808     40.8304    138.1572   7.1793815052e+01   4.2952549088e+01    0.2677279    0.2273156  54.41 0.0009112193    1.271    0.213
        50  -9.0992     26.5199    127.4884   7.4719523041e+01   4.7135878962e+01    0.1380975    0.1229559 -62.78 1.477003e-05    1.016    0.016
        51  -9.6579     22.9912    126.7399   7.5780244929e+01   4.7638155775e+01    0.1795487    0.1663802 -48.11 0.0003486694    1.079    0.073
        52 -10.8498     10.5136    126.4824   7.9882162548e+01   4.8674617950e+01    0.2867673    0.2244635 -74.18  0.001195291    1.146    0.127
        53  -9.8326     33.3782    126.1662   7.2183718773e+01   4.6812917125e+01    0.2014662    0.1262509 -76.94 0.0009391061    1.694    0.410
        54  -9.6852      2.3804    126.1899   8.2491768936e+01   4.9272991949e+01    0.1891957    0.1087649 -84.13 0.0009472616    1.710    0.415
        55  -9.2022     79.6712    124.3356   5.6276688445e+01   4.1057811547e+01    0.1585211    0.1203114  74.40 0.0007051982    1.726    0.421
        56 -10.9836    104.4955    122.4904   4.8094909026e+01   3.6982928556e+01    0.3278709     0.315107  53.05 0.0008243793    1.056    0.053
        57  -9.4923     49.9981    122.5118   6.5806689541e+01   4.5860367343e+01    0.2069923    0.1227293  -9.32 0.0008104962    2.618    0.618
        58  -9.5346     13.2528    122.5603   7.8406074346e+01   4.9459115409e+01      0.16792    0.1238309 -13.82 0.0009367639    1.571    0.364
        59  -9.9826     44.3481    119.6917   6.7183440325e+01   4.7250140767e+01    0.2387907    0.2225554   8.96 0.0006701394    1.144    0.126
        60 -10.1156     43.4085    116.2000   6.6796449854e+01   4.8227258610e+01    0.2698612    0.2405237 -82.90 0.0007635833    1.218    0.179
        61  -9.2824    113.4310    115.8081   4.3788034630e+01   3.6737013544e+01      0.20488    0.1484743 -35.47  0.000247868    1.486    0.327
        62  -9.7397     79.1100    115.0841   5.4237868929e+01   4.3400908126e+01    0.2347688     0.202926 -14.43  0.000959226    1.242    0.195
        63 -11.0853     17.2221    100.7284   7.3286902602e+01   5.4491363806e+01     0.329559    0.2702877  46.15 0.0005795655    1.457    0.314
        64 -10.3180     16.1819     95.2582   7.2613064522e+01   5.5856497804e+01    0.2937151    0.1756236 -68.23  0.001246986    1.641    0.390
        65 -10.8199     36.0373    103.1074   6.6676405116e+01   5.2222605791e+01    0.5703689    0.3342726  10.16  0.002670459    2.026    0.506
        66 -12.2639     25.4807    106.1912   7.1257490143e+01   5.2505643453e+01    0.8842707    0.4966632 -60.00  0.004041099    1.566    0.361
        67 -11.2338     28.3445    113.0959   7.1548369440e+01   5.0564039678e+01    0.3134159    0.2738706  -2.68   0.00102338    1.234    0.190
        68 -10.3471      7.5041    114.5258   7.9168475972e+01   5.1833303344e+01    0.2467321    0.1832816 -56.38 0.0007996826    1.129    0.115
        69 -12.1041      2.4503    111.4308   8.0470420612e+01   5.2888171277e+01    0.4683345    0.3041684 -84.04  0.001703863    1.574    0.365
        70 -11.8361      4.8618    106.7759   7.8911551619e+01   5.3872918967e+01    0.5196558    0.3675985 -82.76  0.002984646    1.457    0.314
        71 -10.8096     12.6050    111.7794   7.6944465961e+01   5.2164981140e+01    0.4021865    0.2058901 -73.28  0.001397124    1.898    0.473
        72 -11.4658     16.4525    109.7540   7.5223058861e+01   5.2379745752e+01    0.2935972    0.2824716  46.20 0.0003402405    1.204    0.169
        73  -9.8500     48.8489    112.1255   6.3987323458e+01   4.8574703499e+01    0.2109499    0.1966511  73.84 0.0006419965    1.217    0.178
        74 -11.8131     79.8020    108.1339   5.2248832969e+01   4.4923291444e+01    0.4254759    0.3324724  17.08 0.0006990352    1.396    0.284
        75 -10.2427    174.1932    108.1564   2.7109245107e+01   2.5008112681e+01    0.3327264    0.2423913  57.63 0.0008347502    1.411    0.291
        76  -9.9332    101.8177    109.3466   4.5533384702e+01   4.0554883590e+01    0.2269366    0.1426215  30.10  0.000577945    1.760    0.432
        77  -9.2092    143.3250    105.6855   3.3256861303e+01   3.2436366740e+01    0.1584254    0.1211778 -87.48 0.0007042534    1.666    0.400
        78  -9.9122     85.8528    103.6010   4.9046443798e+01   4.4891693262e+01    0.2534752    0.2027572 -33.63 0.0006385116    1.278    0.218
        79 -10.9884     50.8909    100.4703   6.0510378693e+01   5.1095875057e+01    0.5602086    0.3226112 -25.77  0.002380574    2.201    0.546
        80 -11.7261      9.1442     97.1355   7.5688218863e+01   5.5902066152e+01     0.405704    0.3744827  -2.92 0.0005069167    1.206    0.170
        81 -11.7601     22.2725    114.1675   7.3914079500e+01   5.0836719415e+01    0.5807526    0.2774464   5.68  0.002381254    2.841    0.648
        82  -9.1754     33.5209     98.4362   6.6586502451e+01   5.3586981702e+01    0.1937894    0.1629053  58.78 0.0006146652    1.471    0.320
        83 -10.6034     30.4187     96.3349   6.7307513668e+01   5.4386625400e+01    0.2712535    0.1869967 -69.33  0.000746802    1.565    0.361
        84 -12.1593     67.3044     94.9407   5.3062537289e+01   4.9989610195e+01    0.4465089    0.3552074  24.04   0.00120105    1.268    0.212
        85 -10.3108    210.2498     98.0881   1.8519404196e+01   1.9160238123e+01    0.2107909    0.1885896  82.60 0.0004246756    1.145    0.127
        86  -9.5564    140.9714     95.9670   3.1272087074e+01   3.4929778162e+01    0.2374814    0.1899273  10.82 0.0009494497    1.676    0.403
        87 -12.2417    125.5657     94.3895   3.4705478585e+01   3.8722637409e+01    0.4551797    0.2960404  54.65  0.002022909    1.565    0.361
        88 -11.1221     79.4127     92.8165   4.8224091674e+01   4.8425248748e+01    0.6182768    0.5640247 -37.81  0.003428423    1.098    0.089
        89 -10.4035     42.8463     94.3912   6.2041320630e+01   5.3498311111e+01    0.3074257    0.2468106   7.95  0.001160968    1.290    0.225
        90 -10.9864     43.1388     90.9124   6.1048487189e+01   5.4252683519e+01    0.2212175    0.2063527 -41.39 0.0004302571    1.102    0.093
        91 -10.8765     27.2373     85.9906   6.6155025282e+01   5.7051285134e+01    0.5290675    0.4220086 -31.07   0.00183883    1.120    0.107
        92 -10.6958     18.4847     90.9869   7.0821487242e+01   5.6669333150e+01    0.3808277      0.26634  56.50  0.002045953    1.956    0.489
        93 -10.7339     18.6324     86.3859   6.9753409654e+01   5.7704375349e+01    0.4141096    0.2447468  -0.62  0.001661561    1.936    0.484
        94 -10.6220     34.8951     91.7239   6.4480668621e+01   5.4995978203e+01    0.4330124    0.2786659 -84.75  0.001959513    2.466    0.595
        95 -11.1663     23.1052     94.5091   6.9753975580e+01   5.5478366696e+01    0.3205265    0.2509149 -11.92  0.001463363    1.314    0.239
        96  -9.7486     98.1672     90.9039   4.1557011942e+01   4.5273475396e+01    0.2126982    0.1994226  68.97 0.0003798075    1.169    0.145
        97  -9.7981     49.8731     91.4665   5.8592570004e+01   5.3285252985e+01    0.3364606    0.1398904  25.86  0.001305484    2.617    0.618
        98 -11.0867      3.1287     82.2889   7.5248826791e+01   5.9656290164e+01    0.3701671    0.2596303  88.45  0.001603957    1.859    0.462
        99 -11.5596      6.0430     88.4500   7.5272247306e+01   5.8101111567e+01    0.6199493    0.2820686  23.24  0.003029669    2.404    0.584
       100 -10.0384      9.4675     86.5162   7.3509695386e+01   5.8330200389e+01    0.2392549    0.1954779 -65.55 0.0008000339    1.225    0.184
       101  -9.6551    111.6389     88.1842   3.6767214548e+01   4.3012166067e+01    0.2613507    0.1983374  53.82 0.0008514486    1.332    0.249
       102 -10.3227     90.1774     85.9242   4.2632754324e+01   4.7868009025e+01     0.394668    0.2570679 -57.26  0.001773608    1.850    0.460
       103  -9.6978     67.1627     88.2037   5.1226279707e+01   5.1481309359e+01    0.2204351    0.1833948 -15.57 0.0006474633    1.218    0.179
       104 -10.2041     52.0781     87.1595   5.6582290808e+01   5.3942427556e+01    0.2301048    0.1847949 -41.82 0.0003508392    1.176    0.150
       105 -11.4593     45.2014     84.1363   5.8437056203e+01   5.5496879120e+01    0.4052417    0.3563461 -39.61  0.001024213    1.102    0.092
       106 -10.2840     37.8565     85.3169   6.1687270844e+01   5.6109803611e+01    0.3978738    0.2009155  12.51  0.001706178    2.449    0.592
       107 -10.5557    143.1897     84.2311   2.7604832986e+01   3.6650771779e+01    0.2474201    0.2252063 -62.39 0.0004573462    1.116    0.104
       108 -12.1891     76.0900     79.5747   4.5473119656e+01   5.1756495785e+01      0.76121    0.5462687  68.07  0.003505661    2.161    0.537
       109 -10.4173    112.7797     83.2505   3.5014886506e+01   4.3722577801e+01    0.4676139    0.2611089  60.13   0.00185686    2.202    0.546
       110  -9.4972     59.8315     83.1921   5.2494681207e+01   5.3682393960e+01    0.2010134     0.157847  -8.99  0.001065538    1.334    0.251
       111 -10.0751     67.3206     81.2899   4.9141662521e+01   5.2903093819e+01    0.3102552    0.2215936 -10.69  0.001513315    1.663    0.399
       112 -10.7594     89.2801     77.6658   4.0429184215e+01   4.9666201110e+01    0.3935395    0.2769828  46.27   0.00119369    1.413    0.292
       113 -10.3411     94.3388     76.2171   3.8368988564e+01   4.8933010395e+01    0.4097652    0.2527461  44.13 0.0009827355    1.551    0.355
       114  -9.3851    118.8203     78.2161   3.1895042629e+01   4.3326266348e+01    0.1905925    0.1687795   3.52  0.000228793    1.288    0.224
       115  -9.8878     58.1798     77.5723   5.1456549199e+01   5.5092004427e+01    0.2224335    0.1833515 -49.23 0.0005554956    1.293    0.227
       116  -9.2892    181.9666     76.0087   1.7957121796e+01   2.9097312646e+01    0.1682636    0.1487284  85.83 0.0003267278    1.054    0.051
       117 -10.1409     46.5164     75.3963   5.5413074907e+01   5.7172361411e+01    0.2987556    0.1813544 -31.63  0.001013469    1.664    0.399
       118 -11.2458     13.9303     74.4077   6.8931151734e+01   6.0697335699e+01    0.3453027    0.2636772 -66.95  0.002098082    1.437    0.304
       119 -10.1861     25.4553     74.0927   6.3866650323e+01   5.9804833781e+01    0.2760769    0.2088543 -45.47 0.0008193974    1.192    0.161
       120 -10.2330     28.7030     72.0068   6.1895802009e+01   5.9927391002e+01    0.3213303    0.1861707 -33.82  0.001649236    1.617    0.381
       121  -9.5473    103.4500     74.4909   3.5072663343e+01   4.7360303585e+01    0.2608476    0.1359474  56.40   0.00103106    2.209    0.547
       122  -8.9742     66.3634     74.2609   4.7340576323e+01   5.4465349147e+01     0.144133     0.103172   1.26 0.0006978742    1.636    0.389
       123 -10.5914     34.6087     71.4106   5.9192254091e+01   5.9427467334e+01    0.3811291     0.197423  32.53  0.001762474    2.015    0.504
       124 -10.8285     39.7328     73.2615   5.7572520509e+01   5.8458257809e+01    0.4027825    0.2123899  15.86 0.0009814046    2.155    0.536
       125 -11.7060     40.6542     68.9870   5.5904775013e+01   5.9210052826e+01    0.3452084    0.2409774  23.97 0.0005411908    1.423    0.297
       126 -10.7581      2.0351     71.4849   7.3445446217e+01   6.2077415502e+01    0.3670578    0.1701966 -54.83  0.001901519    1.705    0.414
       127  -9.8143     80.7844     72.2770   4.1570459457e+01   5.2307429842e+01    0.2956667    0.1892122 -32.20  0.001405649    1.674    0.403
       128 -10.8411     53.4327     76.1908   5.2887283841e+01   5.6066160750e+01    0.4566672     0.286835 -50.85  0.002273833    1.643    0.391
       129  -8.7881     19.6431     71.6884   6.5750938053e+01   6.0826657827e+01    0.1405429   0.08007739 -27.13 0.0007043467    1.737    0.424
       130 -10.7373    122.5457     68.7383   2.8143343603e+01   4.4142169376e+01     0.430947    0.2587118  45.08   0.00154548    1.597    0.374
       131  -9.6588    203.9728     67.9888   1.2832907980e+01   2.5500759234e+01    0.1619695    0.1373578 -69.40 0.0003434951    1.032    0.031
       132 -10.0557    153.8332     72.3189   2.2136906007e+01   3.6244061801e+01    0.3279195    0.1591766  53.48  0.001173946    1.948    0.487
       133 -10.3113     13.3726     67.4529   6.7425439660e+01   6.2205583060e+01    0.3689191    0.1161446  19.03  0.001324294    3.325    0.699
       134  -9.8071     96.4926     65.5780   3.4361581681e+01   5.0391645923e+01    0.2035824    0.1784267 -12.14  5.83394e-05    1.216    0.177
       135 -11.0600     92.9986     62.6414   3.4484050248e+01   5.1609651080e+01    0.3853848    0.2608337  60.67  0.000787424    1.752    0.429
       136 -10.2475     14.0529     56.4413   6.4051272341e+01   6.4366060470e+01    0.2879017    0.1671266 -18.75 0.0008915221    1.709    0.415
       137 -12.3855      6.1257     61.9957   6.9322259185e+01   6.3821892308e+01    0.6496204    0.3810587  -6.58  0.003674815    1.756    0.430
       138 -10.8805      9.6454     56.7821   6.6250535011e+01   6.4630081308e+01    0.2697112    0.2289435  89.94   0.00134503    1.740    0.425
       139  -9.0110    192.4966     65.4826   1.3863874030e+01   2.8412329149e+01    0.1374115     0.117415 -78.72  5.59455e-06    1.027    0.026
       140  -9.9175    201.4936     64.5099   1.2396998018e+01   2.6576102034e+01    0.1345033    0.1141856 -76.23 -1.231752e-05    1.008    0.008
       141 -10.2432    105.2232     63.2425   3.1067621044e+01   4.8922708431e+01    0.3100681    0.2152916  41.73  0.001163444    1.352    0.260
       142 -11.9786     46.4865     59.4435   5.0380366199e+01   6.0271537357e+01    0.7395811    0.3773473  34.94   0.00356045    1.940    0.484
       143 -11.4505     43.3358     60.9867   5.2226371340e+01   6.0411232514e+01    0.3630896    0.2033172 -48.54 0.0007472311    1.844    0.458
       144 -10.9684     40.7263     56.7881   5.1946057352e+01   6.1523279212e+01    0.3730204    0.1786371  36.00  0.001342267    2.136    0.532
       145  -9.6580     84.5103     62.0362   3.6993229630e+01   5.3414472277e+01    0.2058268    0.1378219 -38.70  0.001029386    1.584    0.369
       146  -9.4467    150.7616     60.9775   1.9704921293e+01   3.8786602717e+01     0.190023    0.1775464 -85.25 0.0004189686    1.060    0.056
       147 -10.0163    113.5491     60.8074   2.8047441551e+01   4.7474904295e+01    0.2359402    0.2061152 -18.67  0.001207982    1.280    0.219
       148 -11.4225    117.8428     55.4707   2.5311214551e+01   4.7325615757e+01     1.257927    0.7063445 -73.45  0.003923785    4.993    0.800
       149 -10.1310    122.4188     44.7792   2.0954655327e+01   4.7789435622e+01    0.2728796    0.1815911  50.59 0.0006805651    1.347    0.257
       150 -10.3426    110.6146     40.6803   2.2431388051e+01   5.1031826186e+01    0.6066506    0.5166456  30.82  0.003625684    1.207    0.171
       151 -11.5758    117.0688     45.6475   2.2455268242e+01   4.8905458434e+01    0.5250207    0.4533708  -8.97  0.002634286    1.361    0.265
       152 -11.0411    120.1717     40.6134   2.0178365611e+01   4.8855656641e+01    0.3859771    0.1955994  47.98  0.000824903    1.794    0.443
       153 -11.6354    118.9965     36.9873   1.9315200256e+01   4.9582758925e+01    0.3680044    0.3195054 -64.53  0.001264894    1.306    0.235
       154 -10.0313     29.7377     59.9952   5.7867699251e+01   6.2220417573e+01     0.291881    0.2423366 -61.95  0.001666019    1.538    0.350
       155 -10.2802     25.7933     59.5955   5.9531815459e+01   6.2704885272e+01    0.2888152    0.1835543  27.94  0.001627806    1.641    0.391
       156 -11.0051     25.5409     55.6230   5.8393575193e+01   6.3486736006e+01    0.3745623    0.1901156 -34.92 0.0008204717    1.826    0.452
       157 -10.8637     31.6660     53.1238   5.4744636966e+01   6.3288536209e+01    0.4883926    0.1952412  22.46  0.002086592    2.674    0.626
       158 -10.3267    158.7248     62.9008   1.8717335258e+01   3.6607317940e+01    0.2894837    0.1729171  48.24 0.0005483609    1.731    0.422
       159 -10.3622     88.3631     54.9319   3.3374732510e+01   5.3802484822e+01    0.5043197    0.1362392 -33.24  0.001465515    5.099    0.804
       160 -11.6301     76.3809     52.9726   3.6647604672e+01   5.6457321719e+01      0.48625    0.3553905   1.87  0.001443505    1.587    0.370
       161 -10.7855     72.8409     47.4190   3.5909804260e+01   5.7975524139e+01    0.8733255    0.3250477 -48.60  0.002993988    4.352    0.770
       162 -10.6164    157.3080     54.9522   1.6886543647e+01   3.8138806623e+01    0.4005784    0.3227403 -82.25  0.002250873    1.247    0.198
       163 -11.5542    154.9669     48.9184   1.5702188500e+01   3.9551858282e+01    0.3382989     0.219953 -27.16 0.0005007554    1.914    0.477
       164 -10.0943    124.6876     56.1008   2.3859445860e+01   4.5656989450e+01    0.1882288    0.1829876 -18.45 0.0009079212    1.145    0.126
       165  -9.5396     33.6733     56.7978   5.5065033748e+01   6.2384830052e+01     0.186187   0.08666626  35.71  0.000653128    2.287    0.563
       166  -9.2865     67.0000     54.9389   4.0690282539e+01   5.7843110364e+01    0.2046785   0.07538597 -40.71 0.0006476699    2.843    0.648
       167 -10.5237     60.5625     51.7980   4.2017190403e+01   5.9453160899e+01    0.4121929    0.1930482 -48.20  0.001779524    2.649    0.623
       168 -10.4996     61.5552     46.2010   3.9602018251e+01   6.0172551525e+01    0.4686047    0.2853399   3.77  0.002176014    2.310    0.567
       169 -10.5709    244.0007     51.4510   5.0368722215e+00   1.9818441573e+01     0.164249    0.1050496  77.75 0.0005023977    1.555    0.357
       170 -10.1870    145.2521     42.9851   1.5819369273e+01   4.2656464813e+01    0.1896706    0.1207945 -50.49 0.0004672188    1.707    0.414
       171 -10.1718    145.1552     49.8973   1.7749747205e+01   4.1742175090e+01    0.2384858    0.1877661  -8.60  0.000656389    1.737    0.424
       172  -9.6241     10.9149     51.3749   6.4045569217e+01   6.5580726765e+01    0.1659032    0.1305472 -17.47 0.0004529879    1.067    0.062
       173  -9.8026    188.9425     49.4061   1.0659009200e+01   3.1581699082e+01    0.2164029     0.158549 -60.49 0.0004409283    1.275    0.216
       174  -9.7815     55.4625     50.4636   4.3547848388e+01   6.0497284358e+01    0.2012411       0.1186  33.64 8.675308e-05    1.583    0.368
       175  -9.8765     51.9937     48.4682   4.4231325620e+01   6.1362919216e+01    0.2149447    0.1626241 -16.58 0.0005176788    1.283    0.221
       176 -10.4757     45.7927     48.8170   4.6959325115e+01   6.2223239835e+01    0.4180764    0.1901412  29.76  0.001420605    2.139    0.532
       177 -11.7846     42.7501     43.9736   4.6489317826e+01   6.3444250258e+01    0.5797389      0.25727  33.25  0.001458794    2.122    0.529
       178  -9.7066      1.8526     49.1750   6.7889130975e+01   6.6610875252e+01    0.1746892    0.1090057 -26.22  0.001068461    1.353    0.261
       179 -11.1864     20.8919     46.0157   5.7406547128e+01   6.5700870507e+01    0.3521269    0.2173772 -34.33  0.001218479    1.418    0.295
       180 -11.0583     30.1703     45.2127   5.2668667388e+01   6.4849911782e+01    0.4506932    0.2559189   2.91  0.002282875    2.055    0.513
       181 -10.4146     26.2136     42.9578   5.3735492740e+01   6.5678824610e+01    0.2377856    0.2210184  50.08 0.0009996357    1.603    0.376
       182 -10.1267     24.1733     37.6440   5.2756512795e+01   6.6783508549e+01    0.4693129    0.2501237  40.66  0.002329508    2.439    0.590
       183 -10.5150     13.1777     46.2279   6.1295308679e+01   6.6357186110e+01    0.4056278    0.1974037 -16.42  0.001948871    2.409    0.585
       184  -9.5048     18.3099     40.6705   5.6804803325e+01   6.6880071417e+01    0.1648094   0.09176654 -44.21 0.0007549633    1.682    0.405
       185 -10.4117    156.0339     42.2682   1.3762791763e+01   4.0195439904e+01    0.2672862    0.2008728 -37.84  0.001072254    1.482    0.325
       186  -9.3374    140.2186     43.6250   1.6933604294e+01   4.3764843889e+01    0.1995622    0.1111389  53.76 0.0009466053    1.615    0.381
       187  -9.9751     57.1097     41.9981   3.9759117045e+01   6.1553669029e+01    0.2317305    0.1637381  35.16  0.001330867    1.303    0.232
       188  -9.9458     98.4451     41.2106   2.5753392705e+01   5.3658880051e+01    0.2599792    0.1673637  67.66 0.0009787347    1.847    0.459
       189 -11.3788     78.8763     34.9398   2.9325969730e+01   5.8543088831e+01     0.571584    0.4217675 -28.13   0.00294616    1.496    0.331
       190  -9.9025    218.2047    249.5962   4.6587192019e+01  -9.4001731263e+00    0.1786805   0.09749502  17.36 0.0009624751    1.789    0.441
       191 -10.7681     10.8466     30.2697   5.6825113994e+01   6.9289924465e+01    0.3199026     0.226851   3.94  0.002159822    1.223    0.182
       192 -10.6210     60.9467     36.4645   3.6155398572e+01   6.1693883702e+01     0.357339    0.2228761 -18.92  0.001379221    1.800    0.445
       193  -8.9206    195.2360     37.3770   7.1663486680e+00   3.1785646610e+01    0.1095023   0.09943137  24.18 0.0003789025    1.620    0.383
       194 -10.4417    153.3193     35.9115   1.2523148884e+01   4.1644628389e+01     0.250761    0.1686804  62.06 0.0006404634    1.311    0.237
       195 -10.9422    177.4021     28.8124   7.3408723438e+00   3.6876625025e+01    0.2119372    0.1628849  67.01  0.001021662    1.229    0.187
       196 -10.9284    175.0724     34.0621   8.8876189061e+00   3.6778263959e+01    0.3104174    0.1898248 -70.00  0.001071479    1.740    0.425
       197  -9.3841    242.6795    248.3284   4.1918303827e+01  -1.2073996957e+01   0.09538324   0.09211173  -8.47 0.0005209532    1.688    0.407
       198 -12.4263    104.5416     32.5757   2.1266569739e+01   5.3395092996e+01    0.6453322    0.2507615  49.28  2.42511e-05    2.167    0.539
       199 -12.2940    113.9369     25.2090   1.6703598721e+01   5.2098333009e+01     1.159035    0.2640974  51.90   0.00403559    3.309    0.698
       200 -10.0229     68.6465     32.6447   3.1878166090e+01   6.0808232314e+01    0.4096414    0.2093854  54.91  0.001900819    2.267    0.559
       201 -10.7145    240.6082     31.8307   1.7109840501e+00   2.3074719589e+01    0.2020138    0.1707355 -66.84   0.00149305    1.229    0.186
       202 -10.2212    217.0146     32.0308   3.7782748799e+00   2.7774334689e+01    0.1831297    0.1426904 -75.96 0.0003246924    1.009    0.009
       203 -10.0096    113.3512    248.4061   6.8525655863e+01   5.8430712552e+00    0.2990794    0.1339258 -63.55  0.001258417    2.911    0.656
       204 -11.4951     48.9320     30.1991   3.8430552164e+01   6.4545715667e+01    0.5996538     0.287439  38.78  0.002463899    1.874    0.466
       205 -11.6820     26.3781     27.9426   4.7797182466e+01   6.8024674474e+01    0.3808959    0.2901646 -42.05  0.001846804    1.614    0.380
       206  -9.4454     22.5020     31.5857   5.1233042152e+01   6.7926231922e+01    0.1450949    0.1091607 -41.18 0.0009406818    1.507    0.336
       207 -10.5509    173.9235    246.6785   5.4991949902e+01  -2.9714653043e+00    0.2981273    0.1820768  12.65   0.00150997    1.784    0.440
       208 -11.6092    158.8654     29.5304   1.0006547200e+01   4.1101431413e+01    0.4764188    0.2348095  69.41  0.002281857    1.799    0.444
       209 -11.5712    164.3163     27.6132   8.7513711416e+00   4.0047008238e+01    0.3599438    0.2500287 -65.34 0.0005006231    1.459    0.315
       210  -9.6380    135.2469     30.7657   1.4188948898e+01   4.6527819650e+01    0.1865427    0.1379327  46.11  0.001056895    1.362    0.266
       211 -10.7951    188.6891     27.3507   5.6795180585e+00   3.4488110710e+01     0.302028    0.2173004  60.23  0.001149181    1.443    0.307
       212 -11.1660    230.7057     26.9820   1.6065540594e+00   2.5614249232e+01    0.2625956    0.1806318  73.44 0.0007022724    1.433    0.302
       213 -11.8364    125.7622     27.8980   1.5127150071e+01   4.9074618705e+01    0.4632987    0.3230345  73.97  0.001796048    1.374    0.272
       214 -11.0418    183.0611     25.9250   5.9944350304e+00   3.5924921985e+01    0.3334678    0.1706002 -56.95   0.00168398    1.979    0.495
       215 -11.0951    144.7388     25.8260   1.1180533345e+01   4.4846956451e+01    0.4521714    0.2088946  79.37  0.001871701    2.603    0.616
       216 -10.0549    154.6120     21.6916   8.5914243114e+00   4.2974819744e+01    0.2685691    0.1822412  28.89  0.001203971    2.188    0.543
       217  -9.6497    170.9548     23.3198   6.8316273610e+00   3.8992778290e+01    0.1800711    0.1339178  76.29 0.0003263638    1.137    0.120
       218 -10.6394     38.7562     22.0151   3.9381993680e+01   6.7167788644e+01    0.2386109    0.1889817  -8.32  0.000777708    1.175    0.149
       219 -12.2060    125.5857    241.0252   6.4781266792e+01   5.4200634566e+00    0.4853945    0.2998326  35.95   0.00246935    1.413    0.292
       220  -9.8366     13.9366     22.7238   5.2089873820e+01   7.0160480733e+01    0.1593696    0.1190259   4.50  0.000355689    1.111    0.100
       221  -9.9269    224.0374     22.0246   1.2088701538e+00   2.7552190436e+01    0.1794249    0.1313794 -76.68 0.0003720897    1.054    0.052
       222 -10.7845    178.7948     20.8414   5.3132268964e+00   3.7471407490e+01    0.4475013    0.1962728  48.32  0.001969167    2.955    0.662
       223 -10.5332    148.6943     22.4404   9.6506325278e+00   4.4283271210e+01    0.3007864    0.1103164  67.22   0.00125254    2.355    0.575
       224 -10.4186    134.3089     22.2820   1.1913502338e+01   4.7679164126e+01    0.3670839    0.1571518  65.37  0.001650987    1.997    0.499
       225 -11.2145     67.7468    240.7692   7.7923662669e+01   1.4081944407e+01    0.3445611    0.2440907 -12.00  0.001408346    2.442    0.590
       226 -11.9949    146.9915    237.8483   5.9485416671e+01   2.6936116376e+00    0.5481923    0.3831185  49.27  0.002757246    1.557    0.358
       227 -10.9171      8.8426     19.8698   5.3707778793e+01   7.1068684694e+01    0.3532396    0.1769009  -0.00  0.001500777    2.257    0.557
       228  -9.3316     15.4246    233.7719   8.8739527645e+01   2.1980807136e+01    0.1636663   0.09962776 -68.01 0.0009117348    1.659    0.397
       229  -9.3183    177.4813    236.4920   5.2617497646e+01  -1.7245716523e+00    0.1336399    0.1148605   8.53 3.480431e-06    1.003    0.003
       230 -11.4994    247.6373     20.7603   3.5922309131e+02   2.3105358868e+01    0.3070798    0.1543681  84.05  0.001847874    1.842    0.457
       231 -10.7241     68.3025     19.5132   2.6836557020e+01   6.2402733791e+01     0.286815    0.2672188  59.00  0.001953264    1.326    0.246
       232  -9.6564    216.5039     19.9960   1.4389285509e+00   2.9336548950e+01    0.1625924    0.1029127 -45.80 0.0004283036    1.525    0.344
       233 -11.0710    131.4984    240.7779   6.3405642108e+01   4.5476229672e+00    0.2628855    0.1735781  33.26  0.000851938    1.334    0.250
       234  -9.6425     46.6866     20.0563   3.5100475292e+01   6.6179085021e+01     0.167971    0.1360108  10.66 0.0005610547    1.063    0.059
       235  -9.6942     74.5378     19.5261   2.4847489554e+01   6.1183072015e+01    0.1284125    0.1020637  33.70 0.0001241752    1.061    0.058
       236 -10.2707    246.8514    230.8692   3.8298025947e+01  -1.0036422746e+01    0.1483518    0.1322142 -13.81   0.00062226    1.338    0.253
       237  -9.2047    189.7119    229.6841   4.8922584033e+01  -2.3351713500e+00     0.135081   0.09243932  -7.26 0.0003961353    1.590    0.371
       238 -10.8435    195.9412    232.2166   4.8075646133e+01  -3.6755119334e+00    0.3165581    0.1429757  31.11  0.001448212    2.110    0.526
       239 -10.3512    127.0835     16.7433   1.1547926657e+01   4.9922081454e+01    0.2479182    0.1735719  53.60 0.0003917217    1.262    0.208
       240 -11.2726    167.1888    237.9184   5.5050689048e+01  -4.3353751313e-01    0.2859024    0.1718813 -36.16 0.0009909784    1.778    0.437
       241 -11.7407    238.2723     16.3575   3.5909193117e+02   2.5400332453e+01      0.29386    0.1325986  68.04  0.001162859    2.139    0.532
       242 -11.6066    228.7435     15.7437   3.5966334602e+02   2.7338295801e+01    0.2877253    0.1742833  74.16  0.001128712    1.530    0.347
       243  -9.3165    164.4991    211.5278   5.1206860929e+01   5.0463383086e+00     0.141969    0.1305861   9.84 8.551805e-05    1.016    0.016
       244 -10.0709    211.0777     16.0343   1.1132701677e+00   3.0923027359e+01    0.1747758    0.1346663 -77.18  0.001203857    1.027    0.026
       245 -10.0521    186.8364     14.9454   3.1190820405e+00   3.6300884155e+01    0.1764433     0.148383  71.47 0.0008307295    1.252    0.201
       246  -9.8790     79.0473    204.8974   7.0992910343e+01   2.0693377979e+01     0.387563    0.1960655 -81.14  0.001445893    2.836    0.647
       247  -9.0853     61.3349    206.6796   7.5704232391e+01   2.2797816647e+01    0.1527677    0.0951079  63.87 0.0007049663    1.703    0.413
       248  -9.8241      4.0000    204.9697   8.9328723588e+01   2.9663125495e+01    0.2038569   0.06122584 -77.11 0.0005874455    2.907    0.656
       249  -9.3935    233.7783    196.2500   3.4454205645e+01  -2.8562634153e+00    0.2105777   0.08420235 -33.79 0.0008820971    2.422    0.587
       250  -9.2613    120.4336     11.6805   1.1200389342e+01   5.1929980475e+01     0.224795   0.09655212  63.92 0.0007228797    1.890    0.471
       251  -9.9203    240.6535    195.2934   3.3094934249e+01  -3.6370956465e+00    0.1118816   0.09964825 -70.75 0.0005953462    1.667    0.400
       252 -11.9608      4.7410    184.1661   8.7629779569e+01   3.4612007451e+01    0.5838645    0.3552766  86.10  0.003179435    1.477    0.323
       253  -9.0277     28.3027    175.6888   8.0716421921e+01   3.4569707635e+01    0.1432523   0.09246555  66.99 0.0004638008    1.609    0.379
       254  -9.9014     39.4802    173.4962   7.7387356449e+01   3.3922789084e+01    0.1412148    0.1265532 -88.43 0.0002234634    1.004    0.004
       255 -11.7310      9.1424    167.1983   8.5009403152e+01   3.8480862838e+01    0.3301682    0.2860144 -59.13  0.001333688    1.196    0.164
       256 -12.4212     13.0386    160.3855   8.3248195560e+01   3.9889659006e+01    0.5907179    0.3351246 -52.36  0.001787539    1.705    0.413
       257 -10.4685     18.1567    165.0873   8.2326978277e+01   3.8252365217e+01    0.2152564    0.1666655 -56.42  0.001237261    1.267    0.211
       258 -10.0211    205.1855    163.3824   3.3293652603e+01   7.7111662936e+00    0.2578268    0.1817532 -40.41 0.0007190704    1.291    0.225
       259 -10.6265     28.1448    161.5363   7.9087805952e+01   3.8224264445e+01    0.3296556    0.1606691 -64.21  0.001476558    1.778    0.438
       260  -9.2026    214.5792    161.4999   3.1168821987e+01   6.4417383089e+00    0.1387996    0.1219015 -36.52 6.992671e-05    1.024    0.023
       261 -10.1331    104.6078    154.6124   5.5387618927e+01   2.9065747518e+01    0.3033547     0.256554 -49.10  0.001489447    1.182    0.154
       262 -12.4604     22.3191    149.2408   7.9234701872e+01   4.1947393783e+01    0.6632519    0.3264653 -38.97  0.002825527    2.447    0.591
       263 -11.3239     16.6753    147.9315   8.0762994361e+01   4.2769810293e+01    0.3429242    0.2071344 -67.79 0.0009799788    1.415    0.293
       264  -9.5094     55.3818    152.7457   6.9692926435e+01   3.7387335334e+01    0.2076029    0.1258942 -54.49 0.0005279264    1.546    0.353
       265 -10.5303      4.2675    153.4237   8.4996633631e+01   4.2323795734e+01    0.1719561    0.1137564  40.81 0.0009513595    1.635    0.388
       266 -11.3571     47.1092    147.5481   7.1375844140e+01   3.9785682793e+01    0.6850175    0.3954553 -44.93  0.003061942    1.784    0.439
       267  -9.2682     70.7813    151.3927   6.4750885851e+01   3.5574027114e+01    0.2155232    0.1493267  17.63 0.0009655625    1.716    0.417
       268 -10.2858    103.9357    147.4335   5.4054142268e+01   3.0990629428e+01    0.3328128    0.2194333 -43.54            0    1.563    0.360
       269 -12.0969      4.3938    142.7876   8.3831334922e+01   4.4995141806e+01    0.7193413     0.379912  56.64  0.002982649    2.213    0.548
       270 -10.7548     33.0796    144.3215   7.5242874065e+01   4.2186705507e+01    0.2862289    0.2574841 -71.96 0.0008794444    1.012    0.011
       271 -10.8815     80.3973    138.4640   5.9197244922e+01   3.7394122718e+01    0.2754993    0.2655331 -19.09 0.0005301588    1.074    0.069
       272 -10.0561     20.5676    134.1912   7.7710371932e+01   4.5955239633e+01    0.2756727    0.2171287 -52.06  0.001147033    1.167    0.143
       273 -11.1108     30.3380    132.3811   7.4251538121e+01   4.5532125916e+01    0.3747908    0.2896721 -20.58   0.00113081    1.480    0.324
       274 -10.0827      5.2116     22.1754   5.6743862866e+01   7.1040578047e+01     0.198957    0.1356138  19.50  0.001356142    1.454    0.312
       275  -9.7747     26.0042    131.5025   7.5535086087e+01   4.6163557683e+01    0.1827075    0.1729685 -55.27 0.0003411793    1.075    0.069
       276 -11.6878     12.2387    135.7870   8.0582100709e+01   4.6209465331e+01    0.5829164    0.2650075 -41.94  0.002546894    2.337    0.572
