#   1 NUMBER                 Running object number                                     
#   2 MAG_AUTO               Kron-like elliptical aperture magnitude                    [mag]
#   3 X_IMAGE                Object position along x                                    [pixel]
#   4 Y_IMAGE                Object position along y                                    [pixel]
#   5 X_WORLD                Barycenter position along world x axis                     [deg]
#   6 Y_WORLD                Barycenter position along world y axis                     [deg]
#   7 A_WORLD                Profile RMS along major axis (world units)                 [deg]
#   8 B_WORLD                Profile RMS along minor axis (world units)                 [deg]
#   9 THETA_WORLD            Position angle (CCW/world-x)                               [deg]
#  10 FWHM_WORLD             FWHM assuming a gaussian core                              [deg]
#  11 ELONGATION             A_IMAGE/B_IMAGE                                           
#  12 ELLIPTICITY            1 - B_IMAGE/A_IMAGE                                       
         1 -13.6826    190.2508     44.8663   4.4484178029e+01   3.2010927742e+01     1.208446    0.9591196  33.12  0.003945593    1.596    0.373
         2 -13.7625    215.5418     14.7203   3.4417277243e+01   2.9894826472e+01    0.8812829    0.7978854 -63.08  0.003920275    1.175    0.149
         3 -12.6672    243.3660      5.8020   3.0436555987e+01   2.5000144740e+01    0.8714383    0.4452781  87.19  0.004998527    1.847    0.458
         4 -10.0494     40.3316      9.3266   6.9357772364e+01   6.8664171889e+01    0.1270584   0.07630464   8.61 0.0007051224    1.711    0.415
         5 -10.0805     57.3253      4.3305   6.0046041505e+01   6.6419128368e+01    0.1304245    0.0756396  20.82 0.0007050628    1.704    0.413
         6 -11.2628    153.2538    237.1629   9.4640075414e+01   3.4921953441e+00    0.3745444    0.1979223 -57.50  0.001786924    2.575    0.612
         7 -19.6719     23.9722    157.4316   1.1449754578e+02   3.9189867697e+01     19.52633      5.22965 -74.33   0.06642273    3.663    0.727
         8 -10.7066     67.1077    195.4769   1.0820087246e+02   2.5166232180e+01     0.288031    0.2501756 -81.72 0.0007595576    1.107    0.097
         9 -10.8788    192.6207    194.2419   7.9174549218e+01   4.6161144000e+00    0.7073394    0.3617434 -60.44  0.002340903    4.607    0.783
        10 -10.5383     52.3007    199.2573   1.1207283654e+02   2.6206648233e+01    0.3395709    0.2292724 -33.00  0.001477407    2.273    0.560
        11 -10.3466     82.9944    194.9588   1.0435417854e+02   2.3047490437e+01    0.3865862     0.279385  37.26  0.001644377    1.363    0.267
        12 -12.1716     59.5163    189.6921   1.0931422297e+02   2.7506502086e+01    0.4681627    0.2815536 -46.79  0.002198445    1.972    0.493
        13 -11.0158    145.5081    183.6643   8.7501559025e+01   1.5109448314e+01    0.3040875    0.2436601  61.90 0.0008275685    1.450    0.311
        14 -10.1813    183.9815    179.5362   7.8092958364e+01   8.8827858492e+00    0.4701135    0.2007484 -52.06  0.001685714    3.033    0.670
        15 -10.2953    179.9731    174.8348   7.7994745649e+01   1.0536332519e+01    0.2816406     0.239217 -74.47 0.0007612802    1.567    0.362
        16 -11.4598    137.2994    173.9603   8.7601614254e+01   1.8725160794e+01    0.5595078    0.2135172 -53.10  0.001929439    2.843    0.648
        17 -10.4901     83.9824    174.2865   1.0109327031e+02   2.7750137763e+01    0.2655542    0.1978132 -53.19 0.0003656097    1.361    0.265
        18  -9.1888     93.5029    250.3016   1.0853246701e+02   1.0141167099e+01    0.1463084    0.1144193 -49.70 0.0007209699    1.597    0.374
        19  -8.1215     83.3972    239.4678   1.0948044870e+02   1.3584627207e+01    0.1225057    0.1037978  58.05 0.0001303375    1.021    0.021
        20 -10.4794    191.7502    166.8720   7.3856659008e+01   9.8912340047e+00    0.4167684    0.2974415 -52.06  0.001435703    1.576    0.366
        21 -10.2669    186.5499    165.4604   7.4641378678e+01   1.1145340519e+01    0.3079483    0.2433076  -7.85 0.0009779014    1.384    0.277
        22 -11.0193     90.6180    154.7558   9.5978021460e+01   3.1462002240e+01    0.2875196    0.2495741 -49.23 0.0005472085    1.157    0.136
        23 -12.1961     96.1686    148.5612   9.3251983867e+01   3.2062846036e+01    0.6812377    0.4808158 -39.70  0.001775145    1.526    0.345
        24 -11.9484    133.7080    145.3698   8.2518085214e+01   2.5885552172e+01     1.357911    0.3586056 -54.61  0.003120185    5.871    0.830
        25 -10.2990    134.9915    135.7237   7.9965302355e+01   2.7829585238e+01    0.2757913    0.2352425 -27.46 0.0006007306    1.236    0.191
        26 -10.8748    112.2232    150.7222   8.9315498313e+01   2.8724789829e+01    0.5553359    0.3139634  66.84  0.001747145    3.276    0.695
        27  -9.6263    174.8505    149.1090   7.3579607699e+01   1.6736023327e+01    0.2276274    0.2100168 -77.96 0.0006576859    1.261    0.207
        28 -10.2657    167.0292    224.4836   8.9833954869e+01   3.4930886417e+00    0.2383666    0.1947023 -36.92 0.0006305213    1.339    0.253
        29 -10.8663     75.4221    248.5661   1.1195571502e+02   1.2944860137e+01    0.4067466     0.140412 -58.85  0.001851516    3.162    0.684
        30  -9.9903    151.9927    137.2264   7.6088168999e+01   2.3980698892e+01    0.2777364    0.2233427 -56.83 0.0005157612    1.322    0.244
        31 -11.7807    107.5786    135.7712   8.7349330001e+01   3.3152373978e+01    0.5265632     0.414393 -37.44  0.001929396    1.317    0.241
        32 -10.8983    105.6557    130.7248   8.6738874276e+01   3.4711862874e+01    0.4399698    0.3390156 -58.88  0.001214079    1.317    0.241
        33 -11.7254     95.8081    135.0433   9.0529657005e+01   3.5422589127e+01     0.336387    0.3023359  28.31 0.0003435797    1.172    0.147
        34 -10.6707    117.9459    134.5639   8.4208935214e+01   3.1485123009e+01    0.5002435    0.3339557  86.42  0.001878066    2.669    0.625
        35  -9.5872    160.8401    128.0374   7.1784138869e+01   2.4080332995e+01    0.2669168    0.1839005 -70.77  0.001090129    2.099    0.524
        36 -10.5046    114.8839    127.7370   8.3438440959e+01   3.3677756236e+01    0.3291914    0.2691862   2.82 0.0008198643    1.479    0.324
        37 -11.0647    134.9064    121.2955   7.6455065156e+01   3.1091779588e+01    0.7143977    0.1467977 -48.98  0.001617603    5.629    0.822
        38  -9.9697    102.7164    123.0430   8.5768821477e+01   3.7078466101e+01    0.2694085    0.2249441  17.35 0.0007180044    1.334    0.250
        39  -9.8353    120.2196    122.5877   8.0702597594e+01   3.3821185406e+01    0.2190777    0.1497702  28.41  0.000943891    1.656    0.396
        40  -8.7680    233.5812    119.4634   5.5826858558e+01   1.0666169397e+01    0.1380398    0.1187003 -42.97 0.0008032582    1.055    0.053
        41  -9.4415    110.0437    117.3290   8.2237340593e+01   3.7034616144e+01    0.2112169     0.194021  38.89 0.0003119365    1.114    0.103
        42 -10.7789    134.5634    105.8060   7.2482206380e+01   3.4530890223e+01    0.4864229    0.1460082 -46.65  0.001414767    3.431    0.709
        43  -9.9508    165.4918    112.1528   6.6742341865e+01   2.6346529279e+01    0.4478464    0.2179254  50.97  0.001207136    2.154    0.536
        44 -11.8519    118.6241    110.1483   7.7941877705e+01   3.6956920832e+01    0.5671091    0.4018448  58.75  0.002130302    1.666    0.400
        45 -11.1329    114.8008    105.8826   7.7873981350e+01   3.8679796038e+01    0.3457851    0.2254316  46.06  0.000958612    1.582    0.368
        46  -9.7772    205.4951    110.2422   5.8345634843e+01   1.7933880404e+01    0.2448603    0.2055607  55.33 0.0006527353    1.288    0.224
        47 -12.9128    173.8810     58.9216   5.0766251213e+01   3.3898996369e+01    0.8409313    0.6449429  14.95  0.001284586    1.796    0.443
        48 -11.5012    248.5709    247.9094   7.8151954227e+01  -1.1501088289e+01      0.39015    0.1894914 -24.51  0.002240792    1.938    0.484
        49 -12.3755    195.3987     38.9990   4.2310357913e+01   3.1580548718e+01    0.4921178    0.4195354  60.15  0.001507322    1.229    0.186
        50  -9.8107     67.9299    248.4046   1.1341184743e+02   1.3963867369e+01    0.1870751    0.1475223 -48.57 0.0008802888    1.692    0.409
        51 -11.7470     63.2185    200.5670   1.0970529223e+02   2.4522035442e+01    0.3498029    0.1923495 -55.24 0.0005744002    1.915    0.478
        52  -9.8597     60.2498    247.1928   1.1480587108e+02   1.5178654253e+01    0.1583261    0.1070384  75.05 0.0005667786    1.406    0.289
        53  -8.8577     63.7910    244.6923   1.1390727280e+02   1.5203826534e+01   0.09812639   0.08765402 -53.52 0.0002015554    1.462    0.316
