#   1 NUMBER                 Running object number                                     
#   2 MAG_AUTO               Kron-like elliptical aperture magnitude                    [mag]
#   3 X_IMAGE                Object position along x                                    [pixel]
#   4 Y_IMAGE                Object position along y                                    [pixel]
#   5 X_WORLD                Barycenter position along world x axis                     [deg]
#   6 Y_WORLD                Barycenter position along world y axis                     [deg]
#   7 A_WORLD                Profile RMS along major axis (world units)                 [deg]
#   8 B_WORLD                Profile RMS along minor axis (world units)                 [deg]
#   9 THETA_WORLD            Position angle (CCW/world-x)                               [deg]
#  10 FWHM_WORLD             FWHM assuming a gaussian core                              [deg]
#  11 ELONGATION             A_IMAGE/B_IMAGE                                           
#  12 ELLIPTICITY            1 - B_IMAGE/A_IMAGE                                       
         1 -16.3189    208.3001     77.5041   3.9081619294e+01   2.2400842719e+01     2.881285     1.928607  89.54   0.01308077    2.028    0.507
         2 -15.1099    215.0921     26.2375   2.5375069664e+01   2.8045198061e+01     1.650748    0.9385765  43.43  0.007446177    2.339    0.573
         3 -18.5854    242.8103     43.2402   2.6495849392e+01   1.9721639174e+01      9.08449     4.882369 -29.44   0.04283239    1.933    0.483
         4 -15.3043    231.5422     38.8276   2.6638937503e+01   2.2735215512e+01     1.251014    0.4771641 -29.67   0.00510921    2.766    0.638
         5 -11.7240    190.4036     12.3898   2.4527130966e+01   3.5518432985e+01    0.4517421    0.2348485 -17.11  0.001850101    2.565    0.610
         6 -11.5955    193.5324      9.4874   2.3435918344e+01   3.5050932985e+01    0.4586405    0.2709725 -65.18    0.0016576    1.757    0.431
         7 -11.8773    156.6982     10.2014   2.8159988156e+01   4.4173274527e+01    0.5398572    0.2883679  -3.24  0.002294322    2.895    0.655
         8 -12.3371    127.2372     14.7107   3.4699834055e+01   5.1121405765e+01    0.2405755    0.2194015  25.38 0.0004358707    1.133    0.117
         9 -11.2334    211.8537     13.3405   2.2587152025e+01   3.0268605471e+01    0.2341512    0.1822128 -67.61 0.0003012721    1.149    0.129
        10 -11.7116    208.1290      7.9506   2.1633531334e+01   3.1710343518e+01      0.24968    0.1947075 -26.70 0.0005018231    1.481    0.325
        11 -13.9266     53.4210      5.6013   5.2478602227e+01   6.7849592568e+01    0.9152682    0.4679214  20.65  0.004417155    2.234    0.552
        12 -14.3895     48.5071    148.0372   9.6200853485e+01   3.8809149574e+01    0.8976915    0.6866177 -66.70  0.002873093    1.196    0.164
        13 -11.1871    143.8830    146.3867   6.9977320783e+01   2.3507728500e+01    0.3916853    0.2153829 -66.90  0.001302918    3.263    0.694
        14 -14.6534     10.1411    164.6767   1.0779637654e+02   3.8505688934e+01    0.8470004    0.6635773  88.32  0.003772908    1.027    0.026
        15 -13.5567    190.4882    131.4039   5.5794540810e+01   1.6749044413e+01    0.4994195    0.3906739  49.45   0.00249432    1.346    0.257
        16 -11.8776    136.1279    129.3416   6.8022288155e+01   2.8887545461e+01    0.5115381    0.2072962 -49.05  0.001734846    2.558    0.609
        17 -12.1467    135.2541    121.3684   6.6292407401e+01   3.0847749786e+01     0.772061    0.2027872 -48.66  0.002055119    4.113    0.757
        18 -13.6331    134.6690    107.1284   6.2738439664e+01   3.4093147021e+01     1.448517    0.3172936 -46.41  0.003550127    4.820    0.793
        19 -11.4401    134.2716     99.8286   6.0837597540e+01   3.5737079723e+01    0.2861932    0.2305314  84.06 0.0008525547    1.622    0.383
        20 -12.4877    223.9240    129.0315   4.8891720510e+01   1.0298919915e+01    0.3806467    0.3017167 -71.28  0.001970589    1.745    0.427
        21 -15.1507    193.7536     82.6654   4.2860019599e+01   2.4948986002e+01     2.461876     1.238699  31.14  0.007997714    3.725    0.732
        22 -12.8027    160.7236    128.3978   6.1662198800e+01   2.3811111607e+01    0.4721983    0.3602976 -53.99  0.001706861    1.427    0.299
        23 -12.6764    198.6317    162.3754   6.1088738118e+01   9.3021758773e+00    0.4239963    0.3041128 -67.54  0.001922339    2.300    0.565
        24  -9.6960     47.5385    172.4897   9.9452665516e+01   3.3061253379e+01    0.1292679      0.11377  86.65 6.530606e-05    1.041    0.039
        25 -12.3842    227.6395    122.2604   4.6714911049e+01   1.0722449801e+01    0.4131174    0.2543721  30.06  0.001906769    2.022    0.506
        26 -12.5494    230.1379    117.0765   4.5117302983e+01   1.1101982637e+01    0.5731831    0.3492888  33.24  0.002680974    2.004    0.501
        27  -9.8143    145.6366    123.3313   6.4100730276e+01   2.8183047235e+01    0.1645552    0.1273374  86.41 0.0007037847    1.810    0.447
        28 -11.4638    217.9286    121.9849   4.8318180001e+01   1.2721710570e+01    0.2200463    0.2023294 -41.96 0.0006723445    1.106    0.095
        29 -14.4262    205.3646    111.0111   4.7956718980e+01   1.7320193225e+01      1.05729    0.7430199  21.60  0.004248858    1.839    0.456
        30 -13.3584    191.2769    151.5437   6.0255392604e+01   1.2747064604e+01    0.7474915    0.3283796 -55.36  0.002246431    4.327    0.769
        31 -13.2201    167.3555    115.1176   5.6787032920e+01   2.5063467316e+01    0.5500968     0.439363  17.50  0.002603718    1.450    0.310
        32 -11.5213    125.3211    113.1007   6.6864916667e+01   3.4790931692e+01    0.2785971    0.2229726  27.95 0.0007564267    1.326    0.246
        33 -13.8346     67.7701    142.3645   8.9915994944e+01   3.7796629467e+01     1.214635     1.000692  58.88  0.004738267    1.239    0.193
        34 -13.4827    127.0284    105.7717   6.4444110795e+01   3.6049211053e+01    0.6740987    0.5066538 -69.26  0.003005314    1.693    0.409
        35 -13.1449     40.6573    151.6218   9.8801814278e+01   3.8797381448e+01    0.3527032    0.3217377 -25.49 0.0009648419    1.353    0.261
        36 -11.9558    215.3655    104.1275   4.4520027908e+01   1.6361470259e+01    0.2634886     0.169988 -43.53 0.0007340724    1.472    0.321
        37 -11.5290    147.7761    104.2882   5.8585592813e+01   3.1749787059e+01    0.3124315    0.2624114  29.52 0.0005102252    1.244    0.196
        38 -13.0008    119.6830    102.2168   6.5536580419e+01   3.8388976896e+01    0.4343916      0.28226 -52.69  0.001865249    1.635    0.388
        39 -13.4251    197.2479     98.3045   4.6280293834e+01   2.1407084307e+01     0.644987    0.4616523 -30.86  0.003099611    1.400    0.286
        40 -13.3943    159.0699     98.9677   5.4405688325e+01   3.0206100227e+01     0.904884    0.5444736  28.50   0.00347148    2.236    0.553
        41 -12.6939    112.3967     95.8765   6.5885703473e+01   4.1290735989e+01    0.6350309    0.4029058  12.58  0.001823641    2.578    0.612
        42 -13.7912    119.4895     91.5381   6.2560200133e+01   4.0730301871e+01    0.7186125    0.5296729  12.73  0.003183878    1.739    0.425
        43 -12.3435    140.1431     86.5257   5.5476413084e+01   3.7102779051e+01    0.3789526    0.3010279 -13.17  0.001376365    1.470    0.320
        44 -12.8499    155.7868     91.2696   5.3026004039e+01   3.2485397659e+01    0.3646296    0.3061385 -27.92 0.0006265687    1.235    0.191
        45 -11.8498    141.0979     94.6781   5.7596101708e+01   3.5253656187e+01    0.3336262    0.3054511  60.83 0.0007647751    1.142    0.124
        46 -12.8017    130.2293     66.0064   5.1697056583e+01   4.3266074585e+01    0.3684175    0.3528847  26.08 0.0009729623    1.009    0.009
        47 -11.9875    179.8796     56.3636   3.8114901502e+01   3.2570692516e+01    0.2563056    0.1916084 -47.14 0.0006950435    1.346    0.257
        48 -11.6500    145.5063     55.0304   4.4465158474e+01   4.1385257004e+01    0.2246076    0.1502579 -31.08 0.0007266386    1.577    0.366
        49 -11.6147    191.9411     41.1520   3.2017717946e+01   3.1731910553e+01    0.2548378    0.2132293 -31.48 0.0003274557    1.275    0.216
        50 -11.3593    190.2830     35.8042   3.0803752730e+01   3.2839762660e+01    0.2767101    0.2368645 -45.93  0.001095794    1.176    0.150
        51 -11.2199    182.3086     41.8898   3.3640646216e+01   3.4027087018e+01     0.194994    0.1816099 -44.14 0.0005788502    1.121    0.108
        52 -11.6426    166.2200     34.5162   3.4069226907e+01   3.9052738125e+01    0.2507486    0.2040843 -33.81  0.000429021    1.308    0.235
        53 -12.2782    155.0494     31.9851   3.5215691121e+01   4.2208009583e+01     0.292015    0.2130125 -16.69 0.0007635439    1.603    0.376
        54 -12.1613    159.3967     30.0002   3.3840884904e+01   4.1346224095e+01    0.3066166    0.3024475  24.29 0.0008771992    1.112    0.101
        55 -12.7269    133.8653     29.7063   3.8598234643e+01   4.7817966357e+01    0.3277079    0.2771176 -17.22 0.0005072155    1.296    0.228
        56 -11.3708    175.8825     24.7613   2.9736200941e+01   3.7784466946e+01     0.396398    0.2872639  87.26  0.002092561    1.381    0.276
        57 -11.5382    116.4909     22.0046   3.9730157618e+01   5.2953752297e+01    0.2032082    0.1388106 -20.63  0.001036937    1.608    0.378
        58 -10.1401    175.4303     18.0493   2.7886222163e+01   3.8645547054e+01    0.1889602    0.1367458 -23.32  0.000920304    1.584    0.369
        59 -11.6246    141.9843     15.5223   3.2209943853e+01   4.7367195251e+01    0.1951306    0.1861885  53.28 0.0004078246    1.079    0.074
        60 -11.8935    135.4234     15.2303   3.3297213032e+01   4.9040608841e+01    0.2469374    0.1405248 -15.14  0.001141502    2.135    0.532
        61 -10.5784     79.0157     16.2416   4.7965410219e+01   6.1899201976e+01    0.1815406    0.1545697  23.27 0.0004406303    1.019    0.019
        62 -15.6327    172.3066     80.6531   4.6406446499e+01   3.0462174322e+01      1.96804     1.429125  41.69  0.004342401    1.439    0.305
        63 -12.8058    192.3566    194.1134   6.8718419956e+01   4.8556178821e+00    0.9110075    0.4791778 -61.81  0.002757475    6.071    0.835
        64 -13.6785    215.9052    186.9366   6.2668937429e+01   2.0049796539e+00    0.5553046    0.3985762 -38.27  0.003094788    1.481    0.325
        65 -12.8422    209.2188    186.3899   6.3858114164e+01   3.2289631086e+00    0.4953558    0.3351114 -65.69  0.002154601    3.116    0.679
        66 -13.6810     55.4962    145.3563   9.3872285047e+01   3.8643329463e+01    0.7061806    0.4200123 -73.59  0.001594261    1.638    0.390
        67 -12.4076    173.0586    150.1832   6.3904172825e+01   1.6713900652e+01    0.3399006     0.219897 -45.67  0.001528841    1.604    0.376
        68 -11.7634    133.6898    145.7747   7.2425592493e+01   2.5694914305e+01    0.7607409     0.212957 -52.92  0.002052794    4.345    0.770
