#   1 NUMBER                 Running object number                                     
#   2 MAG_AUTO               Kron-like elliptical aperture magnitude                    [mag]
#   3 X_IMAGE                Object position along x                                    [pixel]
#   4 Y_IMAGE                Object position along y                                    [pixel]
#   5 X_WORLD                Barycenter position along world x axis                     [deg]
#   6 Y_WORLD                Barycenter position along world y axis                     [deg]
#   7 A_WORLD                Profile RMS along major axis (world units)                 [deg]
#   8 B_WORLD                Profile RMS along minor axis (world units)                 [deg]
#   9 THETA_WORLD            Position angle (CCW/world-x)                               [deg]
#  10 FWHM_WORLD             FWHM assuming a gaussian core                              [deg]
#  11 ELONGATION             A_IMAGE/B_IMAGE                                           
#  12 ELLIPTICITY            1 - B_IMAGE/A_IMAGE                                       
         1 -13.2226    216.3616     15.5306   6.0709767821e+01   2.9453647986e+01     1.026606    0.6398414  66.15  0.003215309    1.447    0.309
         2 -12.9673    204.1717     21.7786   6.3493990877e+01   3.1652704169e+01     0.764384    0.4161793 -85.21  0.003521877    2.085    0.520
         3 -12.9979     42.4646     20.8444   1.0208720634e+02   6.6126236668e+01    0.6612564    0.3430108  26.23  0.003789683    1.821    0.451
         4 -10.4971    127.2099     16.7961   7.4370653151e+01   5.0940026703e+01    0.4222043    0.1877723 -25.24  0.001901822    2.587    0.614
         5 -13.5167    188.2035      7.2945   6.1916338897e+01   3.7105820609e+01     1.298893    0.5816795  89.06   0.00524494    2.803    0.643
         6 -10.4666    109.7968      8.8216   7.5517338230e+01   5.5577869882e+01    0.1642488    0.1451097  76.61 0.0006553851    1.335    0.251
         7 -11.7511     43.7151      8.7277   9.6382377375e+01   6.7436105368e+01    0.2899652    0.2359651  23.03   0.00116612    1.322    0.244
         8  -9.4618    148.6939      8.3090   6.7718901503e+01   4.6649149273e+01     0.128674   0.09382017 -76.51 0.0003303358    1.612    0.380
         9 -11.1533    100.9067      3.1843   7.5598841285e+01   5.7942783689e+01    0.3933537    0.2569981 -71.16  0.001912972    3.030    0.670
        10  -9.0542     18.4460      5.4972   1.0627237878e+02   7.0714505896e+01    0.1090837   0.07768383  -8.24 0.0001279695    1.006    0.006
        11 -12.3416    165.9232      2.1874   6.3429909359e+01   4.3011761953e+01    0.7696216    0.2073392  68.28  0.002796683    3.049    0.672
        12 -12.3919     57.1788      6.3701   9.0092764937e+01   6.5730975222e+01    0.5627487     0.535022 -87.36  0.003508945    1.871    0.466
        13 -10.5213     66.5367      7.1326   8.7108138871e+01   6.4139260180e+01    0.2879078    0.1190596  39.29  0.001105909    2.027    0.507
        14 -10.9768    238.1037    219.8831   1.0228584583e+02  -8.8923750175e+00    0.1881136    0.1767629  20.85  0.001249303    1.308    0.236
        15 -11.0486     22.0060    249.8693   1.4846909721e+02   2.0469642130e+01    0.2071828    0.1389767  59.64  0.000657517    1.198    0.165
        16  -9.3718    211.4818    218.5033   1.0718323256e+02  -4.2172168212e+00    0.1350899    0.1181965  19.20  1.26378e-05    1.034    0.033
        17 -10.7838    238.6025    212.8904   1.0088790018e+02  -7.9212848250e+00    0.4477215     0.297598 -58.00  0.002180245    2.646    0.622
        18 -10.5835    223.5760    213.7904   1.0392798216e+02  -5.5548561689e+00    0.3148537    0.1967983 -25.52  0.001619997    1.693    0.409
        19  -9.7364      3.0228    215.0279   1.4963620364e+02   2.9275176547e+01    0.1825314   0.09329917  69.17 0.0007477444    1.624    0.384
        20 -10.9098    231.6775    211.8425   1.0199969834e+02  -6.6182440547e+00    0.3497255    0.2026317   3.05  0.001516485    2.601    0.616
        21 -10.4221    115.4671    209.6280   1.2623429161e+02   1.5234577152e+01    0.2973807    0.1832368  78.20   0.00130251    2.237    0.553
        22 -10.1426     56.7824    205.5947   1.3846695677e+02   2.5273845059e+01    0.1838378   0.09885102  51.49 0.0009481663    1.691    0.409
        23 -10.4244     49.3534    201.7757   1.3962854264e+02   2.7078999385e+01    0.3268021    0.1708061 -85.67   0.00162788    1.924    0.480
        24  -9.5215     41.6296    201.7674   1.4123349846e+02   2.8026537299e+01    0.1740751   0.09960279 -84.54 0.0009447305    1.582    0.368
        25 -11.1572      4.9891    199.5690   1.4829475430e+02   3.2313773718e+01     0.334058    0.1622481  52.75  0.001130027    1.868    0.465
        26  -9.9031    112.7869    198.1990   1.2510866501e+02   1.8195698705e+01    0.2566256    0.1436871  73.68 0.0009616492    2.862    0.651
        27 -12.4689    160.6516    192.3121   1.1311438992e+02   1.0307383026e+01    0.7763976    0.5672306  74.32  0.002524962    1.826    0.452
        28  -9.9839     66.0069    194.5033   1.3521606520e+02   2.6508159912e+01    0.1952356   0.08750977  57.76 0.0007418101    2.453    0.592
        29  -9.4233    198.6786    188.6550   1.0408218926e+02   3.4126818625e+00    0.1527177    0.1111025   2.39 0.0007049856    1.731    0.422
        30  -9.7603     94.6620    187.0046   1.2760030838e+02   2.3859641107e+01    0.2369997    0.1135088 -83.64 0.0007049679    4.478    0.777
        31  -9.7221    109.3168    186.0095   1.2396555294e+02   2.1567216004e+01    0.2314069    0.1169122 -81.25 0.0007029579    4.153    0.759
        32 -10.4887    183.9314    183.1580   1.0612973461e+02   7.4456127893e+00    0.4475983    0.2747417 -50.60  0.001979187    1.806    0.446
        33  -9.3733    133.3974    196.1791   1.2003884829e+02   1.4834888845e+01    0.1988092    0.1392273 -71.14 0.0006833719    1.678    0.404
        34 -10.0468    224.3262    183.6864   9.7873564263e+01  -6.1429954127e-01    0.1331616    0.1151119 -87.27 0.0002747721    1.666    0.400
        35  -9.4793    128.6374    177.7145   1.1786057290e+02   1.9867036644e+01    0.1494418      0.12157   1.81 0.0007020952    1.687    0.407
        36 -11.2102     36.7560    174.4727   1.3947171716e+02   3.4772560098e+01    0.3974349    0.1711405  47.22   0.00188823    2.321    0.569
        37  -9.4458      3.6273    174.8154   1.4674431819e+02   3.7796120117e+01    0.1680574   0.08499688 -88.37  0.000552178    1.668    0.401
        38 -10.4836     44.2406    168.7018   1.3704926307e+02   3.5286102662e+01    0.2869952   0.09293108 -62.63  0.001157753    2.549    0.608
        39 -10.0330    176.9717    172.4915   1.0546343426e+02   1.1072741195e+01    0.2430614    0.1466044  43.43  0.001034344    1.594    0.373
        40 -11.2948     55.7519    167.6110   1.3413569484e+02   3.4158826962e+01    0.4582419    0.2688712 -81.19  0.001678507    1.720    0.418
        41 -10.6623    120.8872    168.7964   1.1807563248e+02   2.3427528166e+01    0.2992392    0.1988511 -86.42  0.001238749    2.112    0.526
        42  -9.5430     88.2708    168.2567   1.2616237663e+02   2.9330264059e+01       0.2326    0.1192594 -74.35 0.0008952463    2.455    0.593
        43 -10.0896    112.0189    167.5120   1.2005157295e+02   2.5398110418e+01     0.234448    0.1441016  42.21  0.001034866    1.598    0.374
        44 -10.7404     98.1507    165.1944   1.2313464451e+02   2.8421091127e+01    0.3148237    0.2307389 -73.73  0.001129836    1.405    0.288
        45  -9.6570    138.8015    165.1932   1.1292315926e+02   2.0703669932e+01    0.2709356    0.1697935  79.84 0.0009543404    2.864    0.651
        46 -10.1844     79.5001    163.9862   1.2767052541e+02   3.1729107450e+01    0.2079428    0.1173079 -88.80 0.0008104582    2.575    0.612
        47 -12.1442    120.3285    158.1861   1.1612215429e+02   2.6033488602e+01    0.6637462    0.5012306  73.16  0.003105444    1.541    0.351
        48 -11.2528     23.7196    159.3489   1.4081506674e+02   3.9586033845e+01    0.3553902    0.2638851  50.80  0.001580626    1.437    0.304
        49 -11.2164    105.6451    158.3221   1.1993193272e+02   2.8751273012e+01     0.417969    0.2716335  74.36  0.001746992    2.107    0.525
        50 -10.6754    168.7473    157.8569   1.0417359047e+02   1.5960979303e+01    0.4362967    0.2317121  48.11  0.001701563    1.867    0.464
        51 -10.5834    218.1528    155.7025   9.3119553911e+01   5.7601225893e+00    0.3729476    0.1974248 -40.46  0.001568208    1.834    0.455
        52 -10.3910    237.2067    155.8949   8.9584713952e+01   1.9212262471e+00     0.195232    0.1578489  -7.02 0.0004057726    1.338    0.252
        53 -10.2026      5.4688    155.2263   1.4463693636e+02   4.2033954518e+01    0.2566545    0.1276193  57.31 0.0009063421    2.191    0.544
        54 -10.7008     27.8867    155.1698   1.3933425788e+02   4.0170841602e+01    0.1964753    0.1420635  83.13 0.0006504726    1.302    0.232
        55 -10.5240     23.4570    153.5405   1.4021863853e+02   4.0957403154e+01    0.2338275    0.1746936  74.47 0.0007168917    1.307    0.235
        56 -11.7384    242.4760    150.7086   8.7531322603e+01   1.8402867316e+00    0.4123184    0.2657089  71.39  0.001775165    2.658    0.624
        57 -10.0806     12.2934    148.6306   1.4236717731e+02   4.3019602879e+01    0.2994387    0.1156651 -60.79  0.001465876    2.036    0.509
        58 -10.8827    107.8970    146.1607   1.1688950612e+02   3.1257974838e+01    0.4928282    0.2641755  62.86  0.001726143    2.898    0.655
        59 -10.5638     55.5284    145.6430   1.3092954298e+02   3.9452599604e+01    0.4367328    0.2211845  75.14  0.001531822    3.852    0.740
        60  -9.9546    148.4177    145.1988   1.0618393582e+02   2.3237029747e+01    0.2339442    0.1511437 -60.57 0.0009517063    1.787    0.440
        61 -10.1905     88.4779    144.9803   1.2189361911e+02   3.4918900592e+01     0.211814    0.1259987 -84.14 0.0008100782    2.547    0.607
        62 -10.1899    182.6753    142.3537   9.7459506171e+01   1.6173968962e+01    0.2510831    0.1942582 -89.55  0.001107899    1.735    0.424
        63 -10.0665     23.1633    138.0296   1.3837746978e+02   4.4592297462e+01    0.2153002    0.1228683  80.38  0.001085587    2.086    0.521
        64  -9.8858     82.7368    131.7649   1.2081778983e+02   3.9018707689e+01      0.30314     0.178506 -80.30  0.001183158    2.566    0.610
        65 -12.0605     99.0985    128.7022   1.1549761636e+02   3.7018780764e+01    0.8156523    0.4783388  72.39  0.002794382    3.391    0.705
        66 -10.3055     12.0830    127.7721   1.3996518853e+02   4.7808918746e+01    0.3150439    0.1367201 -87.92  0.001335285    2.985    0.665
        67 -10.0408     59.9690    125.4753   1.2611657134e+02   4.3730622850e+01    0.4776129    0.2473778  74.51  0.001384894    5.802    0.828
        68  -9.7215    117.3160    125.6560   1.0968837353e+02   3.4293253298e+01     0.160842    0.1231183  85.90 0.0007048275    1.715    0.417
        69 -10.6943     43.8636    123.8053   1.3049165792e+02   4.5980223165e+01    0.4980692    0.2811089  83.11  0.002105547    2.884    0.653
        70 -11.0486     27.4111    121.4378   1.3482993782e+02   4.8086058830e+01    0.5946162    0.2777766  87.17  0.002120211    4.315    0.768
        71 -11.8747    193.2842    118.3205   8.9385240833e+01   1.8664081908e+01    0.6776461    0.4778506 -66.28  0.002071365    1.749    0.428
        72 -10.5287     13.9762    120.8296   1.3852185178e+02   4.9258245185e+01    0.3174742    0.1778144 -32.02  0.001710979    2.226    0.551
        73  -9.8848     71.8142    120.9236   1.2169778194e+02   4.3223386397e+01    0.3820344    0.1992435  60.87  0.001383448    3.391    0.705
        74  -9.8474     98.6587    119.6958   1.1351966738e+02   3.9209430372e+01    0.1528517    0.1177024 -12.87 0.0004746619    1.680    0.405
        75 -10.6237      2.3961    115.8772   1.4106151260e+02   5.1101414628e+01    0.3402553    0.1598998 -78.48  0.001170364    1.927    0.481
        76  -9.6279    231.8730    114.8804   8.1387371912e+01   1.0529941093e+01    0.2075044    0.1645685 -64.63 0.0007889396    1.341    0.254
        77 -10.3424    108.3019    112.3307   1.0890357083e+02   3.9107766563e+01    0.6735612    0.2662822 -60.51  0.001815779    4.670    0.786
        78 -10.4488     78.7342    112.8107   1.1779592151e+02   4.4099602045e+01    0.4000722    0.2528697  82.23   0.00153393    3.104    0.678
        79  -9.3748     40.3187    114.6296   1.2987735393e+02   4.8479042030e+01    0.1329705   0.09440032  78.51 0.0007034932    1.793    0.442
        80 -12.2267    160.8519    112.1009   9.4978075179e+01   2.7666808226e+01     0.564688    0.4381168  50.83  0.002194008    1.269    0.212
        81 -11.1522    141.8152    112.4784   9.9786143657e+01   3.2010908648e+01    0.3467525    0.2561775  -0.32  0.001445467    1.992    0.498
        82 -10.3976    122.2582    113.1279   1.0517500537e+02   3.6130759093e+01    0.3115344    0.2085501  70.34  0.001245323    2.178    0.541
        83  -9.9534     92.4623    112.5006   1.1358858909e+02   4.1951237953e+01    0.2692214    0.1408995 -62.10  0.001034925    2.327    0.570
        84 -11.3666     14.9834    110.1815   1.3666967062e+02   5.1596024145e+01     0.606224     0.342238 -85.41  0.003209583    1.999    0.500
        85  -9.7869    231.4905    108.9850   8.0101964623e+01   1.1684568140e+01    0.2074871     0.112113 -59.09 0.0006881261    2.349    0.574
        86 -11.8351    157.5368    106.2698   9.4231175687e+01   2.9664735717e+01    0.4883134    0.3256514  86.24  0.001821127    2.499    0.600
        87 -12.7474    142.0986    105.8580   9.7949050224e+01   3.3358481636e+01    0.6571044    0.3706861  55.30   0.00257114    1.922    0.480
        88 -12.0870    142.6007    100.1662   9.6270061604e+01   3.4427030143e+01    0.6333444    0.4637276  72.60   0.00213367    1.728    0.421
        89 -11.9092     44.8456    101.6205   1.2587339809e+02   5.0985607604e+01    0.6630188    0.4064012  86.01  0.002914213    2.915    0.657
        90 -12.0526    127.4828    100.6478   1.0039084145e+02   3.7720163349e+01    0.5686428    0.3532375 -57.75   0.00234067    1.932    0.482
        91 -12.0388    108.0613     99.3568   1.0552749644e+02   4.2007697741e+01    0.6949754    0.4056615  61.94  0.002639501    2.629    0.620
        92 -11.8828    116.2439    102.4600   1.0401670708e+02   3.9706773103e+01    0.5010543    0.2529404  46.94   0.00195763    2.034    0.508
        93 -10.6142     21.0250     99.7299   1.3307968781e+02   5.3503557173e+01    0.5996357    0.2919552  87.13  0.002100728    5.060    0.802
        94 -10.7722     82.2604    100.4833   1.1366686341e+02   4.6336357997e+01    0.2719736    0.2402646  62.10   0.00122635    1.323    0.244
        95 -10.6395     63.5613     96.7927   1.1870187895e+02   4.9862181443e+01    0.1938055    0.1259293 -64.32 0.0009027334    1.699    0.411
        96 -12.7589    170.4469     90.9180   8.7147915211e+01   2.9566582069e+01    0.4755209    0.4149834 -56.39 0.0007386513    1.179    0.152
        97 -11.5937     42.3582     87.8739   1.2359296414e+02   5.4257799479e+01    0.4104131    0.2551763  -5.11  0.001489681    2.111    0.526
        98 -10.7537     46.3365     83.0852   1.2105077227e+02   5.4860811717e+01    0.5292167    0.3467036  75.48  0.002366874    3.214    0.689
        99 -10.9124     86.7526     87.3160   1.0866628056e+02   4.8418640434e+01    0.3882335    0.2846594  79.51  0.001768556    2.322    0.569
       100 -10.7382    104.7556     83.9322   1.0210392756e+02   4.5833830245e+01    0.4062813    0.3014135  81.40  0.001606449    2.184    0.542
       101 -10.9887    174.5419    110.6086   9.1446332300e+01   2.4698432111e+01    0.4625501    0.3112873 -37.74  0.001212136    1.542    0.352
       102 -10.6573     24.5743     81.0536   1.2814823006e+02   5.7272127124e+01    0.3778008    0.2260522  87.08  0.001720403    3.317    0.698
       103  -9.9405     76.8642     79.3335   1.0957706417e+02   5.1638035099e+01    0.3218389    0.2098548   1.80  0.001026104    2.104    0.525
       104  -9.5985      1.7075     78.3762   1.3548895277e+02   5.9230747355e+01     0.221902   0.08743494 -49.96  0.001184588    1.821    0.451
       105 -10.6486     82.8081     73.9005   1.0597631347e+02   5.1748031701e+01    0.3969217    0.2772805  88.13  0.001600909    3.377    0.704
       106 -10.4825     62.7729     69.6934   1.1153766545e+02   5.5572311493e+01    0.3058141    0.1730146 -40.45  0.001533529    1.607    0.378
       107 -13.0090    223.3595     71.9717   7.2771991756e+01   1.9943366571e+01     0.341957    0.2983128 -65.04 0.0005863602    1.056    0.053
       108  -9.7358     95.6820     72.8555   1.0151640822e+02   4.9685962133e+01    0.2932221    0.1827649 -66.14  0.001153952    2.973    0.664
       109 -10.5628     51.7257     70.0808   1.1560676346e+02   5.6895170767e+01    0.2847749    0.1932411 -41.25 0.0008174178    1.289    0.224
       110 -10.1956    196.5917     67.7841   7.5966126149e+01   2.7113734734e+01    0.2965959    0.1978368  60.37  0.001408366    1.429    0.300
       111 -10.3321     16.4544     44.9120   1.2187872135e+02   6.4878313744e+01    0.2066626    0.1747141 -45.93 0.0006290101    1.299    0.230
       112 -10.9696      9.4252     57.4620   1.2817166725e+02   6.3007610931e+01    0.6054487    0.4130288  63.86  0.003550551    2.714    0.632
       113 -11.2472     41.6087     62.6301   1.1716685029e+02   5.9449252927e+01     0.272877    0.2028475   4.78 0.0007462657    1.380    0.275
       114 -11.3066     20.5087     50.5315   1.2187597457e+02   6.3575242434e+01    0.4987361    0.2399693 -52.51  0.002040818    1.820    0.451
       115 -11.1637     40.0117     51.6606   1.1440130650e+02   6.1626602043e+01    0.5104699     0.196493 -41.35  0.001693875    2.212    0.548
       116 -13.4724     30.8695     59.7497   1.2043564213e+02   6.1023079899e+01     1.308112    0.7970754  20.40  0.007802432    1.789    0.441
       117 -12.2136    241.2782     65.0705   6.8775674872e+01   1.6934497032e+01    0.6880142    0.2806925  71.91  0.002601295    3.091    0.676
       118 -10.0372      9.3310     65.5900   1.3014597152e+02   6.1430242474e+01    0.1829251     0.104213  21.47   0.00098599    2.074    0.518
       119  -9.5853     92.2017     61.1246   9.8851029986e+01   5.2423419273e+01    0.1747836    0.1616055  52.25 0.0007587145    1.283    0.220
       120  -9.8210     72.5819     58.7700   1.0461425405e+02   5.6152729728e+01    0.1811222    0.1220966 -48.58 0.0009485013    1.670    0.401
       121 -11.1868     19.4952     59.2396   1.2470825449e+02   6.2022666308e+01    0.3184916    0.2368123 -12.48  0.001591424    1.317    0.241
       122 -11.6980    149.5041     52.6447   8.0816115992e+01   4.1225854947e+01     0.433939    0.2401222  52.90 0.0005537878    1.632    0.387
       123 -10.2866    162.1866     53.3327   7.8380214800e+01   3.7988478844e+01    0.3477633    0.1665352  61.55  0.001385695    2.013    0.503
       124 -10.5876     82.0284     46.9191   9.7309885668e+01   5.6542298967e+01    0.2787398    0.2156371  77.36  0.001418452    2.395    0.582
       125 -10.4912    157.0329     45.0252   7.6999073219e+01   4.0453594876e+01    0.3003063    0.2023655  50.30 0.0005307413    1.363    0.266
       126 -11.3751     74.7427     43.2459   9.8472502826e+01   5.8329833341e+01    0.3222091    0.2223264   7.36  0.001569009    1.529    0.346
       127 -11.2521     70.5132     42.5274   9.9695678253e+01   5.9118982069e+01    0.3630484    0.3320041 -81.14  0.001944598    1.733    0.423
       128 -11.0736      6.9309     42.8936   1.2529415569e+02   6.5840821945e+01    0.4229261    0.2786795  40.96  0.002742074    2.307    0.566
       129  -9.6722    149.4712     43.4804   7.8074465860e+01   4.2527029942e+01    0.1439987    0.1297374  56.80 0.0001792034    1.003    0.003
       130  -8.9828    114.6905     42.7067   8.6037561758e+01   5.0725889095e+01      0.14276   0.09850611  23.15 0.0002524081    1.587    0.370
       131 -12.2004     42.1528     38.0573   1.0888539055e+02   6.3670721788e+01      0.64341    0.3753003  17.75  0.002444661    1.735    0.424
       132 -11.0738     47.2168     35.5971   1.0593362961e+02   6.3448571341e+01     0.375157    0.2167224   9.19  0.001676966    1.941    0.485
       133 -11.4984    120.1082     34.4138   8.1852869911e+01   5.0609962030e+01    0.4535243    0.3400137 -19.60  0.002306715    1.474    0.321
       134 -10.4043     82.6093     37.9822   9.3893099479e+01   5.7744558392e+01    0.3171065    0.1788311  52.09    0.0015336    2.116    0.527
       135  -8.9473    153.2869     36.3618   7.5184857273e+01   4.2517213328e+01    0.1446167    0.1015984  29.40 0.0007022751    1.688    0.408
       136 -10.0029     74.0781     32.8228   9.4836625845e+01   5.9922013024e+01    0.2580214    0.1687169  49.91  0.001409773    1.823    0.452
       137 -11.4730    104.2394     30.2788   8.4563613782e+01   5.4547395806e+01    0.6326743    0.3749852  65.17  0.002914511    2.229    0.551
       138 -10.5138    220.7921    249.4010   1.1072268033e+02  -1.0354225369e+01    0.1864108    0.0967286  28.72 0.0009582909    1.715    0.417
       139 -12.1930     21.4601    238.8669   1.4789712957e+02   2.2631204635e+01    0.5791772    0.2309055  70.95  0.002926105    2.472    0.595
       140  -9.9575    123.3451     24.9298   7.7908494646e+01   5.0983376928e+01    0.2458457      0.11324 -35.85  0.001090923    2.434    0.589
       141 -10.2784     33.2130    242.4023   1.4611041813e+02   2.0594346558e+01    0.1593338   0.07855635  53.28 0.0008065134    1.624    0.384
       142  -9.5095     50.4583     18.5423   9.7879116695e+01   6.5368381333e+01    0.1837549    0.1329759  30.47 0.0006655823    1.361    0.265
       143 -11.3380    240.0011     20.6395   5.9483629256e+01   2.3409596209e+01    0.2756725    0.2211727 -88.95 0.0005542239    1.078    0.072
       144 -10.0678      7.8667    240.8331   1.5027161324e+02   2.3701174093e+01    0.1554448    0.1213061  84.24 0.0007419015    1.223    0.182
       145  -9.9401    134.2702     18.0499   7.3322818151e+01   4.9170188096e+01    0.1851484     0.158216  55.08 0.0005335553    1.021    0.021
       146  -9.7820     89.3217     18.5543   8.4486632094e+01   5.8866518284e+01    0.2320563    0.1152678  54.34  0.001115162    2.044    0.511
       147  -8.9840      3.3048     17.6873   1.1871989178e+02   7.0213048119e+01   0.08515078   0.08112197 -23.74 0.0003483651    1.617    0.382
       148  -9.8573    104.6281     14.1288   7.8664213655e+01   5.6202576395e+01    0.1677168    0.1140835   0.86 0.0004645418    1.668    0.401
       149  -9.7866      2.2401    240.3910   1.5115696544e+02   2.4351677998e+01    0.1442705   0.07132154  53.84 0.0007867829    1.612    0.380
       150 -10.2866      6.0406    235.7477   1.5029754934e+02   2.4863011478e+01    0.1796877    0.1140738  85.86 0.0004657385    1.182    0.154
       151 -10.4766     76.8795    227.8881   1.3670152929e+02   1.7674463843e+01     0.178034    0.1607563  72.61 0.0004853765    1.202    0.168
       152 -10.8049     12.5660    227.2301   1.4870575800e+02   2.5876000951e+01    0.2244823    0.1505204  80.24 0.0005311727    1.098    0.089
       153 -10.6264    104.6067    225.6200   1.3075908741e+02   1.3765447399e+01    0.2744666    0.1651962 -74.48   0.00137651    1.911    0.477
       154 -10.5644     95.7936    225.1239   1.3253274890e+02   1.5311719858e+01    0.3645475    0.1240712  52.50   0.00135032    2.990    0.666
       155  -9.9462    149.3117    223.6557   1.2100264033e+02   6.2501455869e+00    0.1419397    0.1022264  70.81 0.0007046125    1.705    0.414
       156 -10.7046    226.1609    221.1599   1.0479059437e+02  -7.1414985039e+00    0.1629613    0.1601565  18.61 0.0008915677    1.345    0.256
