#   1 NUMBER                 Running object number                                     
#   2 MAG_AUTO               Kron-like elliptical aperture magnitude                    [mag]
#   3 X_IMAGE                Object position along x                                    [pixel]
#   4 Y_IMAGE                Object position along y                                    [pixel]
#   5 X_WORLD                Barycenter position along world x axis                     [deg]
#   6 Y_WORLD                Barycenter position along world y axis                     [deg]
#   7 A_WORLD                Profile RMS along major axis (world units)                 [deg]
#   8 B_WORLD                Profile RMS along minor axis (world units)                 [deg]
#   9 THETA_WORLD            Position angle (CCW/world-x)                               [deg]
#  10 FWHM_WORLD             FWHM assuming a gaussian core                              [deg]
#  11 ELONGATION             A_IMAGE/B_IMAGE                                           
#  12 ELLIPTICITY            1 - B_IMAGE/A_IMAGE                                       
         1 -14.8740    167.5611     33.9185   7.9763174189e+01   3.9168116414e+01     1.456251    0.9982316   2.27  0.004409332    1.666    0.400
         2 -13.2921    171.2609     26.4467   7.6595022566e+01   3.9111433354e+01    0.5919158    0.4114551   5.81  0.001618791    1.630    0.386
         3 -12.8557    232.4423     15.3000   6.6395493630e+01   2.5510450614e+01    0.5857024    0.4733018 -49.20  0.002390663    1.180    0.152
         4 -13.4095    182.6078      3.0794   6.7273024757e+01   3.8497254380e+01    0.8880295    0.4116637  70.76  0.003620361    2.146    0.534
         5 -10.8944      3.6797    225.5754   1.5427592791e+02   2.7629262863e+01   0.08373953   0.06576442 -48.73  0.000692922    1.974    0.493
         6 -19.8280     66.3009    173.1103   1.3880943652e+02   3.1163886740e+01     16.25454      5.13436 -70.87    0.0656781    3.677    0.728
         7 -10.3042    127.4475    188.2599   1.2716600760e+02   2.0269515473e+01    0.1462852    0.1199155 -75.62  0.000604755    1.577    0.366
         8 -11.1038    158.0074    185.5045   1.2046134319e+02   1.6134249423e+01    0.2052842    0.1811067 -68.37 0.0008287766    1.595    0.373
         9 -10.5579    124.2730    185.4487   1.2744925592e+02   2.1204507535e+01    0.1742062    0.1002336  44.54 0.0009370613    1.596    0.373
        10  99.0000     12.7583    247.8883   1.5335417331e+02   2.3495747020e+01    0.2469855   0.08629731  81.22  0.001516712    3.004    0.667
        11 -10.9835    224.0907    184.0970   1.0791409248e+02   6.2520219753e+00    0.1852866    0.1267789   8.10 0.0002724513    1.219    0.180
        12 -11.9081    108.6236    182.8589   1.3046977718e+02   2.3883956629e+01    0.2999104    0.2129299  71.44  0.001148775    1.785    0.440
        13 -12.0695    198.9447    178.4978   1.1135564150e+02   1.0759430449e+01    0.2949073    0.2521451 -22.50 0.0008116165    1.336    0.251
        14 -10.9022    145.5236    178.0924   1.2185629854e+02   1.9244296584e+01    0.1695221    0.1252581 -43.01 0.0004241334    1.522    0.343
        15 -11.7981    178.9445    175.1854   1.1456460404e+02   1.4393678919e+01     0.272705    0.1775356 -27.57   0.00154048    1.618    0.382
        16 -12.0060    145.6208    169.7892   1.2047729598e+02   2.0620554954e+01    0.4845998    0.3768941  79.70   0.00267489    2.025    0.506
        17 -11.5007    137.6310    171.5609   1.2249639941e+02   2.1582420551e+01    0.3431851    0.2465592  73.79  0.001784288    2.232    0.552
        18 -13.2658     10.6753    206.6002   1.5248567556e+02   3.0239825058e+01    0.3574277    0.2621078  49.85  0.002933285    1.141    0.124
        19 -11.3935    113.1227    169.1486   1.2757775257e+02   2.5755067800e+01    0.2668757    0.1899694  48.27 0.0004813528    1.354    0.261
        20 -11.5811    225.1411    166.8367   1.0453218736e+02   8.1743109917e+00    0.1779671    0.1548653   0.44 0.0004432293    1.257    0.204
        21  -9.6842    123.6480    166.3141   1.2475689244e+02   2.4696704866e+01    0.1321481   0.09583535  63.90 0.0007046089    1.731    0.422
        22 -11.1219     25.3220    165.6821   1.4756735789e+02   3.6779378409e+01     0.227051    0.1736992   8.76  0.000965628    1.757    0.431
        23 -11.6688    105.0838    161.5207   1.2830858365e+02   2.8397668306e+01    0.2123556    0.1962468 -52.46 0.0003106514    1.167    0.143
        24 -11.2177    165.3224    208.0240   1.2238798098e+02   1.1803410209e+01    0.2146377    0.1568562  34.53 0.0006538898    1.178    0.151
        25 -11.7421    130.4911    205.9223   1.2884468292e+02   1.7011234310e+01    0.2059639    0.1904219  43.85 0.0006706621    1.166    0.143
        26 -13.3724     94.8412    155.9471   1.2993784061e+02   3.0983614595e+01    0.3436967     0.297908 -13.14  0.001135957    1.387    0.279
        27 -11.7809    133.8948    145.6737   1.1877814507e+02   2.6918119588e+01    0.8444175    0.2129597 -52.78  0.002310696    5.826    0.828
        28 -12.6017     15.9432    150.3831   1.4881033347e+02   4.0739409783e+01    0.2606479    0.2254189  -1.40 0.0008361673    1.561    0.359
        29 -12.6186    188.9493    186.9239   1.1467777547e+02   1.1170917419e+01    0.4635802    0.3600127 -39.34  0.001997746    1.610    0.379
        30 -12.9167    108.6365    153.9817   1.2628774498e+02   2.9363174779e+01    0.6278504    0.4824503  -8.51  0.002472556    1.703    0.413
        31 -10.7990    174.6746    149.0802   1.1044829203e+02   1.9160886092e+01     0.233399    0.1787649  42.47 0.0007287373    1.360    0.265
        32 -12.9255      2.7989    113.6920   1.4991908477e+02   4.9810402499e+01    0.6138607    0.2064795 -79.23   0.00279413    2.401    0.584
        33 -12.2321      9.5920    111.2836   1.4775730936e+02   4.9986832783e+01    0.4137775    0.2076335  -3.54  0.002006426    3.189    0.686
        34 -13.7712      4.4182    139.6736   1.5102293209e+02   4.3855204697e+01    0.8943975    0.5792041  84.37   0.00400045    1.272    0.214
        35 -13.6987      2.9858    127.4396   1.5071930242e+02   4.6656681940e+01     1.007189    0.3245551 -81.42  0.004569036    2.583    0.613
        36 -11.7623    141.3809    197.7638   1.2561359894e+02   1.6727089073e+01    0.2456684    0.2123086  80.56 0.0008251663    1.578    0.366
        37 -10.3993    177.3427    143.7013   1.0877794982e+02   1.9556951543e+01    0.1265842    0.1125073  79.18 0.0004531162    1.670    0.401
        38 -11.8924    115.8101    139.4575   1.2198181095e+02   3.1173412662e+01    0.3935446    0.2280201 -40.77  0.001847742    1.882    0.469
        39 -12.5841    105.8212    139.6707   1.2454519222e+02   3.2726697458e+01     0.288563    0.2515401  39.47 0.0007969135    1.111    0.100
        40 -10.7771     41.3523    199.0945   1.4621943869e+02   2.8869939273e+01    0.1552418    0.1356485  40.16  0.000980612    1.242    0.195
        41 -11.8500    106.1457    130.8405   1.2281256325e+02   3.4543811437e+01     0.392487    0.3479194 -72.73  0.001456982    1.210    0.173
        42 -11.4548    108.9746    126.1492   1.2113071587e+02   3.5084908616e+01    0.2869026    0.2314128 -43.06 0.0007815888    1.256    0.204
        43 -11.5165    120.2270    130.0903   1.1901613687e+02   3.2356213767e+01     0.291556     0.234091 -20.77 0.0006914371    1.404    0.288
        44 -11.6541    160.5355    128.0812   1.0893045489e+02   2.5357622135e+01    0.2861194     0.238021 -40.12  0.001567408    1.276    0.217
        45 -11.1051    125.4989    127.3804   1.1710785784e+02   3.1990930305e+01    0.4330306    0.2667466  72.08  0.001575468    3.531    0.717
        46 -12.4475     94.3996    124.6499   1.2477742696e+02   3.7737301767e+01    0.4330385    0.2922775  64.31  0.001714702    1.885    0.470
        47 -11.4634    135.2224    195.8844   1.2659999239e+02   1.7907280410e+01    0.2853081    0.2092526  70.42  0.001694896    1.983    0.496
        48 -11.6731    135.3076    122.5392   1.1358184443e+02   3.1181918637e+01    0.5388266    0.1306275 -48.98  0.001458984    4.927    0.797
        49 -10.8736    125.4315    121.3081   1.1578913845e+02   3.3244900564e+01    0.2573388    0.1725196  57.57  0.001042209    1.855    0.461
        50 -10.7895    113.9959    119.0122   1.1827270406e+02   3.5756716121e+01    0.2100991    0.2060295   7.00   0.00031926    1.010    0.010
        51 -12.5650    180.3245    193.9388   1.1744835585e+02   1.1524499346e+01    0.4113604    0.3185554 -74.64   0.00228477    2.751    0.637
        52 -14.1404    196.2535    195.6667   1.1478223178e+02   8.9337518475e+00    0.7307782     0.486432  35.72  0.001663567    1.379    0.275
        53 -10.5119    159.3978    195.2377   1.2167749135e+02   1.4465592182e+01    0.1450807    0.1179237 -54.33 0.0007048089    1.652    0.395
        54 -10.8691    205.3679    110.0671   9.5546394712e+01   1.9480573318e+01     0.306904    0.1807608  30.92  0.001148053    1.800    0.444
        55 -10.5395    203.5846    188.2206   1.1221585601e+02   8.7872982148e+00    0.1746043      0.13556   2.27 0.0004829743    1.107    0.097
        56 -11.1014    134.6223    103.5088   1.0909376145e+02   3.5113094585e+01    0.3757638    0.1374463 -46.96  0.001259081    2.890    0.654
        57 -12.4758    207.6247    185.3950   1.1100469594e+02   8.5371182661e+00    0.3511113    0.2472121   5.10 0.0009132393    1.259    0.206
        58 -12.5665    212.0627    181.7068   1.0956648978e+02   8.3296370663e+00    0.3204745     0.238196  -7.71  0.001381296    1.206    0.171
        59 -12.8287    249.6480     57.7208   7.5806545013e+01   1.7462335007e+01     1.064835    0.2770409 -22.69  0.003516061    3.669    0.727
        60 -10.2428     13.5099     59.8905   1.4008524866e+02   6.2214478028e+01    0.1915887    0.1053545 -70.81  0.000411517    1.491    0.329
        61 -14.0704    156.6278     50.4633   8.7520444941e+01   3.9652517226e+01     0.943455    0.7066467 -65.33  0.001776498    1.757    0.431
        62 -11.2761     22.4646    242.3834   1.5161876793e+02   2.3486340974e+01    0.1662856    0.1411425 -54.02   0.00134343    1.770    0.435
        63 -10.6309     19.4147    239.8341   1.5204075327e+02   2.4130338261e+01    0.1078573    0.0794661 -89.37 0.0009455071    1.445    0.308
        64 -10.6614    140.8818     32.6649   8.4317929765e+01   4.6112169628e+01     0.206711    0.1930657  62.27 0.0005980097    1.153    0.133
        65 -11.6009    181.6422    234.2441   1.2294464101e+02   6.3414663147e+00     0.177016    0.1291253  -6.97  0.001309978    1.451    0.311
        66 -11.2555    189.5003     14.9839   7.0387163910e+01   3.5685403013e+01    0.2174523    0.1331361 -20.72 0.0006237536    1.569    0.363
