#   1 NUMBER                 Running object number                                     
#   2 MAG_AUTO               Kron-like elliptical aperture magnitude                    [mag]
#   3 X_IMAGE                Object position along x                                    [pixel]
#   4 Y_IMAGE                Object position along y                                    [pixel]
#   5 X_WORLD                Barycenter position along world x axis                     [deg]
#   6 Y_WORLD                Barycenter position along world y axis                     [deg]
#   7 A_WORLD                Profile RMS along major axis (world units)                 [deg]
#   8 B_WORLD                Profile RMS along minor axis (world units)                 [deg]
#   9 THETA_WORLD            Position angle (CCW/world-x)                               [deg]
#  10 FWHM_WORLD             FWHM assuming a gaussian core                              [deg]
#  11 ELONGATION             A_IMAGE/B_IMAGE                                           
#  12 ELLIPTICITY            1 - B_IMAGE/A_IMAGE                                       
         1 -13.1346    237.9712     24.0593   5.3733447959e-01   2.4895437920e+01    0.8431395    0.6591102 -46.79    0.0043719    1.064    0.060
         2 -12.4685      7.6467      8.9636   5.4858861311e+01   7.6674524191e+01    0.4624187    0.3456173 -26.76   0.00305406    1.064    0.060
         3 -12.6744      2.0465      6.6995   5.8216731531e+01   7.7551906904e+01     1.166305    0.2771345 -51.40  0.004620534    3.366    0.703
         4 -12.4043      1.9078     22.4689   6.6512121095e+01   7.4459918773e+01    0.7114516    0.1816635 -59.38  0.002791629    3.086    0.676
         5  -9.1892     49.1792     30.1075   4.0630763792e+01   6.7561505767e+01    0.1706854    0.1598502 -48.75 0.0004147788    1.311    0.237
         6  -9.5317    100.9839    250.4230   7.2496890407e+01   9.4201747456e+00    0.1599672    0.1182641  36.39   0.00107868    1.098    0.089
         7  -9.4034     75.0000    250.0639   7.7608694181e+01   1.2653321180e+01    0.1526513    0.1313761  56.99 0.0008959704    1.109    0.098
         8 -10.0093     75.8444    245.5913   7.7094555838e+01   1.3337903235e+01    0.3229688    0.1394777 -59.71  0.001242212    2.661    0.624
         9 -15.6735     56.1643    230.8800   8.0004689077e+01   1.8397657592e+01     4.183054      2.77205 -44.05   0.02477904    2.143    0.533
        10 -15.7383     22.0832    174.7245   8.3763626694e+01   3.4458341558e+01     5.211129     1.842151  57.26   0.01656788    2.838    0.648
        11 -15.9332      3.8429    247.0238   9.1028036343e+01   2.0640225075e+01    0.9328414    0.4655162  47.72  0.005999147    1.434    0.303
        12  -9.2756    184.7672    229.0089   5.3334079254e+01   1.7697419487e+00    0.1422625   0.09396314 -35.35 0.0003774819    1.591    0.371
        13 -11.4781    147.6955    228.0989   6.0486010806e+01   6.9429809941e+00    0.2423783    0.2241334 -23.99  0.001099898    1.208    0.172
        14 -11.6147     98.2254    224.5041   7.0463856686e+01   1.4388235510e+01     0.485115    0.2932785 -60.20  0.002715446    1.865    0.464
        15  -8.9374    215.4422    227.5007   4.7528383545e+01  -1.9227480805e+00     0.115922   0.09013874   0.85 9.243873e-05    1.039    0.037
        16 -10.9071     71.9288    224.8401   7.6177888824e+01   1.7709090311e+01    0.3108595    0.2076257  41.57  0.001232889    1.266    0.210
        17 -10.6401    174.9543    223.2856   5.4352025190e+01   3.9475599984e+00    0.2257981    0.1401649  21.56 0.0009408852    1.478    0.323
        18 -10.5186    164.2072    225.4070   5.6783391532e+01   5.0941627816e+00    0.1768034    0.1006572  39.91 0.0009510995    1.702    0.412
        19  -9.5248     90.4381    217.4736   7.1406272313e+01   1.6800023840e+01    0.2073431    0.1563313 -86.93   0.00058524    1.496    0.332
        20 -11.9083     89.0946    222.5118   7.2233392824e+01   1.5981843504e+01    0.6317047    0.4369528  68.00  0.003488436    1.578    0.366
        21 -11.8271     80.9006    220.5623   7.3828541400e+01   1.7430930510e+01    0.4382395    0.2400557  54.43  0.001169088    1.784    0.440
        22 -17.9928      5.6203    222.8847   8.9930602708e+01   2.5132516404e+01     5.268965      2.61851 -80.11   0.01544933    1.899    0.474
        23 -10.2414     67.0881    221.0074   7.6892268581e+01   1.9070548359e+01    0.1985858    0.1609677 -88.31 0.0004136119    1.264    0.209
        24 -10.3953     96.0619    211.1685   6.9436176662e+01   1.7310653085e+01    0.3251899    0.1950474 -77.38  0.001636308    2.095    0.523
        25  -8.8073    144.4395    212.4655   5.8944107232e+01   1.0101904547e+01    0.1275801     0.114001  24.24 0.0001503031    1.039    0.038
        26  -9.4961    102.2882    211.0208   6.8012422191e+01   1.6475478869e+01    0.1670587    0.1602377  79.10  0.001097845    1.110    0.099
        27  -9.9359    210.9254    198.6295   4.3469255389e+01   2.7510027507e+00    0.2024321    0.1468868 -14.86 0.0005396774    1.202    0.168
        28 -11.1641     68.9911    193.8117   7.3813632816e+01   2.4692641436e+01    0.3460759     0.218677  79.20 0.0005389369    1.766    0.434
        29 -10.2041    192.9952    194.4881   4.6061848191e+01   5.9773812918e+00     0.239604    0.1724416 -77.45  0.001042665    3.681    0.728
        30 -10.6396    102.2249    194.4552   6.5874965694e+01   1.9950055257e+01    0.2315775    0.2024959  25.47  0.001370403    1.170    0.145
        31 -11.0692    133.1207    191.9541   5.8266065933e+01   1.5749860905e+01    0.4007972    0.1708822  24.27   0.00140577    3.321    0.699
        32 -10.7948    123.6834    189.7843   6.0102861468e+01   1.7682090631e+01    0.2696066    0.1632658 -38.06   0.00126655    1.908    0.476
        33 -10.8430     72.6936    187.1194   7.2143261855e+01   2.5753315801e+01    0.4558384    0.2462791  70.81  0.001423299    2.425    0.588
        34  -9.2173    208.6751    188.6943   4.2063100273e+01   4.6083210888e+00    0.1336335   0.08716962  -3.47 0.0003266498    1.645    0.392
        35 -10.6916    128.2330    185.0187   5.8261046092e+01   1.7964013709e+01    0.2677514    0.1737836  48.40  0.001301702    1.614    0.380
        36 -15.1681     29.7950    248.7419   8.6283710725e+01   1.7868046383e+01     1.549684    0.7462429  42.83  0.008955738    1.545    0.353
        37 -10.5219    172.6551    177.1392   4.6907211283e+01   1.2222800958e+01    0.3824972    0.2455212 -64.92  0.001667116    2.636    0.621
        38  -9.7915     63.0011    180.9401   7.3871634355e+01   2.8472884034e+01    0.2036694    0.1801699  80.89 0.0006188737    1.034    0.033
        39  -9.3828     75.2145    175.8044   7.0081318374e+01   2.8103549901e+01    0.2046036    0.1676979  68.40 0.0004817236    1.177    0.151
        40  -9.5435     74.2983    172.0147   6.9813084550e+01   2.9152767602e+01     0.244094    0.1787561  88.34 0.0004205054    1.428    0.300
        41  -9.4900     96.8112    175.1239   6.4391821922e+01   2.5132263428e+01      0.20908    0.1800232  75.88 0.0004350203    1.196    0.164
        42  -9.9842    104.9100    172.4062   6.1885516887e+01   2.4509307736e+01    0.2500326    0.1937048 -73.73  0.000919188    1.396    0.283
        43 -11.4628    179.7775    169.4353   4.3910817449e+01   1.2475771353e+01    0.4728665    0.3418688  27.02  0.002509644    1.404    0.288
        44  -9.4040     86.4911    168.9590   6.6137117546e+01   2.8160687769e+01    0.2107685    0.1375377 -62.84  0.000426358    1.516    0.340
        45  -9.3807    110.5734    166.7823   5.9474947707e+01   2.4910190644e+01      0.20116    0.1406026 -71.95 0.0009393455    1.646    0.393
        46  -9.8299    101.3884    166.9059   6.1878109789e+01   2.6367560470e+01    0.2278776    0.1798183 -83.42 0.0005024661    1.403    0.287
        47 -11.1843     81.2512    162.0181   6.6481219508e+01   3.0646121401e+01    0.4675097    0.2547842  32.34   0.00171823    1.892    0.471
        48 -11.5304     87.9984    162.2666   6.4679135312e+01   2.9579819717e+01    0.7637501    0.4266884  76.93  0.002754548    3.087    0.676
        49  -8.9152    116.5865    164.8201   5.7582966368e+01   2.4366630584e+01    0.2097605      0.14135 -68.70 0.0009516487    1.727    0.421
        50 -10.3282     55.7760    141.8503   7.0740455947e+01   3.9345837013e+01    0.3265261    0.2185286  27.97  0.001146243    1.663    0.399
        51 -12.3933     65.4810    126.4608   6.5034726772e+01   4.2189281991e+01    0.9822688     0.780386 -49.55  0.002694311    1.246    0.197
        52 -13.4872     69.8748    144.7755   6.6951102922e+01   3.6706047698e+01     1.193702    0.6650448  60.50  0.002725692    2.218    0.549
        53  -9.4293     50.0237    162.8321   7.5223444654e+01   3.4551199192e+01    0.2220746    0.1592851  67.38  0.000662942    1.351    0.260
        54 -15.3131      9.9100    206.4687   8.8400583151e+01   2.8204051845e+01    0.7204813     0.465503   8.33   0.00376093    2.321    0.569
        55 -10.0840    239.0093    161.7445   3.1648149562e+01   4.3911121136e+00    0.1481766    0.1063937  31.90 0.0008912878    1.574    0.365
        56 -10.3866     95.4367    160.2522   6.2325325727e+01   2.8924931279e+01    0.3174342    0.2366683 -87.52 0.0009257162    1.543    0.352
        57 -10.4415     59.5294    149.3855   7.0740402744e+01   3.6879100183e+01    0.7709808     0.216755  31.32   0.00253584    3.493    0.714
        58 -10.4519     52.8293    146.1648   7.2265070071e+01   3.8560399794e+01    0.4164206    0.3028715  80.04   0.00211683    1.388    0.280
        59 -10.9099     51.1144    155.8554   7.4065677531e+01   3.6221352944e+01       0.4983     0.276048  61.78  0.001397815    1.988    0.497
        60  -9.5894     51.4663    151.4112   7.3387512343e+01   3.7340205069e+01    0.2796246     0.234053   6.78 0.0006733459    1.508    0.337
        61 -10.3509    107.0336    233.8994   6.9610745106e+01   1.1483703548e+01    0.1794312    0.1567702  36.01 0.0004952123    1.043    0.041
        62 -10.3764     89.8567    151.7200   6.2363905397e+01   3.1933540425e+01    0.4950493    0.3078223  79.01  0.001975951    2.369    0.578
        63 -11.7823     87.0161    145.5038   6.2039164668e+01   3.3964243056e+01    0.5922842    0.4222006 -32.89  0.001376788    1.719    0.418
        64  -9.8177     65.9487    153.0643   6.9415500029e+01   3.5078346147e+01    0.2165774    0.1997362  80.01 0.0004937058    1.033    0.032
        65 -10.4601     80.6172    150.6367   6.4800513633e+01   3.3627278190e+01    0.2577428    0.2394834 -76.60 0.0004853941    1.029    0.028
        66 -11.3220    132.5627    144.5174   4.9403773140e+01   2.6231766515e+01    0.8641129    0.2640094 -48.97  0.002662949    3.162    0.684
        67  -9.1255     43.1552    148.8864   7.5502662900e+01   3.8952476116e+01    0.1784978    0.1493041 -54.50 0.0009972772    1.268    0.212
        68 -10.6911    108.9916    145.3112   5.5798238410e+01   3.0343390441e+01    0.2937171    0.2821032 -71.32 0.0006662291    1.018    0.017
        69  -9.7320     31.4797    143.9080   7.8390716483e+01   4.1468202044e+01    0.2686979    0.2065915 -77.12  0.000898669    1.132    0.117
        70 -10.7167     36.4243    142.5728   7.6742303528e+01   4.1336337375e+01    0.3371864     0.303934 -35.58  0.001416832    1.326    0.246
        71  -9.3362    127.2752    137.0310   4.9080212795e+01   2.8980433304e+01    0.2188946    0.1927912 -53.71 0.0004040734    1.110    0.099
        72  -8.7697    108.4723    136.4927   5.4064240409e+01   3.2613297972e+01     0.154682    0.1483625 -56.84 0.0008099558    1.013    0.013
        73 -10.1166     45.5725    135.6278   7.2982333807e+01   4.2221512848e+01    0.2585905    0.2132912  86.89 0.0004849422    1.129    0.114
        74  -9.2638    241.9387    135.4894   2.5737827005e+01   8.0173298348e+00    0.1573959    0.1306795  38.05 0.0003441632    1.478    0.324
        75 -11.6402    104.4017    131.5564   5.4123478642e+01   3.4578465064e+01    0.6752262    0.4740134 -14.72  0.002219948    2.133    0.531
        76 -11.5022     89.3086    132.1818   5.8718699024e+01   3.7031338511e+01    0.2941732    0.2576839 -48.77 0.0004198429    1.131    0.116
        77 -10.0094     44.0506    130.5112   7.2710306472e+01   4.3772200336e+01    0.3112217    0.2017701 -71.75  0.001145169    1.371    0.271
        78 -10.1521    125.0896    243.8450   6.7013624891e+01   7.4095524566e+00    0.2484789    0.1550307 -50.97 0.0008490399    1.908    0.476
        79 -10.4042    135.4071    125.6879   4.4255652475e+01   3.0022654354e+01    0.3190158    0.1471714 -51.31  0.001137858    2.191    0.544
        80 -10.2133    111.1744    126.4234   5.0987585690e+01   3.4606417324e+01    0.3043753     0.242323 -20.85 0.0009777591    1.508    0.337
        81  -9.0818     48.2386    123.3822   7.0181644139e+01   4.5229855401e+01    0.1974561     0.130719  42.87 0.0009398995    1.601    0.376
        82 -10.3008     98.1895    121.6004   5.3645838299e+01   3.8211726476e+01    0.2883622    0.2355575 -33.89 0.0006158589    1.314    0.239
        83 -12.6097     70.5943    158.9749   6.8974317326e+01   3.2926550207e+01    0.9527499    0.6144559 -18.36  0.003978628    2.646    0.622
        84  -9.9439    125.3780    238.7056   6.6370003687e+01   8.2161270623e+00    0.1811633     0.114024 -54.88 0.0007411719    1.900    0.474
        85 -10.1748     54.0812    117.8782   6.7198035867e+01   4.6014941921e+01    0.2347947    0.1947244  81.50 0.0006060997    1.243    0.195
        86  -9.7766    107.3633    116.0746   4.9529060661e+01   3.7887152488e+01    0.2290626    0.1887964 -54.76 0.0003694139    1.158    0.136
        87 -11.3325     74.5306    112.6710   5.9096557693e+01   4.4524679638e+01    0.5039817    0.2891139  52.07  0.001310814    2.069    0.517
        88  -8.6633     99.7196    113.2873   5.1114625770e+01   4.0028583952e+01    0.1541088    0.1234908  86.19 0.0002045455    1.521    0.343
        89 -10.2723    146.8978    243.1773   6.2607503567e+01   4.6519920667e+00    0.1756712    0.1432711  42.45 0.0006778147    1.282    0.220
        90 -10.5033     54.0739    108.8645   6.5388554397e+01   4.8449038713e+01    0.2658166    0.2053793 -70.37 0.0007446894    1.195    0.163
        91  -9.2384    220.0086    242.5141   4.9048620208e+01  -4.3541407643e+00    0.1535148   0.08893509  24.56 4.163238e-05    1.470    0.320
        92 -10.5857    133.6396    104.0914   3.8962919920e+01   3.5301752828e+01    0.4701363    0.2739525 -69.85  0.001534912    3.170    0.685
        93 -10.2231     37.8948    101.8281   6.9956681539e+01   5.2212117782e+01    0.2977256    0.2540273  15.24 0.0009972617    1.376    0.273
        94  -8.9444     61.3066    100.6395   6.0881940861e+01   4.9669900299e+01    0.1577427    0.1149114  79.38 0.0007039843    1.733    0.423
        95 -11.5956     20.0578     95.5963   7.5785556063e+01   5.5466527455e+01    0.3610984    0.3465756  25.74  0.001396434    1.239    0.193
        96 -10.9371     56.8889     93.1017   6.0659310489e+01   5.2260997306e+01    0.3809889    0.2649683  65.42  0.001147362    1.870    0.465
        97 -12.7080    108.8219    228.8802   6.8681695780e+01   1.2150033457e+01     0.812867    0.2720895  33.61  0.003428894    2.548    0.608
        98 -10.5918    102.9599    238.6504   7.0952465743e+01   1.1176603391e+01    0.3211064    0.1748256 -50.48 0.0007306625    2.189    0.543
        99 -10.4421     14.5888     89.1193   7.6936607161e+01   5.7573312370e+01    0.2167669    0.1807112  38.78 0.0006999989    1.399    0.285
       100 -10.6222     31.4125     86.2161   6.9325168138e+01   5.7015704098e+01    0.2932022    0.2236059  47.18 0.0006439588    1.510    0.338
       101 -11.0866     52.8478     82.6589   5.9455040351e+01   5.5497680649e+01    0.7481099    0.3611239  55.94  0.002506198    3.664    0.727
       102  -9.1003     19.6889     81.6970   7.3421120536e+01   5.9182487392e+01    0.1462742   0.08700918 -42.52 0.0002177088    1.610    0.379
       103  -9.7236     28.4885     77.9757   6.8711155538e+01   5.9435315625e+01    0.2189262    0.1209045 -62.58 0.0005253013    1.531    0.347
       104  -9.4370     58.6916     76.0255   5.5062896350e+01   5.6326299456e+01    0.2111064    0.1772047 -48.70 0.0002624225    1.076    0.070
       105  -9.8078     84.9097     73.7284   4.4180556907e+01   5.2368855637e+01    0.2796277    0.2136236  62.64  0.001274174    1.623    0.384
       106 -11.9433    189.1461     62.6995   1.5574404965e+01   3.0337069254e+01    0.4315158    0.3861088 -29.11 0.0007570227    1.148    0.129
       107 -13.4783    204.9693     51.5740   1.0421288726e+01   2.8391051304e+01     1.217672    0.8957354  27.87  0.004916222    1.943    0.485
       108 -12.9405    211.7955     46.4043   8.2886046207e+00   2.7597022557e+01    0.8176432    0.6746081 -12.33  0.001087109    1.452    0.312
       109  -8.5557    131.6786     57.7105   2.4629153490e+01   4.5081333446e+01     0.153042    0.1192006  19.65 0.0003432261    1.604    0.376
       110 -11.9292      2.0663     48.9855   7.5002228182e+01   6.8449917184e+01    0.5867113    0.1750823 -73.45  0.002103528    3.387    0.705
       111  -9.8120    184.8607    235.8390   5.4325386245e+01   7.8040385863e-01    0.1432143    0.1304048  13.07 0.0005183084    1.294    0.227
       112 -11.7296      9.6183     41.5250   6.8405233437e+01   6.9805991819e+01    0.3656341    0.1903691  30.14  0.001722894    2.244    0.554
       113  -9.8771     13.5717     39.4986   6.5279446098e+01   6.9994573800e+01    0.1896409    0.1253546  14.31 0.0001085957    1.684    0.406
       114  -8.9771     45.1627     37.8468   4.6517852286e+01   6.6776671461e+01    0.1858967    0.1460658  -8.24 0.0004224003    1.282    0.220
       115  -9.3345     94.4592    248.0727   7.3579441345e+01   1.0628992840e+01     0.152122    0.1147885 -68.25  0.001029356    1.590    0.371
       116 -10.5423     67.9645    245.6184   7.8671552378e+01   1.4266876673e+01    0.3302288    0.2094332  79.54  0.002058933    1.753    0.429
       117 -12.5702    132.6131    229.8385   6.3810992910e+01   8.7336157728e+00    0.7176051    0.3499623  18.58  0.003132084    2.782    0.641
       118  -9.6501     60.8516     21.1603   3.0432970704e+01   6.6839104847e+01    0.1906662    0.1892605  15.96 0.0006806095    1.230    0.187
       119 -10.0097     82.9829    245.7305   7.5674044570e+01   1.2449491486e+01    0.1690631    0.1503411  70.97  0.000375467    1.183    0.155
