#   1 NUMBER                 Running object number                                     
#   2 MAG_AUTO               Kron-like elliptical aperture magnitude                    [mag]
#   3 X_IMAGE                Object position along x                                    [pixel]
#   4 Y_IMAGE                Object position along y                                    [pixel]
#   5 X_WORLD                Barycenter position along world x axis                     [deg]
#   6 Y_WORLD                Barycenter position along world y axis                     [deg]
#   7 A_WORLD                Profile RMS along major axis (world units)                 [deg]
#   8 B_WORLD                Profile RMS along minor axis (world units)                 [deg]
#   9 THETA_WORLD            Position angle (CCW/world-x)                               [deg]
#  10 FWHM_WORLD             FWHM assuming a gaussian core                              [deg]
#  11 ELONGATION             A_IMAGE/B_IMAGE                                           
#  12 ELLIPTICITY            1 - B_IMAGE/A_IMAGE                                       
         1 -11.5992     12.0366     48.3773   9.2267018459e+01   6.7560156441e+01     1.182989    0.3950144 -84.63  0.003524759    4.947    0.798
         2 -12.1047     26.5419     50.3592   8.3906268773e+01   6.5959169293e+01     1.712307      0.87893  85.55  0.005885363    3.966    0.748
         3 -13.0850     38.1622     49.6683   7.6953173263e+01   6.4838528171e+01     1.387092    0.9426849 -66.08  0.006847631    1.595    0.373
         4 -10.4352    107.2733     27.5490   3.8819495739e+01   5.4801502958e+01    0.2423831    0.2280761 -78.75 0.0007419909    1.109    0.098
         5 -11.7235    128.2850     10.5863   2.7599999285e+01   5.1265437812e+01    0.6344671     0.336385 -53.06  0.000172395    2.104    0.525
         6 -11.0870    129.3710     18.8962   3.0620539254e+01   5.0095864306e+01    0.4893989    0.4302589 -54.49  0.002744789    1.158    0.136
         7 -12.5723      4.2404     18.1874   8.9836263573e+01   7.5222002607e+01    0.6066495    0.4116054  83.17  0.001668821    1.924    0.480
         8 -11.7305      6.9859     10.4593   8.4132947508e+01   7.6787613692e+01    0.5817972    0.3082065 -11.77  0.001277672    2.097    0.523
         9 -10.5907     10.1292     15.2835   8.3385240974e+01   7.5514114301e+01    0.4327402    0.1921928 -26.85  0.001823214    2.644    0.622
        10 -11.2591     18.6166     16.1578   7.6399080430e+01   7.4573865160e+01    0.6561644    0.3505571 -21.12  0.002929562    2.362    0.577
        11 -11.5532    160.4077     22.1230   2.7086582082e+01   4.1683367967e+01    0.4840445     0.297471  19.66  0.002109482    2.491    0.599
        12 -12.7967    237.8926     17.4122   1.9009294457e+01   2.4838044770e+01    0.3255369    0.2242023 -61.45 0.0005671194    1.333    0.250
        13 -11.8659    234.8402     10.2121   1.7554181167e+01   2.6112434825e+01    0.2857768    0.2194431  -2.11  0.001001151    1.651    0.394
        14 -12.1009    168.7260     15.2456   2.3945152107e+01   4.0327982552e+01    0.3790058    0.3091115  74.76  0.001362762    1.196    0.164
        15 -10.0912     35.2804     14.7179   6.2795553501e+01   7.2652858212e+01    0.4054135    0.2420778   4.84  0.001170227    2.575    0.612
        16 -11.9843     30.7131     12.8691   6.4925785854e+01   7.3694039273e+01      0.40659    0.3262248 -61.89 0.0004069214    1.626    0.385
        17  -9.2892     43.2914      7.6161   5.3044680847e+01   7.2427049189e+01    0.2167345    0.1357263 -39.51 0.0007506728    1.706    0.414
        18  -9.7897     39.9322     14.5362   5.9590636934e+01   7.1914057651e+01    0.2758345    0.1917376   6.29  0.001188656    1.719    0.418
        19 -10.1072     39.8235     10.4050   5.7051476383e+01   7.2629872144e+01     0.364577    0.2158741  44.89  0.001794305    1.706    0.414
        20  -9.7648     37.1717      6.6527   5.6269099638e+01   7.3704439538e+01    0.3233539    0.2593204  36.73  0.001393094    1.215    0.177
        21  -9.7271     75.4964     15.8174   4.2921778700e+01   6.4287665912e+01    0.5731995    0.2590252  43.41  0.002285545    2.172    0.540
        22 -12.2696     54.8678     12.8522   5.0047381297e+01   6.9328515826e+01    0.7391509    0.3788339  43.25  0.001937861    1.826    0.452
        23 -11.7500     78.0079     10.5049   3.9190485667e+01   6.4354482127e+01    0.6235636    0.2362537  53.02 0.0007722646    2.277    0.561
        24 -11.1659     60.0264     13.5011   4.7957827229e+01   6.8135514703e+01    0.4065952      0.37338  38.48   0.00229473    1.066    0.062
        25 -10.5672     70.6394     13.2529   4.3341049167e+01   6.5773737587e+01    0.3529382    0.2395808  -5.44  0.001321802    1.814    0.449
        26  -9.6276     24.4441      7.5753   6.6446389758e+01   7.5563111346e+01    0.2160553    0.1739272 -64.66 0.0007516337    1.694    0.410
        27 -11.3258    155.5088     11.4813   2.4216911604e+01   4.4043684667e+01    0.5687885    0.1961638 -31.64  0.002212413    2.612    0.617
        28 -10.5552    138.5522     11.5474   2.6419853563e+01   4.8451567260e+01    0.3741883    0.1857141 -43.09  0.001621873    2.012    0.503
        29  -9.7373    118.3985      8.4973   2.8412037522e+01   5.4103373429e+01    0.3393441    0.1709741 -42.21  0.001116191    2.068    0.517
        30 -11.7825    145.8894      7.8642   2.4134367501e+01   4.6882254596e+01    0.4421499    0.3100686 -19.21  0.002023949    1.575    0.365
        31  -9.4578    182.8840      9.8299   2.0981296927e+01   3.7411477204e+01    0.1725695     0.128547 -63.97 0.0009888202    1.240    0.194
        32 -10.9678    241.3590      8.9508   1.6931929699e+01   2.4982691803e+01    0.1930561    0.1321337 -70.58 0.0007761165    1.405    0.288
        33 -10.8577    164.5784      6.2392   2.1560402916e+01   4.2236306968e+01    0.4515579    0.1963664 -27.75  0.001853511    2.210    0.548
        34 -12.0635    214.2592      5.9253   1.7706350677e+01   3.0693493438e+01    0.4635098    0.3561003 -41.49  0.002076447    1.129    0.114
        35 -10.8991    209.9606      1.9431   1.6966631289e+01   3.1973817898e+01    0.2845849    0.1823518 -72.78 0.0009842204    1.476    0.323
        36 -10.7648    190.7368      5.6263   1.9180158851e+01   3.5954729263e+01    0.3671563     0.291923  55.93  0.002253115    1.417    0.294
        37 -10.7108     91.8621      6.6623   3.3162505569e+01   6.1283351158e+01    0.2535945    0.2085471  36.35 0.0004058065    1.218    0.179
        38 -10.4841    222.9202      5.3417   1.7071455120e+01   2.8939993331e+01    0.2100075     0.152896 -27.46 0.0005141139    1.322    0.243
        39  -9.9810     68.9751      5.8358   3.9703382531e+01   6.7084105593e+01    0.2002838    0.1843618 -69.01 0.0004556651    1.270    0.213
        40 -11.3581     11.1637      3.1030   7.5832806192e+01   7.7974851541e+01    0.2693653    0.2373373  -8.89 0.0004489766    1.066    0.062
        41 -11.5336     27.6143      2.8982   6.0563959604e+01   7.5909411183e+01    0.3081351    0.2677318  64.25  0.001632032    1.632    0.387
        42 -10.7387     32.0304      1.1552   5.5866513512e+01   7.5455347796e+01    0.3717706   0.09442578  41.53  0.001248925    3.746    0.733
        43 -10.9440     16.2826      3.6935   7.1118616701e+01   7.7318979468e+01    0.4030366    0.2407821 -49.18  0.002156326    1.672    0.402
        44 -11.0188     20.8237      3.2451   6.6580535630e+01   7.6836322954e+01    0.4230882    0.2738625 -20.27  0.002258875    1.656    0.396
        45  -9.5038    109.2432      5.3808   2.8746815120e+01   5.6839942222e+01    0.1912504    0.1282488  78.72 0.0005775494    1.458    0.314
        46 -10.5274     59.3452      5.1650   4.3156571242e+01   6.9398582018e+01    0.3239452      0.16707  49.62 0.0006865552    1.738    0.425
        47 -10.8421    243.3716      2.6934   1.5464574449e+01   2.5171531848e+01    0.2627989    0.1249864 -44.10  0.001534069    1.590    0.371
        48 -10.8649    178.7400      3.7311   1.9558254132e+01   3.8970006008e+01    0.2452129    0.1873799 -66.47 0.0001828041    1.191    0.161
        49  -9.2095    171.6499      4.3296   2.0324221135e+01   4.0647838364e+01    0.1491241   0.08279507 -59.07 0.0007048288    1.767    0.434
        50  -9.5770    126.1777      2.7392   2.4838248424e+01   5.2558844179e+01    0.1885787    0.1522784  40.64 0.0005163107    1.325    0.245
        51  -9.7067     73.9028      6.6729   3.8443386893e+01   6.5801934463e+01     0.196207    0.1716406  51.06 0.0006604436    1.052    0.050
        52 -10.0045     74.5148      2.1621   3.5650727011e+01   6.6135562233e+01    0.3309036    0.2034263 -79.79  0.001393189    2.587    0.613
        53 -11.0962    236.7579      1.8420   1.5573348431e+01   2.6503257964e+01     0.230714    0.1371846 -74.62  0.001425187    1.654    0.395
        54 -10.0064    107.9771     10.4795   3.1259487748e+01   5.6671407916e+01    0.2108502    0.1869669 -23.59  0.000501107    1.226    0.184
        55  -9.6574     90.9145      1.9220   3.1000525055e+01   6.1989895404e+01    0.2045865    0.1676064  37.58            0    1.213    0.176
        56  -9.7404    100.5001      6.9903   3.1277435839e+01   5.8997362996e+01    0.2055124    0.1143865  17.50  0.000810602    2.640    0.621
        57  -9.5487      1.9644    179.9573   1.0709666862e+02   3.5585176297e+01    0.1683021    0.1334182 -41.32 0.0009623945    1.642    0.391
        58 -11.1388    247.2901    249.9730   6.2022821099e+01  -2.9589588864e+00    0.2065464     0.115743   8.49  0.001599386    1.270    0.213
        59 -12.5990    226.3887    245.7465   6.4665388484e+01  -5.7000598137e-01    0.6072817    0.2955995   1.03  0.003766097    2.106    0.525
        60 -12.5355    233.1713    245.2136   6.3529216533e+01  -1.1869791154e+00    0.5089787    0.2353823 -27.44  0.003455669    2.081    0.520
        61 -10.0747    109.8343    249.0610   8.6523791561e+01   1.2001049154e+01    0.1685588    0.1525865 -11.24  0.001348656    1.354    0.261
        62 -11.8732     89.1994    249.3116   9.0779098018e+01   1.4277027790e+01    0.3088961    0.1827675  27.99  0.000821578    1.266    0.210
        63 -10.0369     72.3123    250.2181   9.4332473588e+01   1.5956113770e+01    0.1848432    0.1203718  21.69  0.001104041    1.350    0.259
        64 -11.9173     28.8285    246.2787   1.0310059395e+02   2.0824680946e+01    0.4565417    0.2460416  67.45   0.00300848    1.859    0.462
        65 -12.1301     18.8511    236.9538   1.0485551154e+02   2.3253250932e+01    0.5167823    0.2428311  36.69  0.003231256    1.482    0.325
        66 -12.7866      6.4905    245.3648   1.0758037916e+02   2.2846810207e+01    0.6131915    0.4038198  55.27  0.003505373    1.209    0.173
        67 -11.9407     22.4793    248.6542   1.0446515904e+02   2.0992220733e+01    0.3812979    0.2054503  35.16  0.001929563    1.307    0.235
        68 -11.0570     17.7415    247.3485   1.0537937182e+02   2.1607008503e+01     0.209001    0.2018143  12.04 0.0009190788    1.419    0.295
        69 -11.6815     14.4147    244.7478   1.0598045275e+02   2.2310987589e+01    0.3162763    0.1883214 -87.16  0.001362792    1.933    0.483
        70  -9.8599    244.4901    178.4551   5.1610919039e+01   4.6559767626e+00    0.2059044   0.08382178 -21.76  0.001034715    2.466    0.594
        71  -9.9368    167.6067    183.1757   6.5948222182e+01   1.4465071334e+01    0.1742923    0.1100803 -25.98 0.0009510362    1.676    0.403
        72  -9.7516     96.6793    177.6564   8.1688759826e+01   2.6001190603e+01    0.1362684    0.1005115 -11.84 0.0007049898    1.726    0.421
        73 -10.0004     46.7042    177.0015   9.5026786005e+01   3.2365230656e+01    0.1818357    0.1607285  60.56  0.001168678    1.076    0.070
        74 -10.6009     18.2471    172.7692   1.0252102682e+02   3.5952996489e+01    0.3314829    0.1300015  47.66  0.001549373    2.094    0.523
        75 -10.8707     35.3742    161.3018   9.6946677075e+01   3.7061732229e+01    0.2931929     0.232855  17.01  0.000200117    1.336    0.252
        76 -11.4056     37.0009    165.9810   9.6846718638e+01   3.5824452053e+01    0.4856591    0.2516559  67.89  0.002292172    2.099    0.524
        77 -10.8648     33.1638    166.1849   9.7958207885e+01   3.6144566029e+01    0.2406253    0.1984273  38.51 0.0003116527    1.104    0.094
        78  -9.7570     25.4953    169.5189   1.0034446126e+02   3.6077443646e+01    0.1246998    0.1107081  53.11 -6.179698e-05    1.051    0.048
        79  -9.6040    176.9978    168.7192   6.1510284433e+01   1.5309528859e+01    0.1587953    0.1029982  31.48 0.0003448392    1.414    0.293
        80 -10.5335      5.0551    168.4946   1.0593088925e+02   3.7885867305e+01    0.1791981    0.1111323  21.89   0.00103195    1.593    0.372
        81 -12.1496     51.9838    162.2662   9.2182035386e+01   3.5107999982e+01     0.665821    0.5327961  68.77  0.003910027    1.235    0.190
        82  -9.4661    210.8502    166.1533   5.4759620694e+01   1.0622194016e+01    0.1686721    0.1189219  -2.72 0.0005771047    1.296    0.228
        83 -10.0040     67.0113    165.2834   8.8184958414e+01   3.2633098158e+01    0.2057755     0.161612  36.18  0.001167543    1.131    0.116
        84  -9.4095    111.7818    164.0155   7.5727762169e+01   2.6541878769e+01    0.1709282    0.1157234 -53.68  0.000553021    1.658    0.397
        85  -9.3006     10.3132    162.3219   1.0423374345e+02   3.8917681029e+01    0.1195344    0.0895592 -42.51 0.0007039501    1.655    0.396
        86 -12.0214     20.9359    156.9320   1.0088067170e+02   3.9361404024e+01    0.4599091    0.3622202  -5.37  0.002756933    1.555    0.357
        87  -9.9444    247.5184    157.5099   4.7483194481e+01   6.7311991222e+00     0.113929   0.08670725  -9.88 6.436557e-05    1.015    0.014
        88  -9.2677    216.3093    154.6985   5.1699849717e+01   1.1390665189e+01    0.1051336   0.09681963 -50.42 0.0002665599    1.603    0.376
        89  -9.1960    105.3947    153.2992   7.5643729086e+01   2.9787004177e+01    0.1490996    0.1075704  -4.22 0.0007006417    1.806    0.446
        90 -11.6419     10.0113    152.5238   1.0387496382e+02   4.1217633194e+01    0.3173864    0.2010987  30.96 0.0007150889    1.463    0.316
        91  -9.8000    176.8219    150.0611   5.7987063934e+01   1.8327365626e+01    0.1866134    0.1831221  24.10 0.0006591958    1.289    0.224
        92  -9.5563    222.5528    151.9892   5.0174964098e+01   1.0842324021e+01    0.1809033    0.1024145 -29.74 0.0004822028    1.567    0.362
        93 -10.1119    207.1133    146.4965   5.1644314070e+01   1.3936301547e+01    0.1796354    0.1165393  35.32   0.00102106    1.556    0.357
        94  -9.3402     41.1213    146.1260   9.3828398077e+01   4.0101853666e+01    0.1898077    0.1376312  54.27 0.0004657343    1.293    0.227
        95 -10.4429    218.7371    144.7084   4.9369333819e+01   1.2391950260e+01    0.3672789   0.08666278  37.65  0.001226165    5.006    0.800
        96  -9.5863    169.9504    152.0000   5.9780296818e+01   1.9162569365e+01     0.216371   0.07162865  39.68 0.0007954258    2.894    0.654
        97 -10.2174     76.4833    142.4985   8.2261139319e+01   3.6621054123e+01     0.144485     0.131376  48.31 -8.154503e-05    1.038    0.037
        98  -9.1137    204.5256    141.5294   5.1090911447e+01   1.5068146396e+01    0.1271031    0.1093196  -7.12 9.327112e-05    1.037    0.036
        99  -9.5212    240.4487    140.4544   4.5285772802e+01   9.7681798496e+00    0.1177282   0.09249629 -12.06 0.0001103697    1.003    0.003
       100  -9.7739     13.7152    139.9916   1.0205831415e+02   4.3972241328e+01    0.1777339    0.1556095  75.43 0.0003451486    1.044    0.042
       101  -9.5417    143.9579    137.0604   6.2527727664e+01   2.6431630141e+01      0.16969     0.157812 -12.78 0.0004291662    1.074    0.069
       102  -9.5733     43.6870    137.3088   9.2041076309e+01   4.1997341872e+01    0.1483454   0.09255544  57.47 0.0003309128    1.626    0.385
       103 -10.6355      9.2456    136.1718   1.0327531364e+02   4.5207835936e+01    0.2041192     0.183595  77.64 0.0003258261    1.046    0.044
       104 -10.5535    241.1416    134.3168   4.3998415102e+01   1.0440734914e+01    0.2089401    0.1415153 -28.60 0.0005055458    1.256    0.204
       105  -9.6943     20.8245    134.7901   9.9382806265e+01   4.4731405762e+01    0.1931226    0.1347071  62.76 0.0007132885    1.351    0.260
       106 -10.0234      2.9288    134.4905   1.0523572275e+02   4.5998676071e+01    0.1793559    0.1223949  18.39 0.0006725631    1.548    0.354
       107 -11.1114     53.8827    132.4183   8.8023445148e+01   4.2054997372e+01    0.3957004    0.2500336  28.82  0.001190426    1.524    0.344
       108  -9.7878     58.6923    131.6917   8.6309257748e+01   4.1640780582e+01    0.2427235    0.2230487  58.18 0.0008221279    1.037    0.035
       109  -9.9746     79.9202    132.2765   7.9476751528e+01   3.8539654322e+01    0.2053824    0.1773625  31.15 0.0003993194    1.112    0.101
       110 -11.5753     36.9366    130.3757   9.3518361431e+01   4.4422861989e+01     0.509006     0.261248 -52.60  0.002283148    2.047    0.511
       111 -11.0744     73.8825    128.9254   8.0831279437e+01   4.0244216676e+01    0.3268777    0.3101844  41.00 0.0009942934    1.017    0.016
       112 -10.2503     64.7927    128.1456   8.3712459239e+01   4.1717173421e+01    0.1945551    0.1685634 -15.45 0.0006516042    1.328    0.247
       113  -9.4626     56.5224    126.5870   8.6274819431e+01   4.3184865830e+01    0.1408546    0.1337286  49.21 -2.331414e-05    1.021    0.021
       114 -11.0084     15.0414    125.5804   1.0064872476e+02   4.7463513085e+01     0.485875    0.2074926  22.89  0.002146874    2.274    0.560
       115 -11.2710     10.6368    123.2506   1.0202204793e+02   4.8339565603e+01     0.420141    0.2626891 -73.05  0.001951228    1.508    0.337
       116  -9.9251     45.6658    125.1426   8.9838480519e+01   4.4832704486e+01    0.2045274     0.162473  42.47  0.001104729    1.199    0.166
       117  -9.3859    219.6143    124.1426   4.5047246617e+01   1.5089767212e+01    0.1788235    0.1036378 -21.29  0.000651694    1.668    0.400
       118  -9.9217    243.5432    122.1234   4.1262084777e+01   1.1622700389e+01    0.1792781   0.09572818 -30.17  0.000695688    1.543    0.352
       119 -10.5575     72.8617    117.2086   7.9005700635e+01   4.3260070843e+01    0.4692727    0.2789235  88.29  0.001793126    2.711    0.631
       120 -12.2962     15.7262    115.0540   9.9563826338e+01   5.0098056883e+01    0.5435348     0.356942 -75.66   0.00115078    1.426    0.299
       121 -11.7865     15.1740    108.3557   9.9179432638e+01   5.1861626925e+01    0.7156147     0.359399 -19.06  0.002987383    2.809    0.644
       122  -9.8781      1.3080    118.5897   1.0503527187e+02   5.0030942802e+01    0.2031728    0.1065363 -82.95 0.0002025289    1.738    0.425
       123 -10.3043     23.8823    117.8378   9.6809963350e+01   4.8782761624e+01    0.2029735    0.1764887 -43.32 0.0005058069    1.253    0.202
       124 -10.3319     30.9158    117.5346   9.4185495728e+01   4.8263512772e+01    0.3462355    0.1439777  12.57  0.001092747    2.975    0.664
       125  -9.6763     86.2607    115.9833   7.4239238466e+01   4.1419512859e+01    0.2041201    0.1921485 -59.17 0.0004147546    1.103    0.094
       126 -10.7060     52.1478    114.8230   8.5957310587e+01   4.6701459962e+01    0.4433078    0.1900508 -78.20  0.001536134    3.121    0.680
       127 -11.5837     54.8996    109.0269   8.3927495962e+01   4.7833708868e+01    0.4018028    0.2718727 -67.17 0.0003879599    1.491    0.329
       128 -10.8346     52.1243    103.4906   8.3964870832e+01   4.9603425279e+01    0.2684996     0.251931 -10.66 0.0009549316    1.145    0.127
       129  -9.9737    179.2770    115.9934   5.0141999798e+01   2.3514473203e+01    0.1995396    0.1708456 -23.38  0.001148875    1.101    0.092
       130 -10.9721    249.5487    111.9029   3.8451084800e+01   1.1996270292e+01    0.2261419    0.1705001 -26.55 0.0005452719    1.088    0.081
       131 -10.5654     94.4091    112.3154   7.0776535033e+01   4.0870832811e+01    0.3042476    0.2842589  -6.98  0.001019358    1.133    0.117
       132  -9.9983    183.1955    114.2301   4.8989592995e+01   2.3051618743e+01    0.1803719    0.1657902 -64.60  0.001025016    1.333    0.250
       133 -10.9603      1.8957    107.0362   1.0419172873e+02   5.2933632501e+01    0.5252839    0.1385799 -73.31  0.001906822    3.142    0.682
       134 -10.5753     83.0101    107.8312   7.3529862065e+01   4.3917976859e+01    0.3175261    0.2303999  20.56  0.001161398    1.523    0.344
       135 -11.9050     27.0444    104.9580   9.4137692782e+01   5.1860618364e+01    0.6336839    0.4360674  17.72  0.002375565    1.544    0.353
       136 -10.6075    111.5553    105.9143   6.3936115754e+01   3.9077306342e+01     0.389589     0.195483  39.85  0.001530884    1.935    0.483
       137  -9.9774    213.9499    115.5265   4.4069943055e+01   1.7248526146e+01    0.1719976    0.1239067  42.54 0.0004378946    1.516    0.340
       138 -10.4343     37.8708    102.6953   8.9476735221e+01   5.1441513736e+01    0.2765973    0.2198664  75.20 0.0009608635    1.308    0.235
       139 -11.4804     62.1391     98.7261   7.9098643350e+01   4.9455664783e+01    0.3784632    0.3117633 -23.36 0.0008509099    1.383    0.277
       140 -10.3777     66.8420     97.8709   7.7099174045e+01   4.8969101491e+01    0.2472481    0.2168346   2.18  0.001296924    1.255    0.203
       141 -10.8363    144.1907     98.9095   5.3403678845e+01   3.3712297818e+01    0.3542445    0.3057857 -65.36  0.001091796    1.345    0.256
       142  -9.7332    107.7880     99.7040   6.3464908230e+01   4.1187537933e+01    0.2015974    0.1767313  76.62 0.0004135726    1.313    0.238
       143 -10.4717      9.6596     99.0907   1.0054131057e+02   5.4595272250e+01    0.2082648    0.1677898  46.93 0.0006900008    1.244    0.196
       144  -9.7673      4.6418    107.7018   1.0318418849e+02   5.2633365070e+01    0.1861984    0.1167239 -64.74 0.0008562601    1.506    0.336
       145 -11.4248     52.5465     94.6098   8.2027705901e+01   5.1822507152e+01    0.5468238    0.2529059 -58.27   0.00219621    2.057    0.514
       146 -10.0310     96.0174     96.7219   6.6408256974e+01   4.4169645028e+01    0.2096101    0.2018362  25.79   0.00074499    1.025    0.024
       147 -11.4368     14.4718     96.3022   9.8275981775e+01   5.5040515084e+01    0.3350127    0.2440717  28.51  0.001844064    1.417    0.294
       148  -9.9886    101.4519     95.5343   6.4328748787e+01   4.3374933280e+01    0.3252397    0.1482078  40.21  0.001047692    2.139    0.532
       149 -12.0348    166.5766     83.4588   4.4424809764e+01   3.1545050097e+01    0.7773835    0.4284505  51.90  0.002504717    1.856    0.461
       150 -12.0648    160.3321     90.9086   4.7680704446e+01   3.1660634788e+01     0.625293    0.5322394  76.60  0.003339533    1.394    0.283
       151 -11.5424    156.1420     83.5865   4.6558366235e+01   3.3850657074e+01    0.5825752    0.5152038  48.39  0.002514306    1.145    0.127
       152 -10.9273     65.3372     93.2085   7.6590781927e+01   5.0358799809e+01    0.5311483    0.2010462  27.93  0.001348332    2.933    0.659
       153 -10.1819      2.3041     92.5843   1.0307591363e+02   5.6633772986e+01    0.2967987    0.2023257 -20.81  0.001609955    1.685    0.406
       154  -9.6252    227.2426     92.4388   3.7101362331e+01   1.8093488953e+01    0.1446014     0.123409  79.10 0.0004567999    1.537    0.349
       155 -10.7636     36.7119     91.2286   8.8025555762e+01   5.4545699574e+01    0.4807263    0.2738839 -45.78  0.001874239    1.812    0.448
       156  -9.9970     31.2106     91.4507   9.0448713867e+01   5.5023894702e+01    0.3894317    0.1561776 -68.64  0.001516348    2.327    0.570
       157  -9.5062     25.3361     90.8699   9.2922254143e+01   5.5685529083e+01    0.2196766    0.1606071  76.61  0.000720686    1.442    0.307
       158 -10.8844     84.1097     89.0016   6.8429994875e+01   4.8198284484e+01    0.4556981    0.2943056  53.57  0.001655666    1.733    0.423
       159 -12.2054     21.9357     87.5497   9.3945017866e+01   5.6820595374e+01     1.337289    0.1608724 -68.45  0.003584869    5.078    0.803
       160  -9.9914      7.0821     41.3076   9.3944773862e+01   6.9573875221e+01     0.374698    0.1694557 -71.82  0.001681213    2.040    0.510
       161 -11.7430      5.3480     50.1936   9.6761635275e+01   6.7430107983e+01    0.8849592    0.4824871  83.34   0.00413858    2.108    0.526
       162 -12.0184     13.8087     76.0285   9.6110759594e+01   6.0375561927e+01    0.7135287    0.4026649  22.17  0.002654884    1.846    0.458
       163 -12.1448      7.2110     73.3411   9.9014335715e+01   6.1417768998e+01    0.7656257    0.4540764 -30.14  0.003814758    1.830    0.454
       164 -14.1041     16.6534     67.3036   9.3303335500e+01   6.2462797691e+01    0.6368085    0.5001245 -88.50  0.001018991    1.292    0.226
       165 -12.0295     36.9587    242.8306   1.0128878820e+02   2.0654574330e+01    0.4876372    0.2513597  73.40  0.002002316    2.191    0.544
       166 -12.5406      3.3268     63.4606   9.9831467413e+01   6.4126777347e+01    0.8621435    0.3911632  78.33  0.003593202    2.581    0.612
       167 -12.1714     10.6572     61.5319   9.5558457339e+01   6.4300426413e+01    0.4124754    0.2748461  38.51 -5.994132e-05    1.618    0.382
       168 -10.6386     12.0366     57.0539   9.4004406544e+01   6.5370585773e+01    0.2344687    0.1803052 -80.79 0.0003828112    1.280    0.218
       169  -9.9148     10.7420     90.6383   9.9281587948e+01   5.6736536333e+01    0.1794495    0.1185397  29.06 0.0005986548    1.563    0.360
       170 -10.5152     97.3205     89.1394   6.3904179112e+01   4.5625076619e+01    0.3388663    0.2111908  41.83 0.0009375575    1.563    0.360
       171 -10.3333     78.6013     87.6581   7.0083295402e+01   4.9511767403e+01    0.3201603    0.2354156 -51.12  0.001083268    1.377    0.274
       172 -11.3824     47.8131     87.7046   8.2530834153e+01   5.4193392112e+01    0.4223311    0.2470206 -68.13 0.0002622379    1.754    0.430
       173 -11.5121     66.5291     85.6889   7.4237281328e+01   5.2027391165e+01    0.5758456    0.3171561 -35.30  0.002245534    2.317    0.568
       174 -10.6175    111.7701     85.6158   5.8334915084e+01   4.3381730309e+01    0.6637653    0.4166908  77.23  0.002306731    3.185    0.686
       175 -10.4160      9.4135     85.9720   9.9385449950e+01   5.8024135030e+01    0.2652777    0.1728566  50.91 0.0009096877    1.588    0.370
       176 -10.5215      7.3875     81.5415   9.9846301456e+01   5.9278197986e+01    0.3674757    0.2356506 -65.76  0.001935708    1.401    0.286
       177  -9.9211      4.6681     86.2638   1.0153988233e+02   5.8172624479e+01    0.2268571    0.1412428 -26.26  0.001151141    1.819    0.450
       178 -11.3571     27.0482     84.2572   9.1111531765e+01   5.7272587610e+01     0.245005    0.2323818  40.78 0.0002692919    1.095    0.087
       179 -11.5432     30.2188     81.6097   8.9179452995e+01   5.7681677679e+01    0.3475901    0.2658981 -57.80  0.001018857    1.236    0.191
       180  -9.4463    116.9654     83.5453   5.6201009322e+01   4.2676714763e+01    0.2341571    0.1482705  45.37 0.0007087589    1.544    0.352
       181 -10.4501     74.1028     81.8819   7.0194916711e+01   5.1675634142e+01    0.3385049    0.2139399 -47.98 0.0009914659    1.594    0.373
       182  -9.5831     16.0258     83.5224   9.6078110211e+01   5.8284032430e+01    0.1932543    0.1359271  11.20 0.0008522186    1.550    0.355
       183  -9.5792     87.3015     82.5835   6.5459464744e+01   4.9074769672e+01    0.3080821    0.1412475  44.48  0.001135326    2.169    0.539
       184 -10.4370     42.3211     81.7166   8.3637962752e+01   5.6390894421e+01    0.2784303    0.2224061 -88.30 0.0009332612    1.361    0.266
       185  -9.5093    183.3883     80.8456   4.0711402244e+01   2.8296657405e+01    0.1945101    0.1267987 -19.07 0.0004377663    1.712    0.416
       186  -9.9730    101.1349     80.9219   6.0242985578e+01   4.6641100802e+01    0.2265997    0.2097378  84.15 0.0003539994    1.187    0.157
       187 -10.0707    111.8918     79.1093   5.6342579505e+01   4.4697597932e+01    0.2365765    0.2081409 -82.14 0.0009181304    1.317    0.241
       188 -10.0148     59.0918     79.1995   7.5602613264e+01   5.4777546646e+01    0.4209388    0.2715648 -10.11  0.001484605    2.370    0.578
       189  -9.7587     61.6229     73.7503   7.2983052783e+01   5.5711548845e+01    0.3791664    0.1731971 -41.69  0.001391117    2.470    0.595
       190 -10.0924     99.6247     76.7222   5.9438515403e+01   4.7856139338e+01    0.2833081    0.2015306 -54.82 0.0009659664    1.531    0.347
       191 -12.3805     44.8765     74.7447   8.0817145664e+01   5.7854819676e+01    0.4106971    0.2638072  46.79 0.0006838426    1.682    0.405
       192 -10.2742    184.2775     75.0231   3.9038586709e+01   2.8981027181e+01    0.3604257    0.1387572 -37.23 0.0008068972    2.352    0.575
       193 -10.3327     74.5620     74.6866   6.7889216238e+01   5.3280274287e+01    0.3748803    0.2461061   9.02  0.001510196    2.276    0.561
       194 -10.4058     55.0889     74.6301   7.6110120805e+01   5.6496517935e+01    0.3287825    0.1937113  53.24  0.001374042    2.065    0.516
       195  -9.3749    207.0342     73.7197   3.5368257853e+01   2.4407193700e+01    0.1470829    0.1179009  61.92 0.0004660014    1.404    0.288
       196 -10.2697    101.8371     72.2653   5.7293475772e+01   4.8310993827e+01    0.3364907    0.1752362  49.85  0.001039842    1.941    0.485
       197 -10.5903     56.5471     69.5861   7.4005592113e+01   5.7507179855e+01    0.4629407    0.1528157 -58.85  0.001476561    3.265    0.694
       198 -12.2245     50.4398     68.3243   7.6465348380e+01   5.8710052316e+01    0.5438121    0.4018557 -33.40 0.0008368942    1.450    0.310
       199 -10.5236     51.8774     62.4879   7.4012884517e+01   5.9911651202e+01    0.3057907    0.2473725 -15.70  0.001572869    1.375    0.273
       200 -11.2844     46.8478     59.5804   7.5574722540e+01   6.1329039730e+01    0.6438194    0.3174602 -55.09  0.002091189    1.954    0.488
       201 -10.0867    167.8154     69.7157   4.0385870165e+01   3.3463173876e+01    0.2011343    0.1875963  18.72 0.0004658183    1.139    0.122
       202 -10.0280    123.0246     68.6539   4.9892173219e+01   4.4188725563e+01    0.3562026    0.2771347  -2.59    0.0014629    1.650    0.394
       203 -10.9011    122.6626     63.5071   4.8298359044e+01   4.5212698022e+01    0.5053467    0.3079754 -62.97 0.0004893534    2.391    0.582
       204 -10.6127     77.9643     69.8897   6.5027482243e+01   5.3739714439e+01    0.2214629    0.2208478 -23.63 0.0004981774    1.030    0.029
       205  -9.9049    105.3393     68.3135   5.4879611089e+01   4.8334323872e+01    0.1589847      0.12176  10.41 0.0007046838    1.697    0.411
       206 -11.0784     42.7480     67.9151   8.0060963375e+01   5.9831457714e+01     0.261369    0.2380154   0.80    0.0014711    1.133    0.117
       207 -11.9598     44.9068     39.2824   6.9181323956e+01   6.6250602300e+01    0.6190377    0.3637431 -48.87            0    1.677    0.404
       208 -11.8198     68.4694    235.0955   9.4132272340e+01   1.8786698121e+01    0.6049256    0.3175837  -2.22  0.002516598    4.367    0.771
       209 -10.6042     23.9999     41.4918   8.2770420851e+01   6.8342932107e+01    0.3382979    0.3030923 -41.82 0.0009210164    1.033    0.032
       210 -13.0120     75.3242    238.3710   9.2882889655e+01   1.7505603171e+01    0.5255659    0.5154763 -15.99  0.004192536    1.328    0.247
       211 -11.6133     35.0867     42.1178   7.6058586017e+01   6.6982257580e+01    0.7558653    0.4193564 -12.96  0.002932815    2.905    0.656
       212 -11.1547     28.3567     66.0391   8.6903633482e+01   6.1866148469e+01    0.2955693    0.2290183 -45.73   0.00059314    1.235    0.190
       213 -11.9260     30.8081     62.5115   8.4767167930e+01   6.2524306593e+01    0.6888458    0.3143429  48.40  0.002661076    2.761    0.638
       214 -12.9530     27.4827     37.7139   7.9197281830e+01   6.8879454097e+01    0.3965671    0.3330808 -54.02 0.0006876526    1.168    0.144
       215 -11.8568     24.5184     34.5543   8.0001834259e+01   6.9917516592e+01     0.259981    0.2070387  -7.25 0.0001470892    1.270    0.213
       216  -9.3678     93.5001     66.5153   5.8161461883e+01   5.1306867222e+01    0.1530125    0.1477503  23.73 0.0008103604    1.026    0.025
       217  -9.6402    155.8351     63.8141   4.0897791254e+01   3.7187124733e+01    0.2015505    0.1675501 -66.85 0.0003985407    1.320    0.243
       218  -9.8651    130.8337     63.9084   4.6362022446e+01   4.3181285673e+01    0.3299294    0.1176527 -31.20  0.001008862    3.439    0.709
       219  -9.1774    233.3143     63.6908   2.9917573464e+01   2.0634878663e+01     0.125183   0.08023553 -53.87  0.000356226    1.630    0.386
       220 -11.7839    201.9531     62.4811   3.3223935886e+01   2.6962036839e+01    0.2485979    0.1983118 -27.39  0.001459932    1.180    0.152
       221 -10.1263     76.9580     62.3031   6.2859062305e+01   5.5607875795e+01    0.2129512    0.1859516  36.30 0.0002658353    1.124    0.110
       222 -10.1767    113.5437     61.0007   4.9942153682e+01   4.7838024243e+01    0.2558088    0.2118026  76.03 0.0004972066    1.369    0.270
       223 -11.5308     97.4428     59.4557   5.4347484927e+01   5.1858717786e+01    0.5001667    0.3359998  72.79  0.001054782    2.137    0.532
       224  -9.1270    183.6400     60.3134   3.5180077936e+01   3.1244828627e+01    0.1466584   0.09989515 -64.64 0.0007042563    1.750    0.428
       225  -9.9474    169.0164     59.9413   3.7379384783e+01   3.4659124942e+01    0.2042203    0.2001962 -12.38 0.0003270058    1.060    0.056
       226 -11.4801     85.4965     57.5388   5.7842220241e+01   5.4861009301e+01    0.5319013    0.3276626 -45.51  0.002183093    1.674    0.403
       227 -10.9871     89.0058     54.1778   5.5303249615e+01   5.4769577629e+01    0.4090589    0.2081001  54.76 0.0009236395    2.179    0.541
       228 -10.4296    127.0608     58.9438   4.5646413602e+01   4.4951778784e+01    0.2213145    0.2138078  66.94 0.0003043619    1.023    0.023
       229 -11.1354     58.6487     58.5599   6.9486947417e+01   5.9766253259e+01    0.3860567    0.3175722  21.90  0.001321141    1.246    0.197
       230 -10.1357     80.0000     57.0027   5.9739151912e+01   5.6121146742e+01    0.2823004    0.1983934 -47.74 0.0005241132    1.473    0.321
       231 -10.0230     82.2689     54.3176   5.7851031611e+01   5.6196872596e+01    0.2722374    0.2174328  -0.73 0.0002367998    1.533    0.348
       232 -12.2361     75.2496     54.5484   6.0719764952e+01   5.7595132229e+01     0.647725    0.4290333 -37.13            0    1.589    0.371
       233  -9.2437    174.0303     55.9843   3.5427695554e+01   3.4055191644e+01    0.1608348    0.1554654 -69.39 0.0009530602    1.031    0.030
       234  -9.3994    147.4220     56.5001   4.0299040730e+01   4.0363237084e+01    0.1443786    0.1414644 -64.06 9.100391e-05    1.013    0.012
       235 -12.7340    105.3714     52.5603   4.9309827475e+01   5.1310087492e+01    0.4440492    0.3547386  58.35 0.0002168739    1.253    0.202
       236  -9.8023     78.4399     47.4463   5.6639609149e+01   5.8368195675e+01    0.2554313    0.1453752 -37.11 2.646753e-05    1.858    0.462
       237  -9.5793    230.5100     54.5238   2.8093040286e+01   2.2249158370e+01    0.1222048    0.1040122 -36.09 0.0008100479    1.019    0.019
       238  -9.3446    182.4725     54.5570   3.3761818299e+01   3.2302759075e+01    0.1338169    0.1297076 -26.58  4.40845e-06    1.069    0.064
       239 -10.2218    119.9352     52.6722   4.5280777300e+01   4.7760658556e+01    0.2451344    0.2048846  12.89 0.0006873993    1.407    0.289
       240 -10.3340     62.0075     52.7785   6.5826282815e+01   6.0481869136e+01    0.2358219    0.2052657 -44.21 0.0003954612    1.157    0.135
       241 -10.6747     57.1182     51.0334   6.7486930712e+01   6.1714057370e+01    0.4900679    0.3281832 -22.13  0.001545093    1.906    0.475
       242 -12.4273     57.5239     34.0094   6.0066659082e+01   6.5171073947e+01    0.4409799    0.3482435  -7.89 0.0005046231    1.433    0.302
       243 -11.4570     51.6396     46.0868   6.8319443344e+01   6.3709794015e+01    0.9792916    0.2646059 -54.54  0.002808734    4.385    0.772
       244 -11.2046     53.9370     41.5969   6.5291002874e+01   6.4289151641e+01    0.5259266    0.3012751 -34.24  0.002279849    1.953    0.488
       245 -11.9997    130.4694     49.8420   4.1721866160e+01   4.5606876461e+01    0.6043896     0.497462 -87.20  0.001762969    1.371    0.270
       246  -9.9781     96.1031     52.1063   5.2068531419e+01   5.3564137433e+01    0.2158558    0.1950268  17.99            0    1.165    0.142
       247 -10.1433     68.7657     47.7170   6.0788890154e+01   6.0289029456e+01     0.323271    0.2518936 -80.65 0.0004850566    1.806    0.446
       248  -9.9578     62.0017     47.9647   6.3957416064e+01   6.1517518941e+01    0.2610437    0.2053723  19.70  0.001317395    1.354    0.261
       249 -10.5472     57.7400     45.5836   6.5039284451e+01   6.2786149432e+01       0.4935    0.2265288 -51.60  0.001786033    2.309    0.567
       250 -10.3043    104.4873     46.7343   4.7365899397e+01   5.2541637613e+01    0.2952532    0.2400542  46.23  0.001056663    1.188    0.158
       251 -10.4424     81.3141     42.0237   5.3264177980e+01   5.8768110860e+01    0.2261512    0.2054508  83.71 0.0002199013    1.264    0.209
       252 -10.7484     82.5362     46.4337   5.4637911515e+01   5.7679319986e+01    0.4977038    0.2215244 -37.05  0.001847729    2.420    0.587
       253 -10.0206     85.7237     44.7694   5.2769318551e+01   5.7281924506e+01    0.3469639    0.1915907 -34.85  0.001381355    1.942    0.485
       254 -10.0156    143.0338     45.2689   3.7509035773e+01   4.3140944835e+01     0.237069    0.2059913 -36.94 0.0005187734    1.164    0.141
       255 -11.3644     95.8903     42.1396   4.8199644064e+01   5.5390107025e+01    0.5079204    0.3400772 -17.27 0.0008385312    1.905    0.475
       256 -10.7251     91.4133     41.7192   4.9504562929e+01   5.6519754090e+01    0.3708738    0.2319493 -48.61  0.001629435    1.780    0.438
       257 -10.1072    112.8767     44.8920   4.4286518820e+01   5.0790814547e+01    0.3071416    0.2611763  14.24   0.00147847    1.347    0.258
       258  -9.5416    110.8189     41.6235   4.3586402508e+01   5.1826405347e+01     0.207834    0.1766999 -73.26 0.0002505235    1.328    0.247
       259 -10.0067    139.0573     43.9091   3.7835596997e+01   4.4342106455e+01    0.2343049    0.1760888  24.89 0.0007299277    1.638    0.390
       260  -9.8456     72.2312     42.6079   5.7164217419e+01   6.0605337460e+01    0.3400262    0.2952577 -86.20  0.001091887    1.442    0.307
       261 -10.2224    131.1766     41.7146   3.8707790263e+01   4.6663619484e+01    0.2949009    0.2179396 -59.61  0.001192644    1.507    0.336
       262 -10.3636    148.8106     39.6486   3.4570765566e+01   4.2469968740e+01    0.3288539    0.2063659 -47.18  0.001000223    1.622    0.383
       263 -10.1396    121.1538     41.1415   4.0773501070e+01   4.9298457694e+01    0.2068142    0.1753338 -82.30 0.0005119574    1.299    0.230
       264 -10.9135     68.7944     38.3917   5.6798727459e+01   6.2116590637e+01    0.5950127    0.3678814  -2.31  0.002162355    3.170    0.685
       265  -9.8223     63.2031     40.7798   6.0389556533e+01   6.2766328713e+01    0.2451528    0.1727967  66.29 0.0007323531    1.998    0.500
       266 -11.5900     74.7714     34.8507   5.2666648980e+01   6.1493800081e+01    0.4630881    0.4198135 -27.01  0.001041588    1.136    0.120
       267 -10.5450     79.8761     29.9000   4.8371788738e+01   6.1179846671e+01     0.350329    0.2955243  -2.10  0.001035658    1.309    0.236
       268 -10.0689     80.1555     26.1023   4.6452721406e+01   6.1710897753e+01    0.3019071    0.2508047 -69.02 0.0008659059    1.484    0.326
       269 -11.1937    224.4147     37.3781   2.4617131236e+01   2.5395604617e+01    0.4476281    0.2376744 -60.49  0.001238976    2.082    0.520
       270 -10.8723    226.0582     33.1298   2.3469745719e+01   2.5533144927e+01    0.2036462    0.1692691 -28.77 0.0002805374    1.157    0.135
       271 -11.0543    221.6986     31.8081   2.3507285417e+01   2.6551536287e+01    0.2144197    0.1671282 -49.06 0.0002760297    1.108    0.097
       272 -10.7324    183.6862     37.4992   2.8807581887e+01   3.4217838087e+01     0.282711    0.2366018 -70.85  0.001587481    1.183    0.155
       273 -10.0239    161.8499     38.1776   3.1973977788e+01   3.9398043477e+01    0.2603879    0.1848958  62.12  0.001327209    1.396    0.284
       274 -10.1670    248.4783     36.9951   2.2657649914e+01   2.0897450007e+01    0.1789768   0.09288146 -30.76 0.0006548136    1.557    0.358
       275 -11.3011    111.6449     36.3843   4.1309401897e+01   5.2424395087e+01    0.4852278    0.3402714  77.48  0.001640008    1.650    0.394
       276  -9.6569    102.3020     36.4815   4.3908787794e+01   5.4752116463e+01    0.2769157    0.1792849 -55.45  0.001206701    1.881    0.468
       277 -10.5751     82.8234     35.7663   4.9971145732e+01   5.9531466886e+01    0.4313933    0.3411852   3.60  0.002141788    1.516    0.340
       278 -10.1758      1.9874     36.7953   9.6523905319e+01   7.0885940997e+01     0.246884    0.2060433 -15.11  0.001536221    1.222    0.181
       279  -9.2157    128.3102     36.2666   3.7349623067e+01   4.8177296577e+01    0.1480675    0.1093323  33.86 0.0002459796    1.539    0.350
       280  -9.2317    172.6688     35.7009   2.9684449981e+01   3.7058769000e+01    0.1389021    0.1033574  32.52 0.0002827675    1.645    0.392
       281  -9.7229    134.5202     34.9777   3.5612230113e+01   4.6754369493e+01    0.2175203    0.1439655 -31.72 0.0007377987    1.550    0.355
       282 -11.9207      8.3315     31.9756   9.0768108268e+01   7.1782448158e+01    0.4379088    0.2703748 -79.54  0.001080996    1.746    0.427
       283 -10.1241    192.9792     33.9722   2.6763080803e+01   3.2493115898e+01    0.2012198    0.1842325 -57.36 0.0005294953    1.019    0.019
       284  -9.8864    177.4919     34.4938   2.8706996180e+01   3.6045140247e+01    0.1345572    0.1272816 -61.48  0.000810429    1.030    0.029
       285  -9.9467    205.7780     32.8449   2.5170535143e+01   2.9778888771e+01    0.1839785    0.1287163 -53.60 0.0006285106    1.324    0.245
       286 -10.4073    122.6891     32.7103   3.7234523871e+01   5.0120254996e+01    0.5428496    0.1635161  58.61  0.001768731    2.955    0.662
       287 -10.2699    166.9282     31.6546   2.9224978069e+01   3.8953364004e+01    0.2291421    0.1896996 -11.37 0.0008592198    1.369    0.270
       288 -11.9101     49.8290     30.8599   6.2598714671e+01   6.7179213481e+01    0.2635924    0.2345181 -37.28            0    1.146    0.128
       289 -10.8877     49.2405     26.0675   6.0515405175e+01   6.8199396974e+01    0.2865897    0.2409863  48.47  0.001594085    1.298    0.230
       290 -10.8415     17.8854     31.2207   8.3458667392e+01   7.1303552940e+01    0.4083731    0.2177124  24.20  0.001973098    1.902    0.474
       291  -9.0867     88.2640     31.2815   4.6040628245e+01   5.8988038764e+01    0.1436908    0.1111349  20.74 0.0003668437    1.484    0.326
       292 -10.9850    101.9356     28.9558   4.0837482200e+01   5.5964577961e+01    0.4033703    0.2868886 -70.10  0.001228283    1.833    0.455
       293 -11.4299    238.2427     27.8674   2.1346361436e+01   2.3725513288e+01     0.213256    0.1821798 -47.01 0.0002608254    1.053    0.050
       294 -11.3688    197.6524     28.1457   2.4712491119e+01   3.2095115760e+01    0.2641459    0.2141386  70.76  0.000497127    1.298    0.229
       295 -11.7496    113.0047     26.7711   3.7090587461e+01   5.3427959533e+01    0.5388163    0.3766148  47.52  0.002615098    1.396    0.283
       296  -9.4160    125.2661    245.6613   8.3069157234e+01   1.0700772774e+01    0.1056864   0.07324655  46.77 0.0004371919    1.594    0.373
       297 -10.0678     70.2043     25.7624   5.0171593996e+01   6.4031370372e+01    0.4491783    0.1973585  34.56  0.001555065    3.012    0.668
       298 -11.1221     58.3984     21.4466   5.3243993801e+01   6.7250586221e+01    0.4328014    0.2400221  33.27  0.001886809    1.949    0.487
       299 -10.5324     62.3450     24.9774   5.3241422482e+01   6.5847186333e+01    0.6138253    0.2744538 -23.32  0.001965065    3.984    0.749
       300 -10.8953     66.9057     20.7168   4.8947567198e+01   6.5555153625e+01    0.3070225    0.2607649  43.16 0.0004151715    1.111    0.100
       301  -9.9659    244.9598     27.6902   2.0859395233e+01   2.2494468166e+01    0.1717224    0.0615376  48.42  0.000704461    4.308    0.768
       302 -10.6514    214.8706     24.9688   2.2384051317e+01   2.8691169070e+01    0.2242072    0.2080183  49.17 0.0008983957    1.287    0.223
       303  -9.6525    163.2844     28.3177   2.8676534251e+01   4.0254234518e+01    0.1370367    0.1051016  30.34 0.0002981544    1.586    0.369
       304 -10.2785    172.3304     25.9114   2.6790161429e+01   3.8294242237e+01     0.220037    0.1764323 -77.98 0.0004400328    1.232    0.188
       305  -9.1707    144.2914     26.6933   3.0941057060e+01   4.5283817460e+01    0.1484516    0.1024751 -63.25 0.0002520731    1.577    0.366
       306 -10.7936     72.9891    244.5168   9.3811933292e+01   1.6773319632e+01    0.2506761    0.1692678  13.83   0.00165964    1.532    0.347
       307 -10.5065    128.5179     24.9550   3.3082029920e+01   4.9608004123e+01     0.400373    0.2587793 -19.87  0.001431796    1.751    0.429
       308 -10.9987     88.7746    240.9263   9.0207030145e+01   1.5607185041e+01    0.2000751    0.1469325 -40.53  0.001384254    1.795    0.443
       309  -9.2019     90.5210     26.5114   4.3125651611e+01   5.9160688017e+01    0.1464601     0.138958  53.09 6.071803e-05    1.029    0.028
       310 -10.4114      1.4170     25.7540   9.4486282319e+01   7.3572088527e+01    0.3625722    0.1522678 -67.73  0.001657945    2.066    0.516
       311 -10.1381    195.4812    238.3417   6.8843515204e+01   3.4759274610e+00    0.2169714    0.1395708   0.11   0.00152942    1.336    0.251
       312  -9.5313    134.6961    237.6382   8.0311619355e+01   1.0706322210e+01    0.1161875   0.07589437  -0.56 0.0007037866    1.729    0.422
       313 -10.2902    159.9920    235.6889   7.5059231853e+01   7.9230520603e+00     0.166504    0.1124168  20.30 0.0004484521    1.108    0.098
       314 -10.0685     15.1092     13.5019   7.8055046909e+01   7.5478820809e+01     0.197013     0.154266 -21.54 0.0009503553    1.173    0.147
       315 -10.0077     24.2370    232.1245   1.0355971219e+02   2.3627184717e+01    0.2286775    0.1263094  22.30 0.0008941136    1.660    0.397
       316 -10.7126     10.6543     24.7817   8.6706548546e+01   7.3336911512e+01    0.2318439    0.1838555 -56.55 0.0005416837    1.182    0.154
       317 -10.8386     13.9894     23.0141   8.3345459365e+01   7.3498924944e+01     0.282987    0.1970528 -32.12 0.0003249902    1.338    0.252
       318 -10.1839    193.5108     25.0150   2.4264960908e+01   3.3375922699e+01    0.1957263    0.1187505 -30.31 0.0004255823    1.540    0.351
       319 -10.7870     23.0088     23.4265   7.6445624108e+01   7.2560449210e+01    0.5189314    0.2242298 -41.45  0.001881504    2.253    0.556
       320  -9.7718    177.3861    234.8184   7.1649107443e+01   5.9662678668e+00    0.1451888   0.09043618 -19.98 0.0009491182    1.692    0.409
       321 -11.0542     96.3685     22.8522   3.9693648316e+01   5.8214197501e+01     0.742036    0.3078921  70.77  0.002349369    3.552    0.718
       322 -10.1608     99.1468     20.1741   3.7711395913e+01   5.7856340881e+01    0.4359894    0.1948205 -47.58  0.001168588    2.761    0.638
       323 -10.7350    186.2996     22.5952   2.4299061056e+01   3.5308145405e+01    0.2386236    0.2001916 -47.35  0.000466401    1.090    0.083
       324  -9.0932     71.5049     28.5459   5.1014793346e+01   6.3288541842e+01    0.1444259    0.1369374  34.22 4.220198e-05    1.034    0.033
       325 -10.8628     84.2653     21.4164   4.2733356125e+01   6.1413946293e+01    0.4643427    0.2365889  46.18  0.001663691    1.856    0.461
       326 -10.3065    192.4430     21.2149   2.3325733111e+01   3.4026488070e+01     0.188557    0.1037683 -40.18 0.0004732972    1.600    0.375
       327  -9.9148    168.0976     21.2918   2.5881243995e+01   3.9848458647e+01    0.1937086    0.1648558 -89.97 0.0005065782    1.128    0.113
       328  -9.0746    120.6662     21.2790   3.3192648768e+01   5.2114930047e+01     0.149621    0.1072089 -71.11 0.0007001832    1.609    0.378
       329  -9.1641     34.6695     21.1958   6.6915003632e+01   7.1522357533e+01    0.2570545    0.1807997 -68.74 0.0005442662    2.090    0.522
       330  -9.4045    221.3096    234.3406   6.3930303916e+01   1.1023416771e+00     0.111004   0.06038475   1.12 0.0004739113    1.691    0.409
       331 -10.6974     86.7141    232.7047   8.9972494503e+01   1.7154895917e+01    0.2518278   0.08589736  42.94  0.001165993    2.436    0.590
       332  -9.3592     58.5382    229.4900   9.5938798557e+01   2.0793196413e+01    0.1166354   0.09014599  36.83 0.0004037649    1.025    0.025
       333 -10.4765     28.6824     19.7081   7.0351170116e+01   7.2656009302e+01    0.3230594    0.2021512 -13.70  0.001375567    2.016    0.504
       334 -11.1477     30.5218    234.2108   1.0229395220e+02   2.2705385592e+01    0.3764696    0.1567672  71.29  0.001983901    2.756    0.637
       335 -11.0131      4.1205    226.3353   1.0768697004e+02   2.6301469789e+01    0.2895885     0.163363 -84.92  0.001913712    1.954    0.488
       336 -10.9219     42.1598     18.8474   6.0737871199e+01   7.0767514065e+01    0.4289272    0.2734135  43.53  0.001457109    1.611    0.379
       337  -9.5403    190.5284    226.4896   6.8119937370e+01   5.4333550362e+00    0.1147699   0.08269829  10.01 2.089786e-05    1.029    0.029
       338 -10.0313    120.6821    226.3300   8.1983256969e+01   1.4095511222e+01    0.1186197    0.0783973  49.06 0.0003970352    1.685    0.407
       339  -9.3717     38.5000    232.4921   1.0050164683e+02   2.2266030338e+01    0.1136835   0.08571537  40.48 -0.0001473689    1.017    0.017
       340 -11.0215     15.8257    221.8457   1.0504280696e+02   2.6184511145e+01    0.2762606    0.1087268  35.77  0.001186027    1.770    0.435
       341 -10.1786    108.6343     17.2243   3.4073459792e+01   5.5754634975e+01    0.2302776    0.1838813  -5.03 0.0006082017    1.447    0.309
       342 -11.0255     21.6571    220.1045   1.0369188646e+02   2.6013221809e+01    0.1878949    0.1546146  57.94  0.001117715    1.135    0.119
       343  -9.3557     50.9965     17.7307   5.4964363026e+01   6.9341932031e+01    0.1912105    0.1626416  32.72 0.0002996383    1.109    0.099
       344  -9.5355    126.3348    220.6748   8.0121975122e+01   1.4262459649e+01    0.1207827   0.08073516  49.27 0.0007051276    1.715    0.417
       345  -9.7306     42.2010    220.4204   9.9070932783e+01   2.4067510041e+01    0.1752605   0.07660538  37.63 0.0006540809    1.660    0.398
       346 -10.2583     64.6326     13.1058   4.5688587908e+01   6.7172236151e+01     0.226158    0.1919069  30.06  0.000438387    1.114    0.102
       347  -9.6163    211.9980    219.2860   6.3324392832e+01   3.7762432452e+00    0.1585679    0.1118327  11.09 0.0009941832    1.064    0.060
       348 -11.1536     70.0355     16.9241   4.5601728273e+01   6.5410830070e+01    0.3353374    0.2077852  58.63  0.001564674    1.646    0.392
       349  -9.1462    120.5290    219.5044   8.1244672977e+01   1.5189379586e+01    0.1234742   0.09677408  21.46  0.000809309    1.057    0.054
       350 -10.7304    194.9797     16.8047   2.1898729924e+01   3.3899714196e+01    0.2006327    0.1645164 -44.70 0.0003481252    1.100    0.091
       351 -10.0592    192.0000    217.9640   6.6643432822e+01   6.3054005999e+00    0.1648662   0.06032154 -38.49 0.0008086588    2.986    0.665
       352  -9.3098    176.3357    218.7186   6.9670363528e+01   8.1475962355e+00    0.1062163    0.0816759  40.16 0.0003705853    1.618    0.382
       353  -9.9130     83.8156     13.7324   3.9021270180e+01   6.2531798165e+01    0.1880018    0.1634289 -80.94 0.0004003877    1.321    0.243
       354 -11.7031     10.3421    216.8202   1.0610903004e+02   2.7558510883e+01    0.4145013    0.2278919  17.11  0.002483813    1.883    0.469
       355 -10.0088    117.8186     12.9498   3.0362688780e+01   5.3804823835e+01    0.3255738    0.1325291  45.67  0.001193729    2.627    0.619
       356  -9.9588     12.5262    212.4939   1.0549366753e+02   2.8200891431e+01    0.2057343    0.1035464 -86.72 0.0008491882    2.123    0.529
       357 -10.3888      6.4862     25.0000   9.0156009142e+01   7.3531439139e+01    0.3262843    0.1236088   9.30  0.001310497    2.834    0.647
       358 -10.7427     11.2295    208.1681   1.0565980383e+02   2.9135480849e+01    0.2474936    0.1856064  66.70 0.0009159577    1.207    0.171
       359 -11.1298     29.1296    215.5508   1.0181701057e+02   2.6203995271e+01    0.2459942    0.1751592  39.44   0.00119302    1.093    0.085
       360 -10.6460     24.0296    215.9662   1.0299959920e+02   2.6579163273e+01    0.1748519    0.1405279  43.99 0.0004507998    1.056    0.053
       361 -11.4239    236.0452    214.1836   5.8655252523e+01   1.6534749517e+00    0.1846631    0.1231214 -14.15 0.0006030961    1.243    0.195
       362 -11.2911      1.5341    211.2457   1.0794077003e+02   2.9281778379e+01    0.2996273    0.1359857  77.13  0.001142213    2.119    0.528
       363 -12.1285      5.6893    208.7027   1.0694455018e+02   2.9460049057e+01    0.3994356    0.2538544 -81.95  0.002237712    1.714    0.417
       364 -10.2916    109.5522    212.1519   8.2845765808e+01   1.7814399625e+01    0.3296671    0.1090657  34.05  0.001421427    2.309    0.567
       365 -10.0556     20.1995    211.4189   1.0370112411e+02   2.7773063280e+01    0.2239902    0.1133487  65.44 0.0009826703    1.852    0.460
       366  -9.4323    136.4808    215.5339   7.7312885573e+01   1.3749114869e+01    0.1245675   0.09659431  17.33 9.562351e-05    1.072    0.067
       367  -9.6755    184.9932    208.4905   6.6540154083e+01   8.4047981646e+00    0.1706103   0.08363011  13.10 0.0008093935    2.465    0.594
       368 -10.3644    246.3914    202.2035   5.5230626476e+01   1.8064422824e+00    0.1683007    0.1186982 -31.24  0.001238463    1.698    0.411
       369 -10.8023     19.8876    201.0105   1.0336818068e+02   2.9839965821e+01      0.43633    0.1458193 -65.37  0.002005026    3.282    0.695
       370 -10.7227    175.3126    202.3169   6.7461575382e+01   1.0526992480e+01    0.2114813    0.1684152  20.28 0.0004334332    1.128    0.113
       371  -9.2182     53.2556    202.3224   9.5307163332e+01   2.6387079045e+01    0.1091969   0.09121763 -23.95  0.000265107    1.544    0.352
       372  -9.5086    117.5125    201.5293   7.9735782738e+01   1.8594374498e+01    0.1290829    0.1055053  26.35 0.0001751589    1.003    0.003
       373  -9.5978    238.5090    200.5160   5.6152788513e+01   2.8639313623e+00    0.1105544   0.07851807  -0.54 0.0001786256    1.016    0.016
       374  -9.4515    215.4851    194.4998   5.8885709275e+01   6.3132432965e+00    0.1171972   0.08735083   2.21 3.413872e-06    1.024    0.023
       375 -11.7570     16.3313    192.9793   1.0391466058e+02   3.1768035512e+01    0.4158794     0.225056  20.22    0.0023179    1.813    0.448
       376 -10.0800    187.3195    190.3196   6.3238552135e+01   1.0584647361e+01    0.1275453   0.08030693   1.46 0.0007042771    1.665    0.399
       377 -10.2240    244.7162    188.2316   5.3221960923e+01   3.5204490614e+00    0.1816837    0.1095152 -24.77 0.0004671435    1.426    0.299
       378  -9.9138    163.3239    188.6702   6.7737853173e+01   1.4233025898e+01    0.1171313   0.09769155  55.43 0.0007049955    1.699    0.412
       379  -9.7376     61.9468    184.7173   9.1624799577e+01   2.9012720180e+01    0.1859245    0.1530448  41.39  0.001152671    1.029    0.029
       380 -11.8459     15.8441    181.7017   1.0357361718e+02   3.4187351185e+01     0.420624    0.2133586  52.50  0.001990237    1.651    0.394
       381  -9.6883    142.6949    183.6734   7.1405235762e+01   1.8096450347e+01    0.1336693   0.09305919  -1.97 0.0003493094    1.648    0.393
       382  -9.7966     58.8484    181.8671   9.2178574187e+01   2.9974311086e+01    0.1869744    0.1706362  10.08 0.0006610692    1.218    0.179
       383  -9.8619     22.4493    179.8098   1.0174974382e+02   3.4055035329e+01    0.3912778    0.1169662  37.62  0.001702379    2.397    0.583
