#   1 NUMBER                 Running object number                                     
#   2 MAG_AUTO               Kron-like elliptical aperture magnitude                    [mag]
#   3 X_IMAGE                Object position along x                                    [pixel]
#   4 Y_IMAGE                Object position along y                                    [pixel]
#   5 X_WORLD                Barycenter position along world x axis                     [deg]
#   6 Y_WORLD                Barycenter position along world y axis                     [deg]
#   7 A_WORLD                Profile RMS along major axis (world units)                 [deg]
#   8 B_WORLD                Profile RMS along minor axis (world units)                 [deg]
#   9 THETA_WORLD            Position angle (CCW/world-x)                               [deg]
#  10 FWHM_WORLD             FWHM assuming a gaussian core                              [deg]
#  11 ELONGATION             A_IMAGE/B_IMAGE                                           
#  12 ELLIPTICITY            1 - B_IMAGE/A_IMAGE                                       
         1 -12.8110    242.2080    101.9790   8.3188961350e+01   1.0537739230e+01     3.587339    0.9980586 -32.60   0.01145498    3.418    0.707
         2 -12.3598    233.9916     65.7898   7.5394502365e+01   1.7943689678e+01      4.02893    0.8249473 -43.45   0.01098595    4.653    0.785
         3 -11.4166    214.3899     42.3420   7.1827286777e+01   2.6090164143e+01     1.508742    0.7943752 -33.88  0.006611523    1.828    0.453
         4 -12.0624    223.6774     34.4719   6.8599563701e+01   2.4790472583e+01     1.463164    0.8533897 -55.84  0.005959007    1.739    0.425
         5 -10.8055    162.5820     51.1026   8.2805857107e+01   3.8334932639e+01    0.8585715    0.4475439 -57.00  0.003087324    2.710    0.631
         6 -10.5246    142.3237     28.5791   7.9283047448e+01   4.6672900023e+01    0.3290002    0.2761392  49.53 0.0001293625    1.119    0.106
         7 -10.8631    130.5684     18.7916   7.8138260246e+01   5.0766782336e+01    0.4432005      0.32369 -14.81  0.002307703    1.480    0.325
         8 -11.9100    240.8601     14.6018   6.1927103023e+01   2.3005813842e+01     1.433931     0.418172 -49.15  0.002105645    3.229    0.690
         9 -11.1114    243.6468      7.4979   6.0025233091e+01   2.3135529851e+01    0.8099076    0.4380453 -43.46  0.001775307    1.620    0.383
        10 -10.6048    249.7746      3.4135   5.8637531965e+01   2.2158479324e+01    0.7047105    0.2445098 -29.83  0.003000505    2.707    0.631
        11  -9.4359    202.3023     17.7613   6.6548723207e+01   3.2237442019e+01    0.5627657    0.2906986 -63.01  0.002339621    2.282    0.562
        12  -9.5012    222.1173     15.0003   6.3718566740e+01   2.7507476990e+01    0.6312194    0.2315183 -53.90  0.002309711    3.040    0.671
        13  -9.1905    190.2304     14.9498   6.7182264489e+01   3.5693716321e+01    0.4972293    0.2903278 -43.61  0.002347997    1.717    0.418
        14 -10.3933    142.6676     15.9066   7.4685867176e+01   4.8041421791e+01    0.4697158    0.1803428 -28.64  0.001814869    2.636    0.621
        15  -9.8649    125.6581     15.3382   7.7865122553e+01   5.2343602234e+01    0.3545985    0.2603036 -57.04  0.001822251    1.694    0.410
        16 -10.8683    119.3097     10.0447   7.7160792206e+01   5.4412690509e+01     0.686165    0.4169918  40.39  0.003402805    1.553    0.356
        17 -10.8203    193.0102      3.5435   6.3576846835e+01   3.6121228546e+01     1.069493    0.7222229  59.95  0.005024458    1.403    0.287
        18  -9.7652    173.9022      4.3440   6.6024407338e+01   4.1042009367e+01    0.4885158    0.3228533 -48.35  0.002484587    1.591    0.372
        19  -8.6936    181.5616      9.5096   6.6642314222e+01   3.8534065892e+01    0.2174417    0.1930749 -80.98 0.0006384134    1.078    0.072
        20 -10.9728    182.2974      5.0765   6.5224215595e+01   3.8771585178e+01    0.8800527    0.6083847  83.22  0.004428222    1.365    0.268
        21  -8.0250    162.3009      9.3005   6.9178719413e+01   4.3618868404e+01    0.1451577   0.09758062  39.19 0.0007000769    1.584    0.369
        22  -8.0968    214.7679      7.8220   6.2561773073e+01   3.0119884052e+01     0.283429     0.129615 -50.38  0.001225778    2.142    0.533
        23  -9.9613    210.2251      2.1829   6.1504938370e+01   3.1834911228e+01    0.4512278    0.2767164  88.50 0.0009791368    1.551    0.355
        24  -8.3965    230.4836      3.9888   6.0222298723e+01   2.6634193558e+01    0.1849508    0.1583475 -74.21 0.0003360596    1.008    0.008
        25  -7.4439    224.6537      1.2618   6.0023926159e+01   2.8330753938e+01    0.1400543   0.08414523 -67.17 0.0003893104    1.602    0.376
        26  -9.4044    184.8744    111.0991   9.5620598422e+01   2.2204461394e+01    0.3557079     0.224694  52.00 0.0008704513    1.585    0.369
        27 -10.2119    187.9306    106.5422   9.3816647397e+01   2.2321909229e+01    0.3966675    0.3071862  19.90  0.001086569    1.572    0.364
        28  -8.9996    206.6305    109.6000   9.1006501907e+01   1.7327473135e+01     0.308318    0.1151639  40.87 0.0009578673    3.350    0.702
        29  -8.5576    160.4867    127.4802   1.0501172204e+02   2.4659864938e+01    0.1524175    0.1488921  51.33 3.302087e-05    1.011    0.011
        30  -8.4072    148.6866     96.4619   9.9708264922e+01   3.3694073847e+01    0.3222871     0.240729  14.61 0.0006825225    1.828    0.453
        31  -8.0645    134.7984     94.0888   1.0248027704e+02   3.7373375199e+01    0.2406657    0.2067312 -86.96  0.001001392    1.336    0.251
        32 -10.6426    185.8005     87.1264   8.8994297244e+01   2.6370676741e+01    0.7582119     0.352354 -36.18  0.002819764    2.133    0.531
        33  -9.6822    183.6889     80.3081   8.7485096292e+01   2.8099836736e+01    0.6895781    0.3956624 -21.79  0.002656495    2.214    0.548
        34 -10.7537    175.8172     74.7534   8.7426863279e+01   3.1064416189e+01    0.8096165    0.5798488  54.45  0.002406567    1.380    0.275
        35  -8.5443     85.4730    244.5290   1.3891975743e+02   1.5486762740e+01    0.1132071   0.08464902  59.82 1.554329e-05    1.039    0.038
        36  -7.9645    157.2160     89.5576   9.5742905121e+01   3.3011504837e+01    0.2544093    0.1929823  11.78  0.001111473    1.772    0.436
        37  -8.4153    160.1667     87.1328   9.4373013625e+01   3.2752699594e+01    0.2488005    0.2456332 -72.96  0.001114956    1.012    0.012
        38  -9.0569    142.3087     85.3320   9.8049731289e+01   3.7402459741e+01     0.305466    0.2634978 -74.64 0.0006562367    1.306    0.234
        39  -7.4803    209.0030     85.2363   8.4250600308e+01   2.0932650390e+01    0.1843894    0.1269524  57.87 0.0003388945    1.490    0.329
        40 -10.3751    157.2485     76.6867   9.1935712331e+01   3.5411833689e+01     0.412779    0.3185376 -43.22 0.0007193994    1.305    0.233
        41  -7.5351    127.0000    236.0239   1.3069905297e+02   1.0601429806e+01    0.1567829   0.06877583 -56.82 0.0003892222    2.815    0.645
        42  -8.3906    210.2078     68.8336   7.9637522533e+01   2.3281778557e+01    0.3377012    0.2040174 -71.59  0.001321428    2.407    0.585
        43  -9.4971    182.3940     68.4497   8.4304084937e+01   3.0439827023e+01    0.2964836    0.2754285 -43.40 0.0003206969    1.077    0.071
        44 -11.3991    174.2053     57.9515   8.2700325448e+01   3.4253036912e+01    0.7616959    0.5746512 -14.08  0.003391236    1.558    0.358
        45  -8.5791     37.9776    226.8730   1.4583040657e+02   2.4667488610e+01    0.1719219       0.1225  83.70 0.0003698406    1.177    0.150
        46  -9.2106    208.8411     62.2765   7.8059112998e+01   2.4636202423e+01    0.5931009    0.2928035 -66.19  0.001846589    3.848    0.740
        47  -9.5059    203.9439     57.0741   7.7369312053e+01   2.6665945287e+01    0.7473118    0.3576057 -64.28  0.002312245    3.848    0.740
        48  -9.9277    192.0699     61.1019   8.0435449479e+01   2.9113914098e+01    0.4472744    0.2988521 -25.22  0.002011926    1.624    0.384
        49 -10.3982    197.5234     56.0636   7.8089127211e+01   2.8470087645e+01    0.6157467    0.4467874  -5.02  0.001095042    1.805    0.446
        50  -8.1772    132.7873     52.1304   8.9742086603e+01   4.5659672730e+01    0.2100446    0.2004849 -78.43 0.0003774177    1.137    0.121
        51  -9.4944    247.2335     49.8126   6.9812345780e+01   1.7119518864e+01    0.2829034    0.2449307  19.75 0.0002301117    1.461    0.316
        52  -7.8302    250.6916     45.6952   6.8447825337e+01   1.6883747883e+01    0.2355236    0.1851281   4.20 0.0004906908    1.728    0.421
        53 -10.3211    141.1525     40.8931   8.3876054131e+01   4.5319356228e+01    0.4881161    0.3305674 -37.52   0.00230953    1.520    0.342
        54 -10.1123    150.3416     44.6639   8.3189268340e+01   4.2448920864e+01    0.3997195    0.2866726  86.06  0.001818607    1.744    0.427
        55  -9.7780    132.9907     38.6865   8.4945211591e+01   4.7653735796e+01    0.3541584    0.2230173 -28.61  0.001627665    1.643    0.391
        56  -9.6664    233.6694     36.7868   6.8076945956e+01   2.2044172038e+01     0.376549    0.2266705 -66.68 0.0004985483    1.818    0.450
        57  -9.0837    238.0338     35.9586   6.7402467421e+01   2.1103570205e+01    0.2468563    0.2400951  66.92 0.0005263317    1.181    0.153
        58  -8.3462    188.2605     36.9463   7.3950964241e+01   3.3586995975e+01    0.2703479    0.2024522  58.37 0.0006206853    1.292    0.226
        59  -7.2541    202.6301     35.2901   7.1429178018e+01   3.0041231527e+01    0.1567781    0.1026251 -68.82 5.368609e-05    1.715    0.417
        60  -9.3233    124.0203     39.0476   8.7242111799e+01   4.9757484448e+01    0.4540252    0.2636188 -69.09  0.001531084    3.854    0.741
        61 -12.1429      7.4457    213.0686   1.5029113289e+02   3.0411982848e+01    0.7609442    0.5141861  80.59  0.004015554    1.091    0.084
        62  -9.0707    231.4827     25.0047   6.5338879894e+01   2.4043134510e+01     0.374146    0.2704364 -76.78  0.001549355    1.351    0.260
        63  -9.3015    113.0028     29.6597   8.6487407982e+01   5.3616797645e+01    0.2058332     0.177878  41.14  0.001108487    1.100    0.091
        64 -10.8295    127.2000     21.9913   8.0079423966e+01   5.1228049944e+01    0.4143889    0.3187369 -89.76  0.002124922    1.631    0.387
        65  -9.7950    181.8049    197.0307   1.1468709968e+02   7.3258836188e+00    0.2216388    0.1856826  40.22 0.0003003199    1.049    0.046
        66 -12.3154     38.8431    188.0769   1.4290721660e+02   3.2077800018e+01    0.6652837    0.5964014 -87.69  0.002286123    1.317    0.241
        67 -11.9851     50.3203    178.0282   1.3962336180e+02   3.2845323722e+01    0.8359149    0.6668881  81.85  0.003200659    1.021    0.020
        68  -9.6938     22.7708    191.1009   1.4628492193e+02   3.3175306344e+01    0.1758869    0.1464575 -33.29  0.001122683    2.070    0.517
        69  -7.3064    182.3258    182.2701   1.1194593522e+02   9.6717400115e+00     0.137924    0.1016541  17.53 0.0003055562    1.576    0.365
        70  -8.4359     56.8652    163.1512   1.3655620207e+02   3.5277089677e+01    0.1576252    0.1418444 -64.85 0.0003692443    1.309    0.236
        71  -8.0429      9.9815    153.5007   1.4619635444e+02   4.2239763981e+01    0.1417317    0.1054436  44.34 0.0003955407    1.495    0.331
        72  -8.7412     69.3459    145.6958   1.3121383522e+02   3.7579626759e+01    0.2593122    0.2136702  74.32   0.00131033    1.127    0.113
        73  -8.7839     66.0643    144.3209   1.3182831337e+02   3.8342891506e+01    0.3378427    0.2787986  66.62  0.001345934    1.157    0.136
        74  -9.1150    127.0110    143.0528   1.1640724082e+02   2.8450811138e+01    0.2133446    0.1995528  76.16  0.001186833    1.013    0.013
        75  -8.6861    124.6338    128.0407   1.1375057985e+02   3.2224250008e+01    0.2349547    0.2024906  51.50  0.001228663    1.148    0.129
        76  -8.9631    192.0629    133.2894   9.9634885542e+01   1.6402790972e+01    0.2455396    0.2100073 -35.95 0.0007078029    1.185    0.156
        77 -11.7838    240.3486    125.1152   8.8939338424e+01   7.3012654717e+00    0.9980776    0.6435114  44.31  0.002433839    1.615    0.381
        78  -9.1471     60.0308    248.5615   1.4350952187e+02   1.8233727092e+01    0.1752405    0.1282337  83.20   0.00042064    1.249    0.200
        79  -9.3124    186.3775    120.4631   9.7685043982e+01   2.0090726027e+01    0.2905845    0.1929726  -6.58  0.001140964    2.365    0.577
        80  -7.9749    197.6700    120.6878   9.5479338397e+01   1.7432236630e+01    0.1567574     0.117959  13.55 0.0007043301    1.672    0.402
        81  -9.2138    167.7465    113.9856   1.0001908351e+02   2.5703142516e+01    0.2875279    0.2580743  77.47 0.0005684104    1.197    0.164
        82  -9.1085    214.3473    116.3422   9.1282045911e+01   1.4379516447e+01    0.3203417     0.177797 -42.98  0.001356011    1.805    0.446
        83  -7.5564    227.3222     16.2767   6.3546254626e+01   2.6077809195e+01    0.1299121   0.09946168  43.73 0.0004482804    1.581    0.367
        84  -7.8304    169.6628    246.2850   1.2426627746e+02   2.1902409923e+00    0.1157841   0.07821296  59.01   0.00025085    1.628    0.386
