#   1 NUMBER                 Running object number                                     
#   2 MAG_AUTO               Kron-like elliptical aperture magnitude                    [mag]
#   3 X_IMAGE                Object position along x                                    [pixel]
#   4 Y_IMAGE                Object position along y                                    [pixel]
#   5 X_WORLD                Barycenter position along world x axis                     [deg]
#   6 Y_WORLD                Barycenter position along world y axis                     [deg]
#   7 A_WORLD                Profile RMS along major axis (world units)                 [deg]
#   8 B_WORLD                Profile RMS along minor axis (world units)                 [deg]
#   9 THETA_WORLD            Position angle (CCW/world-x)                               [deg]
#  10 FWHM_WORLD             FWHM assuming a gaussian core                              [deg]
#  11 ELONGATION             A_IMAGE/B_IMAGE                                           
#  12 ELLIPTICITY            1 - B_IMAGE/A_IMAGE                                       
         1 -12.7297     10.6087     15.6579   8.0584321895e+01   7.2033671013e+01    0.2735885    0.2110094 -18.38  0.001531001    1.146    0.128
         2 -14.3950     18.2730      5.9287   7.1278421503e+01   7.2466086558e+01     1.063383     0.487979  29.36  0.005992327    1.927    0.481
         3 -10.8157    144.7383      4.0046   3.4146684757e+01   4.7487781563e+01    0.1637444     0.146951  77.11 0.0004425977    1.101    0.092
         4 -11.6602    211.0622      8.6888   2.8700449309e+01   3.2284866801e+01    0.3122147   0.08424526 -48.60  0.001354153    3.055    0.673
         5 -10.4373    172.9713    249.0401   8.5697619660e+01  -2.4860126191e+00    0.2119666    0.1384418  -4.12  0.001133083    1.755    0.430
         6 -11.0740     69.8971    250.5624   1.0807694212e+02   1.1809200419e+01    0.2301734   0.09868085  38.97 0.0005792819    1.922    0.480
         7 -11.0861     64.6277    249.6992   1.0911878623e+02   1.2667056054e+01    0.2503039    0.1880942  62.84  0.001554683    1.200    0.167
         8  99.0000     16.7756    240.5446   1.1835826034e+02   2.0129168603e+01    0.6694883    0.3597942  59.42  0.003844231    1.571    0.363
         9 -12.4207     23.5140    233.0172   1.1650358376e+02   2.1048231879e+01     2.165461    0.4484361  43.03  0.008431777    3.311    0.698
        10 -14.9261     38.1354    227.5392   1.1295355987e+02   2.0654856144e+01     2.549251     1.365632  84.20   0.01268322    1.993    0.498
        11 -10.0256     94.7551    223.2260   9.9453809441e+01   1.4146608520e+01    0.1752238     0.156432  -6.91 0.0004458005    1.322    0.244
        12 -12.3883     11.5135    220.5692   1.1823247394e+02   2.5018532949e+01    0.2359728    0.2106062  55.00 0.0005790096    1.221    0.181
        13 -11.1437    179.9098    244.2741   8.3533721205e+01  -2.6597817116e+00    0.1908878    0.1726138 -32.24  0.000616745    1.305    0.234
        14 -10.7595      3.6613    221.3108   1.1993305476e+02   2.5578622355e+01    0.1613583    0.1393287  -7.41 0.0005913577    1.707    0.414
        15 -10.8470    223.4152    220.2461   7.0955221951e+01  -4.6103787042e+00    0.1636074    0.1099901 -42.68 0.0003637356    1.584    0.369
        16 -11.4205    173.3534    218.9637   8.0752254767e+01   2.7868048800e+00    0.1938516    0.1680977 -25.00  0.001148174    1.134    0.118
        17 -10.8059     77.8759    244.2682   1.0573847606e+02   1.2032478043e+01    0.2095875    0.1631981 -45.58  0.001246539    1.574    0.365
        18 -11.1556    119.0912    215.5810   9.2578623142e+01   1.2095539526e+01    0.5477159    0.3197244  82.46  0.001854104    4.149    0.759
        19  -9.7810     16.3770    218.2755   1.1703337122e+02   2.5069409309e+01    0.1143335   0.09185818 -39.62 0.0007003443    1.698    0.411
        20 -13.1915    147.3571    202.8887   8.3770283938e+01   1.0217841572e+01    0.5588087    0.3903023  47.96  0.001715043    1.554    0.356
        21 -13.1600    153.4915    209.6572   8.3541987460e+01   7.7810302955e+00    0.5744113    0.4218156  -6.58  0.002416272    1.606    0.378
        22 -16.5466     56.4378    226.3068   1.0873739700e+02   1.8728434229e+01     2.974085     1.752029  71.34   0.01485243    1.854    0.461
        23 -11.6847    124.7172    212.6397   9.0777671970e+01   1.1838785160e+01     0.435137    0.1766681 -46.61  0.001659643    2.623    0.619
        24 -10.4053    103.7233    213.7769   9.6011254412e+01   1.4905140630e+01    0.1912776    0.1515305  57.64 0.0004601282    1.292    0.226
        25 -12.6202    183.8240    213.2751   7.7526303295e+01   2.2422129641e+00    0.3680954    0.1843916  23.59  0.001577099    2.267    0.559
        26 -11.4011    157.5883    212.9661   8.3186712287e+01   6.4423586917e+00    0.2799524    0.1917477  11.93   0.00136473    1.650    0.394
        27 -11.1271     14.3205    211.8652   1.1704572764e+02   2.6745339319e+01    0.2152884    0.1434482  51.85  0.001152643    1.353    0.261
        28 -11.0513    209.4942    211.0034   7.1932870203e+01  -1.1596690969e+00    0.1716741    0.1154075 -62.12 0.0008105347    2.578    0.612
        29 -11.0787    143.4894    210.9881   8.6076401213e+01   9.1405246676e+00     0.211956    0.1398443 -48.08 0.0007673505    1.579    0.367
        30 -12.8119    168.5711    205.7367   7.9455631918e+01   6.1131938728e+00    0.3713714    0.3103031  44.21  0.002065687    1.328    0.247
        31  -9.8964    110.2482    209.3483   9.3764572821e+01   1.4887558048e+01    0.1408759    0.1082693 -25.72 0.0002289312    1.582    0.368
        32 -10.9268     24.4698    208.3870   1.1448513426e+02   2.6559969191e+01    0.2147183     0.177281  80.79   0.00016917    1.023    0.023
        33 -10.9872    229.5167    206.4957   6.7378845756e+01  -3.1666856042e+00    0.1289522      0.10436 -16.40 5.498327e-05    1.007    0.007
        34 -11.0529    220.2108    206.3926   6.9058544850e+01  -1.8778759481e+00    0.1685878    0.1187042  39.52 0.0006426259    1.684    0.406
        35 -15.4937     70.9110    209.7409   1.0350126455e+02   2.0656047974e+01     2.713186    0.4142182  43.28  0.007073581    5.526    0.819
        36 -10.9336     18.2124    205.3184   1.1568800105e+02   2.7910768045e+01    0.2791532    0.1541915  49.77  0.001439094    1.661    0.398
        37 -11.3684     26.3540    200.9198   1.1341897094e+02   2.8156086217e+01    0.3563136    0.1995992  67.14  0.001514748    1.790    0.441
        38 -10.4328     88.6119    241.7181   1.0309263570e+02   1.1079542419e+01    0.2098705    0.1531136  25.72  0.001129942    1.406    0.289
        39 -10.2818     14.3835    202.0135   1.1632278119e+02   2.9061333501e+01    0.1804197    0.1412151  84.94 0.0004698412    1.068    0.064
        40 -11.0917    212.2048    200.1699   6.9413242930e+01   3.5427598622e-01    0.1716092    0.1559023 -45.39 0.0005569583    1.349    0.259
        41 -10.2643    121.4823    200.5195   8.9588509921e+01   1.5077587219e+01    0.1451422    0.1396002  21.68 3.738829e-05    1.020    0.020
        42 -12.0941    138.3340    198.4395   8.5119519445e+01   1.2711184146e+01    0.3885224    0.2397131 -31.96  0.001234581    1.927    0.481
        43 -17.4604     67.8344    192.0409   1.0201460036e+02   2.5394581618e+01      3.88067     2.833909  86.10   0.01973492    1.461    0.315
        44 -10.7179     15.6333    197.9694   1.1572205544e+02   2.9916760830e+01    0.2602306    0.1646547  66.60  0.001438297    1.461    0.316
        45 -12.0113    124.4738    195.4861   8.7987965989e+01   1.5731953916e+01     0.383131    0.3546793  17.05  0.001503379    1.079    0.074
        46 -10.9776    212.7400    194.5402   6.8248294345e+01   1.2844767877e+00    0.2227981    0.1601415 -56.36 0.0008575471    1.819    0.450
        47 -12.9957    189.6919    195.0198   7.2921850936e+01   4.7915053291e+00    0.4264602    0.2575555  26.82   0.00203801    1.752    0.429
        48 -12.6365     34.6812    192.6660   1.1060597173e+02   2.9306477118e+01    0.5162883    0.3857695 -39.24  0.002847692    1.665    0.399
        49 -11.9310     37.9983    191.4675   1.0964535702e+02   2.9241990466e+01    0.3751646    0.2398029  48.95  0.001106991    1.513    0.339
        50 -11.4914    159.2355    192.5703   7.9116617128e+01   1.0399789839e+01    0.2179737    0.1867761 -27.87  0.001171406    1.144    0.126
        51 -16.2195     93.2981    190.9930   9.5199094577e+01   2.1909881479e+01     2.718074     1.672191 -76.20   0.01175883    1.977    0.494
        52 -10.2594      1.3192    190.2633   1.1852892327e+02   3.3009640381e+01    0.1616461    0.0961162 -89.41 0.0002355758    1.429    0.300
        53 -12.4501    173.7213    188.8354   7.5139122456e+01   8.6895554311e+00    0.3026156    0.2057211  46.82  0.001454629    1.661    0.398
        54 -10.9559      8.0903    188.3607   1.1678033535e+02   3.2921233840e+01    0.3648001    0.1439432  47.37   0.00148328    2.406    0.584
        55 -11.9488    112.1100    186.7423   8.9593212691e+01   1.9884401066e+01    0.4194487    0.4054015  65.43  0.002332253    1.042    0.040
        56 -12.5240    135.0751    184.8735   8.3425774668e+01   1.6346754046e+01    0.4307113    0.2750694 -72.55  0.001752879    2.280    0.561
        57 -12.8958    127.8612    184.9936   8.5251448162e+01   1.7589228244e+01    0.5747197    0.3763567   4.89  0.002040167    2.317    0.568
        58 -11.1828      6.1414    193.9938   1.1765774480e+02   3.1716409336e+01    0.1841047     0.161965  68.78 0.0002679777    1.135    0.119
        59 -10.3454    248.6461    185.6852   6.0271853851e+01  -2.2689662401e+00    0.1306988   0.08380938 -11.53  0.000704569    1.737    0.424
        60 -10.9485    186.4581    185.4895   7.1743687028e+01   7.2017254448e+00    0.1440995    0.1287787 -15.94 3.638672e-05    1.015    0.015
        61 -11.2840    176.4858    183.4758   7.3478068800e+01   9.3197220269e+00    0.1462839    0.1337881 -13.91 4.330275e-05    1.009    0.009
        62 -10.6137     17.1866    183.2020   1.1411062365e+02   3.3405410693e+01     0.203998    0.1782809   3.84  0.001272197    1.475    0.322
        63 -10.3647      9.5463    182.7497   1.1598322207e+02   3.4181164407e+01    0.1860274    0.1054019  87.41 0.0009426245    1.621    0.383
        64 -12.0081    164.8233    181.9936   7.5780200614e+01   1.1684118620e+01    0.2604863    0.1660619 -20.67  0.001099015    2.037    0.509
        65 -12.2611    144.4986    181.8363   8.0529300819e+01   1.5361096893e+01     0.306579    0.1982903  18.32 0.0009081021    1.914    0.478
        66 -11.2244     32.7722    249.2426   1.1568663696e+02   1.6599742852e+01    0.1748298    0.1397111  79.70 0.0004942351    1.129    0.114
        67 -11.4856    125.1615    221.3545   9.2021303899e+01   9.8962522015e+00    0.3662118    0.2024205 -53.63  0.001478044    1.944    0.486
        68 -12.0121    191.6677    178.2691   6.9219059660e+01   7.7595801373e+00    0.2449106    0.2235645 -54.48 0.0009822436    1.252    0.201
        69 -12.1596    117.9958    178.0178   8.6476103259e+01   2.0982406841e+01    0.3721838    0.2612108 -14.77  0.001586371    2.011    0.503
        70 -11.1625    126.5440    178.4773   8.4354420874e+01   1.9361445632e+01    0.1501206    0.1483349  -4.51  3.54158e-05    1.003    0.003
        71 -10.7384    113.0382    176.3101   8.7458208786e+01   2.2262981508e+01    0.2075938     0.196379  44.13 0.0002508652    1.056    0.053
        72 -10.1065    116.6732    240.0020   9.6600013747e+01   7.3692334090e+00    0.1713741    0.1650716  57.60 0.0006603227    1.114    0.103
        73 -12.3228    174.8868    173.4897   7.1804245843e+01   1.1691757533e+01    0.2647783    0.2017838 -22.65  0.001314549    1.376    0.273
        74 -12.2982    142.8578    173.6721   7.9305920053e+01   1.7527606739e+01    0.3125225    0.1425475  30.32  0.001094482    2.577    0.612
        75 -13.4304    106.7721    169.6969   8.7888553983e+01   2.4985183827e+01    0.6111196    0.4756571 -57.50  0.002967582    1.279    0.218
        76 -12.4088    103.7874    164.8361   8.7770360546e+01   2.6720220441e+01    0.4894512    0.2652205 -48.41  0.001088429    1.826    0.452
        77 -12.2981    152.5961    169.0094   7.5982335523e+01   1.6782695482e+01    0.4436243    0.1482644 -51.17  0.001380636    3.150    0.683
        78 -11.3896    160.5819    169.7071   7.4246902832e+01   1.5134934379e+01    0.2057215    0.1436916 -55.76 0.0006335407    1.545    0.353
        79 -13.7362    139.4042    164.1898   7.8204513141e+01   2.0379540363e+01    0.7459362    0.3798557 -31.72   0.00238054    2.767    0.639
        80 -13.1657    131.5100    168.0848   8.1019641468e+01   2.0936061364e+01    0.5455944    0.2936723  44.07  0.001495294    1.912    0.477
        81 -13.4302    127.1474    165.8464   8.1688706038e+01   2.2279910226e+01       0.6634    0.3089066  31.01  0.002362889    2.449    0.592
        82 -10.5891    108.5061    237.0314   9.8054854187e+01   9.1757301450e+00    0.3280051    0.1224034 -53.73  0.001324875    2.868    0.651
        83 -10.9236     32.8392    167.9742   1.0837658049e+02   3.5785090472e+01    0.2139969    0.1719507 -57.70 0.0005024339    1.219    0.180
        84 -10.9350    197.4937    170.4996   6.6457607798e+01   8.3037777714e+00    0.1441782    0.1281147 -23.66 -5.069871e-05    1.012    0.012
        85 -13.5401    170.7305    159.5582   6.9776489199e+01   1.5443863720e+01    0.4961595    0.3191852 -53.09  0.002217628    1.624    0.384
        86 -11.4137     28.0550    160.3129   1.0879864742e+02   3.8248385884e+01    0.2424552    0.2079995 -44.02 0.0003660215    1.268    0.212
        87 -14.0476     22.5938    153.3862   1.0953296338e+02   4.0551149109e+01    0.8612031    0.7673173  14.64  0.004429184    1.334    0.250
        88 -10.4379     96.1996    237.7930   1.0093581162e+02   1.0813884358e+01    0.1719011    0.1520744  -9.97 0.0005631468    1.361    0.265
        89 -13.1715    111.9548    156.1718   8.3757657710e+01   2.7445874899e+01    0.4151542    0.3859835  -9.56    0.0019039    1.148    0.129
        90 -13.3052     99.3494    155.9000   8.7242225969e+01   2.9750028298e+01    0.5461798    0.3160146  50.49  0.002195916    1.948    0.487
        91 -10.7804     12.9333    149.9978   1.1195350975e+02   4.2221450269e+01    0.2453354     0.160813  53.98 0.0008146066    1.642    0.391
        92 -10.6002    201.6897    235.6619   7.7753470565e+01  -4.2253095532e+00    0.1339738   0.08505607  -7.41 0.0005063644    1.687    0.407
        93 -11.7452    212.3276    154.0791   6.0224029690e+01   8.9345735968e+00    0.2469571    0.2126783  51.50 0.0007069287    1.377    0.274
        94 -10.2513     94.0852    231.9293   1.0070771802e+02   1.2353637834e+01    0.2055929    0.1589328  -7.00 0.0008113373    1.750    0.429
        95 -10.0881    154.3483    230.3148   8.6776311416e+01   3.5562457937e+00    0.1419053   0.09892416  -4.18 0.0004398076    1.723    0.420
        96 -11.3074    112.8230    228.2986   9.5901288381e+01   1.0339754571e+01    0.2973261    0.2361069  43.09 0.0009566413    1.162    0.139
        97 -13.5517    144.9492    149.6847   7.3648704934e+01   2.2690159469e+01    0.5873559    0.3175048  42.27   0.00231989    1.900    0.474
        98 -13.5235    108.7681    147.7038   8.2835875508e+01   3.0141713682e+01    0.5435734    0.4756587  16.27  0.002046676    1.243    0.196
        99 -14.2628    104.1022    142.1012   8.2934646306e+01   3.2395795348e+01    0.8128375    0.5526688  40.92  0.002508725    1.504    0.335
       100 -13.6837    164.6309    149.1806   6.8855470812e+01   1.8893059588e+01    0.8524497     0.286376  51.37  0.002391943    4.325    0.769
       101 -13.0254    128.6670    147.4666   7.7324384515e+01   2.6423274891e+01    0.4979993    0.3457958  76.09 0.0008341493    2.225    0.551
       102 -12.3715     97.9620    152.2815   8.6900180625e+01   3.0910760089e+01    0.3022314    0.2440192  15.23 0.0003717298    1.418    0.295
       103 -11.9666    123.9753    160.7335   8.1460768298e+01   2.4107152690e+01    0.2181306    0.2085948  37.64 0.0004196794    1.060    0.057
       104 -11.4625     59.9743    150.8692   9.7949694114e+01   3.7108971514e+01    0.3646888    0.1927316 -54.53  0.001070853    1.734    0.423
       105 -12.3182    180.2976    150.5310   6.5723404340e+01   1.5537216813e+01    0.3154424    0.2442891  85.46  0.001042928    1.883    0.469
       106 -12.1893    155.0036    144.2426   6.9965995035e+01   2.1917665389e+01    0.2863456     0.198593  45.13  0.001292291    1.506    0.336
       107 -12.8778    140.8465    144.8987   7.3584691596e+01   2.4619725483e+01    0.4009508    0.2871585  14.64  0.001089028    1.843    0.458
       108 -12.4026    149.6205    143.8069   7.1157884647e+01   2.3104287198e+01    0.2796656    0.1985735 -55.32 0.0007574715    1.458    0.314
       109 -11.3119     93.2869    143.6592   8.6455088647e+01   3.3913910729e+01    0.2548389    0.2123941 -51.89 0.0003888282    1.157    0.136
       110 -13.0162    186.7293    225.4756   7.9051020972e+01  -4.0730762317e-01    0.4126079    0.2249615 -32.61   0.00201085    1.869    0.465
       111 -11.8108    131.9866    158.1751   7.8815961572e+01   2.3214319254e+01    0.2652896    0.1879456   3.40  0.001094237    2.018    0.505
       112  -9.8214      3.2954    136.2995   1.1329575700e+02   4.6395171753e+01    0.1345448   0.08188732 -47.94 0.0002750051    1.571    0.364
       113 -14.0938    143.2204    133.1026   7.0205718940e+01   2.6854512320e+01    0.8067514    0.5441396  23.30  0.003380993    1.908    0.476
       114 -12.3760    132.2243    132.0122   7.2758809871e+01   2.9373223055e+01    0.2863325    0.2667529  -1.30 0.0007344917    1.144    0.126
       115 -12.0160    137.4866    130.9760   7.1140147516e+01   2.8529147134e+01    0.4736285    0.2310093  45.86   0.00113454    2.128    0.530
       116 -11.8749    134.0232    127.6777   7.1224886614e+01   3.0004893834e+01    0.2849637    0.2218424 -46.13 0.0005485839    1.253    0.202
       117 -15.4356    154.5231    127.7524   6.6169663224e+01   2.5681219126e+01      1.54826    0.9924917  58.95  0.006547442    1.869    0.465
       118 -10.3086     75.6070    133.2230   8.9646857946e+01   3.9475082906e+01    0.2178439    0.1328484 -47.43 0.0002641428    1.571    0.363
       119 -11.8471    116.1004    130.8168   7.6862502292e+01   3.2896595871e+01    0.2451614    0.2191619  79.57 0.0006623476    1.261    0.207
       120 -10.2846     92.5905    248.0734   1.0291957401e+02   9.2352128012e+00    0.1721396    0.1259988 -70.34 0.0009977417    1.549    0.354
       121 -10.2218     29.6714    129.2953   1.0394046107e+02   4.6184658619e+01    0.1402852    0.1010642  66.78 0.0003205803    1.631    0.387
       122 -10.9194     63.3875    128.1543   9.2521752122e+01   4.2574376288e+01    0.2148798    0.1394443 -71.56 0.0007046926    1.699    0.411
       123 -13.9479    154.1013    117.8586   6.3819107848e+01   2.7910321475e+01    0.7728994    0.5420769  47.58  0.002759579    1.475    0.322
       124 -12.0166    119.9219    121.7667   7.3542102182e+01   3.4274493557e+01    0.4627531     0.218972 -44.95  0.001697764    2.079    0.519
       125 -10.8498    189.5684    121.8056   5.7325365209e+01   1.9579189088e+01    0.2081446    0.1294015 -52.17 0.0005172507    1.589    0.371
       126 -10.4629     48.7389    122.5896   9.6291737401e+01   4.5899736921e+01    0.1906989    0.1335431  40.73 0.0005188966    1.568    0.362
       127 -12.0830    100.7534    120.1384   7.8709452525e+01   3.8420699021e+01    0.3490669    0.2592967  52.26  0.001603549    1.482    0.325
       128 -11.4617     59.9019    121.0864   9.2169341787e+01   4.4859032051e+01    0.2168505    0.1986494  82.22 0.0004064764    1.208    0.172
       129  -9.7932     36.2977    120.3481   1.0013746434e+02   4.7846381216e+01    0.1530243   0.09344961 -38.10 0.0004233799    1.681    0.405
       130 -11.6024     31.4506    118.1103   1.0140905321e+02   4.8891113337e+01    0.2650872     0.232954 -30.31 0.0008015215    1.163    0.140
       131 -12.2751     47.0584    117.1224   9.5750219475e+01   4.7491072977e+01    0.4955364    0.3094287 -16.83  0.002174286    2.147    0.534
       132 -10.8909    215.4949    226.5145   7.3531259939e+01  -4.5828127650e+00    0.1271764    0.1041416  -7.30 0.0008103675    1.025    0.024
       133 -11.1259     23.0343    115.7493   1.0393854135e+02   5.0231973500e+01    0.2222551    0.1708121 -63.26 0.0006383792    1.132    0.117
       134 -11.8634    107.8800    122.1090   7.7077791169e+01   3.6587848308e+01    0.2877354    0.2213239  30.97  0.001122197    1.372    0.271
       135 -10.5896     82.4504    113.4828   8.2802942497e+01   4.3303355892e+01    0.1528218    0.1447533 -34.79 0.0007491104    1.007    0.007
       136 -11.7737     53.9028    110.4696   9.1868609716e+01   4.8314603047e+01    0.5268993    0.2457449 -33.11  0.001874605    2.911    0.656
       137 -11.6938     88.5246    110.5993   8.0082429495e+01   4.2938386181e+01    0.3078485    0.1994001 -22.76 0.0009500727    2.072    0.517
       138 -14.0953    143.0547    107.3231   6.3727624526e+01   3.2555376778e+01    0.8156767    0.5886949  -3.19  0.003427072    2.139    0.532
       139 -10.3615     75.2979    110.8343   8.4514414640e+01   4.5123657615e+01    0.2134019    0.1907102  39.99 0.0007566986    1.188    0.158
       140 -14.3331    151.5224    107.3734   6.1736376092e+01   3.0675348443e+01    0.7293011    0.6337447 -72.08   0.00374076    1.234    0.189
       141 -13.8736    111.3076    141.2200   8.0668076342e+01   3.1281217836e+01    0.6039597     0.518519  57.04  0.002130357    1.252    0.201
       142 -12.7669     52.1475    101.3748   9.0332609414e+01   5.0757412950e+01    0.4370676    0.1714043 -54.05  0.001663501    2.275    0.561
       143 -12.2653     57.8525     99.7896   8.7833746267e+01   5.0376393717e+01    0.3980224    0.3133106 -53.42  0.001292594    1.220    0.180
       144 -10.7259     60.0127     96.0268   8.6052213186e+01   5.0956116323e+01    0.2215854    0.1980254 -24.59 0.0003640394    1.053    0.050
       145 -10.7349     76.2354     97.6437   8.0694148792e+01   4.8073354324e+01    0.2080359    0.1396496  22.62 0.0009353769    1.653    0.395
       146 -10.4594     59.7116    108.6277   8.9368473497e+01   4.7991795322e+01    0.1983735    0.1357704  38.19 0.0006875128    1.571    0.364
       147 -11.3319     59.1688     91.6183   8.5166167291e+01   5.2089717639e+01    0.2916007    0.2310006  87.86  0.001454199    1.808    0.447
       148 -12.3821    136.2396     90.4770   6.0807476120e+01   3.7493518187e+01    0.2512013    0.2447652 -43.32   0.00138073    1.038    0.036
       149  -9.9946      1.7784     91.2580   1.0757617799e+02   5.7638807544e+01    0.1922195    0.0938559 -12.50 0.0008964316    2.511    0.602
       150 -13.6611     51.9984     83.5281   8.5631232195e+01   5.4893074493e+01    0.9702122    0.5617005  46.04    0.0043848    2.167    0.539
       151 -10.3117    206.4617     81.5356   4.5168002387e+01   2.3404152616e+01    0.1356303    0.1204134 -61.74 2.033215e-05    1.032    0.031
       152 -10.8369    152.7612     80.3843   5.4248122951e+01   3.5599953706e+01    0.2662414    0.1787382  45.76 0.0008788733    1.546    0.353
       153  -9.9837    214.3122     78.7154   4.3446044498e+01   2.2235473525e+01    0.1361476    0.0914958 -69.82 0.0002698534    1.575    0.365
       154 -10.5236    189.6691     77.0696   4.6647604890e+01   2.7768630809e+01    0.2045691    0.1674982 -52.67   0.00114728    1.133    0.117
       155 -10.8223     75.3154     75.8330   7.4504928587e+01   5.2907865275e+01    0.2280718    0.1930523  39.57 0.0005435073    1.235    0.190
       156 -10.8693    116.0796     74.2587   6.1230749645e+01   4.5052393037e+01    0.2622711    0.2004354 -24.75  0.001299072    1.456    0.313
       157 -12.6115     32.0917     74.6856   9.1271089939e+01   5.9178817313e+01    0.3466864     0.222844  -2.34   0.00178548    1.744    0.427
       158 -12.8257     37.1997     67.7575   8.7027702901e+01   6.0094060266e+01     0.871112    0.5717709  80.89  0.003339499    4.301    0.767
       159 -12.9945     28.5083     63.7270   8.9632440287e+01   6.1854031609e+01     1.429058    0.6503889   8.89  0.005932269    2.959    0.662
       160 -11.4323    100.1587     69.0090   6.4112039040e+01   4.9414876164e+01    0.2367069    0.1700473 -66.40  0.001090443    1.976    0.494
       161 -10.7531    196.6578     67.6929   4.3362331421e+01   2.7740868254e+01     0.128193    0.1070348  25.57 0.0007042915    1.689    0.408
       162 -10.7068    109.6070     59.8412   5.8423029068e+01   4.8947024526e+01    0.1960463    0.1314805 -48.44 0.0005439039    1.676    0.403
       163 -10.3047      2.2125     59.6085   1.0074749093e+02   6.4722754912e+01    0.1648296    0.0993115 -13.39 0.0006504968    1.661    0.398
       164 -10.8233    153.1912     57.8020   4.7914596345e+01   3.9215764417e+01    0.2097144    0.1830207 -85.34  0.000583138    1.134    0.118
       165 -10.5290    139.3038     56.6578   5.0333606326e+01   4.2651824076e+01     0.145782    0.1062511 -73.80 0.0004946209    1.681    0.405
       166 -11.2281    127.4210     56.1977   5.2801473278e+01   4.5489520998e+01    0.1974454     0.129989 -48.07 0.0005510923    1.658    0.397
       167 -10.6906    125.1532     73.1964   5.8539001697e+01   4.3216213258e+01    0.2204596    0.1989062  23.46  0.000741554    1.179    0.152
       168  -9.9057     17.3242     51.3173   9.0988835876e+01   6.5362718403e+01    0.1348795    0.0766978 -25.13 0.0007044105    1.670    0.401
       169 -10.7459    195.5787     44.2146   3.8004497944e+01   3.1393216297e+01    0.1595396    0.1234961 -30.46 0.0004301165    1.522    0.343
       170 -11.0819    143.4937     43.9927   4.5792806007e+01   4.3463400105e+01    0.2001143    0.1005356 -55.81 0.0008106375    2.592    0.614
       171 -11.1518     51.5020     43.4715   7.2278106131e+01   6.2652214179e+01    0.1317946    0.1112384   2.71 -5.698535e-06    1.011    0.011
       172 -11.3096     60.1414     38.2782   6.6712087995e+01   6.2040965808e+01     0.234532    0.1841509 -34.29 0.0006945259    1.385    0.278
       173 -10.5848    106.5246     32.1129   4.9879348759e+01   5.3513481695e+01    0.1866413    0.1321359 -29.19  0.001024253    1.571    0.363
       174 -10.1918     47.5640     32.5748   6.9521889064e+01   6.4914489473e+01     0.125986    0.1051178   7.80 6.566293e-05    1.020    0.019
       175 -10.6546     39.1318     29.1159   7.1806350087e+01   6.6662243595e+01    0.1985656    0.1431602   3.31 0.0008387855    1.264    0.209
       176 -10.7239    101.8313     25.6079   4.8738803212e+01   5.5298193839e+01    0.1873103    0.1164154  68.39 0.0009450626    1.729    0.422
       177 -11.1152     84.0216     23.9748   5.2869147446e+01   5.9303409212e+01    0.1880767    0.1581586 -79.76 0.0009411757    1.654    0.395
       178 -10.6906     20.6784     22.9837   7.8303965530e+01   6.9905833208e+01    0.1700435    0.1285881 -14.37 0.0007096725    1.094    0.086
       179 -10.3063    238.2497    248.9545   7.3126685889e+01  -1.0680308396e+01    0.1445569   0.08352528 -32.77 0.0008646797    1.565    0.361
       180 -11.3918    187.1265    249.1487   8.2826910452e+01  -4.4369223726e+00    0.2016682    0.1509178   0.42  0.001179266    1.209    0.173
       181 -10.5615    177.8115    249.1509   8.4718405798e+01  -3.1729976523e+00      0.17272    0.1287111  -0.86 0.0003433828    1.279    0.218
