#   1 NUMBER                 Running object number                                     
#   2 MAG_AUTO               Kron-like elliptical aperture magnitude                    [mag]
#   3 X_IMAGE                Object position along x                                    [pixel]
#   4 Y_IMAGE                Object position along y                                    [pixel]
#   5 X_WORLD                Barycenter position along world x axis                     [deg]
#   6 Y_WORLD                Barycenter position along world y axis                     [deg]
#   7 A_WORLD                Profile RMS along major axis (world units)                 [deg]
#   8 B_WORLD                Profile RMS along minor axis (world units)                 [deg]
#   9 THETA_WORLD            Position angle (CCW/world-x)                               [deg]
#  10 FWHM_WORLD             FWHM assuming a gaussian core                              [deg]
#  11 ELONGATION             A_IMAGE/B_IMAGE                                           
#  12 ELLIPTICITY            1 - B_IMAGE/A_IMAGE                                       
         1 -14.8557    155.4806     51.2759   8.2752548944e+01   3.9904960819e+01     1.265305     1.142308  -9.48   0.00339222    1.062    0.059
         2 -15.0945    166.2588     22.0158   7.0319653649e+01   4.1057335981e+01     1.168309     1.115046  45.24  0.003517983    1.056    0.053
         3 -14.1085    190.8859     14.7512   6.4176920036e+01   3.5323778559e+01    0.7758323    0.5304661  88.92   0.00313202    1.710    0.415
         4 -14.1927    177.3233      5.5338   6.2842116353e+01   3.9785342320e+01     1.816155    0.7495245 -88.93  0.005135995    4.903    0.796
         5 -11.9892     16.5001    193.1304   1.4221748737e+02   3.3344420603e+01    0.1524696    0.1283987 -86.66 0.0007425699    1.337    0.252
         6 -11.8441    189.9457    250.1435   1.1764167208e+02   3.3967816430e+00    0.3179041    0.1078993  43.57 0.0007892261    2.253    0.556
         7 -20.5722     86.7534    181.1750   1.2802829364e+02   2.7816621823e+01     12.04324      5.90268 -66.46   0.06616941    2.195    0.544
         8 -10.2058     24.0377    190.0459   1.4072633273e+02   3.3213736685e+01    0.1249189    0.1041713 -72.04 0.0003550999    1.459    0.315
         9 -11.9710     17.7715    184.0774   1.4154640539e+02   3.4836267714e+01    0.3155948    0.1628762 -57.25  0.001124064    2.447    0.591
        10 -13.0754    238.4895    185.4891   1.0020875152e+02   2.7791423719e+00    0.5236126    0.1632129  38.37  0.002268818    2.708    0.631
        11 -11.5488    186.7877    236.4487   1.1650104958e+02   5.2455214295e+00     0.161915    0.1447117   3.28 0.0005223539    1.322    0.243
        12 -14.2775    237.1973    174.3956   9.8381061151e+01   4.2116507943e+00    0.6328568    0.4924171  41.91  0.004079286    1.447    0.309
        13 -12.4629    191.7925    163.9323   1.0440306076e+02   1.3530830348e+01    0.5189428    0.3476816 -56.79  0.002626179    2.365    0.577
        14 -13.3284    189.2300    155.1187   1.0317887403e+02   1.5298539617e+01    0.5403006    0.4389823  11.83   0.00175231    1.189    0.159
        15 -12.8895    224.3726    173.1367   1.0029661121e+02   6.5274147254e+00    0.2878509    0.2126045  -6.19  0.001075696    1.296    0.228
        16 -12.6572    194.5505    172.2084   1.0542716891e+02   1.1868284300e+01    0.4756297    0.3523673 -54.92  0.002025771    1.989    0.497
        17 -12.9492    187.3536    241.5712   1.1703675488e+02   4.6260246814e+00     0.423042    0.1459527  41.33  0.001958866    2.132    0.531
        18 -10.8035    207.2114    170.7617   1.0285672815e+02   9.8186941371e+00    0.2337643    0.1662554 -42.24 0.0009344307    1.776    0.437
        19 -12.3382    203.0159    173.2262   1.0406797620e+02   1.0234076589e+01    0.3903381    0.2164781 -47.09  0.001914783    2.566    0.610
        20  -9.2071     27.4697    227.1993   1.4193078014e+02   2.6768488009e+01    0.1091337   0.06562229  71.64 0.0002898148    1.289    0.224
        21 -12.7153    167.4329    155.9454   1.0763750471e+02   1.9243417336e+01    0.3808891    0.2654762  74.08  0.001336544    2.411    0.585
        22 -11.0801    150.6714    240.6765   1.2288297742e+02   9.9334442392e+00     0.201072    0.1747082 -22.11  0.001678549    1.552    0.355
        23 -10.3837      6.3160    224.7579   1.4509815806e+02   2.9041769825e+01   0.09327948   0.04277362  58.85 0.0006880983    1.512    0.339
        24 -12.9760    173.9204    148.3520   1.0483829430e+02   1.9257875084e+01    0.4539535    0.3285339 -50.89  0.001913237    1.678    0.404
        25 -11.4440    152.8012    237.5940   1.2220460803e+02   1.0001917929e+01    0.2357075     0.131186  39.13  0.001218515    1.353    0.261
        26 -11.0915     13.7066    142.2793   1.3986678575e+02   4.3211474776e+01    0.1799957     0.139797 -85.78 0.0001908498    1.108    0.098
        27 -11.5520    170.7972    137.1266   1.0313998716e+02   2.1723071956e+01     0.202753     0.191613  63.85  0.000526991    1.221    0.181
        28 -10.8068     14.6545    133.1255   1.3898468150e+02   4.5030497298e+01    0.2700004    0.1581747 -41.21  0.001607672    2.467    0.595
        29 -11.8504    207.4901    220.5255   1.1098292462e+02   3.8744154746e+00    0.1984997    0.1624818  32.86 0.0005836673    1.214    0.177
        30 -13.3009    160.7090    128.0494   1.0328867240e+02   2.5305789133e+01    0.4407268    0.4110787 -78.95  0.001531632    1.274    0.215
        31 -10.5594      5.9211    220.7434   1.4503081432e+02   2.9696399618e+01   0.09793492   0.06262153  46.43 0.0007014101    1.382    0.276
        32  -9.8433      9.4828    130.4691   1.3998051964e+02   4.5962095858e+01    0.1090799   0.08490211 -87.48 0.0002655624    1.061    0.057
        33 -10.9579    217.4815    216.4239   1.0874393428e+02   2.7952044069e+00    0.3058082   0.09979736 -39.15  0.001402721    4.124    0.757
        34 -12.5731     39.9226    115.3748   1.3092575740e+02   4.6717464107e+01     0.305149    0.2284098 -37.38 0.0009424633    1.688    0.408
        35 -11.3110    231.2184    113.6963   8.6347513484e+01   1.2918149323e+01    0.2716723    0.2357978  22.03 0.0007300426    1.110    0.099
        36 -11.5533    167.7884    112.8599   9.8173186964e+01   2.6536456315e+01    0.3526036    0.2935027 -82.42   0.00121572    1.662    0.398
        37 -10.9344      2.8957    112.4884   1.4021913611e+02   5.0204896160e+01    0.1817338     0.124239 -66.73  0.001012131    1.313    0.239
        38 -11.0108    205.4017    110.1060   8.9961627409e+01   1.8860925312e+01    0.3085341    0.2063773  40.29 0.0008533318    1.451    0.311
        39 -11.5817     39.2669    102.0727   1.2925981018e+02   4.9749862196e+01    0.2314135    0.1839676  25.29 0.0007467678    1.548    0.354
        40 -11.0231    211.6167    237.2580   1.1262590853e+02   1.5893372664e+00     0.127625   0.08997855  -4.01 0.0004582837    1.564    0.360
        41 -10.8428      9.7135    212.5837   1.4415712547e+02   3.0669069326e+01    0.1268426   0.08684377  87.94 0.0003459007    1.289    0.224
        42 -12.9613     12.2454    206.3059   1.4350807154e+02   3.1477136939e+01    0.4863575    0.2394608  40.30  0.002987001    1.792    0.442
        43 -11.4651    141.8451     82.7336   9.6011332729e+01   3.7678761930e+01    0.2599033    0.2033291 -22.73 0.0005071045    1.319    0.242
        44 -11.3944    107.0428     82.7746   1.0522274966e+02   4.4721838886e+01    0.2372205    0.1958613 -43.91  0.000315945    1.147    0.128
        45 -12.0760     60.6990     82.9794   1.1927098906e+02   5.1779757973e+01    0.2463529    0.1938354  32.85  0.000492258    1.458    0.314
        46 -10.4738     32.3753    205.1832   1.4007446671e+02   2.9822272017e+01     0.161898   0.09817266  83.71 0.0008531927    1.422    0.297
        47 -14.7394    146.0408     65.7472   8.9739520710e+01   3.9802183313e+01       1.1883     1.137733  24.55    0.0015217    1.062    0.058
        48 -11.5205     37.7137    248.3448   1.4127751876e+02   2.2678549023e+01    0.1359056   0.08068909  68.52  0.001143395    1.305    0.234
        49 -13.7254    159.4865     42.3110   7.8804293766e+01   4.0226036094e+01    0.6161989    0.5361854 -13.05  0.000802934    1.115    0.103
        50 -11.5238     13.4629     59.8780   1.3064268406e+02   6.1274188610e+01    0.1983848    0.1765407 -77.69 0.0004027658    1.165    0.142
        51  -9.9432     31.1473    247.2558   1.4219696051e+02   2.3473124650e+01    0.1070682   0.06376561  61.68  0.000266769    1.163    0.140
        52 -10.8981    222.9079    198.8154   1.0507560128e+02   3.8226350535e+00    0.1816023    0.1255801  18.98 0.0004499615    1.210    0.173
