#   1 NUMBER                 Running object number                                     
#   2 MAG_AUTO               Kron-like elliptical aperture magnitude                    [mag]
#   3 X_IMAGE                Object position along x                                    [pixel]
#   4 Y_IMAGE                Object position along y                                    [pixel]
#   5 X_WORLD                Barycenter position along world x axis                     [deg]
#   6 Y_WORLD                Barycenter position along world y axis                     [deg]
#   7 A_WORLD                Profile RMS along major axis (world units)                 [deg]
#   8 B_WORLD                Profile RMS along minor axis (world units)                 [deg]
#   9 THETA_WORLD            Position angle (CCW/world-x)                               [deg]
#  10 FWHM_WORLD             FWHM assuming a gaussian core                              [deg]
#  11 ELONGATION             A_IMAGE/B_IMAGE                                           
#  12 ELLIPTICITY            1 - B_IMAGE/A_IMAGE                                       
         1 -11.5776    240.2757      2.2261   9.8270323078e+00   2.4657165148e+01    0.3367413    0.1980001  70.12  0.001822769    1.597    0.374
         2 -11.9668    248.3805      2.7578   9.3164597490e+00   2.2714084155e+01    0.4725278    0.3305034  68.16  0.002823807    1.467    0.318
         3 -12.8744    237.7530     17.5007   1.3494976769e+01   2.3453435581e+01    0.4300576    0.3630774  19.72  0.001353333    1.760    0.432
         4 -13.2018    246.7074     11.7323   1.1404530596e+01   2.2050144447e+01    0.7295526    0.5294399 -87.67  0.004351043    1.209    0.173
         5 -13.3065    226.5625     13.1936   1.3554358080e+01   2.6685431832e+01    0.5186986    0.4209672 -65.32   0.00311292    1.097    0.089
         6 -13.5870    232.6366      6.2482   1.1369857233e+01   2.6018943209e+01     1.022374    0.5199042 -38.31  0.004748377    1.878    0.468
         7 -11.8382      7.9255     16.9984   7.2594020877e+01   7.0595297870e+01    0.3112167    0.1649422 -28.99  0.001489779    1.689    0.408
         8 -12.6505    191.6416      8.1454   1.6036970906e+01   3.6103922182e+01    0.6107831    0.3155357 -34.82  0.002854865    2.009    0.502
         9 -11.9853    175.3669     12.0227   1.9248522114e+01   3.9909822016e+01    0.5415033    0.3196439  30.66  0.002366262    2.450    0.592
        10 -11.3452    133.0349     12.6286   2.6621025993e+01   5.0609983129e+01    0.2278398     0.202936 -24.71 0.0003081082    1.244    0.196
        11 -10.6890    125.1153     12.1318   2.8102333108e+01   5.2566859672e+01    0.2297478    0.2037297 -80.72  0.001104723    1.285    0.222
        12 -11.1897     31.5133     12.3338   5.9359422786e+01   6.9315958558e+01    0.2833638    0.1679788 -22.73   0.00174467    1.583    0.368
        13 -11.1526    200.4884     12.0578   1.6040095371e+01   3.3386345185e+01    0.2002586     0.135335 -33.52  0.001037498    1.604    0.377
        14 -12.2243    195.5062      3.9743   1.4468842169e+01   3.5552370593e+01    0.4959028    0.2264149  70.19  0.002196199    1.890    0.471
        15 -10.9948     69.9948     11.4978   4.3235672328e+01   6.4047900489e+01    0.2077305    0.1616834 -16.97 -0.0003667664    1.224    0.183
        16 -11.2386      2.9815      9.5492   7.2356364000e+01   7.2131138333e+01    0.2234517    0.1017015 -39.46  0.001389118    1.663    0.399
        17 -10.3643      7.7654      9.2093   6.9738827215e+01   7.1879005835e+01    0.1448242   0.09346348 -25.45 0.0006028857    1.276    0.216
        18 -13.1367    217.5494      4.1379   1.2241760975e+01   2.9950768622e+01    0.7334486    0.4457895  64.45  0.003562695    1.552    0.356
        19 -12.2541    206.7041      2.5922   1.2920383899e+01   3.2840825619e+01    0.4494414    0.2409762 -67.50  0.002084154    1.963    0.491
        20 -10.1626     24.3293      7.4932   6.0645711144e+01   7.0763831148e+01    0.1731451    0.1198974 -31.13 0.0008293622    1.206    0.171
        21 -10.5739     20.6773      6.1336   6.1843397645e+01   7.1310396936e+01    0.2159114    0.1326653 -32.81 0.0008979469    1.330    0.248
        22 -10.6617    107.6697      7.5535   3.0400703284e+01   5.7046000715e+01    0.2408398    0.1084616  52.86 0.0006448886    1.909    0.476
        23 -10.0901    138.0734      6.5644   2.3542335707e+01   4.9998039165e+01    0.2190455    0.1206075  64.71  0.001032504    1.617    0.382
        24 -11.0490    152.9192      4.7263   2.0382595368e+01   4.6454333407e+01    0.5003817    0.2039232  62.20  0.002093005    2.031    0.508
        25 -11.8649     78.2484      3.5950   3.6974784450e+01   6.3468474607e+01    0.4295502    0.3103695  79.84  0.001775014    2.358    0.576
        26 -11.5494     13.8134      4.0318   6.4411268203e+01   7.2219137705e+01    0.2943129    0.1779532   7.62  0.001051706    1.700    0.412
        27 -10.5019     30.4945      2.5300   5.5361841571e+01   7.0806190934e+01    0.2133787    0.1674747 -47.64  0.001503824    1.766    0.434
        28 -11.2773    179.9908      1.7064   1.5668059964e+01   3.9785378304e+01    0.3507273    0.1312467  64.06   0.00142284    2.191    0.544
        29 -10.6080    142.1242      2.2175   2.1344303354e+01   4.9409167587e+01    0.2058855    0.1618295  50.24 0.0005067339    1.170    0.145
        30 -10.1885    135.5799      1.7229   2.2329088393e+01   5.1071041564e+01    0.1790991    0.1215534 -38.87 0.0009524398    1.652    0.395
        31 -10.2945    115.8570      1.9611   2.6341712741e+01   5.5740923085e+01    0.1919273    0.1702279  50.99 0.0004526844    1.038    0.037
        32  -9.8899     90.7648      1.3249   3.2270160256e+01   6.1252163510e+01    0.1697235   0.09877178  47.05 0.0002946623    1.496    0.332
        33  -9.8476     42.3047      1.2844   4.9360441811e+01   6.9511292737e+01      0.11427   0.07374702   3.30 0.0001898328    1.560    0.359
        34  -9.8344     23.5305      1.5001   5.8270412557e+01   7.1689133619e+01    0.1092209   0.08397397 -13.94 0.0001235498    1.005    0.005
        35 -12.2414    160.4385      2.0749   1.8400944411e+01   4.4789862140e+01    0.3719456    0.2641264  73.64  0.002017564    1.241    0.194
        36  -9.5458     11.7570    215.9999   9.9295238786e+01   2.8956193947e+01    0.1347482   0.07042942 -85.68 0.0008711785    1.558    0.358
        37 -10.5161     49.4778    249.7577   9.4891187945e+01   1.8429551435e+01    0.2089278    0.1147634  50.63   0.00138563    1.399    0.285
        38 -10.7695    179.9592    216.6205   6.7295116535e+01   3.0638107289e+00    0.2172126    0.1970263 -41.93 0.0006933898    1.322    0.243
        39 -11.0527    232.3700    212.6550   5.7007163939e+01  -5.5506754348e+00    0.2846903    0.2316495   2.61  0.001250736    1.173    0.147
        40 -10.0231     80.8394    199.1634   8.4876027335e+01   2.3630213682e+01    0.1568837    0.1485776  67.89 0.0005369411    1.354    0.261
        41 -10.0659      5.3165    199.6775   9.9570565771e+01   3.2758809164e+01    0.1179061    0.0559587  67.72  0.000704254    1.664    0.399
        42 -10.2705    157.9648    197.7936   6.8678151571e+01   1.0369653976e+01    0.2094165    0.1619015  64.38 0.0006683422    1.307    0.235
        43  -9.6559    243.4608    197.4959   5.2408821745e+01  -5.3628931505e+00    0.1252507     0.105684  12.57 6.421236e-05    1.015    0.014
        44 -10.7181    249.7330    183.5564   4.8752099733e+01  -4.4942559883e+00    0.2219246    0.1622286 -27.95 0.0005911146    1.343    0.256
        45 -10.6499    240.7013    181.6991   4.9937592387e+01  -2.6645633891e+00    0.2589658    0.1956678  47.25   0.00105949    1.414    0.293
        46  -9.7675     56.1401    164.8202   8.6316048330e+01   3.4564322876e+01    0.1539387    0.1323363 -74.45 0.0002722531    1.230    0.187
        47  -9.5520     67.5819    162.4136   8.3368036405e+01   3.3563644385e+01    0.1320352    0.1095154  82.05 0.0001118189    1.004    0.004
        48 -10.6584     30.0016    154.0387   9.1145093940e+01   4.0009972388e+01    0.3254285    0.1570484  61.15  0.001662055    2.104    0.525
        49 -10.9201     39.1760    160.0113   8.9657690251e+01   3.7691935242e+01    0.3498574    0.1543045  59.29  0.001647886    2.361    0.576
        50 -10.7304     34.9863    158.0133   9.0406159632e+01   3.8599020192e+01    0.2722947    0.1607171  58.56  0.001024694    1.592    0.372
        51  -9.9847    249.4829    153.4941   4.2832178197e+01  -1.2678865554e-02    0.1319456    0.1200876  -6.39  2.04982e-06    1.006    0.006
        52 -10.8841    236.8140    146.1546   4.3419152210e+01   3.5893270926e+00    0.1993259     0.187075 -58.95 0.0005202456    1.200    0.167
        53  -9.3565    215.5263    141.5030   4.6211120637e+01   8.7868003362e+00    0.1429996    0.1376515  11.30  6.93745e-05    1.030    0.029
        54 -10.0363     35.0415    137.2023   8.8058708132e+01   4.3308769405e+01    0.1622768    0.1343416  86.74   0.00107244    1.052    0.050
        55 -10.0435    225.5395    133.6951   4.2668896462e+01   8.0128864942e+00    0.1971121    0.1312249 -48.87 0.0009340454    1.586    0.369
        56  -9.5056      7.3455    134.3027   9.4575992659e+01   4.6402706997e+01    0.1120737   0.07376149 -51.67 0.0007039646    1.686    0.407
        57 -11.2946    248.3808    131.6134   3.8379738522e+01   3.6558789790e+00    0.4393298    0.2418865 -52.12  0.001943647    2.194    0.544
        58  -9.3903     41.4875    129.4330   8.5384464063e+01   4.4417181804e+01    0.1267746    0.1058596 -83.64 0.0001370642    1.009    0.009
        59 -11.3212    241.0614    124.7925   3.8058048914e+01   6.2559207723e+00    0.2529132    0.1735082  63.21  0.001253969    1.713    0.416
        60 -10.5303      3.9730    124.3227   9.4466783784e+01   4.8844825401e+01    0.2183779    0.1268323  79.70   0.00132106    1.609    0.379
        61  -9.8313    227.0225    125.0021   4.0456018912e+01   9.2014099525e+00    0.1740882    0.1671838 -33.42 0.0009771039    1.014    0.014
        62  -9.6673     41.4156    119.8383   8.4009668361e+01   4.6640877140e+01    0.1682493    0.1006855 -59.20 0.0009105119    1.470    0.320
        63 -10.8920     20.0871    117.9302   8.9567244597e+01   4.9072092086e+01    0.3761472    0.2444563  51.97  0.002330114    1.655    0.396
        64 -10.3781      5.9751    119.7406   9.3500071214e+01   4.9720746385e+01    0.1221927     0.100484  31.67 0.0008298118    1.537    0.349
        65  -9.4893    239.5139    118.4668   3.6892531385e+01   7.6351585613e+00    0.1390864    0.1322655 -31.96 5.705864e-05    1.014    0.014
        66 -10.3623     28.3139    117.9510   8.7336619945e+01   4.8360122684e+01    0.1757407    0.1293191 -74.85 0.0004497063    1.113    0.102
        67 -10.5725     80.2432    115.5885   7.2353541071e+01   4.2574262530e+01    0.2532414    0.1747068 -58.90 0.0006318121    1.348    0.258
        68 -10.5070     37.0219    110.0438   8.3723575562e+01   4.9342879574e+01    0.1906688    0.1551459 -67.68 0.0005209841    1.060    0.057
        69 -10.3320    233.0139    116.9994   3.7619188178e+01   9.2778616354e+00    0.1746832    0.1586856  54.43 0.0004321082    1.148    0.129
        70  -9.8997    223.7714    106.2086   3.6649291527e+01   1.3206591022e+01    0.2335043    0.1043718  45.35  0.000623877    2.454    0.592
        71  -9.6273    161.5198    103.5844   4.8253998936e+01   2.8652619177e+01    0.1576231    0.1486355  75.19  5.64855e-05    1.018    0.018
        72 -12.2351    245.2044     97.8510   3.1324922996e+01   9.8326820915e+00    0.4812872    0.4017904 -60.79  0.002706659    1.199    0.166
        73 -10.4356    103.8828    101.8567   6.2537133688e+01   4.1644866338e+01    0.2242531    0.1974727 -25.67 0.0008143029    1.313    0.238
        74 -10.1466    125.8015     96.6224   5.5189510816e+01   3.8337920678e+01    0.2240797    0.1409164  57.51 0.0009513444    1.706    0.414
        75 -10.0238     42.0361     95.2513   7.9626350000e+01   5.2198690123e+01    0.1689292    0.1530092 -67.73 0.0004361688    1.061    0.057
        76  -9.8826     12.9719     95.0246   8.8520233594e+01   5.4719619149e+01    0.1405161    0.1127283 -71.00 0.0003942534    1.011    0.011
        77  -9.5097     18.2970     90.7252   8.6234192219e+01   5.5293153920e+01    0.1116551    0.0810523  76.12 0.0001849084    1.529    0.346
        78 -10.2819    144.1209     86.6570   4.7787220109e+01   3.6237545868e+01     0.475659    0.1584283 -46.72  0.001466366    3.161    0.684
        79 -11.0953     26.0219     87.3208   8.3210685693e+01   5.5446933205e+01    0.1627533    0.1446831 -66.19 0.0005300781    1.078    0.072
        80 -10.4657      1.6176     86.2600   9.0748246538e+01   5.7313800446e+01     0.169615    0.0757914 -62.37 0.0009483474    1.653    0.395
        81 -10.7937    155.0368     85.0382   4.4742414554e+01   3.3926064177e+01    0.2298035    0.2188898  53.01  0.001203822    1.069    0.064
        82 -10.2525     65.3291     85.3250   7.0050216968e+01   5.1623516323e+01    0.1375394   0.09835317 -26.66 0.0004087936    1.700    0.412
        83 -10.1617    117.7431     83.5441   5.3757773918e+01   4.2807914230e+01    0.2132622    0.1422033  59.41 0.0009482479    1.663    0.399
        84  -9.8992     81.5508     81.9680   6.4021242318e+01   4.9929297665e+01        0.215    0.1286611 -50.41  0.001019745    1.568    0.362
        85 -11.0093     73.5851     80.1534   6.6068394429e+01   5.1560551541e+01    0.4471419    0.2198287 -34.48  0.001400939    2.731    0.634
        86  -9.7616     19.5159     80.4880   8.4093655993e+01   5.7440915035e+01     0.118939   0.09603255 -61.74 0.0008103486    1.007    0.007
        87 -10.3771     43.8717     79.1144   7.5645887172e+01   5.5578774863e+01    0.1914503     0.162631 -80.43 0.0008664281    1.241    0.194
        88 -10.1286    166.7632     78.0432   4.0172432383e+01   3.2333882047e+01    0.2115913    0.1987107 -47.95 0.0002056959    1.104    0.094
        89 -10.4614    119.8079     77.2924   5.1375060020e+01   4.3631850301e+01    0.2988484    0.2007173 -67.20  0.001286674    1.972    0.493
        90  -9.9570    110.0019     77.4968   5.4180644505e+01   4.5649424538e+01    0.2077169    0.1281976  22.41 0.0008102476    2.515    0.602
        91  -9.7484     51.5616     77.4818   7.2663608935e+01   5.5075746290e+01    0.1293863    0.1110396 -47.16 0.0001039581    1.051    0.049
        92 -10.0993     63.4897     74.9797   6.8005989479e+01   5.4104180987e+01    0.1978742    0.1770345  31.69 0.0006524386    1.226    0.185
        93 -10.7873     28.7611     74.3194   7.9748297007e+01   5.8045023620e+01    0.2159535    0.1620018 -57.77 0.0005315797    1.103    0.093
        94 -11.4842    143.7625     71.3184   4.3431588099e+01   3.9278351761e+01     0.441069    0.2879863 -48.14  0.001593115    1.594    0.373
        95  -9.8594    150.4939     79.9744   4.4364952592e+01   3.6012785851e+01    0.2150351    0.1425897 -11.29 0.0008095308    2.538    0.606
        96 -10.6293    166.1666     72.6354   3.8765358507e+01   3.3469668779e+01    0.2520944    0.2024256 -54.48 0.0002713407    1.280    0.219
        97  -9.9022    136.4890     71.9924   4.5417299814e+01   4.0887626106e+01    0.2029655    0.1283461 -65.25 -0.0001091104    2.190    0.543
        98 -10.8287     95.3132     71.9201   5.6873055303e+01   4.9630216735e+01    0.2676109    0.2063904  33.88 0.0006148151    1.371    0.271
        99  -9.8968     64.8092     69.9913   6.6195829516e+01   5.4966956011e+01    0.2126856     0.152366 -81.72  0.001081498    1.986    0.497
       100 -10.7638     51.8617     68.9088   7.0373306629e+01   5.6856251455e+01    0.3628997     0.240053 -77.62  0.001864807    2.060    0.515
       101 -10.8665     28.8954     68.4608   7.8413431028e+01   5.9276028948e+01    0.2867246    0.1913312  -9.33  0.001063059    1.933    0.483
       102 -10.1880      1.2913     69.2923   8.8292922733e+01   6.0929373970e+01     0.163606    0.0809689 -55.49 0.0002244086    1.529    0.346
       103 -11.0826      2.1541     66.0731   8.7445094242e+01   6.1556389779e+01    0.2037486    0.1360032 -50.52   0.00032574    1.238    0.192
       104 -12.1134    136.5609     64.9360   4.3250943164e+01   4.2169956169e+01    0.4087521    0.3047528  84.13  0.001754374    1.701    0.412
       105  -9.3974    203.5344     65.5006   2.9825326872e+01   2.5113933677e+01    0.1507821    0.1402906 -83.41 -1.625494e-05    1.012    0.012
       106 -10.7996     16.8171     63.9793   8.1784834731e+01   6.1131287845e+01    0.1933458    0.1439555 -38.22 0.0004146326    1.267    0.211
       107 -10.3202    245.6803     63.3415   2.3271663471e+01   1.5209930630e+01    0.1512038    0.0947097 -64.81 0.0007049802    1.718    0.418
       108 -12.4296      6.4696     61.8007   8.5113000158e+01   6.2213835476e+01    0.2958352     0.238662  82.05 0.0007390058    1.456    0.313
       109 -11.9939      5.9489     55.3028   8.3997036672e+01   6.3565044851e+01    0.2952955    0.1728365   7.82  0.001073582    2.139    0.532
       110  -9.6802     77.9847     62.0072   5.9376418436e+01   5.4595818133e+01    0.1621826    0.1531665 -22.35 0.0009281265    1.018    0.018
       111 -10.2782     66.2442     62.1338   6.3414785651e+01   5.6357748951e+01    0.2199815    0.1725974  15.05 0.0007850375    1.433    0.302
       112  -9.9394     43.7219     61.6123   7.1324311200e+01   5.9276206930e+01    0.1478224    0.1164716  36.95 0.0007062371    1.466    0.318
       113 -10.3923    119.6166     58.8424   4.5715790409e+01   4.7153949310e+01    0.2101144    0.1333573 -49.88 0.0007256789    1.718    0.418
       114 -10.7137     61.6114     58.2606   6.3865124635e+01   5.7767379452e+01    0.2179382    0.1710579  29.63 0.0004725607    1.373    0.272
       115 -11.0809     25.0707     56.2344   7.6902324945e+01   6.2106746968e+01    0.3744693    0.1537355 -62.47  0.001798678    2.272    0.560
       116 -11.7393     55.9430     56.8720   6.5482795245e+01   5.8787641331e+01    0.2280194    0.2028747  20.24 0.0003490253    1.213    0.176
       117  -9.8011    226.2456     56.2454   2.4086131550e+01   2.0895131212e+01     0.241364   0.09260374 -45.23 0.0008922329    2.446    0.591
       118 -11.3473    136.1960     55.0767   4.0242999100e+01   4.3973392038e+01      0.39037    0.1661507 -42.40  0.001449005    2.432    0.589
       119 -10.0881    123.2110     53.4250   4.2987726085e+01   4.7286334184e+01    0.3102329   0.09079043 -46.72 0.0008717136    4.388    0.772
       120  -9.3966     64.4806     54.5180   6.1666166790e+01   5.8089276953e+01    0.1277034    0.1174645 -33.43 9.750416e-05    1.054    0.051
       121 -10.8082     19.8709     53.5664   7.8239994513e+01   6.3038209876e+01    0.1993826    0.1659217  63.82  0.001396472    1.586    0.369
       122 -10.6942    154.1500     51.9785   3.5179300750e+01   4.0044175622e+01    0.2873059    0.2093191  59.15  0.001288252    1.299    0.230
       123  -9.8945     28.6603     52.0036   7.4404040341e+01   6.2652776134e+01    0.1574783    0.1263201 -45.49 0.0004127012    1.031    0.030
       124 -10.2070     71.2603     50.7681   5.8034336455e+01   5.7783137267e+01    0.2364302    0.1535204 -45.02  0.001258513    1.472    0.321
       125  -9.9280    123.5725     62.0323   4.5675571648e+01   4.5699946883e+01    0.2148497    0.1438277 -41.00 0.0005304315    1.521    0.343
       126 -11.2605    135.7764     49.0166   3.8388496695e+01   4.5067754593e+01    0.4505762    0.2094973  61.68   0.00158486    2.365    0.577
       127 -10.6991     86.4177     48.5148   5.2129904800e+01   5.5653543319e+01     0.348007    0.2092958  19.37  0.001532769    2.389    0.581
       128 -10.0971    176.3106     47.6632   2.9544788954e+01   3.4995119454e+01    0.1592996    0.1103856 -70.82 0.0007044471    1.684    0.406
       129 -10.3402     46.0963     47.2736   6.6187295979e+01   6.1820403618e+01    0.2859059    0.1392401  37.69  0.001123883    2.323    0.570
       130  -9.7145     26.5494     47.0446   7.3861989606e+01   6.3799232078e+01      0.17079   0.09651714 -53.55 0.0004837565    1.485    0.326
       131 -10.6542    150.1353     44.4008   3.3663371835e+01   4.2238682950e+01    0.3823699    0.1799304 -51.87   0.00138885    2.733    0.634
       132 -12.3047     61.8329     44.3977   5.9252255052e+01   6.0330747109e+01    0.2224271    0.2062097 -16.48 0.0003400391    1.072    0.067
       133  -9.6766     57.7066     45.3015   6.1100658781e+01   6.0738051767e+01     0.172072    0.1340064 -14.45 0.0002329326    1.304    0.233
       134 -11.1867    245.0463     44.4601   1.8968926125e+01   1.8139310977e+01    0.1975751     0.127684  71.25 0.0004304188    1.545    0.353
       135  -9.9500    106.9859     44.2226   4.4315085371e+01   5.2357682872e+01     0.182698    0.1114301  49.21 0.0004057641    1.604    0.377
       136 -10.9566     22.3132     41.6610   7.4044637200e+01   6.5170382285e+01    0.2679956     0.139441 -38.09  0.001141994    1.692    0.409
       137 -11.0429     13.2674     39.0507   7.7106692836e+01   6.6312545616e+01    0.2128326    0.1754905 -57.87 0.0006952852    1.209    0.173
       138  -9.7066    200.3237     42.6863   2.4242341631e+01   2.9464908881e+01    0.1566672    0.1039053 -70.41 0.0007041064    1.661    0.398
       139 -11.1734    231.6797     40.8013   1.9630447072e+01   2.1835653924e+01    0.4360637    0.2109319  88.78  0.001653558    2.856    0.650
       140  -9.6030     73.6180     41.7205   5.4051880785e+01   5.9007218039e+01    0.1347726   0.09546077   3.20 0.0007005917    1.719    0.418
       141  -9.4732     94.2781     40.6801   4.6842162252e+01   5.5495723085e+01    0.1281919    0.1080036 -72.61 0.0006986126    1.578    0.366
       142 -12.3625      7.0187     37.1440   7.9258575661e+01   6.7052052519e+01    0.5040789    0.3240862  89.73  0.002671047    2.541    0.606
       143 -10.4958      8.9393     31.3617   7.6786965007e+01   6.8011788378e+01     0.271863    0.1044054  30.48   0.00144907    3.075    0.675
       144 -12.4026    238.6837     37.7645   1.8111835238e+01   2.0575527377e+01    0.3023761    0.2641894  87.67 0.0003174771    1.111    0.100
       145 -11.7421    242.9371     34.0030   1.6782598451e+01   2.0084483890e+01    0.2497058    0.2208949  79.56  0.001091264    1.182    0.154
       146  -9.8102     85.8680     38.7642   4.8818435000e+01   5.7385053506e+01    0.1636252    0.1516163 -54.63 0.0002850877    1.267    0.211
       147  -9.8248     40.5039     38.9770   6.5677266951e+01   6.3969686379e+01     0.177872   0.08005198 -32.36 0.0008095579    2.479    0.597
       148 -10.2248    247.4882     36.5167   1.6887744623e+01   1.8680945992e+01    0.1372568    0.1147483 -69.06 0.0008103113    1.012    0.012
       149 -10.8977    176.5818     35.3375   2.5897912968e+01   3.6707270108e+01    0.2985948    0.2261818  -8.90  0.001465379    1.735    0.424
       150  -9.8407     23.3213     35.9008   7.1865229336e+01   6.6160233863e+01     0.165934   0.07819031 -44.81 0.0004359943    1.698    0.411
       151 -10.6226     98.0134     35.0273   4.3628797039e+01   5.5632635969e+01    0.2009772    0.1845681  22.13 0.0003349414    1.021    0.021
       152  -9.3737     60.7343     34.3094   5.6014155960e+01   6.2218610421e+01    0.1107866   0.09849131 -68.26  0.000261512    1.536    0.349
       153 -10.5094     44.0637     32.1842   6.1814820395e+01   6.4755563322e+01    0.2040051    0.1773638  89.84  0.001052999    1.809    0.447
       154 -11.1106    106.9814     30.8377   3.9487258342e+01   5.4374633709e+01    0.3578364    0.2185105 -15.92  0.001671002    2.022    0.505
       155 -10.5725    233.1750     30.8821   1.7086422581e+01   2.2834419524e+01     0.222305    0.1633596 -68.32 0.0007334136    1.241    0.194
       156 -10.5499    133.9395     31.0769   3.2821573464e+01   4.8157783289e+01    0.2119601    0.1913896  47.51 0.0003279499    1.042    0.040
       157 -10.4155     91.0134     31.1238   4.4300758221e+01   5.7590017141e+01    0.1941368    0.1811397  15.10 0.0004540694    1.043    0.041
       158 -11.8248     78.1345     29.9341   4.8049473142e+01   6.0131898535e+01    0.2443848    0.2213754 -12.02  0.000381676    1.068    0.064
       159 -10.0357    218.3167     29.3311   1.8387361063e+01   2.6709999353e+01     0.136783     0.106324  37.46 0.0007046799    1.685    0.407
       160 -10.4915    146.5852     28.8782   2.9390472443e+01   4.5319198682e+01    0.2515104    0.1764759  53.02 0.0005220617    1.310    0.237
       161 -10.5121     18.5744     28.0956   7.1413188225e+01   6.7935969895e+01    0.2154155    0.1733947 -70.13  0.001524926    1.628    0.386
       162 -11.4217     36.9385     27.1709   6.2944437660e+01   6.6399903751e+01    0.2907122    0.1947713 -13.02  0.001111972    1.550    0.355
       163 -12.7859    244.1623     25.8439   1.4792615879e+01   2.0879711299e+01    0.5461608    0.2952116 -73.04  0.002546791    1.998    0.500
       164 -12.1693    244.3553     21.1494   1.3711466641e+01   2.1436559883e+01    0.3103498    0.1958404  64.59 0.0006586542    1.605    0.377
       165  -9.7303    207.5089     27.4802   1.9231912995e+01   2.9697909373e+01    0.1451745    0.1241187 -81.77 0.0008100076    1.037    0.036
       166 -10.4484      1.6661     25.3472   7.8327048988e+01   6.9506162258e+01    0.1787286    0.1150754 -66.64   0.00120852    1.651    0.394
       167  -9.9186     99.6762     25.3488   3.9480664643e+01   5.6664692185e+01    0.1314726    0.1057817 -71.59 0.0006151171    1.747    0.428
       168 -11.2395    230.0238     23.2623   1.5606037106e+01   2.4595919615e+01    0.1941902    0.1624371 -83.21 0.0005414557    1.038    0.037
       169 -10.4692    132.2994     22.2193   3.0127836237e+01   4.9690885135e+01    0.2864806     0.191085  38.32  0.001422603    1.538    0.350
       170 -10.0977     62.4766     22.6593   5.0753533171e+01   6.3768599690e+01    0.1623366    0.1073649 -22.56 0.0009299418    1.469    0.319
       171 -10.7759     50.0355     22.4944   5.5583463083e+01   6.5570903059e+01    0.2237363    0.1547329 -29.84 0.0005637582    1.294    0.227
       172 -11.5312    221.5475     21.2973   1.6028754743e+01   2.6935562344e+01    0.2873853    0.2045785 -64.58  0.001358141    1.300    0.231
       173 -10.8050    188.1327     20.9083   2.0007890021e+01   3.5548999700e+01    0.2308603    0.1791565 -76.41 0.0009961245    1.260    0.206
       174 -10.6926    174.5687     20.6214   2.1891109289e+01   3.9130237902e+01    0.4431836    0.2169792  64.38  0.001904065    1.804    0.446
       175 -10.9576    105.0057     20.8986   3.6278457799e+01   5.6114928614e+01    0.1928268     0.178753  35.38 0.0002918645    1.047    0.045
       176 -11.3470    172.3569    247.8198   7.3110883636e+01  -2.1632065758e-01     0.276607    0.1520908 -52.78  0.001556401    2.469    0.595
       177 -11.1013    115.9881    248.8361   8.3366051983e+01   8.9387723619e+00     0.207289    0.1290911 -75.10  0.001263899    1.966    0.491
       178 -10.7152     76.4356    248.1712   9.0249668168e+01   1.5049798993e+01    0.3582226    0.1248928  55.88  0.001736537    2.351    0.575
       179 -10.7597     20.4751    249.4787   9.9504711486e+01   2.1953568978e+01    0.1060593   0.06918705  68.89 0.0008097723    1.006    0.006
       180 -10.9252    121.6166    248.1914   8.2294047665e+01   8.1386845741e+00    0.1349937    0.1126472 -54.36 0.0002789675    1.634    0.388
       181 -10.2720     46.0200    244.0143   9.5106946342e+01   1.9867606139e+01    0.2061743     0.110952  49.20   0.00134004    1.475    0.322
       182 -11.1567     26.9674     22.1125   6.5444138367e+01   6.8241271532e+01     0.264939    0.2272541  16.01  0.001415725    1.320    0.243
       183  -9.7452    199.3271     19.3008   1.8100800116e+01   3.2833802696e+01    0.1402518    0.1017165  43.22 0.0004335314    1.640    0.390
       184 -10.2220    182.2425     18.3547   2.0107479739e+01   3.7394027157e+01    0.2175766    0.1550297  55.93 0.0005229899    1.355    0.262
       185 -10.5531    166.5492     18.1135   2.2389954433e+01   4.1517074181e+01    0.2471109    0.1799879  67.99 0.0001190546    1.225    0.184
       186 -10.9428    152.0119     18.0158   2.4817459587e+01   4.5274687997e+01    0.2106649    0.1906372  67.45  0.001225085    1.010    0.009
       187 -10.3201     66.0397    248.8794   9.2074769201e+01   1.6383784184e+01    0.2973478   0.07818613  55.40  0.001253174    3.219    0.689
       188 -11.1455    217.5080     16.7280   1.5336415125e+01   2.8508484801e+01    0.2442102    0.2020411   4.24 0.0009673345    1.733    0.423
       189 -10.1262     62.3296     16.4016   4.8169364602e+01   6.4670333777e+01    0.1838306      0.12432   4.18 0.0005968084    1.614    0.380
       190 -11.1144    195.0323     14.9834   1.7476361742e+01   3.4458161494e+01    0.2160564    0.1843028  89.77 0.0003745476    1.019    0.019
       191 -11.2479    201.8611    240.3922   6.6812244739e+01  -4.1279324504e+00    0.2997975     0.164166  35.14   0.00110126    1.513    0.339
       192  -9.9526     46.2017     14.7939   5.3922132284e+01   6.7210017598e+01     0.163014    0.1182638  -6.64 0.0007252292    1.291    0.226
       193 -11.0781    187.9653    240.8097   6.9360390458e+01  -1.8716148123e+00    0.2035977    0.1178121  24.98  0.001015833    2.002    0.500
       194 -10.3986    144.2999     12.7574   2.4490643535e+01   4.7810624360e+01     0.235834    0.1695301  73.97 0.0005322666    1.346    0.257
       195 -11.0580    249.0390    239.7096   5.8601594147e+01  -1.1379254640e+01    0.1634736    0.1189686  24.35 0.0005955001    1.074    0.069
       196 -10.0751    162.7135    239.6335   7.3804484912e+01   2.5874994745e+00    0.1169492   0.08961052  15.33 0.0005053763    1.698    0.411
       197  -9.3206    112.6561     13.6861   3.1546157536e+01   5.5280048450e+01     0.144258   0.09109741  30.17 0.0007047312    1.710    0.415
       198  -9.9276     92.4902     13.5012   3.6864044699e+01   5.9611782227e+01     0.128829    0.1144522  24.49 0.0008105949    1.010    0.010
       199 -10.8727    196.9599    246.4914   6.8547307458e+01  -4.1075151627e+00    0.1899652   0.09341162  40.52 0.0007649047    1.583    0.368
       200 -10.0784     53.8424    239.0439   9.3462238766e+01   1.9744363651e+01    0.1940989   0.09061777  72.26  0.001070994    2.014    0.503
       201 -11.4670    221.7562    237.6177   6.2900242432e+01  -6.9985927030e+00    0.3345593    0.1146265  38.20  0.001516161    2.412    0.585
       202 -11.1744    177.9485    237.8365   7.0767418591e+01   2.4024103732e-01    0.1931418    0.1435388  29.20  0.001097056    1.296    0.228
       203 -11.0151    239.9633    235.2930   5.9421084486e+01  -9.5450033470e+00    0.1669189    0.1229657  25.77 0.0005162648    1.074    0.069
       204 -11.1207    191.2330    235.5916   6.8027452370e+01  -1.7103628635e+00    0.1833967   0.09547522  35.28 0.0009541502    1.671    0.402
       205 -10.2980     66.4072    234.7101   9.0951513708e+01   1.8832134901e+01    0.2189567    0.1036677  53.13 0.0009704574    1.604    0.377
       206 -11.7566    244.6812    233.1911   5.8294456372e+01  -1.0013513878e+01    0.2817061    0.1732018 -24.82  0.001777003    1.752    0.429
       207 -10.3487    218.4797    231.0300   6.2457646669e+01  -5.6521032358e+00    0.1573249    0.1164861 -27.41 0.0007428692    1.549    0.354
       208  -9.9838     61.3293    236.8461   9.2009013427e+01   1.9141965837e+01    0.1699513    0.1059846  58.53  0.000712376    1.187    0.158
       209 -11.1308     11.3907    231.1584   1.0009675662e+02   2.6172951220e+01    0.1599023    0.1189839  56.43 0.0006792671    1.350    0.259
       210  -9.4546    161.3214    230.6745   7.2874326640e+01   4.1928397821e+00    0.1274871   0.08748875  66.44 0.0002053668    1.683    0.406
       211 -10.5689     62.0291    228.6311   9.1257920809e+01   2.0552448716e+01    0.3220923     0.121568  57.83  0.001570148    2.269    0.559
       212 -10.4611    235.6843    225.2652   5.8539767807e+01  -7.6933103558e+00    0.1874951    0.1656646  32.20 0.0006264155    1.255    0.203
       213  -9.9270    125.6101    225.7793   7.9051237769e+01   1.1219327318e+01    0.1601884    0.1147435 -82.57 0.0009450841    1.620    0.383
       214  -9.9302    223.6985    225.3448   6.0637176295e+01  -5.7774134256e+00    0.1484589    0.1285374 -51.89 0.0008846322    1.623    0.384
       215 -10.1230    221.5092    222.0589   6.0492046053e+01  -4.9893957979e+00    0.1688431    0.1182668 -28.84  0.001034392    1.603    0.376
       216 -11.0867    228.6167    220.3547   5.8959277539e+01  -5.9391858157e+00    0.2203293    0.1798972  49.34 0.0005822781    1.425    0.298
       217  -9.5571    109.2857    221.6869   8.1723342800e+01   1.4697549266e+01    0.1298251   0.08097786  68.81 0.0005242326    1.579    0.367
       218 -11.9118    246.7460    217.6584   5.5389589651e+01  -8.4923468321e+00    0.3756125    0.2526645  43.10  0.002341312    1.511    0.338
       219 -10.4668    212.3195    215.3110   6.1036368342e+01  -2.5102583168e+00    0.2564213    0.1884465  25.10  0.001552066    1.251    0.200
       220  -9.8273    209.4985    212.5096   6.1087092484e+01  -1.6184133657e+00    0.1283078    0.1083407  30.96 0.0008105703    1.015    0.015
       221  -9.3075     15.3344    216.2991   9.8696417158e+01   2.8529955455e+01   0.09130994   0.07761386 -70.02 0.0007032696    1.652    0.395
