#   1 NUMBER                 Running object number                                     
#   2 MAG_AUTO               Kron-like elliptical aperture magnitude                    [mag]
#   3 X_IMAGE                Object position along x                                    [pixel]
#   4 Y_IMAGE                Object position along y                                    [pixel]
#   5 X_WORLD                Barycenter position along world x axis                     [deg]
#   6 Y_WORLD                Barycenter position along world y axis                     [deg]
#   7 A_WORLD                Profile RMS along major axis (world units)                 [deg]
#   8 B_WORLD                Profile RMS along minor axis (world units)                 [deg]
#   9 THETA_WORLD            Position angle (CCW/world-x)                               [deg]
#  10 FWHM_WORLD             FWHM assuming a gaussian core                              [deg]
#  11 ELONGATION             A_IMAGE/B_IMAGE                                           
#  12 ELLIPTICITY            1 - B_IMAGE/A_IMAGE                                       
         1 -13.2165    214.3884     29.1258   4.4508962341e+01   2.8108586959e+01    0.8565558    0.7824241  25.66  0.005265134    1.294    0.227
         2 -12.4116    220.6947     23.6559   4.2454134174e+01   2.7282342519e+01     0.524164    0.3793633  22.15   0.00143273    1.842    0.457
         3 -13.1660    237.8969      6.4720   3.6784545940e+01   2.5264033026e+01    0.7487258    0.5479146 -49.49  0.002592877    1.136    0.120
         4  -9.7419      1.9848      2.0057   9.7718147873e+01   7.8186803687e+01    0.1495558    0.1180279 -38.30   0.00101061    1.002    0.002
         5 -13.0659    185.2387    226.6100   9.2810929472e+01   5.2588358879e+00    0.8621282    0.4104885  16.47  0.004065246    3.153    0.683
         6 -12.4806    217.2442    249.1855   9.0606406214e+01  -1.1591321750e+00    0.7713808    0.4484434  28.29  0.005714431    1.307    0.235
         7 -12.2636    247.8285    247.4624   8.5836029715e+01  -4.4358454225e+00     0.546176    0.3247662  -3.40  0.003721031    1.439    0.305
         8 -13.7303    240.4133    240.5435   8.5965490540e+01  -3.0151886037e+00    0.9700807    0.6095223 -11.61   0.00658581    1.438    0.305
         9 -13.3854    231.0825    246.2618   8.8125946982e+01  -2.4780562193e+00     1.067122    0.6149854  47.38  0.006661112    2.959    0.662
        10 -13.3599    197.6173    249.2059   9.3685099199e+01   1.1699856951e+00     2.394704    0.4247094  37.82  0.009496399    4.446    0.775
        11 -13.8693    187.4466    243.2050   9.4591690680e+01   3.0616376500e+00     1.132879    0.6180059  23.96  0.007420789    1.562    0.360
        12 -12.3671    120.3911    217.1302   1.0350958800e+02   1.5514625077e+01     0.775928    0.6753195 -45.96  0.005711595    1.401    0.286
        13 -11.7579     88.5031    244.3665   1.1207064843e+02   1.5438077911e+01    0.6831717    0.3352244  23.54   0.00368486    2.625    0.619
        14 -11.9279     81.7730    241.2849   1.1306582220e+02   1.6705999898e+01    0.4708535    0.2723356  28.40  0.002092669    1.720    0.419
        15 -12.2750     92.1746    236.5634   1.1077945615e+02   1.6169487233e+01    0.8339123    0.2747661  40.61   0.00426605    2.201    0.546
        16 -15.1634    126.4739    241.0597   1.0490561018e+02   1.1171653835e+01     2.036603     1.216448  45.90   0.01273222    1.424    0.298
        17  -9.6399    102.9682    250.6378   1.0997272647e+02   1.2787417447e+01    0.2321538   0.07722112  35.44  0.001196712    2.292    0.564
        18 -13.8173     47.7937    248.2890   1.1960523995e+02   1.9437042708e+01     1.817086    0.3148496  37.09  0.008295171    3.275    0.695
        19 -14.7991     33.5468    195.8485   1.1952186630e+02   3.0160439409e+01      4.21489      1.55988  61.29   0.02003472    2.592    0.614
        20 -10.7512     37.3676    225.0441   1.2035477412e+02   2.4342821908e+01     0.224264    0.1171546  46.35  0.001461181    1.414    0.293
        21 -12.8422    213.0668    220.6825   8.7345418495e+01   2.2772912846e+00    0.3317146    0.2644856  -6.34  0.002354916    1.205    0.170
        22 -14.9498      9.0085    148.5150   1.2245923993e+02   4.2612321986e+01     3.468985     1.000544 -84.30    0.0138749    3.150    0.683
        23 -11.2209    242.9093    217.6504   8.2261374208e+01  -1.1414385688e+00     0.194931    0.1362284 -19.40  0.001477283    1.393    0.282
        24 -11.4869    250.0000    209.4969   7.9944590794e+01  -1.1875825749e+00    0.3603818    0.1275303 -26.65  0.001907067    2.710    0.631
        25 -12.7310    186.5993    202.0784   8.9019285008e+01   8.1915479045e+00    0.5122838    0.4519095  56.37  0.003608265    1.564    0.361
        26 -11.6388     52.8833    231.6469   1.1778525379e+02   2.1562571793e+01      0.32485    0.3018053 -88.37  0.001642518    1.372    0.271
        27 -12.2817    248.3355    200.0753   7.8662926079e+01  -2.1397635031e-02    0.5528901    0.2844547 -16.89  0.003382772    1.824    0.452
        28 -11.7057    193.4673    196.0902   8.6855824856e+01   7.9865558088e+00    0.5169917    0.2950179 -59.77  0.002118466    4.931    0.797
        29 -12.2840    221.3830    190.6355   8.1232626512e+01   4.6409211258e+00    0.5313934    0.3404399   8.02  0.003289566    1.530    0.346
        30  -9.6044    134.0154    200.6781   9.8786326696e+01   1.6215513485e+01    0.2125428    0.1676758  -9.28  0.001336626    1.595    0.373
        31 -10.8959     56.0697    183.6143   1.1365217617e+02   3.0144247109e+01    0.2973575    0.2320789 -31.45  0.001313201    1.922    0.480
        32 -10.9969     62.1636    177.2889   1.1165113853e+02   3.0721008228e+01    0.2291932    0.2241527 -31.96 0.0005562847    1.331    0.249
        33 -10.4557     72.7800    166.9152   1.0797728033e+02   3.1562782122e+01    0.2062376    0.1941056  58.54 0.0003684826    1.143    0.125
        34 -12.6043     59.3078    163.5833   1.1090615281e+02   3.4037385981e+01    0.4587385     0.277686 -46.14  0.001738086    2.139    0.532
        35 -11.5198     80.3676    159.7783   1.0519373681e+02   3.2068020253e+01    0.4370162    0.4053382   5.19  0.001792981    1.344    0.256
        36 -12.7597     26.0817    212.8847   1.2195035025e+02   2.7656276030e+01    0.5351927    0.4268792  11.64 0.0009148915    1.822    0.451
        37 -15.1599      9.0653    239.5607   1.2606193586e+02   2.4608659012e+01     2.307316      1.48374  84.02   0.01839162    1.456    0.313
        38 -12.5003     68.0549    143.9376   1.0617409745e+02   3.7377593558e+01    0.6664202      0.41047  64.24   0.00255079    1.742    0.426
        39  -9.6041     95.3057    145.0259   9.9145320311e+01   3.3082411229e+01    0.1972347    0.1791638 -81.30  0.001117691    1.079    0.074
        40 -11.5267     83.3385    143.8309   1.0207058247e+02   3.5210065526e+01    0.2697985    0.2441704 -61.42 0.0004785949    1.164    0.141
        41  -8.8000     98.3056    142.3144   9.7899989997e+01   3.3202495585e+01    0.1353402    0.1105617 -19.25 0.0002810343    1.622    0.384
        42 -12.0207     57.3314    131.1912   1.0732464750e+02   4.1833774519e+01    0.5831808    0.2399988 -78.70  0.002124015    3.093    0.677
        43 -10.2060    106.9218    132.1020   9.3729064575e+01   3.4023407857e+01     0.367469    0.2973143  67.91  0.001776038    1.322    0.243
        44 -10.1404     94.5992    129.3168   9.6462665367e+01   3.6766380455e+01      0.24993    0.2385691 -14.01 0.0007767275    1.218    0.179
        45  -9.2013    105.4072    120.7879   9.1748682920e+01   3.6841789163e+01    0.1933549    0.1343748 -43.65  0.000276376    1.501    0.334
        46 -12.3383     51.5982     86.2589   1.0088195364e+02   5.3777906202e+01    0.6652594    0.4789871 -66.71  0.003478676    1.252    0.201
        47 -14.3436      9.1193    207.4779   1.2507413052e+02   3.0238206285e+01     1.234494    0.9698296  70.36  0.004386626    1.126    0.112
        48 -10.6037     59.5877     71.2350   9.3859618924e+01   5.6355012182e+01     0.216839    0.1209721 -47.41  0.000955609    1.665    0.399
        49 -13.6028    106.7813    240.4935   1.0842480841e+02   1.3761026090e+01    0.9243001    0.7476543  20.30  0.006356516    1.365    0.267
        50 -13.0138    171.7070    220.2654   9.4312488452e+01   7.8969216073e+00     0.711459    0.5804233 -13.83  0.004967683    1.318    0.241
        51 -13.9270    174.8875    228.7760   9.4881994269e+01   6.3786702551e+00     1.225055    0.6711237  24.19  0.007406529    1.695    0.410
