#   1 NUMBER                 Running object number                                     
#   2 MAG_AUTO               Kron-like elliptical aperture magnitude                    [mag]
#   3 X_IMAGE                Object position along x                                    [pixel]
#   4 Y_IMAGE                Object position along y                                    [pixel]
#   5 X_WORLD                Barycenter position along world x axis                     [deg]
#   6 Y_WORLD                Barycenter position along world y axis                     [deg]
#   7 A_WORLD                Profile RMS along major axis (world units)                 [deg]
#   8 B_WORLD                Profile RMS along minor axis (world units)                 [deg]
#   9 THETA_WORLD            Position angle (CCW/world-x)                               [deg]
#  10 FWHM_WORLD             FWHM assuming a gaussian core                              [deg]
#  11 ELONGATION             A_IMAGE/B_IMAGE                                           
#  12 ELLIPTICITY            1 - B_IMAGE/A_IMAGE                                       
         1 -17.9980    175.1175    115.7979   9.6318215988e+01   2.3553890164e+01     8.592616     5.653609 -73.95   0.03332213    2.312    0.567
         2 -17.2157    246.6647     45.8996   6.7186722101e+01   1.8597966958e+01     4.572495     1.067357 -33.97   0.01440918    4.407    0.773
         3 -17.2875    243.6600    108.1642   8.1743448921e+01   9.2330329820e+00     2.551649     1.456445 -52.91   0.01112551    1.827    0.453
         4 -16.5232     77.2068     54.5188   1.0424956076e+02   5.5740091283e+01     3.427963     1.239857 -47.98   0.01278299    3.316    0.698
         5 -16.0049     63.7985     31.3477   1.0040991631e+02   6.1376404727e+01    0.9299247    0.5650954 -29.82  0.005305545    1.520    0.342
         6 -16.5859    109.8252     14.1219   8.0312289154e+01   5.5023501617e+01     2.044583     1.517798 -28.64   0.01166299    1.485    0.326
         7 -16.4004    140.0680      5.7427   7.1306630936e+01   4.9036613038e+01     2.014079     0.819302  70.64  0.008230907    2.633    0.620
         8 -15.4390    204.1163     14.7771   6.4761269647e+01   3.2627672095e+01     0.817251     0.605315 -37.23  0.004544898    1.465    0.317
         9 -14.3584    166.9366     19.7188   7.1077118531e+01   4.1224071544e+01    0.3848068    0.3190329 -59.23  0.002259412    1.300    0.231
        10 -16.1756    190.6366     19.7154   6.7667687382e+01   3.5376711898e+01     0.898753    0.5779967  69.85  0.003097565    1.382    0.276
        11 -16.0160      5.2780     94.1197   1.3796496572e+02   5.5335258029e+01     2.352142    0.4876556 -62.80  0.009573708    3.045    0.672
        12 -15.5447    120.9301    138.8443   1.1481417926e+02   3.0351013643e+01     1.229478    0.8263465 -51.00  0.005690701    1.446    0.309
        13 -16.4820    202.2874    246.3337   1.1729202410e+02  -6.1487139746e+00     2.534435    0.9063351  42.60   0.01115808    2.361    0.577
        14 -15.3548    178.4810    240.1089   1.2077503562e+02  -1.1612690638e+00    0.9795367    0.5362114  53.23  0.004898976    1.892    0.472
        15 -16.2846    134.3516    245.8613   1.2988040033e+02   5.5429974054e+00     1.541586    0.6946399  50.42  0.007463587    1.899    0.473
        16 -15.4146     52.2478    141.6737   1.3290761488e+02   4.0491465707e+01     1.565958    0.7043346 -55.87  0.007275498    1.913    0.477
        17 -15.1577     59.1417    125.2048   1.2824840161e+02   4.3504303130e+01      1.37149     1.100784  12.38  0.008007296    1.616    0.381
        18 -16.1760    139.8175    146.1154   1.1179687792e+02   2.4875511702e+01     0.849937    0.7606857 -13.72  0.004381225    1.331    0.249
        19 -14.8155     98.3383    131.6712   1.1904925241e+02   3.6174045250e+01     1.409312    0.7011584  56.01  0.005378499    2.654    0.623
        20 -15.2099     26.3966    127.2066   1.3728602885e+02   4.6491188004e+01    0.9133253    0.5143561 -70.06  0.005110873    1.450    0.310
        21 -14.4357    218.2910     99.5640   8.3825676474e+01   1.6448542443e+01     1.060291    0.7775391  34.56  0.005053333    1.666    0.400
        22 -16.0373    226.1920    223.2048   1.0901443704e+02  -6.8608913124e+00     3.081316    0.8775859  44.65   0.01128289    3.459    0.711
        23 -16.5071     46.1189    204.8851   1.4207068570e+02   2.6948333008e+01     2.357008     1.024016  61.39   0.01137233    2.357    0.576
        24 -17.0427    245.5344     83.0924   7.5712148670e+01   1.3102252362e+01     1.555987    0.9249055 -46.91  0.006320469    1.522    0.343
        25 -16.8883    244.7950     67.1206   7.2164863232e+01   1.5840496478e+01       1.2601     1.061057 -82.45  0.004831583    1.137    0.120
        26 -15.9671     59.2691     59.3185   1.1183597781e+02   5.7491177079e+01     1.205559    0.5859135 -22.02  0.004741289    3.356    0.702
        27 -15.0478     74.5944    108.9978   1.2050844544e+02   4.5162520453e+01     1.383986    0.6808054 -59.30  0.005976186    1.993    0.498
        28 -16.2429     65.9108     80.6181   1.1595766480e+02   5.2498042296e+01     1.520421     1.387519  86.51   0.00950115    1.385    0.278
        29 -16.9213    178.3307    189.0437   1.1206116684e+02   7.7990299292e+00     3.750422     2.269795  48.34   0.01735254    1.593    0.372
        30 -16.8645    203.7559    170.7631   1.0313037494e+02   6.1199338846e+00     2.643861     1.214338  42.51   0.01049097    2.160    0.537
        31 -13.5128    198.8947     95.1433   8.6179633079e+01   2.1876748847e+01    0.4379693     0.333136 -56.97  0.001437639    1.352    0.260
        32 -13.0180    204.1499     87.2423   8.3197505772e+01   2.2035870889e+01    0.5547846    0.3480812 -88.19  0.002168451    2.450    0.592
        33 -13.0744    199.5092     82.9996   8.2927427551e+01   2.3919375691e+01    0.4387285    0.3182589 -85.47  0.002009174    1.686    0.407
        34 -13.7834    132.2812     74.7707   9.4955827109e+01   4.1575802236e+01    0.8481979    0.6098955 -64.63  0.003900606    1.816    0.449
        35 -16.4590    160.9398     73.7805   8.7969984731e+01   3.5042987498e+01     2.490978     1.364841  65.68  0.009742253    2.184    0.542
        36 -14.8746    186.4558     75.0889   8.3213431410e+01   2.8520138788e+01     1.282036    0.7693003 -71.65  0.004858693    2.578    0.612
        37 -15.2125     30.1218     75.1649   1.2630397632e+02   5.7547002710e+01     0.670168    0.3510127 -35.96  0.003605279    1.832    0.454
        38 -14.7038     20.6468     73.4658   1.2908613475e+02   5.8645918843e+01    0.5975406    0.2938281 -46.53  0.003353607    1.585    0.369
        39 -14.7184     60.2703    187.0633   1.3731729635e+02   2.9019156708e+01       1.4093    0.5761335  65.01  0.005133634    3.817    0.738
        40 -14.0751      2.2481     52.7598   1.3065810403e+02   6.3839164637e+01    0.8138087     0.108725 -57.20  0.003043829    4.097    0.756
        41 -13.9629    137.2204     41.5796   8.3368061011e+01   4.5731994042e+01    0.3793915    0.3276314 -15.06  0.001916817    1.237    0.191
        42 -13.6787    203.9495     95.5464   8.5351669824e+01   2.0582493385e+01    0.4802297    0.3783513  82.87  0.001550309    1.430    0.301
        43 -14.2908     94.5909    246.8676   1.3725392577e+02   1.1813439172e+01    0.3962291    0.3021972 -78.59  0.002665276    1.359    0.264
        44 -17.4149    233.9153    145.2020   9.1798634160e+01   4.6503660911e+00     2.887181     2.028347  48.03   0.01275746    1.516    0.340
        45 -15.7236    226.8373    129.5491   8.9491687344e+01   9.0003968431e+00     1.192445    0.8261687 -58.51  0.004471401    1.658    0.397
        46 -16.4852    133.3495    157.5403   1.1577969369e+02   2.3610894641e+01     2.305806     1.230035  65.45  0.008005494    3.015    0.668
        47 -16.5403    108.6834    156.6133   1.2151462147e+02   2.8513488608e+01     2.106688     1.576371  82.23   0.01042486    1.522    0.343
