#   1 NUMBER                 Running object number                                     
#   2 MAG_AUTO               Kron-like elliptical aperture magnitude                    [mag]
#   3 X_IMAGE                Object position along x                                    [pixel]
#   4 Y_IMAGE                Object position along y                                    [pixel]
#   5 X_WORLD                Barycenter position along world x axis                     [deg]
#   6 Y_WORLD                Barycenter position along world y axis                     [deg]
#   7 A_WORLD                Profile RMS along major axis (world units)                 [deg]
#   8 B_WORLD                Profile RMS along minor axis (world units)                 [deg]
#   9 THETA_WORLD            Position angle (CCW/world-x)                               [deg]
#  10 FWHM_WORLD             FWHM assuming a gaussian core                              [deg]
#  11 ELONGATION             A_IMAGE/B_IMAGE                                           
#  12 ELLIPTICITY            1 - B_IMAGE/A_IMAGE                                       
         1 -12.0690     76.6417     24.3335   2.9113446145e+02   7.0647246064e+00   0.02424781    0.0190457 -88.99   0.00112762    1.485    0.327
         2 -10.9420     89.1227     22.2464   2.9096700733e+02   7.0177459377e+00   0.02184936   0.01236546 -79.08  0.001952692    2.257    0.557
         3 -11.4674     90.3142     15.8440   2.9091727328e+02   7.0852833495e+00   0.01776334   0.01179573 -58.37 0.0004528744    1.565    0.361
         4 -10.4614     87.4528     12.4875   2.9093479816e+02   7.1405868783e+00   0.01151117   0.01069913  69.23 0.0008867324    1.152    0.132
         5 -10.0588     87.9945      8.3364   2.9090543295e+02   7.1856857921e+00    0.0206128  0.008525003 -48.11  0.001340331    2.554    0.609
         6 -10.2306     13.0010     16.0731   2.9188600929e+02   7.5228032471e+00   0.02469863  0.009581656  35.60  0.001979489    2.288    0.563
         7 -10.1960     26.4583     16.1452   2.9171793264e+02   7.4455293296e+00   0.01542477    0.0135872  33.60  0.001027921    1.076    0.071
         8 -10.8640     41.1528     18.8697   2.9154880278e+02   7.3303364186e+00   0.02089698    0.0165768  16.12  0.002330845    1.223    0.183
         9 -10.5258     46.2356     16.1640   2.9147049116e+02   7.3328335276e+00   0.01685894  0.009623811 -29.25 0.0008742535    2.276    0.561
        10  -9.7930    109.5248     12.5323   2.9065901351e+02   7.0139842995e+00   0.01338361  0.006757225 -63.76  0.001187394    2.087    0.521
        11 -10.7535     41.9612      6.5173   2.9147157310e+02   7.4691656122e+00   0.02982782   0.01416875   9.15  0.002282431    2.816    0.645
        12 -11.5292     30.1330      7.2058   2.9162338423e+02   7.5284430295e+00   0.02198402   0.01727773  39.89  0.001366213    1.226    0.184
        13 -11.5245     35.1779     13.3447   2.9159357493e+02   7.4284802549e+00   0.02358388   0.01661376 -85.50   0.00184412    1.722    0.419
        14 -11.5057     39.7559     10.6288   2.9152151873e+02   7.4339773336e+00   0.01436345   0.01280032  67.19 0.0002731771    1.214    0.177
        15 -10.6471    212.2521     12.1338   2.8937383996e+02   6.4296146736e+00   0.01392309   0.01088206  57.22 0.0006906374    1.385    0.278
        16  -9.8961    210.4703      7.9527   2.8937324360e+02   6.4883545970e+00   0.01020836  0.006812996 -64.56  0.001033436    1.597    0.374
        17 -10.0457     68.4485     11.4932   2.9116713700e+02   7.2605407653e+00     0.022801   0.01280349  55.23  0.002022038    2.167    0.539
        18 -11.2317     71.0025      7.0755   2.9111115368e+02   7.2972668990e+00   0.01672389   0.01432528  21.12 0.0004877332    1.102    0.092
        19 -10.9822     66.2087      6.5954   2.9116852739e+02   7.3301699206e+00   0.02380692   0.01528291  -9.52  0.002234798    1.980    0.495
        20  -9.4345    118.8542     11.8245   2.9053851900e+02   6.9688535009e+00  0.009551429  0.007418893  47.70 0.0003784517    1.305    0.234
        21 -11.9149    150.8970      7.9231   2.9011680694e+02   6.8306699413e+00   0.02301581   0.01688629 -31.14  0.002434236    1.519    0.342
        22 -10.7984     92.9648      9.1945   2.9084793417e+02   7.1473457265e+00   0.01267768    0.0111312 -24.14 0.0004902654    1.198    0.166
        23 -10.2313     92.6565      5.0056   2.9082898871e+02   7.1977306113e+00   0.02857842   0.01325705  59.64  0.002006418    3.619    0.724
        24 -11.1749     22.1230      9.4268   2.9173572715e+02   7.5481764426e+00   0.01781518   0.01292464 -17.31  0.001041156    1.598    0.374
        25 -10.2198     10.0850      1.4720   2.9184326940e+02   7.7088876963e+00   0.01220258  0.007771379  26.31 0.0007657925    1.457    0.314
        26  -9.5254      7.7124      4.9394   2.9189180428e+02   7.6820982249e+00   0.01659856   0.01009556  37.80  0.001223491    1.547    0.353
        27  -9.9319     15.5577      8.4402   2.9181257009e+02   7.5969192226e+00   0.01031197   0.01019371 -41.15 0.0006370486    1.074    0.069
        28 -10.2055     12.0369      7.2636   2.9185026732e+02   7.6305696495e+00   0.02303095   0.01757704 -42.80  0.002523154    1.384    0.278
        29 -10.7364      4.4513      9.3643   2.9195665319e+02   7.6492256064e+00   0.01637334   0.01220291  26.30 0.0009779494    1.250    0.200
        30  -9.9427      2.5223      6.5225   2.9196538810e+02   7.6931641967e+00   0.01244015  0.009933329  28.97 0.0007595069    1.167    0.143
        31 -10.2883     76.3816      8.5200   2.9105170976e+02   7.2498209292e+00   0.01363752    0.0100972 -33.80 0.0006620881    1.482    0.325
        32 -10.3842     55.1656      7.8184   2.9131337458e+02   7.3788928388e+00   0.01186822   0.01075257   6.30 0.0003850953    1.088    0.081
        33 -11.7481     56.8421      4.2096   2.9127277130e+02   7.4112394846e+00   0.03893952   0.01729132  28.22  0.003302197    2.028    0.507
        34 -10.1124    218.6045      7.2021   2.8926768796e+02   6.4502855004e+00  0.009301584   0.00607826 -49.83 0.0003866914    1.595    0.373
        35 -10.5359    190.6011      5.2004   2.8960614813e+02   6.6344546207e+00   0.00985938  0.006013187 -50.86 0.0009537864    1.700    0.412
        36 -11.1586    120.0015      4.5151   2.9048436058e+02   7.0471280283e+00   0.02057453   0.01169728   8.66  0.001135358    2.062    0.515
        37 -11.3978    130.2098      3.5787   2.9035164525e+02   6.9995768171e+00   0.01539775   0.01137266  34.95  0.001327408    1.267    0.211
        38 -11.8962     80.3135      1.8052   2.9096597986e+02   7.3053366929e+00   0.02234872   0.01190882  13.82  0.001952138    2.069    0.517
        39 -10.6268     38.4209      2.5377   2.9149426520e+02   7.5355083900e+00   0.02003623   0.01174612 -28.78  0.001792583    2.180    0.541
        40 -10.0406    199.1638      3.1266   2.8948796582e+02   6.6093154563e+00  0.009746011  0.007740343  52.42 0.0005773788    1.315    0.239
        41 -10.7891     18.8356      2.6712   2.9174020411e+02   7.6452829049e+00   0.02084014   0.01217802   8.87  0.001897954    1.957    0.489
        42 -10.0071    146.9913      2.4773   2.9013591596e+02   6.9162442852e+00   0.01056741  0.006405396  24.35 0.0005817768    1.549    0.355
        43  -9.1009    204.3342      1.2697   2.8941331329e+02   6.6011361567e+00  0.006943849  0.005064141 -18.14 0.0002726566    1.592    0.372
        44 -10.4515      2.0624      2.9078   2.9195153165e+02   7.7377391066e+00   0.01115061   0.00913156  17.28 0.0004881895    1.173    0.147
        45 -10.3188      3.1407    114.0298   2.9253983374e+02   6.4401715536e+00   0.02003251  0.008919099   8.92  0.001416687    3.271    0.694
        46 -10.9845      1.9411    248.7389   2.9328079667e+02   4.8793844246e+00   0.02441771   0.01208705 -68.98  0.002122218    2.267    0.559
        47 -13.2099      9.2941    246.1752   2.9317535616e+02   4.8675200015e+00   0.08287244   0.02843279  24.08  0.006089449    2.766    0.638
        48 -12.3229      5.0428    240.5976   2.9319836600e+02   4.9565463335e+00   0.03131785   0.01898117  31.42  0.003088349    1.512    0.338
        49 -13.3986      9.4743    229.9847   2.9308602781e+02   5.0549280221e+00   0.04127495   0.03270199 -88.50  0.004565767    1.459    0.315
        50 -11.7160      5.0327    108.7405   2.9248759796e+02   6.4909623536e+00   0.02602918   0.01241072  26.63  0.001960668    1.923    0.480
        51  -9.2640     79.6402    106.7168   2.9154429021e+02   6.0902006290e+00  0.007145966   0.00503822 -19.27 0.0007018182    1.675    0.403
        52  -9.9616     66.8322    101.8912   2.9167815220e+02   6.2193033840e+00  0.009541829  0.007842372  61.95 0.0009034904    1.331    0.249
        53 -10.5427     58.3720    107.4648   2.9181406749e+02   6.2026649730e+00   0.01506902  0.009839266 -19.30  0.001387111    1.915    0.478
        54 -11.5871     17.9009     94.3463   2.9224887847e+02   6.5853350003e+00   0.02172768   0.01608994  66.55  0.002289601    1.586    0.370
        55 -10.2307     20.4763     91.4564   2.9220103938e+02   6.6043156249e+00   0.01239386  0.009790592  19.98 0.0006333442    1.206    0.171
        56  -9.4857     90.6761     96.6994   2.9135208771e+02   6.1437437718e+00  0.007075248  0.005045184 -22.60 0.0006493272    1.632    0.387
        57 -10.5145     78.8068     94.8334   2.9149025793e+02   6.2331293320e+00   0.01006038  0.008915957 -16.56 0.0003679798    1.178    0.151
        58  -9.5786      3.3949     95.2425   2.9243509109e+02   6.6572354841e+00   0.00905242  0.006657884 -85.58 0.0005997847    1.613    0.380
        59 -10.3320     84.2818     93.7719   2.9141609199e+02   6.2142533943e+00   0.01513444   0.01117043   7.74  0.001600835    1.415    0.293
        60  -9.1028     38.3070     92.2791   2.9198258052e+02   6.4934229510e+00  0.006871805  0.005056784 -21.27 0.0002124094    1.555    0.357
        61 -11.1094     27.3224     90.7486   2.9211161518e+02   6.5736560107e+00   0.03181935   0.01379303  45.61  0.002542134    2.482    0.597
        62  -9.8917     25.4498     84.9315   2.9210352957e+02   6.6519353686e+00    0.0104295  0.009099561 -25.71 0.0006987158    1.208    0.172
        63  -9.7074     19.1575     86.8898   2.9219280922e+02   6.6649047253e+00   0.01039927   0.01009627  -2.39 0.0009875941    1.050    0.047
        64 -11.6975     11.1440     87.8906   2.9229842729e+02   6.6987604835e+00   0.03884694   0.01353769 -55.49  0.002991529    2.759    0.638
        65  -9.8043     16.0006     89.4760   2.9224628100e+02   6.6527582745e+00   0.01525265  0.006444083  24.01  0.001230831    2.239    0.553
        66  -9.6427    118.6397     90.3188   2.9096815970e+02   6.0582569860e+00  0.007478094  0.004770523  54.07 0.0007043144    1.765    0.433
        67 -10.4296     76.4897     89.2361   2.9148884984e+02   6.3114168675e+00    0.0124379   0.01130392  23.29  0.000481471    1.032    0.031
        68  -9.7769     44.3947     89.7036   2.9189252693e+02   6.4887473367e+00   0.01350469  0.007199015  36.73  0.001237507    1.735    0.424
        69 -10.2532      1.7323     89.6785   2.9242578627e+02   6.7313668231e+00   0.01151461  0.009038652 -62.17 0.0002451204    1.347    0.258
        70 -11.0830    104.0558     87.8100   2.9113669153e+02   6.1707255448e+00    0.0131447  0.008459586  47.05 0.0005708174    1.600    0.375
        71  -9.7095     64.5989     88.7313   2.9163471461e+02   6.3850419005e+00  0.008924801  0.006703272 -84.28 0.0009077419    1.558    0.358
        72  -9.8520    123.9833     86.9676   2.9088321883e+02   6.0666692803e+00   0.01064926  0.009828151  31.87 0.0008419454    1.034    0.033
        73 -10.8205     54.5583     84.0747   2.9173496904e+02   6.4963567301e+00   0.01324833   0.01204159 -78.52 0.0006551931    1.196    0.164
        74  -9.3653     78.2283     83.3530   2.9143520374e+02   6.3699001327e+00  0.009663047  0.005691577  34.11  0.000272174    1.560    0.359
        75 -10.3677      3.9513     82.7525   2.9236056847e+02   6.7993141244e+00   0.01176419   0.01017823 -61.21 0.0009822801    1.225    0.183
        76 -11.6499     63.9634     80.8318   2.9159981786e+02   6.4805012930e+00   0.02199568   0.01982424 -87.56  0.002232487    1.219    0.180
        77  -9.7784    250.3777     80.7765   2.8927312051e+02   5.4138628728e+00  0.009493549  0.006077917 -51.62 0.0006021765    1.618    0.382
        78 -10.0884     89.4118     80.3913   2.9127937379e+02   6.3405457735e+00   0.01271618  0.009981321  80.80 0.0007111332    1.503    0.335
        79  -9.8904     65.9432     75.2372   2.9154472038e+02   6.5342593212e+00   0.01012661   0.00951457   9.49            0    1.040    0.038
        80  -9.1678    113.8410     86.3837   2.9100671634e+02   6.1314160831e+00  0.008947534  0.006232984   5.83 0.0002761703    1.559    0.359
        81  -9.8401    176.7007     77.1194   2.9017159940e+02   5.8793239574e+00   0.01283997   0.00868414  35.70  0.001320346    1.380    0.275
        82  -9.6828     74.9829     75.6759   2.9143410428e+02   6.4776443850e+00  0.009454699  0.007970993  23.42 0.0001985246    1.114    0.102
        83 -10.9815     55.5374     75.6173   2.9167686890e+02   6.5891043190e+00   0.01597919   0.01275934  14.83 0.0005332509    1.223    0.183
        84 -10.6272     15.5085     76.1509   2.9218029901e+02   6.8104821059e+00   0.01299237  0.009162977  25.42 0.0009748428    1.324    0.245
        85  -9.1402     70.3087     75.3276   2.9149064059e+02   6.5083343035e+00  0.007143307  0.005005653 -25.86 0.0004673506    1.658    0.397
        86 -11.3615     34.4722     73.0659   2.9192642953e+02   6.7386098360e+00   0.03179246   0.01745973  24.86  0.002966513    1.702    0.413
        87  -9.6116    224.1825     74.2281   2.8956375907e+02   5.6404261123e+00  0.009243127  0.007353127  49.12 0.0003185307    1.283    0.221
        88 -10.0709    150.7009     74.7120   2.9048298696e+02   6.0562432092e+00  0.006880111  0.005058005 -22.70 0.0006975935    1.556    0.357
        89  -9.6191    136.5549     74.2821   2.9065727087e+02   6.1421996128e+00  0.009039171  0.006268408 -49.42 0.0007113753    1.504    0.335
        90 -10.9118      4.1318     73.8195   2.9230996757e+02   6.9021485094e+00   0.02461499   0.01045627  27.32  0.001455817    2.129    0.530
        91  -9.6762    216.8451     72.3971   2.8964523308e+02   5.7038293689e+00   0.01059619  0.008069345 -53.87 0.0005321324    1.370    0.270
        92  -9.5590     92.4788     72.4522   2.9119793835e+02   6.4153227027e+00   0.01195882   0.00858153  36.94 0.0008036382    1.314    0.239
        93  -9.4272     90.7233     69.3502   2.9120303073e+02   6.4613933617e+00   0.01050759  0.008229231  77.24 0.0003146654    1.504    0.335
        94  -9.4815     48.9813     74.0000   2.9175006714e+02   6.6452227894e+00   0.01139342  0.003698411  24.59 0.0007756458    2.889    0.654
        95 -10.3122    105.9108     71.3948   2.9102435212e+02   6.3509262341e+00     0.011299  0.009755185 -52.04 0.0004528938    1.215    0.177
        96 -10.9748     79.8283     71.1109   2.9134876174e+02   6.5030790022e+00   0.02603924   0.01294921  47.35  0.002230248    2.183    0.542
        97 -10.4876     10.5039     68.8259   2.9220322877e+02   6.9240450792e+00   0.01336606   0.01220632 -59.38  0.001599191    1.161    0.139
        98 -11.5727     17.1943     64.2147   2.9209456413e+02   6.9396661888e+00   0.01873638   0.01662918   4.35  0.002211546    1.123    0.110
        99 -10.6738      2.4689     54.3608   2.9222540917e+02   7.1377627517e+00   0.02253593   0.01295813 -24.81  0.001949936    2.361    0.576
       100 -11.0813     12.2413     48.6224   2.9207203984e+02   7.1490001736e+00   0.04597232   0.01312513  27.82  0.002920846    3.001    0.667
       101 -12.9436     20.7699     57.6281   2.9201414492e+02   6.9959151083e+00   0.02562445   0.01679995  36.41 0.0007868877    1.428    0.300
       102 -10.5815     20.1743     51.4657   2.9198819337e+02   7.0709155223e+00   0.01951781   0.01155046 -38.61 0.0009604951    1.920    0.479
       103 -11.2344     17.8431     45.2722   2.9198378403e+02   7.1561245875e+00   0.02741121   0.01525252  36.87  0.001797291    1.670    0.401
       104 -10.7418     41.2467     59.0482   2.9176570613e+02   6.8630194395e+00   0.01507868   0.01271002 -32.68 0.0008663008    1.258    0.205
       105 -11.1490     34.5783     64.9593   2.9188116142e+02   6.8322380629e+00   0.01600639   0.01278718   6.56 0.0006443412    1.279    0.218
       106 -11.1664     39.1892     62.8050   2.9181181269e+02   6.8310588945e+00   0.02003163   0.01399689 -49.48  0.001596959    1.492    0.330
       107 -10.6901    130.1678     63.9355   2.9068076973e+02   6.2989563786e+00   0.02558757   0.01190688  54.56  0.001945609    2.952    0.661
       108  -9.4182    101.4963     65.4765   2.9104735483e+02   6.4449144501e+00  0.006830177  0.006403545  20.95 0.0008102036    1.007    0.007
       109 -10.1474     47.7384     69.0660   2.9173885325e+02   6.7096501010e+00   0.02717144   0.01101752  11.89  0.001827116    3.575    0.720
       110 -11.2531      7.4796     62.7164   2.9220797384e+02   7.0122236277e+00   0.02441245   0.01473906 -26.17  0.002221314    2.121    0.529
       111 -10.5237     62.8484     62.0674   2.9151194650e+02   6.7049640622e+00   0.01183019  0.009185299 -51.99 0.0007964408    1.344    0.256
       112 -10.3710     60.5954     57.9470   2.9151775399e+02   6.7656840628e+00   0.01266826   0.01044838  40.73 0.0006032415    1.176    0.149
       113  -9.6535     53.5284     62.0180   2.9162821921e+02   6.7586132667e+00  0.009181101  0.008957107  86.88 0.0005019485    1.098    0.089
       114 -11.0889     54.6762     57.4904   2.9158929813e+02   6.8046980651e+00   0.03267773   0.02071582  37.49  0.003285154    1.483    0.326
       115  -8.7037     67.2852     60.3368   2.9144707769e+02   6.6997988081e+00  0.007069412   0.00498075 -28.20 0.0007014664    1.628    0.386
       116 -10.4184      2.1989     59.7585   2.9225802106e+02   7.0765603675e+00   0.01597774  0.009748275  55.16  0.001499432    1.909    0.476
       117  -9.4367    177.9557     59.0170   2.9005737209e+02   6.0823876982e+00  0.008043128   0.00753805  24.06 0.0003106981    1.002    0.002
       118  -9.4012    119.3276     59.6442   2.9079284849e+02   6.4108022360e+00  0.007430977  0.004846804  57.15  0.000152756    1.777    0.437
       119 -10.3130     71.3251     57.6633   2.9138204994e+02   6.7078433426e+00   0.01134371  0.009813855 -38.66 0.0003757469    1.214    0.176
       120 -10.3963     99.9384     56.0897   2.9101581163e+02   6.5628837035e+00   0.01002379  0.009618159   3.03 0.0004619687    1.044    0.042
       121 -10.6002      7.5166     55.9606   2.9217091767e+02   7.0905342912e+00   0.01377984  0.009844823  22.56 0.0008424029    1.324    0.245
       122 -10.9087    115.0022     53.9676   2.9081602314e+02   6.5014782861e+00   0.01589719   0.01310359  11.39  0.001141731    1.199    0.166
       123 -10.7590    106.0864     52.8564   2.9092139785e+02   6.5653343630e+00   0.01610795   0.01118453  46.96    0.0016677    1.468    0.319
       124 -11.5510     87.4000     53.9362   2.9116083442e+02   6.6594771248e+00   0.02218739   0.01419568  26.54  0.002233352    1.450    0.310
       125  -9.7424     81.9252     52.5292   2.9122163405e+02   6.7070599636e+00   0.01088241   0.00826967   0.75  0.001058066    1.417    0.294
       126  -9.5798     76.9387     54.7345   2.9129595851e+02   6.7098738894e+00  0.009558362   0.00797702  28.27 0.0003027893    1.119    0.106
       127  -9.4322    162.4820     54.4541   2.9022565412e+02   6.2240845450e+00  0.006826211   0.00638415  21.05 0.0001925778    1.008    0.008
       128 -11.8285     66.4532     52.4971   2.9141491734e+02   6.7956420812e+00   0.03182883   0.01298549  21.06  0.002280835    2.482    0.597
       129  -9.8822     34.5739     53.2146   2.9181753255e+02   6.9687633512e+00   0.01357129  0.009036385 -34.19 0.0009921812    1.704    0.413
       130  -9.7200    169.7250     52.8998   2.9012677627e+02   6.2006210711e+00  0.008912552  0.008593923  52.64 0.0002675655    1.076    0.070
       131  -9.2064    176.4472     52.4294   2.9004031399e+02   6.1675392322e+00  0.006795844  0.006342802  23.18 1.835549e-05    1.005    0.005
       132  -9.0581     45.5446     51.5004   2.9167100276e+02   6.9262824303e+00  0.006798154  0.006408406  19.48 -2.632456e-05    1.010    0.010
       133  -9.2661     91.2979     50.2919   2.9109230253e+02   6.6795748371e+00  0.006895049  0.005049938 -23.29 0.0001867168    1.561    0.360
       134  -8.9049     59.6235     49.2795   2.9148285712e+02   6.8719387759e+00  0.007394841  0.004699824  51.00  0.000251868    1.706    0.414
       135 -10.1254     38.1793     48.9935   2.9174953341e+02   6.9973131999e+00   0.01042804  0.008611726 -22.96 0.0009302315    1.304    0.233
       136 -10.4592     77.8611     46.0018   2.9123698425e+02   6.8060787895e+00   0.01652534   0.01100293  14.99  0.001098184    1.519    0.342
       137 -10.6241     68.0742     46.7680   2.9136353225e+02   6.8529721577e+00   0.01927965  0.009508066  26.41  0.001308392    1.866    0.464
       138  -9.3939     91.3590     44.7378   2.9106134981e+02   6.7437518059e+00  0.009094926  0.006132233 -52.61 0.0005035003    1.537    0.349
       139 -10.5337     25.7628     43.7161   2.9187625021e+02   7.1292182410e+00   0.01701782   0.01180566  38.46  0.001779502    1.370    0.270
       140 -10.3858     70.6809     41.5354   2.9130250881e+02   6.8989065919e+00   0.01634524    0.0124721 -63.45  0.001790307    1.392    0.281
       141 -10.1956      3.3614     41.6317   2.9214527515e+02   7.2806175695e+00    0.0240902   0.01231109 -13.59  0.001704949    3.593    0.722
       142  -9.6331    182.5664     41.5063   2.8990442737e+02   6.2592629071e+00    0.0132593  0.004976914  36.31  0.001030949    2.368    0.578
       143 -10.9574    139.7174     40.5979   2.9043448728e+02   6.5153941525e+00   0.01274804   0.01102176  70.52 0.0003837729    1.277    0.217
       144 -10.3091     36.1529     40.4799   2.9172869193e+02   7.1077581831e+00   0.01660863   0.00948446 -56.61  0.001465438    1.791    0.442
       145  -9.2277     51.3829     40.1628   2.9153643241e+02   7.0247876093e+00  0.008899448  0.006627895 -85.34 0.0005624281    1.585    0.369
       146  -9.2501     43.2630     40.6687   2.9164076059e+02   7.0651207110e+00  0.006892027  0.004991988  60.24  0.000230143    1.574    0.365
       147 -10.8541     20.4032     31.4696   2.9187689046e+02   7.3019447507e+00   0.03264665   0.01644506   4.08  0.002442158    2.856    0.650
       148 -10.2319     22.1698     38.5273   2.9189306646e+02   7.2099178096e+00   0.01299861   0.01067516  75.82 0.0008724357    1.394    0.283
       149 -11.0572     26.6118     35.1371   2.9181908863e+02   7.2240670011e+00   0.01923022   0.01279868 -39.83  0.001103956    1.641    0.390
       150 -10.3842     13.0548     37.7548   2.9200294614e+02   7.2706553347e+00   0.01410573  0.008638489 -63.83  0.001381102    1.727    0.421
       151 -10.2330    130.8840     37.5763   2.9052839404e+02   6.6010410385e+00   0.01262175   0.01097479 -26.12 0.0005781954    1.215    0.177
       152 -11.0032    134.4568     34.0074   2.9046432515e+02   6.6220387679e+00   0.01136804  0.009087065   6.32 0.0002617009    1.281    0.220
       153 -11.8154    121.4627     36.2076   2.9063866960e+02   6.6708325337e+00   0.02565923   0.01958741  46.06  0.002809319    1.314    0.239
       154  -9.5648    163.6228     37.2521   2.9011771302e+02   6.4172969703e+00  0.008946622  0.006166265 -50.99 0.0002427966    1.509    0.337
       155 -10.1000     70.1469     34.9833   2.9127358642e+02   6.9780638911e+00   0.01848941  0.006470404 -51.93   0.00139715    2.829    0.646
       156 -10.3758      1.3652     35.5004   2.9213702964e+02   7.3631755094e+00   0.01198732   0.01087572 -64.22 0.0007026091    1.175    0.149
       157 -11.6340     50.5541     33.8142   2.9151232789e+02   7.1032570873e+00   0.01803363   0.01037791  33.23 0.0005103329    1.589    0.371
       158  -9.7864    166.5637     32.2589   2.9005378637e+02   6.4584038901e+00    0.0128515  0.007025471 -73.22  0.001144381    2.167    0.538
       159 -11.1610    145.0221     33.0096   2.9032690041e+02   6.5731340627e+00   0.01063587   0.01003727  46.31  0.001287149    1.074    0.069
       160 -10.0362    141.1702     30.5526   2.9036163741e+02   6.6237198876e+00   0.01442873   0.01214879 -49.16 0.0008353324    1.244    0.196
       161 -10.3697    138.6758     26.9857   2.9037337320e+02   6.6794155307e+00    0.0257172  0.009798228  20.87  0.001506249    2.719    0.632
       162  -9.9054    151.1008     29.6958   2.9023292137e+02   6.5767873432e+00  0.009978857  0.008415702  17.81 0.0006876243    1.134    0.118
       163 -11.5399     43.8219     28.9378   2.9157008084e+02   7.1982171393e+00   0.02614331   0.01827664 -47.29  0.002532984    1.500    0.333
       164 -10.1100    104.1691     29.5576   2.9081864188e+02   6.8469161289e+00   0.01331961  0.007953232 -27.69  0.001194258    2.140    0.533
       165  -9.5470    187.5001     29.5161   2.8977749196e+02   6.3701265997e+00  0.006829782  0.006405324   9.38 0.0008100964    1.043    0.041
       166  -9.9431     69.8232     28.3244   2.9124144706e+02   7.0572543974e+00   0.01115254  0.009479929  88.41 0.0007858227    1.328    0.247
       167  -9.8593      7.4717     28.3094   2.9202160814e+02   7.4120690009e+00      0.01389   0.00771882  28.30 0.0009118451    1.647    0.393
       168 -11.0817     33.5339    247.4274   2.9287992712e+02   4.7153539054e+00   0.01662803  0.008725539  14.41  0.001436742    2.087    0.521
       169 -10.2017    200.9637     25.6737   2.8958854115e+02   6.3374037633e+00   0.01411391  0.009291944 -63.96  0.001110254    1.613    0.380
       170 -10.7620    113.9558     25.1902   2.9067252821e+02   6.8416960455e+00   0.01124927   0.01008147 -68.58 0.0006438147    1.199    0.166
       171  -9.5284    218.6400     25.3262   2.8936617278e+02   6.2398535824e+00  0.007500043   0.00476992  54.64  0.000179997    1.785    0.440
       172  -9.8645    153.2680     25.5531   2.9018327954e+02   6.6124622052e+00   0.01299557  0.005915961  30.17 0.0008415632    1.963    0.491
       173 -10.1675     59.0270     24.4521   2.9135546373e+02   7.1637500989e+00   0.01297015  0.008971731 -44.58 0.0009132248    1.532    0.347
       174 -10.1641     51.9137     23.2607   2.9143799317e+02   7.2180968123e+00    0.0178345   0.01121983 -54.22  0.001719219    1.638    0.389
       175  -9.2311    249.0057     23.0048   2.8897501722e+02   6.0920850477e+00  0.008093439  0.007775856  22.94 0.0004225387    1.025    0.024
       176  -9.4922    216.9567    245.0000   2.9058189669e+02   3.6975048831e+00   0.01151221  0.003700635  24.71 0.0004980236    2.917    0.657
       177 -10.6979     37.5130    241.5211   2.9279852525e+02   4.7614835656e+00   0.02026614  0.009165247  56.59  0.001448407    3.375    0.704
       178  -9.5955    202.5019    240.0581   2.9073499486e+02   3.8376350824e+00  0.009826054  0.006813125 -63.91 0.0007272161    1.531    0.347
       179  -9.3588     60.4651    241.0000   2.9250958759e+02   4.6370668280e+00   0.01540362  0.003699948  24.59 0.0009310183    3.905    0.744
       180 -11.0982     13.4176     20.6117   2.9190542127e+02   7.4677298262e+00   0.01919102   0.01324044  47.43  0.001058939    1.487    0.328
       181 -12.1048      4.2200    232.6286   2.9316576952e+02   5.0539583647e+00    0.0263619   0.01847242  82.94 0.0006923314    1.805    0.446
       182 -10.5714     30.9235     19.6150   2.9168087946e+02   7.3798553417e+00   0.01453953   0.01146197  78.02  0.001476679    1.491    0.329
       183 -12.0077     26.3464    235.9159   2.9290756563e+02   4.8901411601e+00   0.02110236    0.0167425 -51.80  0.001682797    1.316    0.240
       184  -9.8265    175.4825     20.5073   2.8987837218e+02   6.5436486709e+00  0.006824731  0.006407799   9.93  0.000222411    1.040    0.039
       185 -10.4216    100.5543     19.4563   2.9080887039e+02   6.9848622371e+00   0.01664403  0.009566216  64.06  0.001430335    2.420    0.587
       186  -8.9464    155.5766    235.5057   2.9129462976e+02   4.1587868569e+00  0.006751656  0.006414887  18.75 5.629833e-05    1.016    0.015
       187  -9.7849    249.1580    234.1564   2.9012254370e+02   3.6391985365e+00   0.01012219  0.008957807  -6.92 0.0005378959    1.165    0.141
       188  -9.6117    148.7292     18.7685   2.9020300408e+02   6.7172236187e+00  0.009364923  0.007390164  50.53 0.0003619175    1.308    0.236
       189  -9.4934    142.6566     19.2938   2.9028173394e+02   6.7459134466e+00  0.007279174  0.004805006  52.81 0.0003585037    1.661    0.398
       190 -10.1553    199.9141     17.1852   2.8955532630e+02   6.4419237775e+00   0.01053169  0.008783036  53.07 0.0005717894    1.246    0.197
       191 -10.9976    107.9782     16.5792   2.9070038315e+02   6.9758440657e+00   0.01705909   0.01052309  32.17  0.001221446    1.487    0.328
       192  -8.9054     80.3161    231.6778   2.9221183748e+02   4.6325644326e+00  0.007234061  0.004887099  55.76  0.000704203    1.663    0.399
       193  -9.7252    140.0863    227.0627   2.9144193072e+02   4.3454442502e+00   0.01143532  0.007445724  53.77 0.0008056731    1.710    0.415
       194 -10.1309     32.5536    225.1539   2.9277220826e+02   4.9801362616e+00    0.0175722  0.008609627  34.28  0.001559902    1.845    0.458
       195 -10.1041     25.5110    225.0080   2.9285925030e+02   5.0218317951e+00   0.01106935   0.00894252  23.09   0.00084484    1.165    0.142
       196 -10.2279    249.1396    111.8130   2.8945765201e+02   5.0606185703e+00  0.009688918  0.007911387 -21.26  0.001073277    1.331    0.249
       197 -10.5470     20.0786     16.8159   2.9180143514e+02   7.4739876280e+00   0.01321383  0.008927343  25.33 0.0003921348    1.382    0.276
       198  -9.4318     84.7711     21.3628   2.9101662465e+02   7.0528425900e+00  0.009685439  0.006262677  11.62 0.0005946005    1.635    0.388
       199 -10.4325    155.7517     14.1940   2.9009034720e+02   6.7300716439e+00   0.01654707   0.01003309   4.61  0.001515395    1.969    0.492
       200  -9.6881    144.0985     14.4958   2.9023757273e+02   6.7933451855e+00   0.01009099  0.006415078  24.19 0.0003567729    1.478    0.324
       201 -11.7555      7.7211    217.6270   2.9304138860e+02   5.2086976414e+00   0.01627616   0.01512262 -47.54  0.001309864    1.131    0.116
       202  -9.7104    246.4957    216.5211   2.9005993571e+02   3.8593531848e+00  0.006829424  0.006409651  10.55 0.0001605108    1.038    0.037
       203 -10.5423      3.7258    212.4753   2.9306349553e+02   5.2913175477e+00   0.01516123  0.009362329  30.72  0.001337832    1.486    0.327
       204  -9.7419    209.2885    212.0123   2.9049846672e+02   4.1248277171e+00  0.009444645  0.008934997 -54.44  0.000886626    1.119    0.106
       205  -9.9925     66.1757    110.6837   2.9173400536e+02   6.1207921449e+00  0.009396797  0.008769132  78.07 0.0009617977    1.158    0.136
       206  -9.3199    184.6375     12.2742   2.8971918273e+02   6.5866374316e+00  0.007303574  0.004731779  50.90  0.000700448    1.662    0.398
       207  -9.8172    246.8602    206.9116   2.9000322376e+02   3.9689217888e+00   0.01057904  0.008863064 -32.70 0.0008297311    1.269    0.212
       208 -10.1340      2.4633    205.5251   2.9304182992e+02   5.3793674122e+00  0.006804241  0.006403748  19.96 6.603295e-05    1.009    0.009
       209  -9.4767    197.1906    204.1343   2.9060636442e+02   4.2856535539e+00  0.009652448  0.007690721  52.69 0.0006442325    1.313    0.238
       210 -11.0824      9.3685    203.3283   2.9294384650e+02   5.3657692186e+00   0.01433028   0.01172985  28.06 0.0009347604    1.140    0.123
       211  -8.9667    181.5202    199.5034   2.9077642789e+02   4.4291597150e+00  0.006884041  0.006354338  35.33 -4.504357e-05    1.047    0.044
       212  -9.5952     23.1871    197.5878   2.9274049276e+02   5.3541488213e+00  0.009766509  0.006382885   9.22 0.0005112237    1.653    0.395
       213  -9.8913      6.5897    191.6993   2.9291587236e+02   5.5168736677e+00  0.008895728    0.0066854 -86.53 0.0009337667    1.567    0.362
       214  -9.8142     15.4098    185.5756   2.9277278900e+02   5.5380963519e+00   0.01210094  0.006931361 -73.94  0.001106092    2.051    0.512
       215  -9.0659    250.3273    183.3217   2.8983193120e+02   4.2231367734e+00  0.007202902  0.005019019 -24.21 0.0007048207    1.688    0.408
       216  -9.2642      1.1998    183.0713   2.9293665291e+02   5.6478551204e+00  0.008584023  0.005395324 -62.84 0.0004403635    1.672    0.402
       217 -10.6809      4.5693    167.2612   2.9280935925e+02   5.8127357172e+00   0.01577393   0.01150223  58.78  0.001539331    1.538    0.350
       218  -9.4212     41.5553    158.4824   2.9230015684e+02   5.7048552421e+00  0.006840759  0.006349799  35.54 0.0001671416    1.045    0.043
       219  -9.2105    247.4473    155.5250   2.8971663582e+02   4.5626009297e+00  0.006790729  0.006408226  18.84 0.0001191744    1.013    0.013
       220  -9.4806    243.0000    154.9518   2.8976887108e+02   4.5947760339e+00   0.01060102  0.003945965 -64.95 0.0005923293    2.864    0.651
       221 -10.1816      2.8089    153.6043   2.9275767279e+02   5.9816394281e+00    0.0107095   0.00553517  35.62 0.0009613198    1.772    0.436
       222 -10.2851     22.0820    143.2448   2.9246102157e+02   5.9928004003e+00   0.01190022   0.01012515 -67.04  0.001369046    1.259    0.206
       223 -10.7454     12.9094    130.7642   2.9250818337e+02   6.1900782453e+00   0.02187201   0.01125596  53.45  0.001316677    2.391    0.582
       224  -9.8607     29.1451    128.8389   2.9229492829e+02   6.1202790951e+00   0.01306081  0.009319795  68.36  0.001178399    1.699    0.411
       225  -9.6987     21.1479    126.1628   2.9238037942e+02   6.1968372205e+00  0.009932712  0.008892468  -4.30 0.0004495438    1.138    0.121
       226 -10.8903     24.1151    122.3425   2.9232264984e+02   6.2244259274e+00   0.01278407   0.01184607  76.55 0.0003485941    1.167    0.143
       227 -10.9331     21.6375    117.8078   2.9232908919e+02   6.2912466849e+00   0.01553277   0.01247961  73.37  0.001346463    1.433    0.302
       228  -9.1144     75.3639    119.7495   2.9166834798e+02   5.9630085833e+00   0.00722012  0.004679544  48.69  0.000256354    1.618    0.382
       229 -10.4158      3.3015    119.0182   2.9256477885e+02   6.3812335126e+00    0.0117981  0.009336691  24.17 0.0004879388    1.186    0.157
       230 -10.3118     34.5069    114.6733   2.9215131227e+02   6.2545878599e+00    0.0127572  0.006023689  24.31  0.001086458    1.992    0.498
