#   1 NUMBER                 Running object number                                     
#   2 MAG_AUTO               Kron-like elliptical aperture magnitude                    [mag]
#   3 X_IMAGE                Object position along x                                    [pixel]
#   4 Y_IMAGE                Object position along y                                    [pixel]
#   5 X_WORLD                Barycenter position along world x axis                     [deg]
#   6 Y_WORLD                Barycenter position along world y axis                     [deg]
#   7 A_WORLD                Profile RMS along major axis (world units)                 [deg]
#   8 B_WORLD                Profile RMS along minor axis (world units)                 [deg]
#   9 THETA_WORLD            Position angle (CCW/world-x)                               [deg]
#  10 FWHM_WORLD             FWHM assuming a gaussian core                              [deg]
#  11 ELONGATION             A_IMAGE/B_IMAGE                                           
#  12 ELLIPTICITY            1 - B_IMAGE/A_IMAGE                                       
         1 -13.9500      2.4442      8.8649   1.3084115378e+02   7.4974641878e+01      3.99873     1.321175 -61.92   0.01774508    2.500    0.600
         2 -14.1730    199.4489     10.6090   6.7768832998e+01   3.3753836331e+01     1.960774     1.239763  37.34  0.009726993    1.802    0.445
         3 -13.5197    187.8933     27.6043   7.4297020555e+01   3.4917902925e+01     1.184776     1.099756   1.84   0.00579161    1.080    0.074
         4 -10.7522    234.6881    238.9256   1.1406148623e+02  -1.6676077337e-01    0.2369226    0.1612977 -45.26  0.001567128    3.182    0.686
         5 -10.7827    248.7233    249.2796   1.1337166938e+02  -2.6557055910e+00    0.2492301    0.1421104  17.45  0.001905924    1.223    0.182
         6 -10.9856    125.3527    249.9182   1.3352255831e+02   1.2258441718e+01    0.2798612    0.1091009  34.27  0.001605774    1.942    0.485
         7 -10.9173    102.6997    247.9865   1.3729767058e+02   1.5203002736e+01    0.2158006    0.1410031  32.88  0.001069766    1.244    0.196
         8 -10.9069     95.0000    241.4706   1.3814078246e+02   1.6988668719e+01    0.1889263    0.1455302 -62.97 0.0008924713    1.669    0.401
         9 -10.7542     98.4203    249.2033   1.3813804851e+02   1.5535810967e+01    0.2597686    0.1747129  58.00  0.001524683    1.468    0.319
        10 -10.1218     97.1654    245.4046   1.3806455402e+02   1.6193996647e+01    0.1655036    0.1205511  49.96 0.0003625634    1.167    0.143
        11 -11.2959     81.6851    248.5924   1.4099913213e+02   1.7502270421e+01    0.4617887    0.1889674  56.58   0.00261349    2.665    0.625
        12  -9.9490     88.7652    249.3894   1.3982746939e+02   1.6606951247e+01    0.1491552    0.1005037  38.65 0.0003757484    1.124    0.110
        13 -11.0605     84.0477    245.0930   1.4034696159e+02   1.7727685309e+01    0.4657904    0.1956374  60.80  0.002444857    3.238    0.691
        14 -11.1721     66.7281    243.0261   1.4324840098e+02   1.9904372307e+01    0.2784624     0.175012  88.27  0.001358926    1.872    0.466
        15 -10.6025     67.4304    250.2198   1.4355401000e+02   1.8805696664e+01    0.1969043    0.1379153  44.39  0.001143866    1.050    0.048
        16  -9.7489     63.6546    250.7350   1.4422684679e+02   1.9125913734e+01    0.1936385   0.07546478  35.48  0.000515491    1.919    0.479
        17 -11.1536     46.5007    248.6601   1.4702558045e+02   2.1137834506e+01    0.2965272    0.1435176  55.80  0.001033862    1.653    0.395
        18 -14.3457     33.0117    245.4213   1.4915487763e+02   2.2881197505e+01     5.304607     1.241183  27.10   0.01971623    6.481    0.846
        19 -15.6591      5.0619    239.4480   1.5360716928e+02   2.6169895204e+01     10.66009    0.9263248 -78.29   0.04015422    8.577    0.883
        20 -13.9654     11.1236    206.8979   1.5158997933e+02   3.0962022169e+01     1.261973    0.7459702  73.09  0.002680224    1.413    0.292
        21 -14.7815     59.3190    213.4664   1.4270104337e+02   2.5308342618e+01     6.795189          nan  41.96   0.02289031    5.512    0.819
        22 -11.0229    173.7215    222.2247   1.2188230728e+02   9.4460174563e+00    0.3308261    0.2666406  57.11  0.002353399    1.776    0.437
        23 -10.3852     27.6762    221.6100   1.4910864984e+02   2.7065679241e+01    0.2134643    0.1172666  51.71 0.0009530024    1.362    0.266
        24  -8.7006    152.5167    212.9544   1.2454390668e+02   1.3586459101e+01    0.1356613     0.113701 -36.01  0.000317748    1.444    0.308
        25 -10.3504    194.5077    237.9635   1.2036237368e+02   4.9127021858e+00    0.1691174    0.1023172 -38.41  0.001164168    2.170    0.539
        26 -10.8164     34.8175    229.8688   1.4818779375e+02   2.5084076347e+01    0.2388258    0.1413222  56.11 0.0008216225    1.299    0.230
        27  -9.7815     36.7622    226.0232   1.4766081605e+02   2.5513209988e+01    0.1577648    0.1179144  52.38   0.00053898    1.033    0.032
        28 -11.5243     69.9676    198.4392   1.3940166160e+02   2.6720764073e+01    0.2981388    0.2199149 -39.57  0.001573484    1.871    0.465
        29  -9.1570     66.3541    195.7105   1.3991912872e+02   2.7620945332e+01    0.1982522    0.1220667  46.82 0.0005341174    1.355    0.262
        30 -10.1641    192.9109    194.7367   1.1438990120e+02   1.0149708364e+01    0.4797949    0.2599202 -58.33   0.00155121    8.243    0.879
        31 -11.6463     74.9609    190.7056   1.3764680382e+02   2.7526869425e+01    0.2322138    0.2125994 -40.95 0.0006355366    1.367    0.269
        32  -9.5997    106.3989    181.9553   1.2984925259e+02   2.5036557775e+01    0.1921034    0.1407219  45.83   0.00118908    1.222    0.182
        33 -10.9924     83.6356    178.1707   1.3443171720e+02   2.8788825300e+01    0.2116515     0.199825  84.56 0.0004071472    1.123    0.109
        34 -13.2622     71.2722    175.9292   1.3697734062e+02   3.0752071815e+01    0.4282594     0.259075 -41.63   0.00174278    2.251    0.556
        35 -12.8059     46.2353    232.9954   1.4630582604e+02   2.3501909273e+01    0.3066858    0.2642839  72.55 0.0008213199    1.228    0.186
        36 -12.1486     90.2758    168.7297   1.3176675044e+02   2.9732782360e+01     1.070929    0.4869896  50.16  0.004973754    2.273    0.560
        37 -12.8614     67.2428    144.0918   1.3418939027e+02   3.7805137552e+01     1.084812    0.5983543  75.27  0.004908088    2.573    0.611
        38 -12.3215     58.1647    132.2067   1.3501592426e+02   4.1520632717e+01     1.729286    0.6450321 -82.80  0.004658396    6.868    0.854
        39 -12.0404     90.7397    151.7799   1.2929576425e+02   3.3067549805e+01     0.254207    0.2285595  -8.64 0.0006241521    1.316    0.240
        40 -10.3738     46.7449    146.6035   1.3981373906e+02   3.9573057085e+01    0.2294185    0.1331448 -60.55  0.001271344    1.696    0.410
        41  -8.5615    192.2010    143.9652   1.0508899776e+02   1.7350266405e+01    0.1675069     0.100368 -32.36 0.0004167918    1.659    0.397
        42 -12.8714     31.1753    139.9454   1.4321390890e+02   4.2530371103e+01    0.5586029    0.3116635  52.41  0.003141087    1.704    0.413
        43  -9.7260    111.6990    137.5306   1.2162750245e+02   3.2811458605e+01    0.2905646    0.2133216 -14.10  0.001183584    1.852    0.460
        44  -8.7916     89.1994    138.2003   1.2754292558e+02   3.6143172815e+01    0.1721897    0.1424281  67.11 0.0002998275    1.265    0.209
        45 -10.6118     99.5322    134.5906   1.2420409906e+02   3.5362885921e+01    0.2525819     0.216648 -17.27 0.0008824285    1.363    0.267
        46  -9.4772    242.2319    138.9669   9.5473356125e+01   9.3846160289e+00    0.1629268   0.09001111 -25.10  0.000362091    1.595    0.373
        47  -9.9397    101.6936    152.2971   1.2667867411e+02   3.1372705224e+01    0.2502369    0.2220697 -39.35 0.0007584021    1.235    0.190
        48  -9.6380     43.6743    127.3128   1.3844287808e+02   4.4201603471e+01    0.1330899   0.08423333  65.30 0.0002592244    1.663    0.399
        49  -9.2324    108.6154    124.0471   1.1974991596e+02   3.6124706444e+01    0.1859001    0.1654425 -46.89 0.0003595763    1.134    0.119
        50 -10.7601    168.2223    113.3593   1.0290132447e+02   2.6879690118e+01    0.3678492    0.3120375 -81.98  0.001140718    1.691    0.408
        51  -9.1178    104.2906    148.1623   1.2536672866e+02   3.1816321758e+01    0.2468458    0.1632391 -31.68 0.0005920533    1.957    0.489
        52  -9.0742    203.4948    111.4854   9.5592219084e+01   2.0056304755e+01    0.1421839    0.1220329  -0.08 0.0008102204    1.036    0.035
        53  -9.8752    154.9924     75.4918   9.5324547087e+01   3.6260030403e+01    0.2242624     0.148745  49.85 0.0005156437    1.548    0.354
        54 -14.0796     52.5562    223.4283   1.4462531611e+02   2.4378447996e+01     0.967199    0.6560908  67.34  0.006551613    1.337    0.252
        55 -10.7926    229.7459    230.2400   1.1360337643e+02   1.2245588986e+00    0.4150322    0.2603755 -49.29  0.002298393    4.265    0.766
