#   1 NUMBER                 Running object number                                     
#   2 MAG_AUTO               Kron-like elliptical aperture magnitude                    [mag]
#   3 X_IMAGE                Object position along x                                    [pixel]
#   4 Y_IMAGE                Object position along y                                    [pixel]
#   5 X_WORLD                Barycenter position along world x axis                     [deg]
#   6 Y_WORLD                Barycenter position along world y axis                     [deg]
#   7 A_WORLD                Profile RMS along major axis (world units)                 [deg]
#   8 B_WORLD                Profile RMS along minor axis (world units)                 [deg]
#   9 THETA_WORLD            Position angle (CCW/world-x)                               [deg]
#  10 FWHM_WORLD             FWHM assuming a gaussian core                              [deg]
#  11 ELONGATION             A_IMAGE/B_IMAGE                                           
#  12 ELLIPTICITY            1 - B_IMAGE/A_IMAGE                                       
         1 -14.1004     67.6069    144.0369   1.3244300530e+02   3.7747644043e+01     3.015724     1.416059 -87.50  0.004073336    4.545    0.780
         2 -13.3290    202.5577      2.7492   6.4305843617e+01   3.3228449566e+01     1.261142    0.6471495  74.86  0.002955481    1.855    0.461
         3 -14.2201    182.0181     25.6610   7.3519062312e+01   3.6142901545e+01     1.704892     1.145395  11.40  0.005156648    1.932    0.482
         4 -14.1704    189.7762     18.3639   7.0247929326e+01   3.4945385113e+01     2.171869     1.193001 -18.63  0.007669066    2.028    0.507
         5 -12.6457    195.9111     10.3916   6.7171780614e+01   3.4187683569e+01    0.5426176     0.493829  35.10   0.00114314    1.191    0.160
         6 -11.9484     81.6784    185.4194   1.3500656925e+02   2.7083099379e+01    0.2803816     0.222822 -54.08 0.0007932957    1.477    0.323
         7 -11.3375    247.3534    249.0237   1.1399863566e+02  -8.8949145253e+00    0.4203751    0.1626795  35.77    0.0023187    1.994    0.498
         8 -10.1898    217.8021    250.3648   1.1890346597e+02  -4.7141149146e+00    0.1661302   0.07804909  34.16 0.0005495017    1.682    0.405
         9 -11.5819    193.2505    250.3451   1.2292046270e+02  -9.6257692474e-01    0.6000969   0.09094936  41.05  0.001914355    5.266    0.810
        10 -11.9930    201.8895    248.4005   1.2123046578e+02  -2.0787360817e+00    0.4587502    0.1207043  44.92  0.001911446    3.180    0.686
        11 -11.1461    134.1305    246.8967   1.3240672601e+02   8.6650830085e+00    0.2604497    0.1708941  56.69  0.001737648    1.335    0.251
        12 -12.4215    139.6133    248.4011   1.3164996729e+02   7.6183488452e+00    0.8095627    0.3192908 -52.90   0.00424856    3.267    0.694
        13 -11.2819    144.7036    249.0508   1.3086844397e+02   6.7486521271e+00    0.2446307    0.1696488  57.64   0.00105068    1.334    0.250
        14 -12.0503    126.5602    249.8304   1.3398354334e+02   9.3926303845e+00    0.3756827    0.3207459  -2.82  0.002372169    1.817    0.450
        15 -12.3991    125.8162    245.0088   1.3360600969e+02   1.0194955022e+01    0.3166173    0.2545477  57.66  0.002357599    1.070    0.066
        16 -19.1478      5.0193    131.0622   1.4563935527e+02   4.6916714358e+01     16.81743      1.35943 -73.76   0.03494945   12.810    0.922
        17 -16.4851     61.8396    214.8170   1.4178894675e+02   2.4163398971e+01      6.52161     2.747345  51.32   0.03613923    1.974    0.493
        18 -10.9357     63.2898    192.5285   1.3944272939e+02   2.8164390112e+01    0.3392937    0.2168118  61.06  0.001364345    1.380    0.275
        19  -9.1200    181.5115    192.4417   1.1614535819e+02   8.8477631429e+00    0.1323875     0.114493  31.68 3.167766e-05    1.024    0.024
        20  -9.5028    167.1654    190.4698   1.1855985715e+02   1.1808767329e+01       0.2982    0.1977243 -88.66  0.001279242    3.167    0.684
        21  -9.4898     66.4691    185.4866   1.3807508478e+02   2.9144075225e+01    0.2118801     0.122891  65.32 0.0006275543    1.695    0.410
        22 -11.8874    183.4043    213.7957   1.1933801908e+02   5.3209754981e+00     0.331914    0.2327196  27.55  0.001983546    1.364    0.267
        23 -11.6137     88.9622    174.1319   1.3202784401e+02   2.8297417167e+01    0.2938506    0.2346591 -55.40 0.0004810143    1.374    0.272
        24 -12.0124     70.1721    134.8488   1.3034132642e+02   3.9443259546e+01     1.006392    0.3515617  52.82  0.003468039    4.153    0.759
        25 -13.5576     77.4526    170.7615   1.3402653727e+02   3.0660781514e+01    0.6257215    0.3071223 -44.52  0.001645839    2.906    0.656
        26 -13.5236     94.0349    166.0855   1.2976739344e+02   2.9186818166e+01     4.748195    0.6914696  45.70  0.001001885    6.493    0.846
        27 -10.3192    228.4651    205.0434   1.0990386328e+02  -1.2408761699e+00    0.2183383    0.1939925 -42.19  0.001156285    1.545    0.353
        28 -10.2804     29.9096    169.8048   1.4386475063e+02   3.6573220393e+01    0.1615082     0.131788 -78.90 0.0006040484    1.193    0.162
        29  -9.9297    230.4554    166.4985   1.0214468229e+02   3.5736962462e+00     0.134959    0.1167946   8.23 0.0001634213    1.004    0.004
        30 -11.4864    161.9978    249.0139   1.2796201943e+02   4.0718353700e+00    0.2879072    0.1873364  28.31   0.00184478    1.594    0.373
        31 -10.5629    105.5155    148.9646   1.2432444509e+02   3.0946164654e+01    0.2842451    0.2619399 -61.39  0.000793961    1.114    0.102
        32 -10.0770    107.4862    145.0294   1.2313453637e+02   3.1452491249e+01    0.3274666    0.2164226 -40.74   0.00098927    1.733    0.423
        33 -12.3933     94.6883    148.4700   1.2676421195e+02   3.2826993653e+01    0.2625671    0.2512072  36.06 0.0005317221    1.211    0.174
        34 -10.4559    133.9618    144.9819   1.1698977473e+02   2.6621147468e+01     0.879127    0.1897717 -53.56   0.00187332    8.196    0.878
        35  -9.9730     32.4636    148.4900   1.4118502057e+02   4.0822995622e+01    0.2087112     0.126274  69.56 0.0007636392    1.664    0.399
        36 -10.9893     47.1269    146.8486   1.3764811371e+02   3.9632795274e+01    0.1959079    0.1477686  82.25 0.0009357808    1.215    0.177
        37  -9.2251     51.3165    174.5740   1.3996710587e+02   3.3247495321e+01    0.1346147    0.1125812  37.10 0.0006529139    1.473    0.321
        38 -10.2324    114.2413    135.0815   1.1955243004e+02   3.2396916173e+01    0.3225597    0.2448191 -17.21 0.0008695018    1.878    0.468
        39 -11.0998    102.5541    131.8966   1.2174726809e+02   3.5141700733e+01    0.3649318    0.2871813  12.95 0.0007574272    1.732    0.423
        40 -12.6177     44.1583    129.1399   1.3593241400e+02   4.3878218954e+01    0.5275026    0.3149337 -85.97  0.002837248    1.745    0.427
        41  -8.6528     71.6030    174.2773   1.3571720208e+02   3.0738134980e+01    0.1327933   0.07936706  67.52 0.0006990961    1.752    0.429
        42  -9.9542    160.5095    127.9740   1.0721684268e+02   2.4579426055e+01    0.2377583    0.1469919 -42.07  0.001046642    1.633    0.388
        43 -10.5302    119.3103    127.5650   1.1670387796e+02   3.3071575768e+01    0.2533329    0.1736859 -30.66 0.0008988732    1.801    0.445
        44  -9.8987    110.0023    122.6827   1.1791738985e+02   3.5841752747e+01    0.2217706    0.1928952 -53.16  0.000369583    1.109    0.098
        45 -10.8488    168.2375    113.0166   1.0180618072e+02   2.5736947297e+01    0.3783998    0.3005993 -79.25  0.001058691    1.668    0.400
        46  -9.5414    205.3643    110.2683   9.3692762546e+01   1.7701247585e+01    0.2830403    0.1765232  38.52  0.001249237    1.699    0.411
        47  -9.8345     62.6447    106.6790   1.2707225307e+02   4.6762959591e+01    0.1352948    0.0951251 -30.82 0.0007046172    1.757    0.431
        48  -9.6143    136.0000    128.9846   1.1302982123e+02   2.9514668478e+01    0.2466839   0.08286443 -46.12 0.0008072479    2.976    0.664
        49  -9.4822    153.2151     75.5832   9.4576673361e+01   3.6159813981e+01    0.2096891    0.1416639  40.94 0.0003870719    1.528    0.346
        50 -11.3982    193.3615    195.0737   1.1438676564e+02   6.2763099817e+00     1.000782    0.5419919 -64.12  0.003088895    6.766    0.852
        51 -10.9258    171.9205    245.8137   1.2589404529e+02   2.9217465812e+00    0.1746958    0.1323579  27.43  0.001218719    1.268    0.212
        52 -12.0024     77.8001    191.8026   1.3653126069e+02   2.6372183683e+01    0.3545203    0.2456223 -46.82  0.001919675    1.914    0.478
        53 -11.1512     41.1401     18.2821   1.0716791856e+02   6.6877662434e+01    0.2258989     0.137446 -26.04  0.001327516    1.403    0.287
        54 -10.0065     46.6514     12.6830   1.0228851007e+02   6.6960789239e+01    0.1283174   0.08006777  -0.97 0.0007047951    1.730    0.422
