#   1 NUMBER                 Running object number                                     
#   2 MAG_AUTO               Kron-like elliptical aperture magnitude                    [mag]
#   3 X_IMAGE                Object position along x                                    [pixel]
#   4 Y_IMAGE                Object position along y                                    [pixel]
#   5 X_WORLD                Barycenter position along world x axis                     [deg]
#   6 Y_WORLD                Barycenter position along world y axis                     [deg]
#   7 A_WORLD                Profile RMS along major axis (world units)                 [deg]
#   8 B_WORLD                Profile RMS along minor axis (world units)                 [deg]
#   9 THETA_WORLD            Position angle (CCW/world-x)                               [deg]
#  10 FWHM_WORLD             FWHM assuming a gaussian core                              [deg]
#  11 ELONGATION             A_IMAGE/B_IMAGE                                           
#  12 ELLIPTICITY            1 - B_IMAGE/A_IMAGE                                       
         1 -14.5953      5.9590     76.4214   1.1353190612e+02   5.9468593742e+01     3.096537     2.094402  65.64   0.01847357    1.989    0.497
         2 -13.7192     24.1304     49.6507   9.9696095637e+01   6.4019265143e+01     1.250308    0.7489413 -28.68  0.007125593    1.577    0.366
         3 -15.5052      9.0716     26.6686   9.8807150236e+01   6.9559642613e+01     2.683413     1.015772 -46.69   0.01394454    1.945    0.486
         4 -13.2371     30.6782      9.7901   8.0287835833e+01   7.0210040396e+01     1.453449    0.4986116 -31.99  0.006623038    2.670    0.626
         5 -14.4256     44.4222     42.1514   8.8389907351e+01   6.3372790324e+01     3.312961     1.478982 -37.03   0.01551754    1.993    0.498
         6 -15.4404     60.2741     72.0118   9.2406984853e+01   5.5401643791e+01     3.729046     2.357164   6.98   0.01761798    2.164    0.538
         7 -14.5344     79.8224     69.3305   8.4711003857e+01   5.2995980904e+01     2.828118     1.650069 -17.80   0.01132413    2.600    0.615
         8 -12.9216    138.4605      4.2894   4.5576500765e+01   4.9541876932e+01      1.26028    0.3286981  60.85  0.004575881    2.913    0.657
         9 -11.6605     73.3628      1.5420   5.9105848633e+01   6.4299204340e+01    0.3046377    0.1688938  53.54  0.000617954    1.773    0.436
        10 -13.3670     83.4284     22.8255   6.5641740983e+01   6.0072186366e+01     0.893171    0.5625101  48.16 0.0005880542    1.580    0.367
        11 -14.4235    120.0327     10.8371   5.1295227779e+01   5.3388499297e+01      2.59757     1.167203  69.59  0.007251794    2.524    0.604
        12 -14.1356     86.2291     11.8015   5.9971500349e+01   6.0764404861e+01     1.470562    0.5938993  53.54  0.005771772    2.334    0.572
        13 -14.1782     86.2687      3.4950   5.6263971256e+01   6.1544051174e+01     2.050116    0.4817383  57.24  0.007081669    3.877    0.742
        14 -11.6672    150.0059     21.9655   4.9585685410e+01   4.4970523552e+01    0.4602579    0.3960473 -29.60   0.00211974    1.240    0.193
        15 -11.0737    153.7464     20.9941   4.8638839531e+01   4.4143641539e+01    0.3737285    0.2278136 -31.54  0.001365482    1.712    0.416
        16 -12.3529    176.9017     11.6950   4.2470396834e+01   3.9320229164e+01     1.229695    0.6191591  21.58  0.004378316    4.171    0.760
        17 -13.1743    185.8990     12.7810   4.1695970366e+01   3.6976847489e+01    0.8122318    0.5893363 -35.74  0.004425678    1.422    0.297
        18 -12.4367    192.8181      5.7550   3.9032838738e+01   3.5984299615e+01    0.5350274    0.4081857 -37.11   0.00231684    1.359    0.264
        19 -11.5691    188.2579      5.2952   3.9382517712e+01   3.7142363279e+01    0.4488827    0.2656976 -26.66  0.001562868    1.836    0.455
        20 -11.7818     64.5891     17.9573   6.9887318291e+01   6.4146405177e+01    0.4090897    0.2852604  22.02  0.001309635    1.333    0.250
        21 -14.3378     96.7215     71.4877   7.9932356222e+01   4.9526072405e+01     2.017862     1.400166   1.08  0.001836594    1.991    0.498
        22 -12.6951     75.8694     13.5450   6.3938198523e+01   6.2622679251e+01    0.5340689    0.3729587 -26.35  0.001046383    1.455    0.313
        23 -11.8987    169.4826     10.5217   4.3070070499e+01   4.1285996976e+01    0.3497817    0.2792104 -63.09  0.001407255    1.287    0.223
        24 -12.2891    149.4033      8.5168   4.5274639356e+01   4.6477418081e+01    0.6768711    0.3748253  76.82  0.002527289    1.856    0.461
        25  -9.3215     66.5760      8.2606   6.4571568872e+01   6.4917560108e+01    0.1615421    0.1065269  -5.34 0.0007227555    1.471    0.320
        26  -9.9405     49.2690      4.8275   6.9365164265e+01   6.8217417019e+01    0.2436018    0.1298676 -28.32  0.001352191    1.793    0.442
        27 -11.7104    168.0564      2.4353   4.0851943859e+01   4.2389859504e+01    0.3180479    0.2627451  72.31  0.001928039    1.079    0.073
        28  -9.6944    211.9309      1.5005   3.6183355813e+01   3.1830843538e+01    0.1866237     0.112123  77.59 0.0005413037    1.518    0.341
        29  -9.8863    189.6670    153.6815   7.8690890652e+01   1.2568161470e+01    0.1550091    0.1143038   2.72 0.0007048378    1.694    0.410
        30  -8.8936    208.6811    102.7303   6.2669425148e+01   1.8122632874e+01    0.1461419    0.1161223  12.38 0.0002279943    1.561    0.360
        31 -12.6216    141.0978     96.2130   7.5173852959e+01   3.5084842238e+01    0.8127011    0.7715891  77.42  0.003733656    1.129    0.114
        32 -11.2633    134.7899     98.3344   7.7385586988e+01   3.6052789620e+01    0.6278768    0.3589614  30.42  0.002366786    2.300    0.565
        33 -11.1740    134.8567     92.8470   7.5780117231e+01   3.7187547436e+01    0.4540959    0.3472462 -42.26  0.001029947    1.272    0.214
        34 -10.2453     29.6784    153.6919   1.1760874711e+02   3.9381468874e+01    0.1239255   0.08612809 -47.90 0.0007034472    1.643    0.391
        35 -10.8197    114.2559     97.2204   8.2620035068e+01   4.0654629033e+01    0.3536547    0.2700504 -44.49 0.0006447436    1.252    0.201
        36 -10.9697    188.5648     94.4878   6.4211871421e+01   2.4271721985e+01    0.3556357    0.2804897 -77.00  0.001264784    1.557    0.358
        37 -13.7585     69.4207     55.6364   8.3643802386e+01   5.7373121842e+01     1.111176     1.035097 -41.33   0.00361502    1.215    0.177
        38 -12.2042    122.2827     90.0743   7.8298988329e+01   4.0519264941e+01    0.6461539    0.5124551 -35.44  0.003150378    1.235    0.190
        39 -11.7163    128.0982     82.1471   7.4323873007e+01   4.0871392280e+01    0.4641916    0.4350563  22.55  0.001102202    1.088    0.081
        40 -12.7314    121.7702     81.2518   7.5749136248e+01   4.2441773448e+01    0.7412091    0.5689254   6.49  0.002387104    1.641    0.391
        41 -11.3982    113.0050     82.0494   7.8452392569e+01   4.4140575430e+01    0.4198509    0.3317617  56.91 0.0007623708    1.430    0.301
        42 -12.6114    116.2809     76.9075   7.5901039917e+01   4.4488011460e+01    0.7714494    0.4850333 -43.72   0.00342318    1.562    0.360
        43 -11.1622    248.9327     86.1095   5.2475086793e+01   1.2256106801e+01    0.4361001    0.3015645 -50.16  0.002335919    1.341    0.254
        44 -10.2882    235.9931     86.8888   5.4410696074e+01   1.4826973626e+01    0.2850804    0.1768636 -35.46 0.0009929016    1.441    0.306
        45  -9.8273    152.2940     88.4167   7.0196600783e+01   3.4063270431e+01    0.2123321    0.1535454  62.61 0.0009400179    1.553    0.356
        46 -12.5189    145.4052     76.8758   6.8347911314e+01   3.7898867874e+01    0.8111764    0.6157339 -58.22  0.003791249    1.492    0.330
        47  -9.7919    250.0534     73.4538   4.9401705233e+01   1.3982207092e+01    0.2197655    0.1603047 -40.67  0.000755547    1.175    0.149
        48 -11.0414    152.2114     73.2503   6.5658510472e+01   3.6931569687e+01    0.3896032    0.3213725  59.01  0.001935376    1.251    0.200
        49 -12.0291    125.8396     72.7278   7.1946418787e+01   4.3203178554e+01    0.8034017    0.4012419  58.09  0.002971708    2.477    0.596
        50 -10.5468    170.9034     72.4384   6.1457684324e+01   3.2504292494e+01     0.444955    0.2834496  77.64  0.001811523    2.131    0.531
        51  -9.3012    182.5023     71.5692   5.8991039456e+01   2.9798013670e+01    0.1509008    0.1434691 -66.95 3.584091e-05    1.037    0.035
        52 -11.0271    115.9833     68.7086   7.3312521991e+01   4.6130313872e+01    0.3740706    0.3107362 -22.14  0.001285996    1.211    0.174
        53 -10.8224    118.5874     64.1475   7.1063996723e+01   4.6398241702e+01     0.450587    0.2324265 -35.35   0.00183084    1.927    0.481
        54 -11.4733     23.8859     66.5111   1.0459140971e+02   6.0493179938e+01    0.3473546    0.1810924 -48.16  0.001846025    1.503    0.334
        55  -9.6049    234.0228     76.0116   5.2049069091e+01   1.6990636030e+01    0.1740096    0.1528322 -46.94 0.0007858332    1.009    0.009
        56 -10.8895    214.4098     61.2666   5.1045915976e+01   2.3734043523e+01    0.4453964    0.3027657 -25.37  0.001718125    1.587    0.370
        57  -9.6754    210.2622     61.9750   5.1821224691e+01   2.4606087471e+01    0.2022871    0.1746414 -42.74 0.0003823269    1.097    0.088
        58 -10.5845    169.9808     62.9814   5.8833807298e+01   3.4319099242e+01    0.2770262    0.2081136  58.21 0.0004286411    1.334    0.250
        59  -9.4542    166.0194     62.7891   5.9546269120e+01   3.5334893615e+01    0.2030411     0.175594  33.61 0.0002423063    1.242    0.195
        60  -9.7153    190.0134     59.6277   5.4302922237e+01   2.9878648747e+01    0.2321364    0.1761235 -85.14 0.0008544969    1.506    0.336
        61 -11.5528    124.8812     57.3108   6.7065364135e+01   4.6168876061e+01    0.3674231     0.268094  41.86 0.0007190289    1.362    0.266
        62 -10.3655    227.4490     57.2156   4.8293112918e+01   2.1322346405e+01    0.2452905     0.191324  72.30 0.0006774258    1.348    0.258
        63 -11.3598    174.6341     56.4538   5.6024964272e+01   3.4192700005e+01    0.2658531    0.2473595 -76.80 0.0003913893    1.077    0.071
        64 -11.3261    152.8422     53.5415   5.9332777350e+01   4.0075813458e+01    0.4827428     0.285962  36.36  0.002019407    1.989    0.497
        65 -11.6968    133.8361     53.8265   6.3657190415e+01   4.4648253253e+01     0.553149    0.3345369  64.62  0.001987511    1.929    0.482
        66  -9.3794    209.3116     55.3130   5.0205177772e+01   2.5836714603e+01    0.1394051     0.111359  23.38 0.0002934231    1.632    0.387
        67 -11.3392    145.2821     50.4495   5.9929058617e+01   4.2410864687e+01    0.3812635    0.2856404 -40.96 0.0008758322    1.366    0.268
        68 -11.3264    137.7043     48.3987   6.0920296734e+01   4.4563459056e+01     0.409546     0.276121 -46.57  0.001080975    1.609    0.378
        69 -10.6159    139.9032     43.7374   5.8853789642e+01   4.4714486087e+01    0.4292892    0.2543643  67.11  0.001293243    1.901    0.474
        70  -8.9112    126.6670     48.6986   6.3632647076e+01   4.7139047241e+01    0.1536238    0.1095557  21.32  0.000703459    1.654    0.395
        71 -10.4477    176.2203     44.7265   5.2271507617e+01   3.5521203057e+01    0.4138536    0.2902243 -19.66  0.001998264    1.629    0.386
        72 -10.8277    181.6217     43.2557   5.0970050099e+01   3.4370546597e+01    0.3223724    0.2447962  58.55 0.0004692789    1.295    0.228
        73 -12.2961    122.0773     43.9096   6.3076691423e+01   4.8925525980e+01    0.3184103    0.2795308   4.99 0.0007160237    1.156    0.135
        74 -11.5322    157.0583     43.5825   5.5314683591e+01   4.0494700530e+01    0.3582681    0.2676481  57.05 0.0006522379    1.289    0.224
        75 -10.6823    203.2341     43.6998   4.7954602922e+01   2.8962795628e+01    0.3243463    0.2359238  67.22  0.001696602    1.369    0.270
        76 -12.4416    216.8016     38.6806   4.4943312440e+01   2.6388269161e+01    0.7009757    0.3150342  58.20  0.003044604    2.233    0.552
        77 -11.2285    197.0574     40.8739   4.8029100436e+01   3.0859143005e+01    0.3811802    0.2904678  86.47 0.0007883432    1.343    0.255
        78 -11.8503    203.1653     38.5724   4.6593064534e+01   2.9672320709e+01    0.7054658    0.3898407  70.96  0.002464715    1.840    0.456
        79 -10.5566    159.7811     36.2277   5.2479922935e+01   4.0806570250e+01    0.2439557    0.2131981  59.70 0.0003393429    1.095    0.087
        80  -9.4695    130.1280     37.1892   5.8757417515e+01   4.7982040492e+01    0.1842769    0.1649784 -86.95  0.000273985    1.286    0.222
        81  -9.5762    140.7233     34.8492   5.5657848691e+01   4.5725566912e+01    0.2493253    0.1348948  27.13 0.0007795758    2.727    0.633
        82  -9.5762    139.4648    152.4950   8.9695509153e+01   2.3039767916e+01    0.1488927    0.1474698 -89.02 0.0003421972    1.004    0.004
        83 -12.6739     80.2174     31.9153   7.0554969878e+01   5.9469113528e+01    0.8852811    0.5899783  47.14  0.003802001    1.588    0.370
        84 -11.3495    246.0874    145.7329   6.6474841434e+01   3.0911864944e+00    0.4047329    0.2161146 -51.64   0.00172327    2.530    0.605
        85 -11.1150     58.9089    144.5237   1.0890856173e+02   3.8354672510e+01    0.6454611    0.3453064  51.91  0.002982989    2.066    0.516
        86 -11.6620     51.6112    141.9597   1.1045558199e+02   3.9871213360e+01    0.6325774    0.2275979 -66.52  0.002471639    2.485    0.598
        87 -12.6790     47.2587    142.1678   1.1164514369e+02   4.0322343126e+01    0.5299902    0.5130529  10.22  0.003128648    1.294    0.227
        88  -9.8473     90.3814    145.7731   1.0076955545e+02   3.3531071418e+01    0.2160593    0.1247537 -49.66 0.0009541651    1.702    0.412
        89  -9.7850    240.7702     34.1851   4.1316719221e+01   2.1512369041e+01    0.1984327    0.1518828 -60.62 0.0005620092    1.140    0.123
        90 -10.9497    176.3659     33.4496   4.8907834795e+01   3.6988057584e+01    0.3166988    0.2415311  67.69 0.0006383409    1.255    0.203
        91 -10.6040     97.5443     33.4846   6.5769971327e+01   5.5817922664e+01    0.2729287    0.2134309  16.17 0.0005725693    1.272    0.214
        92 -10.6862    151.1270     31.7640   5.2604587481e+01   4.3541657263e+01    0.4151998    0.2667018  58.42  0.002011658    1.455    0.313
        93 -10.4073    104.7120     29.5493   6.2195606077e+01   5.4810599756e+01    0.2731611    0.2009716  32.93 0.0006666117    1.299    0.230
        94 -10.1688    108.9738     28.0301   6.0475451047e+01   5.4061982365e+01    0.2937342    0.1853255  44.33  0.001137977    1.471    0.320
        95 -10.0927    216.1363     28.9647   4.2567804837e+01   2.7791423761e+01    0.2027877    0.1866187 -61.95   0.00126267    1.081    0.075
        96  -9.8827    168.1058     27.8894   4.8506422942e+01   3.9750308025e+01    0.3393528    0.1238435  55.10  0.001280851    2.460    0.593
        97 -11.5712    241.6358     22.6771   3.8615718342e+01   2.2755360756e+01     0.388436    0.2502257 -74.52 0.0007517187    1.507    0.336
        98 -10.1764    235.9933     21.2283   3.8773780279e+01   2.4172530874e+01    0.2662526    0.1460632  69.52  0.001383279    1.811    0.448
        99 -11.1192    214.7425    142.6132   7.1236644639e+01   9.5675150137e+00     0.443161    0.2582968  39.55   0.00199868    1.824    0.452
       100 -11.8567     76.2985    138.7060   1.0322829322e+02   3.7414609956e+01    0.6795241    0.2009589 -58.64  0.002271132    3.031    0.670
       101 -10.1627    139.4071     20.9223   5.1134909204e+01   4.7707236159e+01    0.2675683    0.1857589  54.54  0.000739737    1.312    0.238
       102 -10.9407    208.9820     19.0577   4.0823943493e+01   3.0670115312e+01    0.3350113    0.2628117 -64.37  0.001151528    1.174    0.148
       103 -10.6308    196.9955     19.9335   4.2361389751e+01   3.3471252762e+01    0.2093183    0.1828213 -83.03 0.0004859362    1.039    0.037
       104  -9.8685    221.0098     19.5040   3.9736511928e+01   2.7783307975e+01    0.1964898   0.09515121 -77.00 0.0008106558    2.625    0.619
       105 -10.3920     33.8201    135.8349   1.1434341806e+02   4.3275840972e+01    0.1868987    0.1371183  78.57   0.00108272    1.362    0.266
       106 -11.5682     82.3515    134.1945   1.0070019011e+02   3.7611096820e+01    0.3177287     0.229007 -61.80  0.001600064    1.285    0.222
       107 -10.6743    248.1956    129.3899   6.2513381127e+01   5.3796092492e+00    0.1763305    0.1356486  63.83 0.0008708561    1.717    0.418
       108 -10.9935    122.2980    127.3457   8.8317119682e+01   3.2190857609e+01    0.4085642    0.3860433 -52.20  0.001420983    1.024    0.024
       109 -10.5206    198.5144    126.4967   7.0515187374e+01   1.5952548097e+01    0.1520351    0.1426306 -24.60 0.0008105123    1.001    0.001
       110  -9.8394    189.3207    112.6515   6.8858604952e+01   2.0657511980e+01    0.1605325    0.1208085 -71.27  0.000704889    1.738    0.425
       111 -10.0252    250.3288    108.3408   5.7416726898e+01   8.4175231701e+00    0.1395148    0.1030789   0.44 0.0007051514    1.740    0.425
       112 -10.6250    194.2580    248.2554   9.5121249624e+01  -3.9029814267e+00    0.1924063    0.0812881  45.81 0.0008999875    2.436    0.589
       113  -9.1257    246.3187    183.3329   7.4315607305e+01  -2.8178415354e+00    0.1365865   0.08832486  -0.08 0.0007048493    1.694    0.410
       114 -10.1753     33.9670    177.7008   1.1908483453e+02   3.3353345222e+01    0.1768799    0.1453628  73.71 0.0009501565    1.096    0.088
       115 -10.5420     18.5091    154.4810   1.2038711360e+02   4.0217634738e+01    0.1247579   0.09820811 -85.26 0.0008102939    1.011    0.011
       116 -11.0768    233.7458    153.5732   7.0270782707e+01   4.0250635073e+00    0.2589188     0.130034  39.67  0.001148051    2.133    0.531
