#   1 NUMBER                 Running object number                                     
#   2 MAG_AUTO               Kron-like elliptical aperture magnitude                    [mag]
#   3 X_IMAGE                Object position along x                                    [pixel]
#   4 Y_IMAGE                Object position along y                                    [pixel]
#   5 X_WORLD                Barycenter position along world x axis                     [deg]
#   6 Y_WORLD                Barycenter position along world y axis                     [deg]
#   7 A_WORLD                Profile RMS along major axis (world units)                 [deg]
#   8 B_WORLD                Profile RMS along minor axis (world units)                 [deg]
#   9 THETA_WORLD            Position angle (CCW/world-x)                               [deg]
#  10 FWHM_WORLD             FWHM assuming a gaussian core                              [deg]
#  11 ELONGATION             A_IMAGE/B_IMAGE                                           
#  12 ELLIPTICITY            1 - B_IMAGE/A_IMAGE                                       
         1 -13.9830     56.1633     65.1550   6.7181410498e+01   5.9345687624e+01     2.072939      1.47087   9.35  0.009212403    1.942    0.485
         2 -14.9637      6.2962     70.8048   9.4520484572e+01   6.3562395354e+01     1.250452    0.8519357 -64.60  0.006183214    1.291    0.226
         3 -13.9709    187.6125     23.4112   2.0896799938e+01   3.5063146398e+01     3.131112    0.7614347 -54.85  0.008569093    5.691    0.824
         4 -12.8643      7.7649      2.6603   6.7995388594e+01   7.9874343598e+01    0.6560155    0.3551225  39.61  0.003360404    2.083    0.520
         5 -15.9114     11.3473     23.3127   7.7798543869e+01   7.5238352965e+01     2.056921     1.097577 -38.91  0.009941891    1.814    0.449
         6 -14.6010     27.2073     11.0474   5.6703252431e+01   7.5596309374e+01    0.9497549    0.6762837  -1.34  0.003479667    1.690    0.408
         7 -14.2356    122.2353     36.2210   3.3873131976e+01   4.9772074061e+01     1.078976    0.6448177  36.16  0.004466933    2.235    0.553
         8 -14.5484    166.3898     28.4788   2.4473851389e+01   3.9519971532e+01     1.053351    0.8915079 -84.49  0.004447103    1.143    0.125
         9 -14.6948    147.5582     29.6826   2.7223756493e+01   4.4095462053e+01     1.286814    0.9872053  83.19  0.004708911    1.289    0.224
        10 -13.2109    120.3034     25.9048   3.0173736204e+01   5.1672898109e+01     0.798901    0.5706302  38.00   0.00386882    1.654    0.395
        11 -13.1217    187.5081     10.9885   1.7397784616e+01   3.6417590527e+01    0.9393911    0.4653308 -43.08  0.004693262    1.636    0.389
        12 -13.3772     87.3162     14.8809   3.2254128623e+01   6.1648366387e+01     1.014063    0.5417359 -57.59   0.00411098    2.414    0.586
        13 -15.2881     98.8114     11.4321   2.7950203557e+01   5.9024125297e+01     1.575661     0.977398  66.31  0.005171549    1.499    0.333
        14 -11.6968     70.9635     16.2522   3.7799936095e+01   6.5586237696e+01     0.316939    0.2078385 -32.68 0.0008230383    1.562    0.360
        15 -12.3065     60.0040     15.3624   4.1347944026e+01   6.8300093982e+01    0.5291831    0.3324053  36.81  0.002519504    1.696    0.411
        16 -13.4693    219.0136     15.5109   1.6649137421e+01   2.9102970460e+01    0.3079294    0.2547006  76.08  0.001593999    1.417    0.294
        17 -13.2526    214.9675     10.0188   1.5512688538e+01   3.0496063691e+01    0.7768171    0.4183958 -88.50  0.003829341    1.947    0.486
        18 -11.8076     46.8248     12.6388   4.5593908675e+01   7.1595117268e+01    0.3155591    0.2620738  49.63   0.00159473    1.193    0.162
        19 -10.6857     40.5287     12.5422   4.8964633956e+01   7.2903401449e+01    0.2129742    0.1286764 -34.12 0.0005205828    1.668    0.400
        20 -13.8075     42.0121      3.9100   4.1648659191e+01   7.3772150937e+01    0.6734439    0.5437519  37.46  0.003270339    1.160    0.138
        21 -12.3970    151.8927      9.0074   1.9632614565e+01   4.5291273122e+01    0.3294609    0.2711495  55.22 0.0009841241    1.359    0.264
        22 -11.6796     75.3947      9.7286   3.2664246837e+01   6.5260530396e+01    0.2688681    0.2502544 -32.14  0.001085152    1.129    0.115
        23 -10.8636     80.4218      7.2833   2.9929363406e+01   6.4237298097e+01    0.1896166    0.1264449 -37.38  0.000688888    1.552    0.356
        24 -12.0681     75.3368      2.7389   2.8608886128e+01   6.5968332772e+01    0.4907253    0.2196796  56.42  0.002099383    1.962    0.490
        25 -11.8281    119.1534      2.5320   2.0728288885e+01   5.4446915628e+01    0.3744886    0.2140473 -72.08  0.001706554    1.847    0.458
        26 -11.1202     61.6536      1.3551   3.1650992034e+01   6.9512018893e+01    0.3195779    0.1298124  70.33   0.00117711    2.660    0.624
        27 -11.6006    123.4215     10.6351   2.3498177320e+01   5.2568185949e+01    0.3679815    0.2082373 -67.92  0.001620444    1.937    0.484
        28 -12.6697    124.2975    166.4715   6.9362330493e+01   2.3068553059e+01    0.5553904     0.370109 -72.30  0.002610962    2.157    0.536
        29 -13.2516    107.6956    246.3696   8.3437956871e+01   1.0967724209e+01    0.5951824    0.4731488  70.77  0.004264439    1.687    0.407
        30 -14.4823     97.6749    239.5045   8.4872518101e+01   1.3201690074e+01    0.7323704    0.6502445  81.32  0.005508854    1.419    0.295
        31 -13.1248     50.9776    248.7434   9.5348682865e+01   1.6792607071e+01    0.6870288    0.4410675  -3.86  0.004039439    2.441    0.590
        32 -12.2461      2.8577    249.6454   1.0520500576e+02   2.1080091875e+01    0.3465833    0.1896908  46.54  0.001747685    1.253    0.202
        33 -13.7616      9.8671    245.9049   1.0371633013e+02   2.1142188165e+01    0.8220366    0.3050799  42.81  0.003707698    1.740    0.425
        34 -11.2642      2.1235    159.5102   1.0298965944e+02   4.0086458649e+01    0.2617873    0.1422247 -66.02   0.00131667    1.906    0.475
        35 -12.0280    249.1364    196.9484   5.1419576996e+01   1.1576249151e+00    0.4436744    0.1690615 -40.62  0.002283201    3.146    0.682
        36 -11.7144    111.5349    156.3295   7.0770965987e+01   2.7308053619e+01    0.3768701    0.2364073  83.19  0.001436492    3.115    0.679
        37 -11.8058     76.8773    156.8195   8.0402464531e+01   3.2620761414e+01    0.3663463    0.2761813  24.88  0.001162921    1.379    0.275
        38 -12.9047     73.4891    153.1980   8.0854561952e+01   3.3991075641e+01    0.6785092    0.4826949  22.82  0.002864714    1.515    0.340
        39 -11.3633    103.3322    149.8673   7.1783768740e+01   3.0121786170e+01    0.3654288    0.2259599 -35.60  0.001423408    1.991    0.498
        40 -12.5365      7.2934    148.4081   1.0092480206e+02   4.2513228092e+01    0.5772402    0.3215886  64.91  0.002876974    1.601    0.376
        41 -11.9052     60.8976    147.0369   8.3782183416e+01   3.7287987124e+01    0.3701392    0.2816331   7.81  0.001849722    1.626    0.385
        42 -12.2829     40.0225    136.7667   8.9201491621e+01   4.2555285073e+01    0.2853547    0.1815097  42.89  0.001284082    1.477    0.323
        43 -12.1259    136.1363    132.0220   5.9642550725e+01   2.8171529393e+01    0.5205519    0.2072938  37.54   0.00186293    2.698    0.629
        44 -12.0107     44.0170    132.5147   8.7291695069e+01   4.3226122882e+01    0.2192205    0.1422009  27.86 0.0008627513    1.585    0.369
        45 -11.9864    134.2889    126.0666   5.8730643228e+01   2.9778442565e+01    0.3749797    0.2678702 -35.62  0.001800298    1.445    0.308
        46 -14.7767    106.3764    104.9893   6.0969939607e+01   4.0063879749e+01     1.560224     1.314566 -61.65  0.006628512    1.197    0.164
        47 -12.3199    181.7128    120.9843   4.7537049867e+01   2.1627016947e+01    0.2377567    0.1872038  67.03  0.001289213    1.666    0.400
        48 -12.0756      4.8435    119.2834   1.0003823279e+02   5.0375234608e+01     0.545121    0.3266706   2.00  0.002635156    2.093    0.522
        49 -12.2985     49.0080     92.9648   7.8334166770e+01   5.3292367541e+01    0.4516481     0.350682  66.80  0.001524477    1.386    0.279
        50 -12.8090     42.3372     90.5247   8.0641815984e+01   5.4842300761e+01     0.371893    0.3098307 -87.08 0.0003796306    1.192    0.161
        51 -14.6654     24.6221     92.9885   8.8994682009e+01   5.6118548118e+01     1.730375     1.283664  -0.07  0.008750613    1.634    0.388
        52 -11.9069     19.0332     86.0214   9.0437160322e+01   5.8528107003e+01    0.3551022    0.2432055 -36.78 0.0004222049    1.617    0.381
        53 -13.4288      2.1858     96.9804   9.9440039956e+01   5.6614375794e+01    0.9561246    0.3467245 -85.54  0.003611933    2.535    0.606
        54 -14.3796     18.5637    110.8127   9.3993074114e+01   5.1713417227e+01     1.113093    0.8702273 -10.74  0.005928759    1.576    0.365
        55 -12.4201     78.6564    109.9286   7.1054554832e+01   4.4129385221e+01    0.4595016    0.3384324  87.90  0.002010691    1.644    0.392
        56 -11.6178     86.5563    114.9432   6.9593238509e+01   4.1463473772e+01    0.3849343    0.2864504  15.78   0.00137813    1.703    0.413
        57 -12.4803     82.1730    115.1700   7.1079117565e+01   4.2182343832e+01    0.4431356    0.3274094  63.23  0.002049996    1.503    0.335
        58 -13.6947    111.7659    116.5839   6.2364901037e+01   3.6299407857e+01    0.5752314    0.3669406  37.75  0.002343384    1.621    0.383
        59 -11.5726     63.0712    110.7761   7.6759975342e+01   4.6465638658e+01    0.3878954    0.2328968  47.34  0.001661934    1.696    0.410
        60 -14.0198     11.0857    103.3003   9.6235931532e+01   5.4345007387e+01    0.8346388    0.7504262  11.30  0.004088639    1.278    0.218
        61 -11.6561    177.2739    109.9912   4.5739478118e+01   2.4386379630e+01    0.2567444    0.1826722  31.04  0.001303714    1.650    0.394
        62 -11.3894     87.9488    109.2342   6.7781526810e+01   4.2633699366e+01    0.3639788      0.26042 -75.73  0.001616019    1.628    0.386
        63 -11.7698     41.9305    106.3589   8.3979913893e+01   5.0574204392e+01    0.3774547    0.2002299  40.14  0.001593242    1.856    0.461
        64 -12.8514    136.1562    103.0395   5.2519708590e+01   3.4221526372e+01    0.8037938    0.2829495  49.99  0.002636754    3.053    0.672
        65 -13.8888    107.2895    122.7873   6.5102226112e+01   3.5722381835e+01     1.014015    0.8787892 -87.42  0.005206261    1.276    0.217
        66 -12.1402     61.1544     97.6360   7.4517740793e+01   5.0241262211e+01    0.5357199    0.3495668  71.71  0.001963577    1.998    0.500
        67 -11.8727     47.3300     99.4877   8.0464077063e+01   5.1759870282e+01    0.4840047    0.3072437  72.45  0.002054076    1.938    0.484
        68 -11.8552     52.6364     97.6889   7.7915479167e+01   5.1510710700e+01    0.4695124    0.2910725 -29.61  0.001517792    2.265    0.559
        69 -11.5964    163.3683     96.7609   4.4985359994e+01   2.9594675039e+01    0.3128757    0.2301258 -68.39   0.00101881    1.690    0.408
        70 -13.3698    136.9794     94.7521   5.0052059694e+01   3.5732129462e+01    0.5536495    0.4638503  77.90  0.002794046    1.360    0.264
        71 -12.5604     99.1926    120.5746   6.6958724177e+01   3.7768241706e+01    0.9287016     0.352955 -46.79  0.003137084    2.711    0.631
        72 -12.2172     36.8035     92.8541   8.3558650723e+01   5.4883708898e+01    0.4694764    0.2732629  16.28  0.001413086    2.061    0.515
        73 -13.4704    188.5556     83.8400   3.7304378643e+01   2.6485441435e+01    0.5163671    0.3336619  39.81   0.00256195    1.904    0.475
        74 -13.9269    163.9700     71.5115   3.7879901841e+01   3.3868846507e+01     1.154387     0.959039 -81.09  0.006196555    1.308    0.235
        75 -13.2544    161.7517     79.6909   4.0616195056e+01   3.2986619335e+01    0.8361135    0.5268536  18.69  0.003225552    2.971    0.663
        76 -14.6360    169.2619     77.2100   3.8598194092e+01   3.1720486447e+01     1.263902    0.7218522  47.54  0.004332514    1.969    0.492
        77 -12.9638     28.5553    121.9770   9.1458572047e+01   4.7751664382e+01    0.3710924    0.3564248  53.30   0.00219128    1.119    0.106
        78 -13.3314     28.6300    245.9679   9.9862595133e+01   1.9451925026e+01    0.4262525    0.2602723  56.88  0.002768174    1.371    0.271
        79 -13.3154     65.9160     48.9572   5.6442766723e+01   6.1160702842e+01     0.889522    0.6633003 -63.13  0.004257715    1.533    0.348
        80 -13.6372     91.5188     57.8652   5.0494695662e+01   5.3717663964e+01    0.5931684    0.5320961  71.70  0.002565838    1.144    0.126
        81 -13.7089     87.3506     65.1972   5.4668839893e+01   5.3141149849e+01     1.076157    0.7214517  16.97  0.003855353    2.461    0.594
        82 -12.5714     55.1161     81.2871   7.2730490464e+01   5.5470376240e+01    0.6879346    0.4691288 -49.72  0.002858353    1.432    0.302
        83 -13.9019     61.1735     75.3525   6.8351456787e+01   5.5976264648e+01     0.897215    0.6041006 -34.87   0.00363602    1.737    0.424
        84 -13.2420     71.1217     75.0692   6.4166018037e+01   5.4236571895e+01    0.6361214    0.4865536   0.35  0.001639658    1.843    0.457
        85 -12.1744     77.2324     73.4770   6.1267287832e+01   5.3419482812e+01    0.6137082    0.3532317 -36.29  0.002048724    2.054    0.513
        86 -11.0649    126.7634     83.4147   4.9208513538e+01   4.0329625919e+01    0.3593016    0.1364047  42.93 0.0007267378    3.067    0.674
        87 -13.3937    210.5668     76.9675   3.2607342266e+01   2.3113004257e+01    0.4671456    0.2951795 -59.01  0.002442846    1.769    0.435
        88 -11.5144     41.6220     76.1855   7.7455567451e+01   5.8770614533e+01    0.3028595    0.2065595 -66.36 0.0007485836    1.412    0.292
        89 -13.5751    171.6857    242.6902   7.0679906366e+01   4.1442657237e+00    0.6036695     0.363566  10.03  0.003968619    1.501    0.334
        90 -14.1732      4.2437     63.1287   9.4493158138e+01   6.5736225767e+01    0.7801417    0.6649817  -8.84  0.002367491    1.308    0.235
        91 -10.8892     97.4739     78.5444   5.5924912397e+01   4.7994031224e+01    0.1565786    0.1507454 -77.65 7.279994e-05    1.010    0.010
        92 -11.4221     26.8768     75.1813   8.4488828332e+01   6.0771355018e+01    0.5789001    0.2739931  82.79  0.001878339    3.659    0.727
        93 -12.0675    114.0639     79.9959   5.1474287003e+01   4.3951152668e+01    0.4703183    0.3545431 -54.93  0.001771745    1.334    0.251
        94 -13.9032    199.4355     69.8758   3.2211476726e+01   2.6363212640e+01    0.6850254    0.4570274  39.06  0.003237064    1.950    0.487
        95 -13.1160    133.6600     65.8792   4.2029852265e+01   4.2048560458e+01    0.8969309    0.7176127   3.18  0.003799644    1.684    0.406
        96 -11.1841    117.8228     72.0984   4.7896190046e+01   4.4685304087e+01    0.2613038    0.2262888  58.01 0.0005484475    1.176    0.150
        97 -12.5387    135.6780     79.3803   4.5850829480e+01   3.9056671581e+01    0.6505502    0.3410698  55.00  0.002280907    2.002    0.500
        98 -11.5478     99.5932     64.9337   5.0579879388e+01   5.0416228063e+01    0.3315908    0.2406236 -83.47   0.00142704    1.852    0.460
        99 -13.0927     79.3712     59.4097   5.5352131082e+01   5.6121721223e+01    0.8206403    0.6065425 -30.87  0.003819569    1.514    0.340
       100 -13.6250    177.7072     56.8606   3.1545052508e+01   3.3000065563e+01    0.9487916    0.4999129 -44.75  0.003425203    1.686    0.407
       101 -11.1461     34.7375     60.1414   7.6253493189e+01   6.3819527400e+01    0.5263395    0.1521385 -51.10  0.001718774    3.044    0.671
       102 -12.2123     37.1741     52.8392   7.2376046471e+01   6.5303889279e+01    0.5357102    0.2161543 -42.67   0.00191625    2.716    0.632
       103 -11.0679     38.8237     59.9880   7.3994934999e+01   6.3314683143e+01    0.2496686    0.1700612  83.15  0.001091061    2.056    0.514
       104 -11.7250     24.8312     58.9617   8.1483847798e+01   6.5269003287e+01    0.4666687     0.236717 -61.57  0.002029777    1.771    0.435
       105 -11.3277    111.0723     58.6774   4.5006275385e+01   4.8892568150e+01    0.2833445    0.2402137  14.33 0.0003610803    1.474    0.321
       106 -14.5571    120.0586     54.3389   4.1158311030e+01   4.7448730493e+01     1.014243    0.7329878  54.91  0.004818256    1.400    0.286
       107 -11.3816     17.7658     55.4406   8.4725911265e+01   6.6852437774e+01    0.3567849     0.189439 -72.40  0.001577883    1.845    0.458
       108 -13.4955    103.3474     50.5222   4.4021339269e+01   5.2276183618e+01    0.7318418    0.4005857 -33.39  0.001157807    1.927    0.481
       109 -13.6830     98.1726     49.8099   4.5226844861e+01   5.3671670596e+01     1.092273    0.5470447 -34.40  0.003820329    2.104    0.525
       110 -12.1259    135.8349     49.8731   3.6175173196e+01   4.4217260120e+01    0.4329553    0.2805428  36.55    0.0017803    2.003    0.501
       111 -11.8834    200.0157     61.6840   3.0027924871e+01   2.7415967502e+01    0.1858109    0.1701879 -58.45  0.000956031    1.103    0.093
       112 -10.3759     23.6589     49.7452   7.9338551199e+01   6.7734363625e+01    0.1428862    0.1001094 -26.91 0.0002855009    1.579    0.367
       113 -13.0255    157.6316     43.6306   3.0399717266e+01   3.9692678973e+01    0.7743993    0.5484333  34.45  0.003735527    1.865    0.464
       114 -11.0909     38.9686     46.0063   6.8648978806e+01   6.6659059044e+01    0.2161165      0.20552 -53.13 0.0004641856    1.051    0.049
       115 -12.0141    147.5733    238.8085   7.4706318387e+01   7.4183717298e+00    0.1281114    0.1123505 -61.52 0.0008722044    1.692    0.409
       116 -13.4860    212.7618     43.0022   2.3939280189e+01   2.7245418916e+01    0.6780869    0.3114024  73.82  0.003218275    2.562    0.610
       117 -13.4630    219.5257     41.5286   2.2999102526e+01   2.6060607187e+01    0.5353469    0.3473752 -73.46  0.002206612    1.670    0.401
       118 -13.2320      7.0924     43.0806   8.8473781732e+01   7.0813438246e+01     1.143095    0.4074028  15.45   0.00447617    3.033    0.670
       119 -12.2989     27.4307     32.4944   6.9774255819e+01   7.1352698084e+01    0.6197408    0.3119171  23.72  0.002175973    2.277    0.561
       120 -12.5069     24.1999    216.6675   9.9640208877e+01   2.5346567431e+01    0.6963552    0.2476822  47.08  0.003402716    2.072    0.517
       121 -13.7602     26.2994    226.3538   9.9577685904e+01   2.3251719308e+01    0.6863268    0.3950442 -50.51  0.003944802    2.452    0.592
       122 -13.9101     20.7061    223.9585   1.0073111974e+02   2.4232250165e+01    0.6956596    0.4526494  36.18  0.004505338    1.233    0.189
       123 -12.3303    109.8939     41.9641   3.8890012610e+01   5.2082159081e+01    0.4230639    0.2145696  60.52  0.000749911    1.957    0.489
       124 -12.0276    135.0496     39.0417   3.2497492841e+01   4.6051350351e+01    0.5158428     0.318437  81.43  0.001830122    1.815    0.449
       125 -13.1496    113.7865     37.7033   3.6260384294e+01   5.1743407999e+01     0.404883    0.3773966 -62.19  0.001218652    1.041    0.039
       126 -14.6672     66.0540    223.1430   9.0396916591e+01   1.9716599450e+01     1.104054    0.6825588  40.36  0.006637347    1.283    0.221
       127 -13.0735    131.6929     33.1397   3.0933553759e+01   4.7741964912e+01    0.5780277    0.4515879  -2.70   0.00186259    1.624    0.384
       128 -12.0262     35.0415     34.7253   6.5843218566e+01   6.9769411725e+01    0.8447841    0.4404889  12.54  0.002891687    3.828    0.739
       129 -12.8145     33.0764     40.4101   6.9759959928e+01   6.8802191747e+01    0.4488596    0.3116272  16.44 0.0006919437    1.643    0.392
       130 -12.3601     41.2358     39.9539   6.4644019641e+01   6.7658188024e+01    0.6297602    0.4762348 -18.84  0.003189217    1.545    0.353
       131 -12.6411     46.1397     33.5303   5.8671790133e+01   6.8143989644e+01    0.7871968    0.6256434 -79.16   0.00401892    1.706    0.414
       132 -12.4633     75.9784     37.0043   4.6922197809e+01   6.1240650276e+01    0.5031297    0.3168279  42.60  0.001388179    1.645    0.392
       133 -11.5731     70.6802     35.9799   4.8444095649e+01   6.2632025790e+01    0.3155167    0.2657555 -71.96 0.0008250907    1.374    0.272
       134 -12.4720    242.0728     36.1274   2.0094306556e+01   2.2414072250e+01    0.3697879    0.2429488  84.26  0.001730046    1.804    0.446
       135 -11.5663    104.5502     36.3031   3.7882617614e+01   5.4330443011e+01    0.2900125    0.1365132 -37.86  0.001131898    2.065    0.516
       136 -13.8680     64.5927    214.1613   9.0017246540e+01   2.1603670086e+01    0.5455894    0.3215366  45.75  0.002823246    1.426    0.299
       137 -12.7415     94.3579    218.2994   8.3533808865e+01   1.7229007640e+01    0.2497464    0.1889616  43.27  0.001501769    1.178    0.151
       138 -12.8469     59.3975    212.7746   9.1133098118e+01   2.2472727117e+01    0.3806283    0.2387918 -47.90  0.001369272    2.042    0.510
       139 -13.1064     56.0336     26.9265   4.9983618971e+01   6.7406870223e+01    0.6696568    0.4394374  51.45  0.001989406    1.540    0.351
       140 -12.4496     63.0943     25.5275   4.6054164882e+01   6.6097371720e+01     0.522846     0.348003  33.84  0.001997464    1.670    0.401
       141 -13.4623    216.6601     28.2704   1.9945914146e+01   2.8196892140e+01    0.4519276    0.1887788 -43.13  0.002148663    1.817    0.450
       142 -12.9310    139.2892     21.4452   2.5454915472e+01   4.7227068892e+01    0.8208115    0.2886631  64.50  0.002274282    2.609    0.617
       143 -12.1187     30.8442     25.4281   6.3615778842e+01   7.2346652766e+01      0.44209    0.2399109  22.64  0.001701042    2.309    0.567
       144 -11.3331     36.2797     23.1974   5.8665402199e+01   7.1888646323e+01    0.3602078    0.2069489 -30.72  0.001639529    1.951    0.487
       145 -11.0691    136.6140    210.8248   7.3373623394e+01   1.3045984347e+01    0.1500471    0.1205521 -64.34 0.0009456653    1.690    0.408
       146 -12.6945     72.4061    206.9638   8.7525899583e+01   2.2102353859e+01    0.3371323     0.289719  60.06  0.002207537    1.144    0.126
       147 -12.2185     57.5903    203.1187   9.0793262032e+01   2.4643636528e+01    0.5313092    0.2566347  82.38  0.002332684    2.925    0.658
       148 -10.4980     51.2721     20.4136   4.8435746160e+01   6.9483900869e+01    0.3282157    0.1352798  55.05  0.001231336    2.691    0.628
       149 -11.5823     46.1642     20.1531   5.0920310124e+01   7.0575221695e+01      0.45395    0.2051421  33.37  0.001678737    2.956    0.662
       150 -12.1019     41.1426    205.8559   9.5030873433e+01   2.5881985789e+01    0.2089463    0.1387824  52.31  0.001238856    1.265    0.209
       151 -12.9180     17.0815    195.3759   1.0042568947e+02   3.0473668160e+01    0.6050905    0.2143751 -66.06   0.00267841    2.988    0.665
       152 -12.3902     40.3298    194.8388   9.4492624800e+01   2.8327433261e+01    0.4097145    0.1958003  84.50  0.001883737    2.457    0.593
       153 -12.4299     36.8433    194.5673   9.5365265893e+01   2.8751707061e+01    0.3605938    0.2578189  75.06  0.002016508    1.347    0.258
       154 -12.9383     22.0109    165.8925   9.7515185874e+01   3.6900103493e+01    0.4369332    0.3042178 -15.98  0.001724402    2.054    0.513
       155 -13.1310     29.9722    169.3245   9.5457694930e+01   3.5302272729e+01     1.877564    0.7364938 -42.62  0.006296582    4.629    0.784
       156 -13.6015     22.2151    180.7193   9.8355855633e+01   3.3329505144e+01    0.8737496    0.3951436 -61.19  0.004072365    2.416    0.586
       157 -10.3624     55.4653     11.4330   4.0725619140e+01   6.9857852704e+01    0.1383391    0.1263008  30.87 0.0005444265    1.048    0.045
       158 -15.1813      8.4680    183.1750   1.0213790213e+02   3.3951158634e+01     1.237234     1.150537  63.26  0.008593559    1.184    0.156
       159 -15.0246     15.3544    174.6585   9.9904574945e+01   3.5369023970e+01     2.121944    0.6328787  43.22  0.008741539    2.491    0.599
       160 -12.6670    164.2350    195.0914   6.5379997077e+01   1.1846805062e+01    0.2994238    0.2097399 -60.55  0.001671033    2.200    0.546
       161 -11.0211    200.9449    191.5117   5.7996311977e+01   7.4595880523e+00    0.1695418    0.1035046  29.25  0.001025627    1.569    0.363
       162 -12.2689    198.6911    181.1158   5.6609335532e+01   9.2347362887e+00    0.2217503    0.1980088  12.81  0.001569071    1.249    0.199
       163 -11.4421     48.9353    181.3585   9.1158809006e+01   3.0415038521e+01    0.2558475    0.1946105 -66.21  0.001473053    1.428    0.300
