#   1 NUMBER                 Running object number                                     
#   2 MAG_AUTO               Kron-like elliptical aperture magnitude                    [mag]
#   3 X_IMAGE                Object position along x                                    [pixel]
#   4 Y_IMAGE                Object position along y                                    [pixel]
#   5 X_WORLD                Barycenter position along world x axis                     [deg]
#   6 Y_WORLD                Barycenter position along world y axis                     [deg]
#   7 A_WORLD                Profile RMS along major axis (world units)                 [deg]
#   8 B_WORLD                Profile RMS along minor axis (world units)                 [deg]
#   9 THETA_WORLD            Position angle (CCW/world-x)                               [deg]
#  10 FWHM_WORLD             FWHM assuming a gaussian core                              [deg]
#  11 ELONGATION             A_IMAGE/B_IMAGE                                           
#  12 ELLIPTICITY            1 - B_IMAGE/A_IMAGE                                       
         1 -11.0489     96.5014     10.2628   8.6725058186e+01   5.9131496404e+01    0.4346981    0.1738837 -25.50   0.00183189    2.411    0.585
         2 -11.0066     89.8321     10.6702   8.8784918706e+01   6.0446875374e+01     0.337608    0.2235593 -55.30   0.00164803    2.414    0.586
         3 -10.3669    110.1443      6.8733   8.1787205090e+01   5.6521953484e+01    0.2017897    0.1877832 -46.32  0.001239436    1.288    0.224
         4 -11.0360    101.6654      5.8810   8.3424191706e+01   5.8487988802e+01     0.320988    0.2348336 -39.34  0.001782116    1.586    0.370
         5 -11.4860     77.2270      3.5849   8.9251707180e+01   6.3650378413e+01    0.4532116     0.368632 -77.20  0.002629225    2.116    0.527
         6 -10.9199     89.3446      2.7280   8.5257012247e+01   6.1376159581e+01    0.3041933    0.2527286 -29.99  0.001882962    1.349    0.259
         7  -8.9788    116.4969      1.5227   7.8113080830e+01   5.5560194505e+01    0.1354523    0.1201875  30.84 0.0008102314    1.009    0.009
         8 -10.2592    243.1938    245.9409   1.1592952614e+02  -7.9671189488e+00    0.2251603    0.1051779  24.11  0.001239628    2.124    0.529
         9  -9.0440    233.8086    250.8292   1.1811776114e+02  -7.0555962422e+00    0.2468659    0.0542477  38.75 0.0009972373    3.505    0.715
        10  -8.9476    202.9990    250.4726   1.2299905793e+02  -2.3650860152e+00    0.1734117   0.08443143  40.99 0.0005636594    1.547    0.353
        11 -10.5192    145.5233    249.7724   1.3236018434e+02   6.6914429809e+00    0.3146954     0.142499  50.63  0.001749033    1.791    0.442
        12 -10.6252     81.6596    236.7064   1.4168595120e+02   1.7989870921e+01    0.6920016     0.165042  46.80  0.003119155    3.024    0.669
        13 -12.4515     10.4591    207.8010   1.5147733397e+02   3.1223000143e+01     3.377259    0.6391847  54.76   0.01510487    3.940    0.746
        14 -12.5190     24.5030    229.9161   1.5038571685e+02   2.5970663756e+01     1.438753    0.4959384  56.78  0.008541482    2.177    0.541
        15 -12.0114     35.6733    248.2953   1.4964757721e+02   2.1777480594e+01     1.166653     0.353088  60.01   0.00633694    2.714    0.631
        16 -10.7968     13.1498    216.6518   1.5148986176e+02   2.9392571695e+01    0.5090765    0.1765011  53.32  0.002941495    2.149    0.535
        17 -11.0054     51.2171    249.8069   1.4741143096e+02   1.9763517502e+01    0.5112805    0.1549409  41.73  0.002757103    2.756    0.637
        18 -10.6808     44.9307    244.8962   1.4807644002e+02   2.1269789547e+01    0.4094715    0.2452877  63.17  0.002102111    1.186    0.157
        19 -10.9409     38.1018    240.9687   1.4889280198e+02   2.2675322525e+01    0.4704162    0.3200984  85.25  0.003137004    1.242    0.195
        20 -11.1022     26.0419    249.1607   1.5109677463e+02   2.2682849350e+01    0.4493611    0.1898565  53.81  0.002429561    1.656    0.396
        21 -12.7213      4.5295    226.9981   1.5328646311e+02   2.8430620342e+01     1.178021    0.4900373  87.76  0.007779263    1.969    0.492
        22 -12.4606     15.1415    240.9254   1.5230945045e+02   2.5111735176e+01    0.7605413    0.3935909  78.56  0.005733131    1.470    0.320
        23 -12.7431      7.9739    248.2530   1.5362777067e+02   2.4653847287e+01     1.210027    0.6362149  31.63  0.008254337    2.934    0.659
        24 -12.0564      3.4545    242.8177   1.5405996442e+02   2.5942288746e+01    0.4713536    0.2689473  77.86  0.003356752    1.231    0.188
        25  -8.6299    241.3277    238.3391   1.1507658850e+02  -6.9623452913e+00    0.1188299   0.06802046  16.93  0.000705169    1.732    0.423
        26 -11.0245     72.4648    239.9543   1.4343908532e+02   1.8685620893e+01     0.571228    0.2711334  41.03  0.003473298    1.958    0.489
        27 -10.8428     94.4995    236.2803   1.3951632228e+02   1.6283922571e+01    0.4701084    0.1840558  48.62  0.002450995    1.967    0.492
        28  -9.6673     53.6567    222.0722   1.4520956921e+02   2.4040529076e+01    0.4209909    0.1697699  57.04  0.002371962    2.055    0.513
        29 -10.8976     61.9841    231.7275   1.4453275273e+02   2.1368452775e+01    0.6597624    0.2678277  58.20  0.003734915    2.069    0.517
        30 -10.2833     48.3662    230.1598   1.4663502791e+02   2.3284614011e+01    0.5135145    0.1480361  52.31  0.002635947    2.620    0.618
        31  -9.5472    142.0288    234.2891   1.3119936896e+02   9.3968889387e+00    0.1735821    0.1254718  48.98 0.0006352036    1.085    0.078
        32 -10.3529    123.8733    232.1548   1.3409914042e+02   1.2573778400e+01    0.3053789    0.1055799  53.87  0.001321201    2.911    0.656
        33 -10.0859    117.6560    232.3947   1.3519947459e+02   1.3491863783e+01      0.28502    0.1091775  47.71  0.001435325    2.055    0.513
        34  -9.5503     80.9553    228.6810   1.4113089751e+02   1.9401249754e+01    0.2650613    0.1435815  55.30  0.001350212    1.459    0.315
        35  -9.7665    110.6633    233.1420   1.3647896504e+02   1.4430171010e+01    0.2063999    0.1214489  53.48 0.0006830785    1.346    0.257
        36 -11.6600     53.5846    240.1486   1.4645315243e+02   2.1013450678e+01     1.692244    0.3840397  56.37  0.006994385    4.233    0.764
        37  -8.9622    128.5005    229.4690   1.3299490828e+02   1.2264674467e+01    0.1179796   0.09239209  55.07 0.0008098487    1.011    0.011
        38  -9.4163    104.0090    229.5137   1.3726069966e+02   1.5995659132e+01    0.1758304    0.0901656  46.77 0.0007804657    1.568    0.362
        39  -9.6329     87.0661    231.0095   1.4029864654e+02   1.8176525202e+01    0.3017364    0.1442724  54.35  0.001304977    1.681    0.405
        40  -9.8962     94.6716    227.7872   1.3870465916e+02   1.7634776373e+01    0.3073215    0.1142077  51.87  0.001537938    2.229    0.551
        41  -9.5338    113.9547    228.0000   1.3537726129e+02   1.4748815618e+01    0.1914395   0.05391935  42.87 0.0007334481    2.910    0.656
        42 -10.5515     72.8805    223.0539   1.4202898170e+02   2.1437834660e+01    0.4724951    0.2422005  46.19  0.002903863    1.642    0.391
        43  -9.2229     85.2132    222.5532   1.3985432222e+02   1.9850039229e+01    0.2172485   0.08520841  46.54  0.001133937    2.047    0.511
        44 -11.7935     63.7309    248.8268   1.4544101277e+02   1.8397662297e+01     1.167641    0.2233002  44.97  0.005326149    3.414    0.707
        45  -9.2783     62.2549    220.4172   1.4363133553e+02   2.3267727614e+01    0.3034793     0.114339  48.57  0.001525813    2.094    0.522
        46  -9.7464     33.8239    216.7321   1.4814838359e+02   2.7258123538e+01    0.2965829    0.1399517  84.73  0.001553025    1.958    0.489
        47 -13.8193     88.5510    244.1782   1.4117199125e+02   1.5874077238e+01     3.951124    0.6093169  42.89   0.01461482    4.643    0.785
        48  -9.5799     22.1032    211.0716   1.4974457394e+02   2.9500051617e+01    0.2537633    0.1125818  53.98 0.0009668942    1.771    0.435
        49  -9.3127     27.8747    213.4507   1.4893074888e+02   2.8478523338e+01    0.3725128    0.1262597  64.08  0.001874791    2.860    0.650
        50  -8.8550     28.0124    209.1351   1.4864487891e+02   2.9242621203e+01    0.2944297   0.09172194  54.53  0.001538718    2.583    0.613
        51  -9.0480     38.5025    217.4877   1.4742174583e+02   2.6608576011e+01    0.1082346   0.07543565  71.81 -4.811595e-05    1.038    0.037
        52  -9.0014     44.5625    212.8161   1.4608307950e+02   2.6756251738e+01    0.2216581   0.09498394  56.00   0.00128846    1.904    0.475
        53  -9.0663     56.6188    211.7237   1.4391582229e+02   2.5517860235e+01    0.3500443   0.09715895  45.88  0.001664157    2.787    0.641
        54  -8.9851     66.9127    210.6925   1.4201212428e+02   2.4404800403e+01    0.2772621    0.1001012  46.67  0.001415497    2.258    0.557
        55  -9.0745     36.2238    208.4689   1.4720785741e+02   2.8484328510e+01    0.2493707    0.1088217  60.05 0.0009908134    1.925    0.480
        56  -8.4230     50.7552    206.1484   1.4450551843e+02   2.7248799917e+01    0.1989113    0.0798723  67.25 0.0009452182    2.809    0.644
        57  -8.2531     26.4108    203.2250   1.4854646715e+02   3.0493396099e+01    0.1438439   0.07692194  86.45 0.0005299737    1.556    0.358
        58  -8.6793     31.0692    202.0518   1.4766456508e+02   3.0225288466e+01    0.1798109   0.09062704  67.59 0.0009929892    1.678    0.404
        59  -8.2967     40.9653    205.4769   1.4617776768e+02   2.8507675093e+01    0.1606534    0.0577658  57.62 0.0008092726    2.475    0.596
        60  -8.7199     18.3504    201.0488   1.4979160348e+02   3.1704343569e+01    0.1493124   0.09981338  81.03 0.0006083279    1.095    0.087
        61  -8.9530      8.9885    197.9451   1.5120513919e+02   3.3162691232e+01    0.2055985   0.09910641  76.48 0.0007516379    1.676    0.403
        62 -10.0359      3.6745    196.7251   1.5203621652e+02   3.3863379614e+01    0.3544795    0.1586602 -85.45  0.002203387    1.764    0.433
        63  -8.4311      7.5040    194.4899   1.5127085321e+02   3.3941150417e+01    0.1440115   0.07199234  52.74 0.0006507988    1.672    0.402
        64  -9.6373     19.8618    194.9253   1.4915809219e+02   3.2704611839e+01    0.2541691    0.1114811  60.43  0.001177952    1.916    0.478
        65  -9.1204     13.8908    196.4494   1.5028614648e+02   3.2988647722e+01    0.2083646    0.1112098  71.89  0.000811719    1.481    0.325
        66  -7.8249     33.6782    196.2903   1.4680249617e+02   3.1033261705e+01    0.1148527   0.06092774  67.99 0.0004541784    1.606    0.377
        67  -8.3193     39.6179    193.8228   1.4554273288e+02   3.0858647726e+01    0.1525589   0.08281186  88.86 0.0006414859    1.641    0.391
        68  -8.7105     16.5592    191.0188   1.4949529097e+02   3.3764807855e+01    0.1615025    0.1141778  58.01  0.001064344    1.284    0.221
        69  -9.0912     11.0962    191.0418   1.5045677867e+02   3.4267529357e+01    0.1632665    0.1122579  78.46 0.0005113046    1.037    0.036
        70  -9.8846      3.4227    188.5744   1.5165433284e+02   3.5413658549e+01    0.3455558    0.1365942  60.54  0.002062272    2.107    0.525
        71  -8.5603     23.3245    187.6116   1.4805848321e+02   3.3767323169e+01    0.1695729   0.08818198  67.50 0.0008236229    1.635    0.388
        72  -8.4090     15.5116    187.0211   1.4943101367e+02   3.4630895047e+01    0.1539438   0.06309911  77.20 0.0007233831    2.377    0.579
        73  -8.0720     23.4504    191.4621   1.4829772264e+02   3.3011621918e+01    0.1100489   0.07730176  77.30 0.0001617784    1.049    0.047
        74  -8.8431      9.0063    186.5291   1.5056086333e+02   3.5317313113e+01    0.1382353   0.08804862  48.23 0.0006704245    1.539    0.350
        75  -9.3404      5.0033    182.9520   1.5106492611e+02   3.6354369473e+01    0.1797852   0.08501042  67.71  0.001127813    1.761    0.432
        76  -8.2654     16.5111    180.5004   1.4882291563e+02   3.5809248572e+01    0.1099414   0.07849037  80.56 4.169166e-05    1.025    0.024
        77  -8.1734     22.7080    179.3385   1.4758513139e+02   3.5452472116e+01    0.1166605   0.06177809  71.92 0.0003197032    1.646    0.392
        78  -9.6882      1.8884    177.2342   1.5129717992e+02   3.7724490700e+01    0.2416119    0.1065091  82.42  0.001434649    1.907    0.476
        79  -9.2835      5.0019    174.0062   1.5053481078e+02   3.8101315415e+01    0.1765065   0.08882014  67.54  0.001124297    1.677    0.404
        80  -8.5228      5.8231    169.5722   1.5010217429e+02   3.8914246651e+01    0.1400705   0.07586082  55.01  0.000737211    1.651    0.394
        81  -8.5053      9.6272    154.2931   1.4827651916e+02   4.1717277511e+01    0.1170848   0.06186293  68.01 0.0007024927    1.730    0.422
        82  -8.6235      4.6853    146.6324   1.4871272201e+02   4.3700855178e+01     0.108757   0.06653625 -56.39 0.0007037651    1.774    0.436
        83  -9.0154    232.6725    132.3315   9.6185228218e+01   8.1560821602e+00    0.1387034    0.1122769 -65.93 0.0007051426    1.713    0.416
        84  -9.0760    219.4993    127.5004   9.7346245739e+01   1.1717052883e+01    0.1461318    0.1346831   2.41 -0.0002160068    1.016    0.016
        85  -9.8047     25.0238    126.4987   1.4215160655e+02   4.6395511661e+01    0.1519543    0.1161122  36.45 0.0007355507    1.593    0.372
        86  -7.8836    181.6705    125.3293   1.0409578564e+02   2.0514664804e+01    0.1530118    0.1210071 -80.82 0.0003740658    1.712    0.416
        87  -9.0750    227.2013    123.8485   9.5122281102e+01   1.0634259352e+01    0.2092853    0.1654963   8.72 0.0008236369    1.349    0.259
        88  -9.6835    212.9041    122.8534   9.7418146344e+01   1.3928015330e+01    0.2352988    0.1990048  14.92 0.0009028048    1.217    0.178
        89  -8.4488     51.3481    122.6833   1.3502077090e+02   4.4618073400e+01    0.1320371   0.08613108  75.49  0.000384367    1.727    0.421
        90 -11.1509    219.3287    117.0815   9.4850668996e+01   1.3446303486e+01    0.3769237    0.3326419  55.46  0.002055252    1.231    0.188
        91 -11.1383    232.5365    113.5521   9.1728029245e+01   1.1091598650e+01    0.3567255    0.3010098  45.59  0.001953639    1.240    0.194
        92  -8.9853    193.7666    112.9758   9.8573814414e+01   1.9984022871e+01    0.2085471    0.1253652 -34.87 0.0008856713    1.654    0.395
        93 -11.2308     21.0926    112.5409   1.4140137778e+02   4.9815757587e+01    0.3326051    0.1595037  52.66  0.001761193    2.425    0.588
        94  -8.4278    208.3132    112.6661   9.5732520923e+01   1.6673882551e+01    0.1515869    0.1181743 -68.22  0.000689309    1.683    0.406
        95 -10.8922    222.2600    104.3275   9.1147958952e+01   1.4848737477e+01    0.3997321    0.2056625 -47.36  0.001583383    2.206    0.547
        96 -10.1671    235.9814    107.6998   8.9729295687e+01   1.1244083130e+01    0.2029218    0.1902009  23.86 0.0008132501    1.094    0.086
        97 -10.8382    215.2624    100.9781   9.1491367656e+01   1.7009494474e+01    0.4173172    0.1788792  43.90  0.001523766    2.493    0.599
        98 -10.8688      2.9616    110.2681   1.4580467047e+02   5.1603019390e+01    0.3548009    0.1311385 -78.14  0.001763725    2.193    0.544
        99  -9.4275    229.3156     99.3463   8.8711363914e+01   1.4029454736e+01    0.1541612    0.1108043  12.28 0.0003121512    1.720    0.419
       100 -10.4259    195.5217     97.1760   9.4081061376e+01   2.2341135001e+01    0.3025568    0.2507688 -74.77  0.001476102    1.475    0.322
       101  -8.8021    207.6692     94.3288   9.1079104269e+01   1.9903235035e+01    0.1572301    0.1178477 -67.32  0.000533512    1.714    0.417
       102  -8.6835    188.3968     92.7534   9.4248129034e+01   2.4836634918e+01    0.2243036    0.1478951 -22.31 0.0009546226    1.688    0.408
       103  -9.0750    210.3418     90.6663   8.9628258525e+01   1.9864782890e+01     0.158861    0.1166822 -66.80 0.0007050955    1.756    0.430
       104 -10.1330    237.5115     88.9922   8.4797837493e+01   1.3757111837e+01    0.2353389    0.1346205 -30.60   0.00104512    1.627    0.385
       105  -9.7533    187.6172     86.7837   9.2734433137e+01   2.6065317911e+01    0.2306738    0.1371554 -43.88 0.0009509561    1.708    0.414
       106 -10.1289    219.1832     84.9805   8.6617066616e+01   1.8654092025e+01    0.2528197     0.172856   4.96   0.00108707    1.993    0.498
       107  -9.6647      4.3029     84.1618   1.4216682168e+02   5.7208049304e+01    0.1931102     0.105061 -57.75  0.001191182    1.428    0.299
       108 -10.0026    226.2453     85.7540   8.5690938189e+01   1.6856735559e+01    0.2429856    0.1235873 -19.09 0.0008999506    2.453    0.592
       109  -9.0441    231.3391     80.3112   8.3483598506e+01   1.6490317579e+01    0.1515892    0.1107991  19.26 0.0007045352    1.691    0.409
       110  -8.9756    201.5034     76.9958   8.7412594294e+01   2.4251662879e+01    0.2227722     0.116199 -52.63 0.0008086548    2.405    0.584
       111  -9.5186    174.4670     77.0102   9.2519179287e+01   3.1013892836e+01    0.2438615    0.1518894 -33.16 0.0008775428    1.594    0.373
       112  -8.9693    163.5006     71.0009   9.2984003205e+01   3.4774495596e+01    0.2281957    0.1221672 -54.55 0.0008101223    2.500    0.600
       113  -9.5948    103.4255     20.6993   8.9357511934e+01   5.6460177931e+01    0.2676711    0.1205315 -31.75  0.001142552    2.144    0.534
       114  -8.9585    120.3373     20.6734   8.5067333799e+01   5.2708550704e+01    0.1407882    0.1088986 -62.86 0.0003129666    1.725    0.420
       115  -9.6441    113.4824     14.9213   8.4368523267e+01   5.4933583153e+01    0.2070456    0.1311198 -21.12 0.0008841783    1.574    0.365
       116  -8.7326     86.2938     15.6535   9.2096563708e+01   6.0553631234e+01    0.1254599    0.1012767 -52.12 0.0007030682    1.668    0.400
       117  -9.7206    152.5202    249.1993   1.3114059731e+02   5.6827569226e+00    0.2256345    0.1263619  44.82  0.001414355    1.350    0.259
       118 -11.3892    135.5550    245.3597   1.3353823889e+02   8.8304123234e+00    0.2833656    0.2732189 -70.55  0.002324371    1.369    0.269
       119  -8.9642    126.5086     11.4915   8.0043503383e+01   5.2264717983e+01    0.1389678    0.1277128  29.88 5.797351e-05    1.017    0.017
       120 -11.1811    126.8895    241.1025   1.3454052737e+02   1.0768392515e+01    0.2611867    0.2151322  89.85  0.001657307    1.358    0.264
       121  -9.0452    238.3241    244.3358   1.1645827478e+02  -7.0998828636e+00    0.1165284   0.06673042  17.74 0.0007051052    1.715    0.417
       122  -9.1070    211.9894    245.8095   1.2090130826e+02  -3.2545690540e+00     0.192012    0.1005965  25.08  0.001043377    1.993    0.498
       123 -10.7067    145.0251    242.4775   1.3163285112e+02   7.7601188935e+00    0.2181459    0.1387706  44.73 0.0008625135    1.225    0.184
