#   1 NUMBER                 Running object number                                     
#   2 MAG_AUTO               Kron-like elliptical aperture magnitude                    [mag]
#   3 X_IMAGE                Object position along x                                    [pixel]
#   4 Y_IMAGE                Object position along y                                    [pixel]
#   5 X_WORLD                Barycenter position along world x axis                     [deg]
#   6 Y_WORLD                Barycenter position along world y axis                     [deg]
#   7 A_WORLD                Profile RMS along major axis (world units)                 [deg]
#   8 B_WORLD                Profile RMS along minor axis (world units)                 [deg]
#   9 THETA_WORLD            Position angle (CCW/world-x)                               [deg]
#  10 FWHM_WORLD             FWHM assuming a gaussian core                              [deg]
#  11 ELONGATION             A_IMAGE/B_IMAGE                                           
#  12 ELLIPTICITY            1 - B_IMAGE/A_IMAGE                                       
         1 -14.7768    157.2122     48.0357   8.2344668961e+01   4.0341433080e+01     1.222784     1.124355 -20.29  0.003515502    1.132    0.117
         2 -14.8147    167.9421     17.1437   7.0377057344e+01   4.1535637477e+01     1.358002    0.9802905 -82.17  0.005715921    1.514    0.339
         3 -13.1683    197.8939      7.7741   6.3837474110e+01   3.4758754877e+01    0.5067161    0.3218625 -75.65  0.002517432    1.634    0.388
         4 -13.6681    189.6122     14.4082   6.6665868002e+01   3.6198336143e+01    0.4718479    0.4048839 -70.07  0.001668522    1.118    0.105
         5 -12.5928    207.9691    225.9349   1.1425508334e+02  -1.4309720438e+00    0.2808271    0.1847497 -33.54   0.00115702    1.751    0.429
         6 -20.0772     90.2543    221.7181   1.3546575392e+02   1.8503527864e+01     8.118128      6.20534  64.62    0.0471485    1.039    0.037
         7 -11.3454     22.7869    156.0474   1.4288824436e+02   4.0499208009e+01    0.1879126    0.1512767  66.58 0.0006158662    1.202    0.168
         8 -11.0257    176.9418    154.9597   1.0721590988e+02   1.5731148341e+01    0.2152332    0.2061658  69.81 0.0005332607    1.095    0.087
         9 -13.0992    230.3260    167.9938   9.9775988345e+01   2.8604621775e+00    0.4623798    0.2678626 -36.63  0.002309131    1.726    0.421
        10 -12.6529    174.1784    148.6636   1.0643486530e+02   1.7519158178e+01    0.4116732    0.3274418 -52.38   0.00111271    1.336    0.251
        11 -10.6464      8.3284    149.0165   1.4552817995e+02   4.3303119376e+01    0.1762904    0.1557031 -49.63 0.0007579151    1.516    0.340
        12 -12.3821     10.8554    144.2342   1.4454705895e+02   4.4162624807e+01    0.2680236    0.2245234 -37.65  0.000709829    1.670    0.401
        13 -11.9759    172.4782    138.8060   1.0458475773e+02   1.9811178871e+01    0.2765132    0.2097441  47.95 0.0006000776    1.300    0.231
        14 -10.8327    217.7401    218.1334   1.1129146931e+02  -2.0172276934e+00     0.192395    0.1425829 -32.45 0.0008277664    1.526    0.345
        15 -10.8795     24.5806    215.1035   1.4687028036e+02   2.8089733784e+01    0.1415097    0.1032963  72.25 0.0002247628    1.054    0.051
        16 -11.7828     28.4857    128.4837   1.3854191928e+02   4.6235397937e+01    0.2590832   0.09992859 -70.27 0.0009070782    2.097    0.523
        17 -13.4032    160.7843    128.3125   1.0467263431e+02   2.4497291869e+01    0.5145207    0.4641024 -80.82  0.001664733    1.192    0.161
        18 -13.2090     11.6643    205.8404   1.4861415896e+02   3.1172120878e+01    0.3956962    0.2821422  29.14  0.002628832    2.000    0.500
        19  -9.6373     17.3414    130.2520   1.4160727263e+02   4.6795574056e+01    0.1104487   0.07992357 -49.08  0.000350657    1.575    0.365
        20 -19.1220     78.4408     98.0610   1.1869407683e+02   4.7324657841e+01     17.77986    0.8279396 -54.02   0.02432037   18.594    0.946
        21 -11.8414    140.8597    120.6695   1.0743801629e+02   3.0470722965e+01    0.4028731    0.2541683  66.95    0.0013518    2.090    0.522
        22 -10.2508     13.0292    121.5180   1.4175042924e+02   4.9125338031e+01    0.1430165    0.1215425  21.66  0.001014687    1.579    0.367
        23 -11.0327    167.6815    112.7459   9.9252592508e+01   2.6082075278e+01    0.3872756    0.2476657 -73.68  0.001299286    2.602    0.616
        24 -14.0498    161.2486    153.0763   1.1014657253e+02   1.9370411199e+01    0.6031355    0.5262702  75.27  0.002016775    1.243    0.195
        25 -10.9238    205.4493    110.1671   9.1021912786e+01   1.7742720896e+01    0.3207354    0.2153116  43.37 0.0009653319    1.565    0.361
        26 -10.5153    180.9576    106.9084   9.4915533813e+01   2.4097632709e+01    0.2477043    0.1881959 -75.71  0.001111322    1.691    0.409
        27 -10.5298     31.4880    104.5034   1.3423716914e+02   5.1531415492e+01    0.1914831    0.1713296  74.71 -0.0001072007    1.210    0.173
        28 -11.2221     35.0328    103.2764   1.3297022884e+02   5.1486578636e+01    0.2305169    0.1971675  -5.41  0.000866519    1.533    0.348
        29 -11.7908    124.9337     95.5578   1.0483888664e+02   3.9283652594e+01    0.3135422    0.1967648  30.63   0.00129469    2.031    0.508
        30 -11.6947    151.8132    248.0235   1.2720789852e+02   4.6761005215e+00    0.3772269    0.1870934  33.96  0.002005816    1.998    0.500
        31 -12.9087     53.9186     91.4890   1.2473815234e+02   5.2189117988e+01    0.4173746    0.3128199  33.09  0.001317691    1.551    0.355
        32 -10.5874     23.7225     83.1322   1.3285474470e+02   5.7083669904e+01    0.2245608    0.1333764 -30.25 0.0008662951    2.083    0.520
        33 -11.2256    142.3674     81.6281   9.6346681236e+01   3.8201008754e+01    0.2831905    0.2387398 -44.29 0.0005953626    1.168    0.143
        34 -10.6068    105.8421     82.2240   1.0620708680e+02   4.6011629717e+01    0.2102726    0.1962761 -76.77 0.0003856489    1.142    0.124
        35 -14.6152    146.9182     62.8267   8.9372519740e+01   4.0544761643e+01     1.257176     1.149319  14.60  0.001152606    1.175    0.149
        36 -11.4510     14.2097    241.6228   1.4991735869e+02   2.4385998771e+01    0.1802785   0.08601826  78.42 0.0007736966    1.656    0.396
        37 -13.4073    161.2763     39.0300   7.8611945212e+01   4.0590191865e+01    0.4960444    0.4778044  44.86 0.0008570143    1.053    0.050
        38 -11.3465     13.4255     59.8404   1.3161427892e+02   6.2926988310e+01    0.1930524    0.1624962 -89.38 0.0004318307    1.373    0.272
        39 -10.6937     24.4770     59.2432   1.2719531328e+02   6.2252541130e+01    0.2003286    0.1381748  -4.44  0.001221572    1.807    0.447
        40 -10.5309     28.1132    232.8759   1.4727451083e+02   2.4440698873e+01    0.1230242   0.08930207  87.50 0.0004415961    1.236    0.191
        41 -10.0639      6.5952    229.3727   1.5058710378e+02   2.7287944670e+01    0.1021409   0.06689201  70.58 0.0001859803    1.028    0.027
