#   1 NUMBER                 Running object number                                     
#   2 MAG_AUTO               Kron-like elliptical aperture magnitude                    [mag]
#   3 X_IMAGE                Object position along x                                    [pixel]
#   4 Y_IMAGE                Object position along y                                    [pixel]
#   5 X_WORLD                Barycenter position along world x axis                     [deg]
#   6 Y_WORLD                Barycenter position along world y axis                     [deg]
#   7 A_WORLD                Profile RMS along major axis (world units)                 [deg]
#   8 B_WORLD                Profile RMS along minor axis (world units)                 [deg]
#   9 THETA_WORLD            Position angle (CCW/world-x)                               [deg]
#  10 FWHM_WORLD             FWHM assuming a gaussian core                              [deg]
#  11 ELONGATION             A_IMAGE/B_IMAGE                                           
#  12 ELLIPTICITY            1 - B_IMAGE/A_IMAGE                                       
         1 -14.4460    155.1010     56.8060   8.2026727835e+01   3.9331892643e+01     1.325675     1.170934  49.89  0.002956437    1.098    0.089
         2 -14.9204    167.2055     42.0019   7.5408389931e+01   3.8503085205e+01     1.254369     1.105678  -4.13  0.003954128    1.368    0.269
         3 -14.9649    186.1985      8.7390   6.3628842062e+01   3.7739837708e+01     2.231637    0.8685848  64.00  0.007095287    2.110    0.526
         4  99.0000     12.5069    244.3333   1.4949827098e+02   2.2685541810e+01    0.1425103   0.09876581 -66.78 0.0002722865    1.750    0.428
         5 -20.0068     67.3424    171.3109   1.3196606457e+02   3.1695312279e+01     18.62825     6.767434 -65.72   0.07265882    2.587    0.613
         6 -12.8443    176.0136    186.2621   1.0965449903e+02   8.5392223818e+00    0.4966432    0.3002426 -60.93  0.001259608    2.131    0.531
         7 -10.3597    112.2609    196.7901   1.2553634943e+02   1.8614507804e+01      0.33845    0.2447121  12.25  0.001561569    2.360    0.576
         8 -11.2346    153.2626    193.6834   1.1597428818e+02   1.1567452961e+01    0.3252483    0.2667306  64.68 0.0007967923    1.243    0.195
         9 -10.5648    103.8166    194.3489   1.2703288683e+02   2.0628587437e+01    0.3557563    0.2066053  26.57  0.001500619    2.563    0.610
        10 -11.5051    153.3725    186.2103   1.1457196375e+02   1.3116409345e+01    0.2852148    0.2304286  60.41 0.0005871953    1.237    0.191
        11 -11.4077     21.7697    240.7601   1.4779351836e+02   2.2347294174e+01    0.1653746    0.1094999 -81.71  0.001167578    1.340    0.254
        12 -10.3410    121.6380    198.5244   1.2374321951e+02   1.6551346564e+01    0.1392126    0.1263627  79.51 0.0001429372    1.041    0.039
        13 -10.7354      7.9521    239.0175   1.4992770725e+02   2.4176636849e+01    0.1281578   0.07254199 -86.92 0.0008631783    1.380    0.276
        14 -13.5168    204.5603    176.4758   1.0174863829e+02   4.6837232010e+00     0.891538    0.5512251 -62.05    0.0033862    2.363    0.577
        15 -11.7600    201.5268    169.0372   1.0079409589e+02   6.7352298554e+00    0.4354208    0.2901016 -72.01  0.001513931    2.467    0.595
        16 -12.4309    204.4689    166.0783   9.9568183321e+01   6.7053670315e+00    0.6007703    0.3933821 -52.93  0.002042539    1.689    0.408
        17 -10.4791    150.5192    180.4680   1.1411717930e+02   1.4922028832e+01    0.2500777    0.1439669 -62.35 0.0007147353    2.096    0.523
        18 -11.3089    198.8824    178.1343   1.0323926175e+02   5.5089437386e+00     0.339323    0.2674928 -76.75  0.001060678    1.725    0.420
        19 -13.2841    194.0277    167.3863   1.0197673219e+02   8.6195587621e+00    0.8091131    0.4566943 -55.10  0.001753705    2.114    0.527
        20 -12.3358    126.5240    172.7617   1.1817151217e+02   2.1398688722e+01    0.5726928    0.3467027  57.63  0.001897468    1.776    0.437
        21 -13.3659    143.9124    173.3945   1.1424571638e+02   1.7812808727e+01    0.8745959    0.7568204  -4.15  0.003247923    1.487    0.328
        22 -11.6811    166.8380    174.7153   1.0933925586e+02   1.2806425191e+01    0.2908222    0.2002885 -78.48  0.001162189    2.133    0.531
        23 -11.1838    177.1741    169.6044   1.0602014366e+02   1.1713920617e+01    0.2915883    0.1128863 -47.78 0.0009971129    2.685    0.628
        24  -9.2153     13.4413    239.3287   1.4906414136e+02   2.3537926960e+01    0.2366554    0.1222006  88.32  0.001507947    1.543    0.352
        25 -11.8194    230.3233    166.8733   9.4773767766e+01   1.3904429504e+00    0.3285979    0.1632633 -48.70  0.001357167    2.215    0.549
        26 -10.4815     24.4774    165.6367   1.4110249575e+02   3.8094136663e+01    0.1876564    0.1476733  29.24 0.0007605759    1.660    0.398
        27 -10.3123     13.1035    164.8500   1.4352872056e+02   3.9318869294e+01    0.1676465     0.138221 -64.66 0.0006637407    1.295    0.228
        28  -8.8069     19.3096    232.3281   1.4766880476e+02   2.4263855909e+01    0.2221869   0.06657568 -66.69  0.001065974    2.950    0.661
        29 -10.7154      1.7719    165.3455   1.4599918145e+02   4.0139794344e+01    0.1387387    0.1133605 -78.31 0.0003803645    1.179    0.152
        30 -12.1445      9.4100    175.1335   1.4525291833e+02   3.7336208100e+01    0.2008305    0.1614503  66.08  0.000611186    1.257    0.204
        31 -10.9963    189.4054    157.8174   1.0085956250e+02   1.1543352924e+01    0.6211575    0.3821608  18.06  0.002267701    2.862    0.651
        32 -10.6959    189.0881    154.1456   1.0010947491e+02   1.2368187440e+01    0.4080646    0.2345911  39.70  0.001688138    1.834    0.455
        33 -13.8217    134.4954    169.4321   1.1565834835e+02   2.0597142229e+01     1.004223    0.5443439  57.90  0.003951561    2.155    0.536
        34 -10.6048     16.8962    156.1990   1.4179715085e+02   4.0956283239e+01    0.1884431    0.1566428 -35.45  0.000784526    1.614    0.380
        35 -10.4020    136.9420    179.3470   1.1698729100e+02   1.7877496529e+01    0.2068822    0.1800158  47.42 0.0003456217    1.129    0.114
        36 -11.6249    174.3165    148.3701   1.0198840801e+02   1.6835504722e+01    0.4382807    0.3008125 -64.01  0.001539615    1.748    0.428
        37 -11.8938     19.9102    222.6143   1.4692015298e+02   2.6143849371e+01    0.2853143    0.1682535 -64.26  0.001553311    1.799    0.444
        38 -12.1556    152.6783    139.1508   1.0480456967e+02   2.3661319482e+01    0.3732181    0.3015265 -83.16  0.001007103    1.443    0.307
        39 -11.4329      6.4704    137.0690   1.4213714168e+02   4.6139624520e+01     0.224704    0.1453782 -48.27   0.00096547    1.612    0.379
        40 -11.0974     18.1279    129.1319   1.3820671118e+02   4.7067734854e+01     0.286229    0.1564716 -56.29 0.0009186123    1.528    0.345
        41 -12.4123    160.5824    127.7735   1.0021481231e+02   2.4401932826e+01    0.4750771    0.3542669 -58.17  0.001686702    1.406    0.289
        42 -10.5319      7.6019    220.9393   1.4893407236e+02   2.7763075567e+01    0.1342669   0.08169232 -79.82 0.0005527914    1.354    0.262
        43  -9.5637    119.2365    220.1103   1.2746002806e+02   1.2456174285e+01     0.233633    0.1581537  35.63  0.001218884    1.581    0.368
        44 -10.7790    167.8476    112.8496   9.4799409326e+01   2.5895223392e+01    0.4211149     0.270573 -82.40  0.001512499    2.704    0.630
        45 -14.0495    118.4544    110.2575   1.0630382834e+02   3.7462224448e+01    0.8502381    0.5756426  59.51  0.003786664    1.721    0.419
        46 -10.8106    110.7469    211.6129   1.2804324168e+02   1.5681169227e+01     0.181731    0.1413901 -87.96 0.0002777294    1.292    0.226
        47 -12.5445    106.1326    204.5649   1.2802702187e+02   1.7980019425e+01    0.3993313    0.3202565 -83.01  0.001026012    1.216    0.177
        48 -10.8960    205.4244    110.1657   8.6451461153e+01   1.7531198604e+01    0.3286743     0.220758  44.84  0.001005005    1.609    0.379
        49 -10.2424    153.4597    201.8192   1.1737378714e+02   9.8597465357e+00    0.2526577    0.1419401 -57.29  0.001110608    2.030    0.507
        50  -9.8830    138.7850    200.0507   1.2024211591e+02   1.3034137848e+01    0.2326297    0.1665098  78.98  0.001120272    1.708    0.415
        51 -11.2654     18.7020    108.6937   1.3497892143e+02   5.1659331496e+01    0.2009448    0.1534949 -43.05  0.000801226    1.291    0.225
        52 -14.3162    179.7650    193.7978   1.1031708361e+02   6.2984405458e+00     1.645341    0.5738248  41.74  0.005771699    2.745    0.636
        53 -13.8439    165.7053    187.0813   1.1203250926e+02   1.0454878860e+01    0.6784534    0.5742847  72.67   0.00358961    1.296    0.229
        54 -13.4486    170.1992    182.8596   1.1023603603e+02   1.0412779358e+01    0.6028385     0.400659  47.96  0.002075548    1.454    0.312
        55 -10.6580    133.6877    246.6864   1.2811932067e+02   4.9536586530e+00    0.1312122    0.1134492 -84.35 0.0003240802    1.276    0.217
        56 -11.4017    125.0540    243.5852   1.2938527399e+02   6.9685655130e+00    0.1685648    0.1429271 -74.39 0.0005297568    1.313    0.238
        57 -12.9527    171.4237     34.2305   7.2503446449e+01   3.8478399996e+01    0.3734609    0.3533204  21.14 0.0009348583    1.233    0.189
        58 -11.3523    100.1306     60.3659   9.6857070168e+01   5.0953600418e+01    0.5038009    0.2470322  54.73  0.002048736    2.559    0.609
        59 -10.8764     13.5387     59.8881   1.2664771285e+02   6.2251263810e+01    0.1754896    0.1603256   2.93 0.0004346431    1.316    0.240
        60 -10.4919    136.1168     30.7916   7.8013773889e+01   4.7437686169e+01    0.1978084    0.1738086  80.86 0.0004740376    1.219    0.180
        61 -12.7315    172.9537    188.7081   1.1078369777e+02   8.6640010584e+00    0.4354013     0.372882  47.49  0.001516002    1.113    0.102
