#   1 NUMBER                 Running object number                                     
#   2 MAG_AUTO               Kron-like elliptical aperture magnitude                    [mag]
#   3 X_IMAGE                Object position along x                                    [pixel]
#   4 Y_IMAGE                Object position along y                                    [pixel]
#   5 X_WORLD                Barycenter position along world x axis                     [deg]
#   6 Y_WORLD                Barycenter position along world y axis                     [deg]
#   7 A_WORLD                Profile RMS along major axis (world units)                 [deg]
#   8 B_WORLD                Profile RMS along minor axis (world units)                 [deg]
#   9 THETA_WORLD            Position angle (CCW/world-x)                               [deg]
#  10 FWHM_WORLD             FWHM assuming a gaussian core                              [deg]
#  11 ELONGATION             A_IMAGE/B_IMAGE                                           
#  12 ELLIPTICITY            1 - B_IMAGE/A_IMAGE                                       
         1 -14.7370     69.5665    146.2745   1.0892525093e+02   3.6565262136e+01     4.630279     2.338796  76.93  0.004681871    3.900    0.744
         2 -14.2846    218.9690     17.3725   4.1192428963e+01   2.8086491737e+01     1.381452     1.113149  20.14  0.003619523    1.708    0.415
         3 -13.7629    195.6532     39.2981   4.9805085701e+01   3.1163990177e+01      1.58275    0.9776528  29.67  0.004660296    2.363    0.577
         4 -14.1809    203.8127     32.9856   4.6960813611e+01   2.9930728156e+01     1.817724      1.48983  20.53   0.00805026    1.563    0.360
         5 -11.3803      2.5965      4.3410   9.7139107511e+01   7.3692025310e+01    0.4280279    0.1430836 -46.99  0.002211674    2.333    0.571
         6 -12.4776    212.0738     25.2390   4.3917847458e+01   2.8841380024e+01    0.5002396     0.418187  40.13  0.001095684    1.429    0.300
         7  -9.4041     61.3751      1.2978   6.6335007709e+01   6.6872395662e+01    0.1351446   0.07673022  20.44 0.0007026604    1.748    0.428
         8  -9.1810     75.9957    190.5117   1.1347812142e+02   2.5459764487e+01    0.1878422   0.08623145  57.53 0.0006205753    2.336    0.572
         9 -15.6251     81.5475    246.5702   1.1798308453e+02   1.3750077756e+01     8.712615     2.648846  32.31   0.02557298    5.825    0.828
        10 -13.9505     87.7335    227.6947   1.1509397927e+02   1.6254006654e+01     1.340767    0.7211441  54.33  0.002346224    1.595    0.373
        11 -13.9001      8.2356    189.0824   1.2753343091e+02   3.3507855842e+01    0.9623802    0.6134048 -72.71  0.002406438    1.437    0.304
        12 -16.1829     11.2911    240.6057   1.2963754184e+02   2.3198152903e+01     2.105923       1.6608  64.71   0.01164789    1.248    0.199
        13 -15.0281      9.2355    207.9489   1.2841398544e+02   2.9557038634e+01     1.226664     1.073111  71.55   0.00386649    1.321    0.243
        14 -16.4146     47.6343    198.6736   1.2035735777e+02   2.7406257170e+01     10.15353     3.926357  75.02   0.03560121    4.580    0.782
        15  -9.2660     71.5208    186.0246   1.1393819850e+02   2.7069440292e+01    0.1804858    0.1183276 -73.44 0.0003300449    1.464    0.317
        16 -12.1010     65.4294    179.8300   1.1457584251e+02   2.9277016036e+01    0.4027012    0.2854412 -40.33   0.00219551    1.955    0.488
        17 -11.9614     70.2486    174.4673   1.1280201133e+02   2.9839049011e+01    0.3235998    0.2660705 -45.91 0.0008017705    1.487    0.327
        18  -9.5435     99.5755    180.8034   1.0683986954e+02   2.4003809728e+01    0.2145132    0.1793445  36.55 0.0005916029    1.273    0.214
        19  -8.6420    129.2862    210.6155   1.0460878780e+02   1.2919351267e+01     0.136151   0.09542075  72.93 0.0007010939    1.742    0.426
        20 -14.8786    247.3402    177.9315   7.5134552301e+01  -2.5657345303e+00     2.659854    0.6905519 -36.19  0.009381665    3.602    0.722
        21 -11.8087     79.4403    164.5821   1.0923529539e+02   3.0813505104e+01    0.3242734    0.2878506  79.21 0.0002786993    1.021    0.021
        22 -12.6048     86.2047    157.6974   1.0648181953e+02   3.1409658693e+01    0.8224461    0.4955437 -39.25  0.001582681    2.192    0.544
        23 -10.6065    174.1983    248.5670   1.0099915632e+02  -6.9036610252e-01    0.2146762    0.1702365  56.05 0.0009075443    1.461    0.315
        24 -13.8267    249.1862    152.9482   6.9586746331e+01   9.0153257964e-01     1.279895    0.4367703 -32.20  0.004498541    2.779    0.640
        25 -12.6078     56.1642    147.4709   1.1261040875e+02   3.8014863957e+01    0.5338056    0.4745817  14.74   0.00329682    1.437    0.304
        26 -10.7190    133.7494    144.1344   9.1782529622e+01   2.6065127899e+01     1.062443    0.2471628 -54.27  0.002300609    6.798    0.853
        27  -9.7690    193.3133    165.7738   8.2858780138e+01   9.3796845643e+00    0.2340803    0.2290832  84.64 0.0008597554    1.219    0.180
        28  -9.7159    155.8348    200.1545   9.7376091138e+01   1.0198247662e+01    0.3136382    0.2195927 -80.46   0.00115849    2.283    0.562
        29 -10.6823    100.8389    141.9698   9.9845549984e+01   3.2752005989e+01    0.5876363    0.3463958 -29.23  0.002242709    2.801    0.643
        30 -12.2529     88.1000    142.0381   1.0325981501e+02   3.4846150015e+01    0.2896895      0.25079 -49.03 0.0004462381    1.200    0.167
        31 -10.6453     82.7101    142.4953   1.0478814485e+02   3.5574217498e+01    0.3155057    0.2243524  64.84   0.00048886    1.554    0.356
        32 -10.8025     32.0825    137.9971   1.1762346583e+02   4.2891858469e+01    0.2170272    0.1657318  69.00 0.0005522057    1.301    0.231
        33 -12.5018     25.2496    137.4940   1.1934249283e+02   4.3630686091e+01    0.4762736    0.2344621  39.86  0.002433865    2.162    0.537
        34 -10.0875    110.4080    131.6988   9.5119313858e+01   3.3473194864e+01    0.3078736    0.2522545  -4.20 0.0008830499    1.587    0.370
        35 -10.1073    106.0245    131.0015   9.6157164585e+01   3.4442621535e+01    0.3446302    0.2776021 -71.57  0.001242304    1.301    0.231
        36  -9.8871     35.7779    132.0021   1.1585761763e+02   4.3973862869e+01    0.1733124   0.09054711 -69.58 0.0008565598    1.606    0.377
        37 -11.9519     45.7449    129.4894   1.1274790085e+02   4.3559253995e+01    0.3517541    0.2565199  43.23  0.002022659    1.500    0.333
        38 -10.9760     97.8287    127.8781   9.7738323974e+01   3.6638633555e+01    0.3006291    0.2649198 -11.89 0.0009886599    1.354    0.261
        39  -9.2309    125.6538    127.3237   9.0029041815e+01   3.1531504678e+01    0.1619819     0.123129  83.01 0.0007049956    1.741    0.425
        40  -9.9513    116.5907    125.7393   9.2080737590e+01   3.3696337958e+01    0.2159604    0.1457287 -60.77 0.0007468358    1.581    0.367
        41 -10.5366     29.4925    128.5030   1.1710196296e+02   4.5398087890e+01    0.1289174    0.1052861 -79.17 0.0008105661    1.019    0.019
        42 -10.3057    135.2976    121.3326   8.6034349544e+01   3.0887655708e+01    0.5322699    0.1321007 -52.96  0.001083176    7.020    0.858
        43  -9.7422    107.1831    120.0041   9.3319152590e+01   3.6830802433e+01    0.2156191    0.2075386 -54.70 0.0004514577    1.017    0.016
        44  -9.9014    168.4558    113.2434   7.5831178790e+01   2.5170269657e+01    0.3732626    0.2627197 -78.38  0.001150328    2.226    0.551
        45  -9.6458    205.5645    110.2105   6.7322558117e+01   1.7117939978e+01    0.2618817    0.2137132  47.74 0.0005682313    1.276    0.216
        46 -13.5468     67.0227    160.5753   1.1171609362e+02   3.3500811043e+01    0.5210767    0.3556038 -51.79  0.001495256    1.559    0.359
        47 -15.2810    215.3609    149.1779   7.4805203642e+01   7.9401391042e+00     2.677836     1.419921 -24.22  0.009063297    2.229    0.551
        48 -12.0718    248.5035    103.4039   5.8502285375e+01   8.9739074134e+00    0.6564104     0.386816 -30.86  0.002447092    1.555    0.357
        49 -13.0350    241.9808     99.6267   5.8573721104e+01   1.0928431974e+01    0.8914263    0.7457387 -29.73  0.002982491    1.097    0.089
        50 -10.5927    134.5756    104.0458   8.1665638414e+01   3.4865339364e+01    0.6748403    0.1514412 -44.99  0.001696181    4.424    0.774
        51 -10.8620     36.3655    101.3722   1.1081010622e+02   5.1279112795e+01    0.2475787    0.2076825 -79.95 0.0009422815    1.162    0.140
        52  -8.7645     74.6866     85.2507   9.4326348933e+01   5.0417043183e+01    0.1322271    0.1115555  76.42 0.0001940446    1.520    0.342
        53 -10.1988    158.7271     80.9999   6.8990691223e+01   3.3871972311e+01    0.2233525    0.2083424 -36.69 0.0005820066    1.071    0.066
        54 -10.8928    246.3554     79.8029   5.3238269744e+01   1.3157809343e+01    0.4050092     0.297031 -68.86   0.00180486    1.564    0.361
        55  -8.8545    184.3504     77.3223   6.2528489695e+01   2.8152743165e+01    0.1624934    0.1206149  20.03 0.0007048452    1.748    0.428
        56 -12.7350    237.3703    129.2231   6.6268512602e+01   6.9624482992e+00     1.101036    0.6677084  23.15  0.003387764    2.244    0.554
        57  -9.2483     61.7927     71.2725   9.4783153828e+01   5.5340484706e+01    0.1916196     0.144369 -24.98 0.0006800015    1.333    0.250
        58  -9.5107     51.8416     64.1860   9.6345240821e+01   5.8120601526e+01    0.1862375    0.1777319 -80.97 0.0008474339    1.303    0.233
        59 -10.3557     13.5614     59.8170   1.1029515761e+02   6.2484662766e+01    0.1906736    0.1741241 -60.93  0.000375272    1.210    0.173
        60 -13.9982     45.0455    223.0452   1.2280463299e+02   2.2784110665e+01     1.170289     0.823926  53.72  0.008102188    1.212    0.175
        61 -11.6371    169.5979    232.9749   9.9686187089e+01   2.3051665613e+00    0.2491267    0.2251492 -45.57  0.001542684    1.373    0.272
        62 -11.0207    193.3914    193.1270   8.8313062856e+01   4.5458374606e+00    0.7295088    0.4200254 -50.12  0.003396074    2.198    0.545
        63 -11.1070    142.2315     47.4171   6.2067508008e+01   4.3686621472e+01    0.3994991    0.2840163 -82.79 0.0009143841    2.036    0.509
        64 -10.2943    145.1352     41.7942   5.9520314365e+01   4.3782344988e+01    0.3648458      0.24449 -85.74  0.001136194    2.230    0.552
        65 -10.0252      2.3301     36.8376   1.0923323335e+02   6.7841519975e+01     0.225792    0.0962849 -68.44  0.001084065    2.602    0.616
        66 -10.7083    189.5297     15.4373   4.3931314036e+01   3.5616092701e+01    0.2474516    0.2230867  84.18 0.0007612447    1.018    0.018
        67 -13.3313     39.4273    207.9500   1.2275195072e+02   2.6437201085e+01    0.4422941    0.4029889 -75.93  0.001372826    1.396    0.284
        68  -9.6367    149.7213    189.7144   9.6919675679e+01   1.3298025692e+01    0.2631449    0.1705077 -75.09 0.0007930552    2.465    0.594
