#   1 NUMBER                 Running object number                                     
#   2 MAG_AUTO               Kron-like elliptical aperture magnitude                    [mag]
#   3 X_IMAGE                Object position along x                                    [pixel]
#   4 Y_IMAGE                Object position along y                                    [pixel]
#   5 X_WORLD                Barycenter position along world x axis                     [deg]
#   6 Y_WORLD                Barycenter position along world y axis                     [deg]
#   7 A_WORLD                Profile RMS along major axis (world units)                 [deg]
#   8 B_WORLD                Profile RMS along minor axis (world units)                 [deg]
#   9 THETA_WORLD            Position angle (CCW/world-x)                               [deg]
#  10 FWHM_WORLD             FWHM assuming a gaussian core                              [deg]
#  11 ELONGATION             A_IMAGE/B_IMAGE                                           
#  12 ELLIPTICITY            1 - B_IMAGE/A_IMAGE                                       
         1 -13.7746    154.9879     48.0510   4.6101966445e+01   4.0304035818e+01     3.732452     1.852755  77.76  0.009916544    2.905    0.656
         2 -12.3155     59.6858     59.5460   7.6539182438e+01   5.8495963597e+01     1.584659     1.250569   7.40  0.009071049    1.211    0.174
         3 -11.4547     82.5148     30.7547   5.7454061983e+01   5.8810489015e+01     1.064377    0.8467944  43.86  0.005947218    1.165    0.141
         4 -13.5311     55.5534     84.4975   8.6103148315e+01   5.4039865324e+01     3.538827     2.225437 -14.79   0.01613256    1.996    0.499
         5 -10.7965     29.5872     61.4325   9.0001469395e+01   6.1960058461e+01     1.581774     1.117061 -41.87  0.009251649    1.241    0.194
         6 -14.5265    135.1429     73.5974   5.7643615710e+01   4.0987748151e+01     4.069344     1.907307  38.69  0.005900856    2.542    0.607
         7 -13.9221     96.8817     93.7514   7.4315584490e+01   4.5222163516e+01     2.972914     2.234621  54.60   0.01429828    1.542    0.352
         8 -12.9507    100.0007     46.1962   5.7953435822e+01   5.3136293052e+01     1.221192    0.8589306 -50.38  0.006296003    1.759    0.431
         9 -13.3462    122.3141     59.3328   5.6402137341e+01   4.6256720410e+01     1.914907     1.437002   0.75  0.009553872    1.707    0.414
        10  99.0000     60.7845     34.0513   6.6376519553e+01   6.2442431563e+01     3.188883     1.997193  24.18   0.01716046    1.550    0.355
        11 -11.7501     87.4610     47.3454   6.2140753887e+01   5.5564217028e+01     1.097368    0.6832268 -48.81  0.005295473    2.044    0.511
        12 -12.2072     82.4912     56.8187   6.7178124783e+01   5.5037209884e+01     1.367829    0.6837028 -48.16    0.0043967    2.467    0.595
        13 -11.2590      7.1404     34.0334   9.1896944580e+01   6.9088470111e+01    0.6311191    0.3359652 -26.85  0.002178335    1.627    0.385
        14 -10.6295    111.9132     36.1906   5.1351259638e+01   5.1850329550e+01    0.6561675    0.5513722 -28.97  0.003422814    1.305    0.234
        15 -12.4191    138.4852     54.2019   5.1099984641e+01   4.3309328360e+01     1.247229    0.7325389 -51.92  0.005621708    1.996    0.499
        16 -10.3677     44.9586     18.3527   6.6032714922e+01   6.7083857773e+01    0.4874232    0.3391019   6.51  0.002309362    1.325    0.245
        17 -10.2829     38.2533     21.6264   7.0567673654e+01   6.7673232018e+01    0.4064655    0.3904546  67.89  0.002451554    1.755    0.430
        18 -12.6478    245.9229      7.1905   2.6876065129e+01   2.5512622765e+01     1.226521    0.6358915 -51.21   0.00784862    1.532    0.347
        19 -12.2120     42.2864     55.9593   8.2538778374e+01   6.1599817429e+01     1.491245     0.531757 -35.70  0.003729954    3.041    0.671
        20  -9.8011     24.9024     38.7096   8.4351366570e+01   6.6704070186e+01    0.2481382    0.1916753 -25.98 0.0006356311    1.116    0.104
        21 -10.2406    204.8723    250.5045   8.1021399166e+01  -6.2559503570e+00    0.3822547    0.1027915  33.56  0.001501278    3.350    0.701
        22  -9.8301    188.3416    249.2333   8.4077657307e+01  -3.8949275714e+00    0.2734556    0.1925874   7.00  0.001392431    1.291    0.226
        23  -8.5177    150.5208    250.5074   9.2081697324e+01   1.1774317506e+00    0.1290413    0.1087685  19.95 6.929967e-06    1.004    0.004
        24  -9.3741    139.4514    249.3041   9.4272326061e+01   2.9791467564e+00    0.2331704     0.120249 -44.78  0.001150013    2.187    0.543
        25 -10.2705      5.3387    158.4755   1.1606457349e+02   4.0504511218e+01    0.3457959    0.2615881 -46.19  0.002004809    1.420    0.296
        26  -7.8103     51.2800    156.3064   1.0281132180e+02   3.6800515120e+01    0.1439949    0.1018178 -38.56 0.0002835553    1.556    0.357
        27  -9.1114     31.5282    155.7087   1.0846756591e+02   3.9061376614e+01    0.3297339     0.135624  15.07  0.001239223    3.423    0.708
        28  -7.8326     23.6752    153.3241   1.1042599245e+02   4.0385668933e+01    0.1413551   0.09220459  67.28 0.0007048282    1.688    0.407
        29  -8.4225    236.6686    146.6962   5.5895179436e+01   6.5586687130e+00    0.1326988   0.09611615  -9.32 0.0005672735    1.656    0.396
        30  -9.7840     34.5104    144.0089   1.0597923135e+02   4.1786072045e+01    0.2146497    0.1795026  22.85  0.001228289    1.357    0.263
        31  -8.8059     29.4471    143.9618   1.0751018114e+02   4.2274697798e+01    0.2168513    0.1214197 -70.01  0.001023088    1.583    0.368
        32  -9.1286      1.3232    143.2048   1.1571975594e+02   4.4575775285e+01    0.1866124     0.100628 -85.45 0.0006468824    1.696    0.410
        33  -8.7237     39.3212    142.2946   1.0424566167e+02   4.1747382627e+01    0.1448145    0.0976662 -36.95 0.0007017027    1.614    0.380
        34  -9.3794     15.9560    137.4372   1.1074289201e+02   4.5055803082e+01    0.2882747    0.1661407 -89.43 0.0008831347    1.840    0.456
        35  -8.2595     24.5147    134.5162   1.0769517368e+02   4.5127653541e+01    0.1373003    0.1187351 -66.93 0.0004953154    1.006    0.006
        36  -8.7176     84.7828    133.4060   8.8320732597e+01   3.8024833988e+01    0.2146022    0.1731328 -29.02 0.0001878877    1.319    0.242
        37  -9.4905     83.5145    129.7772   8.7904612439e+01   3.9136968582e+01    0.2616979    0.2141424  30.71 0.0004475178    1.276    0.216
        38  -9.1674     61.7409    132.9776   9.5513613554e+01   4.1519954536e+01    0.2073506    0.1827186 -56.62 0.0003018825    1.053    0.051
        39  -8.6611     30.6251    133.2359   1.0556816651e+02   4.4922351344e+01    0.1971029    0.1085461 -57.44 0.0002634909    1.543    0.352
        40 -10.0691      8.8941    131.4487   1.1216552236e+02   4.7058162763e+01    0.2719558    0.2036885 -66.15 0.0003086737    1.105    0.095
        41  -8.7952     43.4439    132.2113   1.0127661527e+02   4.3912259990e+01    0.1928641    0.1301093 -78.25 0.0004680973    1.563    0.360
        42  -9.7517     73.7778    130.2242   9.1085164686e+01   4.0530766351e+01    0.2539268     0.239389   0.52 0.0003413895    1.111    0.100
        43  -8.2347     37.8414    131.1479   1.0290827507e+02   4.4767859932e+01    0.1927622    0.1474793 -38.86 0.0003636552    1.312    0.238
        44 -11.4353     24.7823    129.3165   1.0684276024e+02   4.6432239449e+01    0.2880566    0.2669894 -39.73 0.0003573951    1.135    0.119
        45  -9.5735      3.6645    125.0223   1.1301604964e+02   4.8983820793e+01    0.2876434    0.1811092 -76.66  0.001462889    1.373    0.272
        46  -8.8586      9.8048    124.9100   1.1104409666e+02   4.8643563269e+01    0.2723016    0.1768851  56.96  0.001448863    1.823    0.452
        47  -8.8796     11.2906    119.9779   1.0988422252e+02   4.9783893328e+01    0.3471241    0.1604602 -37.69  0.001552162    2.310    0.567
        48  -9.6685     47.3165    111.1287   9.5837450952e+01   4.8809281133e+01    0.2750365    0.2099804 -35.28 0.0005501008    1.264    0.209
        49 -10.6456     43.2588    122.2514   9.9512759829e+01   4.6474507789e+01     0.416083     0.253087 -67.60 0.0007944537    1.593    0.372
        50 -10.2221     43.6657    115.8220   9.8105700318e+01   4.8049869417e+01    0.4556752    0.2777567  28.55  0.002190654    1.781    0.438
        51 -10.7565     76.4302    120.4033   8.8012791079e+01   4.2581306261e+01    0.4439399    0.3690535 -59.85  0.001678864    1.204    0.170
        52  -8.8978     70.4757    120.0507   8.9891473767e+01   4.3565454550e+01    0.2261432    0.2074498  65.95 0.0003864713    1.233    0.189
        53  -8.6910     34.4832    122.4820   1.0251866852e+02   4.7306621048e+01    0.1417366    0.1221964 -52.43 0.0001975437    1.034    0.033
        54 -10.1544     90.0239    120.7312   8.3727886793e+01   4.0281447778e+01    0.2809588     0.236937  29.18  0.001418703    1.227    0.185
        55 -10.0618     94.4689    119.9854   8.2154237442e+01   3.9686147893e+01    0.2768497    0.2272723  30.97 0.0004805972    1.256    0.204
        56  -8.5834      3.0400    118.6982   1.1242572676e+02   5.0590234981e+01    0.1702721    0.1528569 -66.78  0.000316043    1.094    0.086
        57 -10.0441      3.9506    114.3479   1.1154886453e+02   5.1616601756e+01    0.4588089    0.1960523 -41.18  0.001357557    2.271    0.560
        58  -9.3961    112.4926    116.9312   7.5955387641e+01   3.7031982489e+01    0.2456374    0.1519032 -48.00  0.001032389    1.590    0.371
        59 -10.2093     81.5881    115.7804   8.5212312194e+01   4.2891294088e+01    0.2697927     0.262562  61.75 0.0006553944    1.127    0.113
        60 -11.1521     69.7156    106.2129   8.6800727270e+01   4.7042871809e+01    0.7092646    0.3322841 -39.34  0.002711592    2.262    0.558
        61 -10.1047     85.1581     94.2668   7.8279798334e+01   4.7263262884e+01    0.5089139    0.3592913 -50.72  0.001290204    1.443    0.307
        62 -11.2794     76.5668    107.0363   8.4668252155e+01   4.5789893719e+01    0.6168504    0.5140422 -89.06  0.003112736    1.547    0.354
        63 -11.4988     54.9953    110.0205   9.2875268220e+01   4.8155916778e+01    0.6629105    0.3548101 -40.67  0.002232445    1.844    0.458
        64 -10.1668     58.9962    108.9925   9.1226423508e+01   4.7888015728e+01    0.3892678    0.2785139 -30.64 0.0008794741    1.442    0.306
        65 -10.3269     55.9219    105.8390   9.1563699838e+01   4.9054212363e+01    0.2765709    0.2174056 -47.10 0.0005399595    1.155    0.134
        66 -11.3917     80.1660    100.1137   8.1603803545e+01   4.6810575084e+01    0.5691357    0.4639106  47.03 0.0003707721    1.365    0.267
        67 -10.7874     75.4558     98.7605   8.2845403737e+01   4.7890575319e+01    0.6239423    0.4124115 -27.84  0.002718639    1.684    0.406
        68  -9.5943     12.7499    114.2991   1.0855829988e+02   5.1104770435e+01    0.2995114    0.2089764 -63.56  0.001698164    1.191    0.160
        69 -11.9189     64.9314    102.6210   8.7556825926e+01   4.8595159706e+01      1.03905    0.5790495 -22.39  0.003962338    2.670    0.626
        70  -9.5575     91.0272    112.9711   8.1458516530e+01   4.1963015078e+01    0.2414863     0.181446 -11.34  0.000502607    1.629    0.386
        71  -8.5101     32.9244    112.7032   1.0125432437e+02   4.9912157600e+01    0.1786821    0.1661205 -16.17 0.0004054298    1.146    0.128
        72 -10.4457    120.1685    110.3938   7.2039473716e+01   3.6964031175e+01    0.3063413    0.2441238  76.90 0.0009030488    1.649    0.393
        73 -11.6954    179.6263    241.7503   8.4678618661e+01  -1.4950512488e+00    0.5902624    0.2911212  19.28  0.002676662    2.273    0.560
        74  -9.6030     89.9858    107.9602   8.0479310352e+01   4.3318709294e+01    0.2284947    0.2178698 -13.84  0.000374322    1.018    0.018
        75  -8.0107     20.7422    107.4037   1.0461132600e+02   5.2250390897e+01    0.1673036    0.1226554 -12.51 0.0004307674    1.530    0.347
        76 -11.2729    175.4600    238.6210   8.5047531723e+01  -3.7895026422e-01    0.3431401    0.2416983  41.57  0.001129201    1.547    0.354
        77  -8.8970     13.9078    105.4780   1.0673406525e+02   5.3204510456e+01     0.179348    0.1306997  14.34  0.001029155    1.587    0.370
        78  -8.8766    144.8718    102.9504   6.3585954772e+01   3.3258195888e+01    0.3137076    0.1980932 -37.71 0.0008879654    1.601    0.375
        79 -10.4745      1.9772    101.2854   1.1035816934e+02   5.4906090112e+01    0.4551982    0.1841222 -63.24  0.002118486    1.875    0.467
        80 -11.2987     72.6040     88.6429   8.0988099503e+01   5.0607964943e+01    0.5421507    0.5187744 -56.91  0.001962663    1.186    0.157
        81  -9.8885     41.0917     98.0399   9.5154555226e+01   5.2676677727e+01    0.2218344    0.1782229 -49.71 0.0003025352    1.112    0.101
        82  -8.5801    212.0238    241.5274   7.8197504371e+01  -5.8342088059e+00    0.1780734     0.105947  26.34 0.0005931975    1.532    0.347
        83  -9.7298     34.1374     99.2199   9.8041766742e+01   5.3100353339e+01    0.2264478    0.2115977 -63.03 0.0002287653    1.147    0.128
        84  -9.8489    221.5146    239.7138   7.6104037019e+01  -6.7642737055e+00    0.2214362    0.1842728  18.75  0.001509788    1.313    0.238
        85 -10.8224    125.3447     97.3207   6.7016805127e+01   3.8666435554e+01    0.3657468    0.2211448  57.57  0.001497843    1.967    0.492
        86  -9.0154     20.5942     95.3635   1.0237356221e+02   5.5182009185e+01    0.4023556    0.2838161  76.42  0.001037627    1.960    0.490
        87  -8.7659     23.7792     89.9353   9.9986406369e+01   5.6218017495e+01     0.428115    0.2276412 -20.91  0.001954802    2.261    0.558
        88  -9.5007     10.6298     97.5336   1.0656253348e+02   5.5336662891e+01    0.2727103    0.1640771   3.78 0.0008971091    1.954    0.488
        89 -10.2916     64.1695     94.7833   8.5758031301e+01   5.0525646821e+01    0.5473616    0.2726564 -22.35  0.001473891    3.883    0.742
        90 -10.0815    245.1142    242.3187   7.2285405494e+01  -9.9205966071e+00    0.2125978    0.1254647 -21.50 0.0007884244    1.420    0.296
        91 -12.0538     32.6258     71.1340   9.1569878501e+01   5.9640913005e+01      1.10332    0.6555079  21.98  0.003846736    1.767    0.434
        92  -7.8279    178.6727     92.3241   5.3574724185e+01   2.7761051402e+01    0.1515766    0.1104025 -74.13 0.0007049275    1.694    0.410
        93  -8.2539    206.4370    236.4909   7.8441790918e+01  -4.3320444770e+00    0.1259052    0.1029721  -0.57 0.0002547647    1.038    0.036
        94 -10.6777    139.8429     83.0415   5.9271511933e+01   3.8235836605e+01    0.3508801    0.2931514  63.59 0.0009253778    1.251    0.201
        95  -8.5006    173.9890     87.2630   5.3168103543e+01   2.9710226580e+01    0.1921562    0.1810126  63.63 0.0002509535    1.087    0.080
        96  -8.4108    177.4466     85.5211   5.2077366455e+01   2.9239784308e+01    0.2010089    0.1352881  46.72 0.0001554199    1.584    0.369
        97  -8.3307     15.0964     85.8705   1.0256875070e+02   5.7807653182e+01    0.3260514    0.2891436  13.99   0.00212074    1.298    0.230
        98  -9.8345    161.2450     84.3114   5.4902611392e+01   3.3123503167e+01    0.3161154    0.2337664 -66.89  0.001291318    1.583    0.368
        99  -9.1674     87.8102     84.0869   7.4373923120e+01   4.8949780597e+01    0.3104597    0.1996306  30.49 0.0007639038    1.611    0.379
       100 -13.2233    104.5306     65.7097   6.3265713586e+01   4.9107384648e+01     2.040067     1.396477  46.78   0.01006579    1.417    0.294
       101  -7.7636      5.5107     81.4967   1.0555947248e+02   5.9391393585e+01    0.1732969    0.1093368 -15.61 0.0006958054    1.682    0.405
       102  -8.6183      9.2270     79.6417   1.0364777270e+02   5.9608148212e+01    0.2288967    0.1206622   6.70  0.001161734    2.167    0.538
       103 -10.2686    180.5364     64.2098   4.6110766942e+01   3.2027602360e+01    0.3264374    0.2240619  13.76 0.0009556925    2.620    0.618
       104 -10.7638    168.0031     67.0219   4.8971377329e+01   3.4469408664e+01    0.4606251    0.3658758 -46.53  0.002509609    1.248    0.199
       105  -9.9234    177.9663     68.0079   4.7502358403e+01   3.2025337477e+01    0.2764179    0.2038686  64.69 0.0003220936    1.349    0.259
       106 -10.0624    173.1331     65.8740   4.7768281750e+01   3.3465872696e+01    0.3432455    0.2857159 -80.47  0.001220097    1.233    0.189
       107 -11.5744    170.1419     76.6242   5.1122724907e+01   3.2416371757e+01    0.8243452    0.4543678  67.82  0.002660264    2.152    0.535
       108 -12.3492     84.5885     77.0320   7.3255639871e+01   5.0961061178e+01     1.526693     1.072814 -10.66  0.007192376    1.748    0.428
       109  -8.9375    184.6420     77.7042   4.8839165917e+01   2.8954758435e+01    0.1391481    0.1103217  22.84 0.0007032977    1.700    0.412
       110  -9.7493     15.0746     75.4433   1.0024135777e+02   6.0182045407e+01    0.3203861     0.245608  28.74  0.001467599    1.542    0.351
       111 -10.0889    191.8290    233.1645   8.0790715990e+01  -1.7956436370e+00    0.2466551    0.1741879  11.42  0.001216729    1.305    0.234
       112  -8.3011    238.0000    220.9819   6.9889037202e+01  -6.0144132856e+00    0.1935545   0.06000299 -39.30 0.0007953191    2.893    0.654
       113  -9.7757     18.2987     65.9630   9.6414312722e+01   6.2013115120e+01    0.2621299    0.2050991 -21.52 0.0006109404    1.141    0.124
       114  -8.4595      8.1328     71.1284   1.0222698280e+02   6.1578651101e+01    0.2666648    0.2148157  21.96  0.001721159    1.464    0.317
       115 -10.8609     11.6701     67.2897   9.9736056494e+01   6.2198661931e+01    0.4236113     0.226165 -47.09 0.0005308624    1.481    0.325
       116 -10.1780    174.5714     72.5708   4.9262935248e+01   3.2071990092e+01    0.4788463    0.2937713 -51.69  0.002070046    1.670    0.401
       117  -8.6513     43.9247     69.1396   8.6179356822e+01   5.8802714627e+01    0.2689774    0.1571219  -9.61  0.001206805    2.228    0.551
       118 -12.0178    191.4068     58.7114   4.3096080465e+01   3.0395642232e+01    0.6432409     0.259064  69.35  0.002474486    2.956    0.662
       119 -11.4704    199.4912     57.1063   4.1598517248e+01   2.8839590674e+01    0.4565895    0.2049442  53.72  0.002033796    2.340    0.573
       120 -10.6356    186.5075     44.4996   4.0297058466e+01   3.3475345636e+01    0.2593008    0.2032283 -52.47 0.0008478587    1.224    0.183
       121 -11.6587    185.3918     50.3516   4.1895402495e+01   3.2937558961e+01    0.3302159     0.302127  48.23 0.0007922433    1.262    0.207
       122 -11.7949    175.1873     55.7488   4.4791844510e+01   3.4510176417e+01    0.5781236    0.3638289 -27.05  0.002305931    1.864    0.464
       123 -10.2560    219.6907    218.9661   7.2875727703e+01  -3.3271619919e+00    0.2395624    0.1686735  13.36 0.0007606011    1.329    0.248
       124 -10.0247      4.7726     56.5195   1.0013572048e+02   6.4891853427e+01    0.4652296    0.2308356  11.73  0.001987184    2.164    0.538
       125  -8.9637    179.3133    218.3322   8.0862104223e+01   2.6188340987e+00    0.1424866   0.09643348  -6.80 0.0006467305    1.680    0.405
       126 -10.1869    212.5651    216.2854   7.3755054053e+01  -1.9094890677e+00    0.2293933    0.1633554  23.67 0.0006453453    1.352    0.261
       127 -10.0348      8.5875     43.4655   9.4380633791e+01   6.7248837374e+01    0.3775656    0.2727826 -59.32   0.00152556    1.584    0.369
       128  -8.4332      1.4750     52.4660   1.0064424715e+02   6.5901276898e+01    0.1661977   0.09867693 -11.99 0.0007733864    1.659    0.397
       129  -8.9241      5.1915     51.4013   9.8521214288e+01   6.5911976911e+01    0.2653608     0.172222  10.60  0.001398281    1.619    0.382
       130  -8.6360      7.4724     48.5458   9.6546707266e+01   6.6340174203e+01    0.2102144    0.1628214 -14.29 0.0007146398    1.161    0.139
       131  -8.9211     23.8624     43.8820   8.6800908187e+01   6.5893790940e+01    0.1863867    0.1583196 -18.55  0.001246365    1.115    0.103
       132  -8.9174    222.6469    214.2983   7.1486382744e+01  -2.9731373617e+00    0.1097914    0.1051237  74.32 0.0007035875    1.694    0.410
       133  -8.4206    219.5511    210.4514   7.1368644946e+01  -1.9168583841e+00    0.1314291    0.1061507 -10.05 0.0001333532    1.020    0.019
       134 -10.5488      2.2443     29.4065   9.2923465451e+01   7.0242072918e+01    0.4328937    0.1920023 -53.06  0.001438297    2.142    0.533
       135 -10.5694      2.6836     38.0812   9.5718755595e+01   6.8644084399e+01    0.3639363    0.1762341 -50.40  0.001239639    1.722    0.419
       136  -9.7282      1.3041     34.7075   9.5334924327e+01   6.9350342258e+01    0.1791072    0.1008045 -50.79 0.0003989942    1.575    0.365
       137  -8.4773    202.3998    208.7753   7.4387167679e+01   8.4117204918e-01    0.1897243    0.1123874 -29.62 0.0009449037    1.622    0.383
       138 -10.5330     30.6839     37.4874   8.1018740658e+01   6.6274682230e+01    0.2696561    0.2181367  14.11 0.0006989291    1.216    0.178
       139  -9.5476     14.1040     38.7260   8.9882884949e+01   6.7709253042e+01     0.234662    0.1588527  -1.10 0.0006484061    1.366    0.268
       140 -10.1690    163.9147     36.2679   4.1390336436e+01   3.9732430207e+01    0.2682462    0.2280088  48.53  0.001063459    1.260    0.206
       141  -9.3734    120.5520     31.6080   4.7841117642e+01   5.0433649700e+01    0.2447404    0.1918077 -50.26 0.0007671387    1.467    0.318
       142  -9.2903    155.5252     30.1781   4.1004939119e+01   4.2419806195e+01    0.2795364    0.1718878 -48.34  0.001456165    1.724    0.420
       143  -9.7341    126.4465     29.4184   4.5903997685e+01   4.9321914711e+01    0.3060365    0.1883901 -70.56  0.001392013    2.474    0.596
       144  -8.4158    124.1025    205.9065   9.1310022252e+01   1.3951783558e+01    0.1822769    0.1600834 -10.90  0.001002662    1.226    0.184
       145  -8.1567     15.3061    109.3381   1.0688137429e+02   5.2162934026e+01    0.1448789   0.08011843 -41.77 0.0003006655    1.677    0.404
       146  -9.5098    229.6755    203.4596   6.8215315163e+01  -2.1624657179e+00     0.231665    0.1033049 -38.58  0.001084436    1.992    0.498
       147  -8.5860     41.8273     27.7690   7.1674541106e+01   6.6318373230e+01    0.1791244    0.1610673 -20.86   0.00105438    1.347    0.257
       148  -8.8086     16.3314    177.6686   1.1495274710e+02   3.4891122362e+01    0.1399732   0.08274355  65.39 0.0003859586    1.722    0.419
       149  -9.4351    107.6686     25.4968   4.8665964912e+01   5.4040065771e+01    0.2289154    0.1930825 -13.96  0.001405399    1.321    0.243
       150  -9.3518    102.6176     24.6877   4.9590650013e+01   5.5249374900e+01    0.2427238    0.2115956  10.91 0.0007314457    1.205    0.170
       151 -10.1277    128.3877    108.6656   6.9323576972e+01   3.5628052089e+01    0.2574708    0.2214287  75.11 0.0005549869    1.375    0.272
       152 -10.2394     20.6139    173.2932   1.1344192451e+02   3.5604584232e+01    0.2455829    0.1456014 -64.54  0.001282514    1.489    0.328
       153 -10.9445      7.0926    167.1846   1.1638208117e+02   3.8216415401e+01    0.3671009     0.265329 -83.38   0.00220007    1.164    0.141
       154 -10.1094     93.7285     24.0257   5.1626863794e+01   5.7253246776e+01    0.6762642    0.2244227  60.58            0    3.494    0.714
       155  -7.6504     84.3767     20.0664   5.2699810240e+01   5.9640706049e+01    0.3823029    0.2977395 -22.93  0.002359845    1.417    0.294
       156  -8.0790    125.6527     22.6880   4.3906577640e+01   5.0230597013e+01    0.1390734   0.08739544  37.08 0.0007046128    1.713    0.416
       157  -8.9015     91.6595     17.4407   4.9681346477e+01   5.8372953826e+01    0.2535556    0.1551371 -11.66  0.001347282    1.946    0.486
       158  -8.3430     37.0412     15.6310   6.8324638338e+01   6.8614175433e+01    0.1670291     0.128676  15.10 0.0009753728    1.065    0.061
