#   1 NUMBER                 Running object number                                     
#   2 MAG_AUTO               Kron-like elliptical aperture magnitude                    [mag]
#   3 X_IMAGE                Object position along x                                    [pixel]
#   4 Y_IMAGE                Object position along y                                    [pixel]
#   5 X_WORLD                Barycenter position along world x axis                     [deg]
#   6 Y_WORLD                Barycenter position along world y axis                     [deg]
#   7 A_WORLD                Profile RMS along major axis (world units)                 [deg]
#   8 B_WORLD                Profile RMS along minor axis (world units)                 [deg]
#   9 THETA_WORLD            Position angle (CCW/world-x)                               [deg]
#  10 FWHM_WORLD             FWHM assuming a gaussian core                              [deg]
#  11 ELONGATION             A_IMAGE/B_IMAGE                                           
#  12 ELLIPTICITY            1 - B_IMAGE/A_IMAGE                                       
         1 -18.4061    140.9550    110.1484   9.7131699664e+01   3.2680157956e+01     8.543054      4.48515 -57.91   0.03105688    2.407    0.585
         2 -17.0771    168.4577    170.7859   1.0497418068e+02   1.3263963862e+01     2.965399     2.045179  -1.20   0.01161909    2.471    0.595
         3 -16.5999    184.5899    114.0270   8.8281322280e+01   2.1787701043e+01     2.348466     1.922352   6.47    0.0111833    1.632    0.387
         4 -17.8344    139.1865    176.6584   1.1288889171e+02   1.7923784645e+01     4.447782     3.472502 -86.38   0.02148545    1.514    0.340
         5 -14.9696      9.2167      6.4517   1.0687607676e+02   7.1341975066e+01    0.9676357    0.5995855   5.83   0.00703599    1.405    0.288
         6 -13.7031    193.5033    193.5228   1.0423794431e+02   3.5990800938e+00    0.4096172    0.2894519  27.81  0.001727375    1.492    0.330
         7 -12.1980    121.2198    222.0517   1.2460342799e+02   1.1351612862e+01    0.2482591    0.1858483  47.44 0.0006973455    1.204    0.170
         8 -13.2579     90.0514    144.6925   1.1884403654e+02   3.4666604817e+01    0.3790364    0.2415372  49.65  0.001014169    1.673    0.402
         9 -12.2808    212.5372    144.4924   9.0000535236e+01   9.4389321002e+00    0.2993152    0.1482911  48.06  0.001203313    2.138    0.532
        10 -12.2321     85.5015    144.5055   1.2002868426e+02   3.5455039937e+01    0.2374998    0.1452989  38.31 0.0007896135    1.749    0.428
        11 -13.5551    203.4168    138.5483   9.0399619794e+01   1.2567706965e+01    0.4248941    0.2675043  54.47  0.001880673    1.720    0.418
        12 -12.7566    124.1303    237.2588   1.2610888019e+02   7.8276565629e+00    0.3785755    0.2341305  52.79  0.001990821    1.452    0.311
        13 -13.5886    103.6110    128.4168   1.1159856512e+02   3.6206986281e+01    0.4438446    0.2014571 -45.96  0.001667809    2.161    0.537
        14 -13.3781    191.5985    207.2297   1.0725533302e+02   1.3743674597e+00    0.3371402    0.3112873  41.39  0.002003343    1.112    0.101
        15 -14.8909    116.4019    129.2644   1.0833566149e+02   3.3570395206e+01    0.7334734    0.5750829  59.92  0.002777476    1.387    0.279
        16 -13.8417    200.9704    129.5863   8.8788200786e+01   1.4910304796e+01    0.4431349    0.3311971  65.92  0.002107758    1.516    0.340
        17 -13.6951    172.7248    198.0485   1.0948238414e+02   6.7083317363e+00    0.4777351    0.3849141  15.11   0.00248708    1.414    0.293
        18 -12.6136    129.9991    219.4540   1.2235480917e+02   1.0338415601e+01    0.2563602    0.1972419 -38.00  0.001378283    1.616    0.381
        19 -14.7615    190.7803    190.9998   1.0430268349e+02   4.6103293966e+00    0.8458226    0.5023497  22.90  0.003522669    2.266    0.559
        20 -15.6372    147.4301    208.4429   1.1682642769e+02   9.4151474037e+00     1.689686     1.189484  74.48  0.008052108    1.860    0.463
        21 -11.2307     68.1836    122.7851   1.2039533815e+02   4.3296759255e+01    0.1966607    0.1565391 -34.04 0.0006367448    1.342    0.255
        22 -13.0501     86.4123    118.2107   1.1404724305e+02   4.1598442396e+01    0.5313119    0.2072579 -60.82  0.001727161    3.253    0.693
        23 -13.5064    204.8246    195.9873   1.0242597221e+02   1.0062459272e+00    0.4150203    0.3362399 -22.40  0.002287207    1.255    0.203
        24 -14.4367    181.9984    203.0796   1.0846491667e+02   3.9473810203e+00    0.7379393    0.4829458 -23.64  0.002927931    1.976    0.494
        25 -16.4378    107.9877    145.4418   1.1423627828e+02   3.1334631291e+01     1.894299     1.449792  82.67  0.008993903    1.564    0.360
        26 -11.8521     45.6185    117.8840   1.2603980684e+02   4.7273415989e+01    0.2538888    0.1707627 -20.38  0.001297809    1.985    0.496
        27 -13.5126    175.5568    202.6939   1.0974913434e+02   5.2440802411e+00    0.4336489    0.3644032  12.12  0.002358635    1.306    0.234
        28 -12.4369    143.6950    232.6235   1.2145823001e+02   5.3216885531e+00    0.2702267    0.2297611  38.79  0.001201909    1.114    0.103
        29 -15.5882    204.4870    186.1815   1.0053709818e+02   2.9060278758e+00    0.9249948    0.8627045  68.90  0.004714936    1.251    0.201
        30 -13.0415    218.9565    205.2769   1.0145945298e+02  -3.1747627014e+00    0.3523605    0.3105701  26.05  0.002143997    1.116    0.104
        31 -13.1798     45.1975    112.3636   1.2505968395e+02   4.8601687250e+01    0.3673982    0.1969116 -43.96  0.001781153    1.761    0.432
        32 -13.6283     40.9162    110.5288   1.2599203482e+02   4.9479759133e+01    0.4127726    0.2507905  -2.53   0.00198045    2.530    0.605
        33 -13.4366     10.7899    228.4270   1.4699620051e+02   2.5539287088e+01    0.4358622    0.2105198  83.41  0.002502837    1.778    0.438
        34 -13.5936    100.6103    157.7392   1.1866241833e+02   2.9687695154e+01    0.4119461    0.3171924  19.97  0.002001281    1.675    0.403
        35 -17.4809     79.4803    193.7160   1.2974250019e+02   2.4523215280e+01      4.40851     2.274789  47.94   0.02042995    1.862    0.463
        36 -11.9115     85.5851    108.2893   1.1185993562e+02   4.4008209678e+01    0.2066372     0.127366 -42.09 0.0007186503    1.572    0.364
        37 -13.4344    113.1607    186.3889   1.2080476029e+02   2.0616501990e+01    0.5747858    0.2766556 -51.01  0.002344399    2.128    0.530
        38 -10.8037     60.6451    106.7203   1.1907250558e+02   4.8045215833e+01    0.1393816   0.09909191 -23.79 0.0005626658    1.656    0.396
        39 -14.1815    194.1505    179.8268   1.0134152616e+02   6.1522537788e+00    0.4588525    0.3843786 -26.10  0.002436382    1.227    0.185
        40 -14.7480    108.7569    171.8782   1.1928944154e+02   2.4829048599e+01    0.8176512    0.6928747 -87.56    0.0020952    1.177    0.150
        41 -12.6655     18.1450    154.2837   1.3905413389e+02   4.1342285648e+01    0.3891203    0.1529187 -78.31  0.001675888    2.429    0.588
        42 -13.1171     20.5158     95.3066   1.2934614690e+02   5.4727212085e+01    0.6444439    0.3274341 -43.39  0.003431412    1.727    0.421
        43 -14.9121    195.7385    152.9470   9.5214903056e+01   1.1281888499e+01    0.8463234    0.5988638   2.49  0.003579961    2.188    0.543
        44 -14.5915     96.4038    172.3685   1.2240819697e+02   2.6871646991e+01    0.7197247    0.5377069 -59.59  0.003465503    1.291    0.225
        45 -14.0048    215.7816    168.1319   9.4559077727e+01   4.1753961617e+00    0.5067657    0.4135844 -78.41  0.002571612    1.642    0.391
        46 -12.3966     57.0842     95.3020   1.1744272587e+02   5.1042264942e+01     0.239979    0.1628332 -43.27 0.0006320711    1.311    0.237
        47 -13.0081     95.8329     91.3165   1.0423603175e+02   4.5906373128e+01    0.3705374    0.2022766 -50.75  0.001320446    1.872    0.466
        48 -13.7145    174.9312    105.6723   8.8166319670e+01   2.5734598437e+01    0.5580038    0.2936874 -55.30  0.002090333    2.222    0.550
        49 -15.2909    191.7997    170.0847   9.9784061206e+01   8.5885097595e+00    0.8292584    0.7499942   3.84  0.004046427    1.174    0.148
        50 -14.7274    103.9764     85.9411   1.0029127503e+02   4.5464729798e+01    0.6560624     0.574392  -9.54    0.0030831    1.198    0.165
        51 -13.3048     51.0092     83.9462   1.1652326675e+02   5.4203151570e+01    0.5790814    0.3982385 -15.46  0.002679716    1.687    0.407
        52 -14.7863    200.2353    165.3002   9.7020298712e+01   7.8335761813e+00    0.6890478    0.5058183 -77.64  0.003110707    2.009    0.502
        53 -14.9775    103.6850     74.6206   9.6968672697e+01   4.7682243698e+01      1.67219    0.4607572  42.66  0.005248954    3.686    0.729
        54 -12.5840     91.4445    164.2300   1.2220538841e+02   2.9672406542e+01    0.2984745    0.2096841  85.64  0.001065996    1.674    0.403
        55 -13.8272    104.9090     68.7160   9.4775748270e+01   4.8498603553e+01    0.5944511    0.4511767  65.19  0.002697481    1.667    0.400
        56 -14.3494     99.0509     69.6725   9.6777328518e+01   4.9473999552e+01     0.698615    0.4787833  26.75  0.003470617    1.593    0.372
        57 -14.7739    205.1427    162.2228   9.5367182791e+01   7.4484326438e+00    0.8959717    0.4739878 -57.71  0.003379062    2.594    0.614
        58 -13.7594    177.1591     64.5735   7.6890269278e+01   3.2632056967e+01    0.6669189    0.4174109  71.83  0.003032693    1.707    0.414
        59 -12.1205     59.6614    159.6661   1.2948761583e+02   3.5519126481e+01    0.3551764    0.2392471 -84.62   0.00181959    1.507    0.336
        60 -12.8574     17.0918     68.8448   1.2461777461e+02   6.0504606143e+01     1.062783    0.2344972 -45.78  0.004202592    3.198    0.687
        61 -12.2142     48.7965     47.9684   1.0631775999e+02   6.1191232943e+01    0.2753925    0.1745337  15.57  0.001571761    1.664    0.399
        62 -11.8872    249.6681     45.4901   6.2521772434e+01   1.8663282005e+01    0.2280666    0.1060674 -39.63  0.001096413    2.012    0.503
        63 -12.1589     76.8133     44.8539   9.5344900017e+01   5.7525744983e+01    0.2082151    0.1620821   4.37  0.001155226    1.247    0.198
        64 -12.6882     53.5667     43.4275   1.0292989134e+02   6.1289920731e+01    0.2644912    0.1812721  -5.61  0.001556893    1.487    0.327
        65 -12.6973     65.8799     39.9797   9.7253666618e+01   6.0012286782e+01    0.4239236    0.2185961  10.47  0.001639094    3.712    0.731
