#   1 NUMBER                 Running object number                                     
#   2 MAG_AUTO               Kron-like elliptical aperture magnitude                    [mag]
#   3 X_IMAGE                Object position along x                                    [pixel]
#   4 Y_IMAGE                Object position along y                                    [pixel]
#   5 X_WORLD                Barycenter position along world x axis                     [deg]
#   6 Y_WORLD                Barycenter position along world y axis                     [deg]
#   7 A_WORLD                Profile RMS along major axis (world units)                 [deg]
#   8 B_WORLD                Profile RMS along minor axis (world units)                 [deg]
#   9 THETA_WORLD            Position angle (CCW/world-x)                               [deg]
#  10 FWHM_WORLD             FWHM assuming a gaussian core                              [deg]
#  11 ELONGATION             A_IMAGE/B_IMAGE                                           
#  12 ELLIPTICITY            1 - B_IMAGE/A_IMAGE                                       
         1  -9.8849    184.3027     35.2384   7.3106336964e+01   3.4707441675e+01     1.083549    0.6024306   7.52   0.00378161    3.612    0.723
         2  -9.8448    106.0706     24.4864   8.5026448581e+01   5.5304673361e+01    0.5341756    0.3168823 -37.47  0.002143186    1.793    0.442
         3  -9.9653    249.4583     23.2963   6.2481893177e+01   2.0265928614e+01    0.7808896    0.3365103 -21.37  0.003206804    2.969    0.663
         4 -10.5480    245.1251     17.1384   6.1421573836e+01   2.1951688232e+01    0.5331834    0.4038192  85.61  0.001523162    1.278    0.217
         5  -9.7087    237.0027      8.4986   6.0063401437e+01   2.4760900665e+01    0.3731955    0.2439706 -80.36  0.001590822    1.473    0.321
         6 -11.0791    248.0498      9.2003   5.9368867571e+01   2.2171312630e+01    0.9806676    0.5544197 -20.31  0.005004563    2.124    0.529
         7 -10.8204    240.8521      4.3511   5.8799185726e+01   2.4311173601e+01    0.6096903    0.3933028 -86.86  0.003373329    1.472    0.321
         8  -9.5264    246.0196      2.6701   5.8041506551e+01   2.3315595642e+01    0.3250408    0.2106281 -78.80  0.001192713    1.440    0.306
         9  -9.8096    117.5279     15.4982   7.8647924739e+01   5.3740953048e+01     0.587317    0.4692244  36.38  0.003247864    1.156    0.135
        10  -8.2186     51.6960     19.0228   1.0063547508e+02   6.6043634826e+01    0.2649188    0.1698243  27.04 0.0008873213    1.570    0.363
        11  -8.9705    226.2649     16.0570   6.2825840958e+01   2.6469708886e+01    0.3773026    0.2311873  32.74  0.001541057    2.453    0.592
        12  -8.6915    194.7109      9.5952   6.4330655906e+01   3.4957925730e+01    0.4846157    0.3084258  -7.26  0.002362671    2.058    0.514
        13  -9.0414    204.3006     14.3272   6.4584292397e+01   3.2049366970e+01    0.4609419    0.2004339 -27.49  0.001958064    2.354    0.575
        14  -8.5090    205.6919     11.3014   6.3623042176e+01   3.2019928773e+01    0.2787816    0.1737356 -59.20 0.0007764867    1.626    0.385
        15  -9.2634    201.0914      9.6651   6.3661635626e+01   3.3340570569e+01    0.4510582     0.247164  77.91  0.001703907    1.759    0.431
        16  -8.9002    156.5399     15.2187   7.1128683767e+01   4.4170001649e+01    0.3323211    0.2339821  32.35   0.00158785    1.563    0.360
        17  -8.1263    235.8686     14.5735   6.1600767724e+01   2.4365556880e+01     0.306374     0.156299 -58.31  0.001447043    1.951    0.488
        18  -9.1758    222.2723      5.1472   6.0474136358e+01   2.8585350568e+01    0.3576751    0.2389428  -9.09  0.001494233    1.987    0.497
        19  -8.9823    216.3237     14.0568   6.3273701247e+01   2.9097066421e+01    0.2636235    0.2209384 -60.61 0.0003343657    1.103    0.093
        20  -9.3656    219.1759     10.1864   6.2012477382e+01   2.8813707985e+01    0.3515299    0.2432898  54.97  0.001347381    1.539    0.350
        21  -9.3132    149.7659     13.9221   7.1798028228e+01   4.6023768091e+01    0.2957715    0.2445796 -62.26  0.001063488    1.345    0.256
        22  -8.3876     65.4099     14.2379   9.3127766635e+01   6.4523896290e+01    0.1714959    0.1076552 -35.84   0.00094476    1.665    0.399
        23  -8.5365     71.1342     12.4497   9.0277305015e+01   6.3740488846e+01    0.2832035    0.1539366 -42.89  0.001269611    2.343    0.573
        24  -8.4583     69.6209      7.3216   8.8350769523e+01   6.4595563837e+01    0.3019805    0.1519971 -25.68  0.001168085    1.907    0.476
        25  -8.1196    182.9136     11.7575   6.6332624150e+01   3.7749285175e+01    0.2243789    0.1801425  26.65 0.0008199398    1.467    0.318
        26  -9.9029    107.1038      4.8703   7.6730171408e+01   5.7166114991e+01     0.624072    0.3980319  74.40  0.003146399    1.919    0.479
        27  -9.3188    101.6832     10.2779   8.0300639876e+01   5.7858581164e+01    0.4741885    0.2884977  51.78   0.00156499    1.510    0.338
        28  -9.5011     99.9107      4.8820   7.8443104381e+01   5.8762755408e+01    0.3890551    0.2535132  15.41  0.001209592    1.622    0.384
        29  -9.1863     95.8447      3.1170   7.8691010040e+01   5.9802982353e+01     0.302876    0.2410352  39.75  0.001075301    1.110    0.099
        30  -8.4878     88.8229     11.4932   8.4291625639e+01   6.0452251211e+01     0.422248    0.2227187  62.10  0.001587415    2.330    0.571
        31  -8.0066     86.7110      8.6431   8.3624030215e+01   6.1180218882e+01    0.2065726     0.118853  47.94 0.0008036842    1.603    0.376
        32  -9.2325     29.4210     11.7227   1.0699231852e+02   6.9971027471e+01    0.3147129    0.1886087  45.08  0.001731725    2.548    0.608
        33  -8.2362     17.4585     10.7170   1.1243800751e+02   7.1343153111e+01     0.166596    0.1285518  25.80 0.0005256857    1.576    0.365
        34  -7.8755    135.5251      9.5718   7.2750710974e+01   5.0006484792e+01    0.2689254    0.1628336 -52.67  0.001252693    2.075    0.518
        35  -9.2909    140.1601      7.8200   7.1301492702e+01   4.9020755857e+01    0.7403961    0.4201737 -85.74   0.00310503    2.592    0.614
        36  -9.1026    130.6811      9.0648   7.3464689927e+01   5.1240881653e+01     0.318478    0.1809628  63.53 0.0007917114    1.644    0.392
        37  -7.9748    177.0340      7.7983   6.5886364347e+01   3.9645528019e+01    0.2346508    0.1256451  47.54  0.001062351    1.910    0.477
        38  -8.0988     85.7065      4.3419   8.1954435169e+01   6.1809419856e+01    0.1906532     0.121827  52.47 0.0003155255    1.518    0.341
        39  -9.2781     77.9726      5.7008   8.4874501902e+01   6.3206734578e+01    0.4429172    0.2425293   4.10  0.001555476    2.249    0.555
        40  -9.4739     81.4688      2.9493   8.2528953664e+01   6.2791921276e+01    0.3640224    0.2829648 -51.49  0.002155947    1.802    0.445
        41  -8.7470     38.2745      6.5186   1.0026926844e+02   6.9613594616e+01    0.2630339    0.1860434  50.43  0.001416565    2.195    0.544
        42  -7.4957    157.3282      6.6660   6.8189478204e+01   4.4796167211e+01    0.1445813   0.09805392 -64.14 0.0005624146    1.721    0.419
        43  -9.8344    119.6805      4.6113   7.3919798802e+01   5.4282664176e+01    0.4573686    0.3226898  83.05   0.00212222    1.712    0.416
        44  -8.7435      3.1899      4.6724   1.1726824041e+02   7.3446569575e+01     0.238144    0.1527896 -44.11  0.001438032    1.362    0.266
        45  -8.4454     57.3400      5.9171   9.2058555847e+01   6.6865305380e+01    0.2418891     0.158368  30.56  0.001452467    1.418    0.295
        46  -9.5888     46.6521      3.4449   9.5034152177e+01   6.8819228171e+01    0.2621089    0.1877749 -23.64 0.0005963301    1.295    0.228
        47  -7.4415    165.3129      2.3104   6.5691818347e+01   4.3145878604e+01    0.1422504   0.09240272  40.56 0.0007029153    1.629    0.386
        48  -8.0292     90.7563      1.7739   7.9407246580e+01   6.1002531110e+01    0.1628348     0.149605 -44.29  0.001052868    1.363    0.266
        49  -8.1213     64.9655      1.6689   8.7154770295e+01   6.6021806192e+01     0.172162    0.1365111  31.34 0.0008096372    1.173    0.147
        50  -7.7750    158.7666      1.2595   6.6225808791e+01   4.4903849120e+01    0.2379136   0.07714356  57.21 0.0009002138    2.491    0.599
        51  -7.8602      9.9364      1.7808   1.1206668887e+02   7.3362226244e+01    0.1264451   0.07966934  14.73 0.0004475355    1.633    0.388
        52  -7.9831     75.6714    100.6743   1.1952025749e+02   4.6794473910e+01    0.1428751    0.1040961 -25.77 0.0007050263    1.701    0.412
        53  -8.8981     56.0659    250.1217   1.4341477714e+02   1.8100051792e+01    0.1564014    0.1132263  63.82 0.0003546572    1.029    0.028
        54  -8.5268    231.2278     97.4159   8.2749176566e+01   1.3958147025e+01    0.2765305    0.1953304  62.62  0.001147712    1.600    0.375
        55  -8.9882    219.3162     97.1796   8.4591884224e+01   1.6674252219e+01     0.402115    0.2718991 -13.56  0.001255615    1.806    0.446
        56  -8.8176    230.1767     94.1369   8.2100579847e+01   1.4714022632e+01    0.2824609    0.1844056 -49.01 0.0009347716    1.571    0.363
        57  -8.8815    205.5029     94.0258   8.6132107829e+01   2.0416500447e+01    0.3040729    0.2121117 -51.66  0.001409227    1.525    0.344
        58  -7.9614    181.2837     93.9489   9.0665443793e+01   2.6238698558e+01    0.2212139    0.1976819 -35.69 0.0006417432    1.104    0.094
        59  -8.6849    249.2489     92.0947   7.8834744622e+01   1.0899221196e+01    0.3078287    0.2076644  29.09  0.001289797    1.913    0.477
        60  -8.4919    122.3258     93.1254   1.0418364153e+02   4.0022153241e+01    0.2468762    0.1940829 -21.47 0.0008289761    1.454    0.312
        61  -9.6427    242.5441     90.7680   7.9451061707e+01   1.2526585900e+01    0.4311144    0.2975536 -53.73  0.001463824    1.546    0.353
        62  -8.5850    236.9667     92.2045   8.0604425326e+01   1.3516860927e+01    0.2797494    0.2111027  69.98 0.0004151944    1.547    0.354
        63  -8.8326    235.7995     88.7946   7.9938263446e+01   1.4304257506e+01    0.3210968    0.2156509  37.51  0.001078643    1.751    0.429
        64  -9.5946    181.9851     68.4832   8.3324311723e+01   3.0458703257e+01    0.4287767    0.3207994   7.92  0.001402083    1.767    0.434
        65  -8.9016    191.3391     71.1837   8.2411676546e+01   2.7675129244e+01    0.3826504    0.2874244 -47.50  0.001545105    1.334    0.250
        66  -9.0534    170.9730     84.3469   9.0079420022e+01   3.0482797096e+01    0.3477589    0.2796247 -73.57 0.0009087506    1.488    0.328
        67  -9.9388    177.1494     89.1562   9.0173246658e+01   2.8108066140e+01    0.4851606    0.3569907  29.54  0.002212663    1.593    0.372
        68  -9.5830    176.1454     83.6302   8.8817162958e+01   2.9340822687e+01    0.3885538    0.3403294 -88.57  0.001544806    1.274    0.215
        69 -10.4100    209.0636     76.9902   8.1015272906e+01   2.2377627730e+01    0.8073243    0.5271925 -31.88  0.003716514    1.499    0.333
        70  -9.2064    206.0647     73.0768   8.0447933038e+01   2.3729655822e+01    0.8515233    0.5690268  11.49  0.003545159    2.339    0.572
        71  -9.7347    196.3145     67.3763   8.0485180261e+01   2.7039663696e+01    0.9980661    0.5988929 -64.16  0.003773205    2.273    0.560
        72  -9.1252    195.4858     62.3704   7.9214743741e+01   2.8024165082e+01    0.3928876    0.2832487  -4.69 0.0007136179    1.811    0.448
        73 -10.4472    180.3281     78.6065   8.6557988056e+01   2.9182335461e+01    0.8547905    0.6023481 -59.02  0.003844979    1.645    0.392
        74  -9.3846    185.5101     74.2231   8.4325923378e+01   2.8632304153e+01    0.6531194    0.3287103  67.57  0.002397267    2.489    0.598
        75  -8.1450      6.6502     90.6988   1.3896677360e+02   5.6149114053e+01    0.1216731   0.06895544 -45.48 0.0004392088    1.693    0.409
        76  -9.1054    207.5695     86.7066   8.3847778374e+01   2.1154225538e+01     0.546586    0.2316686 -36.02  0.002041106    2.223    0.550
        77  -9.6805    195.4617     82.7450   8.4894992561e+01   2.4745356204e+01    0.7366815    0.3720055 -33.08   0.00292047    1.965    0.491
        78  -8.7019    247.9128     85.5132   7.7447618171e+01   1.2171038050e+01    0.3565318    0.2647077  25.14  0.001859574    1.703    0.413
        79  -9.1921    223.9405     83.1160   8.0280593713e+01   1.7879720367e+01    0.4581102    0.3263877 -24.04  0.002254103    1.447    0.309
        80  -9.0027    219.5034     83.2526   8.1000070303e+01   1.8891322956e+01    0.3953443    0.2976796  36.79  0.001890329    1.504    0.335
        81  -8.6472    232.7610     84.5726   7.9335017458e+01   1.5637542129e+01    0.2668667    0.2452319 -56.14  0.001077113    1.086    0.079
        82  -9.7097    149.6702     83.6048   9.4554615028e+01   3.5767753693e+01    0.3775178    0.3559853  -5.62  0.001997259    1.100    0.091
        83  -7.9129    122.1651     84.8924   1.0182878693e+02   4.1739928125e+01    0.2064413    0.1779023   6.18 0.0004183587    1.316    0.240
        84  -7.7626    240.5111     82.0633   7.7618427053e+01   1.4295249169e+01    0.2158499    0.1292007 -32.25  0.001015253    1.542    0.351
        85  -8.5466    162.6032     80.5158   9.0738423692e+01   3.3220392602e+01    0.3709229     0.266606  69.66  0.001664772    1.615    0.381
        86  -9.1386    146.1279     78.0913   9.3730114040e+01   3.7635375071e+01    0.3643637    0.2586015 -36.48  0.000788964    1.404    0.288
        87  -9.4630    139.2541     76.8052   9.4986575802e+01   3.9488718138e+01    0.7139732    0.2701562 -42.25  0.002429965    2.620    0.618
        88  -9.2549    249.3153     77.0230   7.5232540112e+01   1.3128352542e+01    0.3605834    0.2290235  76.18  0.001318752    1.989    0.497
        89  -8.8580    236.6395     76.9788   7.6898401780e+01   1.5924830089e+01    0.2711968    0.2352864 -75.35   0.00134175    1.236    0.191
        90  -8.3844    227.2993     73.6863   7.7377627473e+01   1.8560560463e+01    0.2647989    0.1465893  60.51 0.0004484466    1.916    0.478
        91  -8.4466    218.5029     75.7128   7.9196650742e+01   2.0316398611e+01    0.2933726    0.2241472  42.58  0.001485445    1.436    0.304
        92  -7.6942     88.4775     76.4847   1.0903076951e+02   5.0011392609e+01    0.1426544    0.1316291 -32.99 4.501185e-05    1.006    0.006
        93  -9.0633    228.2931     77.3830   7.8175340816e+01   1.7765555976e+01    0.3811901    0.2378468 -41.83 0.0009821575    1.489    0.328
        94  -7.8966    120.8468     74.2502   9.8914046966e+01   4.4111923938e+01     0.248428    0.1676866 -84.01 0.0009440634    2.798    0.643
        95  -8.4070    107.9183     73.8080   1.0237181961e+02   4.6899709469e+01    0.2852289    0.2165804  13.54  0.001377696    1.621    0.383
        96  -9.1198     82.9889     71.9973   1.0938405726e+02   5.1867804216e+01    0.4063343    0.2081476 -34.23  0.001698009    2.142    0.533
        97  -8.9061    167.2145     71.7336   8.7160081144e+01   3.3621375356e+01    0.3571603    0.2997253  45.73   0.00137566    1.201    0.167
        98  -8.5544    157.3858     63.7777   8.6779026790e+01   3.7404712505e+01    0.2913834    0.2650908 -28.97 0.0009540396    1.111    0.100
        99  -8.2994    159.1866     59.2968   8.4997487396e+01   3.7683816800e+01     0.326082    0.2484659  -2.25 0.0009242971    1.616    0.381
       100 -10.2326    161.3697     67.6794   8.7144825275e+01   3.5763063852e+01    0.9031374    0.3728474  56.26   0.00297709    2.436    0.589
       101  -9.9931    164.0390     62.9647   8.5145773130e+01   3.5875534752e+01    0.4999179    0.3276271  58.05  0.001110799    1.525    0.344
       102  -9.3271    132.6514     70.0781   9.4511921550e+01   4.2253431618e+01    0.5580522    0.3686128  57.33   0.00184273    1.626    0.385
       103  -7.6241     99.7010     71.3415   1.0399457543e+02   4.8997953786e+01      0.14386    0.1155873 -77.31  0.000386606    1.668    0.401
       104  -8.4824    218.6410     69.5900   7.7573951827e+01   2.1227194707e+01    0.3726583    0.1665235  56.92  0.001478773    2.269    0.559
       105  -8.3002    171.8983     69.8430   8.5652745158e+01   3.2769692888e+01    0.2274977    0.1998086  26.85 0.0004448621    1.232    0.188
       106  -8.8547    149.6549     69.7303   9.0337125445e+01   3.8291821368e+01    0.3214425    0.2215907  68.43  0.001418173    1.702    0.412
       107  -8.7878    127.1113     66.2898   9.4697986149e+01   4.4200231380e+01    0.3414695    0.2384545 -50.57  0.001027518    1.563    0.360
       108  -8.3555    230.6755     65.3539   7.4791620003e+01   1.9018907394e+01    0.3803472    0.2379698  72.02  0.001797721    1.807    0.447
       109  -9.1827    229.4980     61.4727   7.3961797635e+01   1.9858737170e+01    0.6926097     0.367002 -88.43    0.0025193    3.331    0.700
       110  -8.5803    213.9852     56.9420   7.4895088028e+01   2.4235327801e+01    0.3141627    0.2307821  41.90  0.001123962    1.540    0.351
       111  -9.3218    211.0473     62.3001   7.6760349527e+01   2.4167508476e+01    0.4710956    0.3430929 -53.85  0.002337252    1.393    0.282
       112  -9.2724    215.7866     61.7019   7.5907362711e+01   2.3099622194e+01    0.4922177    0.2962998 -71.45  0.001700454    2.318    0.569
       113 -10.3610    175.0982     63.6612   8.3190395906e+01   3.2973984054e+01    0.4505884    0.2910072  42.54  0.000612733    1.650    0.394
       114  -9.1137    150.6251     63.2293   8.8072835187e+01   3.9165824554e+01    0.4619243    0.3462272   0.89  0.001202387    1.698    0.411
       115  -7.5871    247.4869     60.5254   7.1495406963e+01   1.5893675805e+01     0.212932    0.1779749 -20.80  0.001226351    1.270    0.213
       116  -8.4099    244.4835     60.0001   7.1722273399e+01   1.6634990712e+01    0.3697814    0.1872852 -41.01  0.001689267    1.741    0.426
       117  -8.8156    113.3261     63.9266   9.7614608160e+01   4.7650199741e+01     0.305664    0.2555807  -1.29 0.0008308291    1.307    0.235
       118  -9.1865    114.9344     58.1187   9.5194941624e+01   4.8338136302e+01    0.6790722    0.3044576 -52.56  0.002195887    3.384    0.704
       119  -8.4409    190.0761     60.3447   7.9538903024e+01   2.9698145281e+01    0.3902817    0.2145505  -9.41   0.00135136    3.165    0.684
       120  -7.1964    130.3019     61.3124   9.2243411847e+01   4.4344679716e+01    0.1528587    0.1157762  13.16 0.0002668179    1.610    0.379
       121  -8.9986    126.4814     60.4120   9.2911485808e+01   4.5376086766e+01    0.3060477    0.2673917 -50.71  0.001463765    1.223    0.182
       122  -7.5588    144.7034     60.3085   8.8465827238e+01   4.1097116625e+01    0.2149799    0.1277217 -32.73  0.000640067    1.705    0.413
       123  -9.4248    147.5419     55.0510   8.6115722794e+01   4.1253194384e+01    0.5328529    0.3245399  36.88  0.002271038    1.843    0.457
       124  -8.7044    142.4029     53.1630   8.6637487800e+01   4.2809054739e+01    0.3587728    0.2128594 -51.22  0.001270895    2.002    0.500
       125  -8.5168     74.1844     60.0186   1.0841782208e+02   5.5684650275e+01    0.2244995    0.1579856 -67.17  0.001093866    2.023    0.506
       126  -8.7297    134.6423     57.8545   9.0020557166e+01   4.3914210336e+01    0.3558694    0.2557205 -39.53  0.001706661    1.403    0.287
       127  -8.3288     56.0927     57.7784   1.1407213736e+02   5.8742350730e+01    0.3249389    0.1653376 -53.19  0.001529239    1.920    0.479
       128  -9.1325     15.9449     58.0550   1.2945662901e+02   6.2662659759e+01     0.267269     0.123401 -36.00  0.001365238    2.181    0.541
       129  -8.7639    221.9560     57.4476   7.3928590462e+01   2.2228737323e+01    0.4695574    0.2341734  72.84  0.001896896    2.403    0.584
       130  -8.5463    171.9957     47.5194   7.8855793211e+01   3.6213553710e+01    0.3572528    0.1787786  59.40  0.001444193    1.925    0.480
       131 -10.0878    173.0789     53.0691   8.0364650928e+01   3.5125372530e+01    0.9795697    0.6079412  61.65  0.004372453    1.602    0.376
       132  -8.6258    178.5438     50.0162   7.8467602344e+01   3.4175571705e+01    0.5300109    0.2342644 -33.98  0.002036459    2.210    0.548
       133  -8.4201     60.3815     58.3285   1.1269382923e+02   5.8058611223e+01    0.2128341    0.1450035 -19.79  0.001115806    1.658    0.397
       134  -8.2558    232.1557     57.0290   7.2493224837e+01   1.9871776891e+01    0.1950659    0.1827235  19.82 0.0002927009    1.235    0.190
       135  -9.9339    202.7764     54.6300   7.5898565523e+01   2.7348174218e+01    0.6917609    0.4862693  88.27  0.003276611    1.660    0.398
       136  -8.6156     51.5801     55.8821   1.1512496922e+02   5.9693042084e+01    0.2169572    0.1651983  -3.63 0.0003710931    1.465    0.317
       137  -8.5411    186.9454     53.6660   7.8126757482e+01   3.1494759599e+01    0.3350841    0.1848695 -42.32  0.001417639    1.796    0.443
       138  -8.3490     71.1545     55.0503   1.0776046869e+02   5.7110748754e+01    0.1996338    0.1629895 -15.59 0.0002937195    1.203    0.169
       139  -9.4139    161.3238     53.5919   8.2765391349e+01   3.8036334984e+01    0.3923855    0.2578448  63.06  0.001140467    1.553    0.356
       140  -7.9220    248.2445     52.5921   6.9505584237e+01   1.6819280294e+01    0.2898561      0.11959 -42.41  0.001064357    2.107    0.525
       141  -8.0495    242.7650     53.5865   7.0362786986e+01   1.7911651993e+01    0.1793865    0.1273382  88.73 0.0003582626    1.584    0.369
       142  -8.6718     31.0478     51.8607   1.2180317563e+02   6.2719696963e+01    0.1819358    0.1620594 -63.98 0.0007357521    1.280    0.219
       143  -9.2719    222.2325     48.7971   7.1637313838e+01   2.3376584220e+01    0.6901991     0.178046  63.55   0.00201712    3.833    0.739
       144  -8.6838    214.0154     49.4650   7.2889030817e+01   2.5288245070e+01    0.4237903    0.2246083 -21.80  0.001756472    2.217    0.549
       145  -9.9437    214.7066     42.9213   7.1048905463e+01   2.6008628885e+01    0.5016723    0.3613898 -44.79  0.001600689    1.317    0.241
       146  -9.5218    188.9836     48.3398   7.6240235542e+01   3.1742350817e+01    0.4738578    0.2905007 -50.11  0.001012556    1.719    0.418
       147  -9.3121    185.2690     46.4167   7.6270514954e+01   3.2963426503e+01    0.2667684    0.2226744 -37.31 0.0006934679    1.202    0.168
       148  -9.4445    188.4636     44.4784   7.5194559857e+01   3.2413450590e+01    0.4884509    0.2026657  56.56  0.001188442    2.264    0.558
       149  -8.2294    119.5726     50.8114   9.1395960515e+01   4.8539988723e+01    0.2814781    0.2064975 -45.54  0.001390194    1.459    0.314
       150  -9.2216    120.3263     58.4025   9.3836742937e+01   4.7106745772e+01    0.3758534    0.3304973  31.37  0.001379116    1.135    0.119
       151  -9.9254    240.1063     43.7574   6.8261204097e+01   1.9839086431e+01    0.6233556    0.3806175  26.94  0.002707378    2.786    0.641
       152  -8.2750    234.0171     45.7614   6.9437920998e+01   2.0985013304e+01    0.2564262    0.1710194  86.95  0.001123305    1.673    0.402
       153  -8.5239    231.1414     43.1391   6.9110546887e+01   2.2009344945e+01      0.22726    0.1893657 -78.57 0.0003022859    1.182    0.154
       154  -7.7277    129.6739     50.7092   8.8798619218e+01   4.6238763099e+01    0.1526307    0.1110487  21.10 0.0003620451    1.616    0.381
       155  -9.8714    164.5150     46.0434   7.9759943901e+01   3.8338773275e+01    0.4218438    0.3792142 -39.50  0.001293536    1.134    0.118
       156  -8.0022    153.9800     48.5372   8.2620678110e+01   4.0647031136e+01    0.2250985    0.1436164  57.76 0.0003106779    1.529    0.346
       157  -8.6027     78.8045     47.1698   1.0227988063e+02   5.7286448014e+01    0.2388453    0.1985981 -18.42 0.0006093299    1.111    0.100
       158  -8.5921    139.0972     45.2792   8.4714809898e+01   4.4813279141e+01     0.229115    0.1997651  -2.26 0.0003294515    1.211    0.174
       159  -8.8237     27.4089     45.9580   1.2145507925e+02   6.4220411387e+01    0.1996042      0.17235  45.78 0.0009948862    1.545    0.353
       160  -9.4369    204.3442     43.9814   7.2718820888e+01   2.8446926474e+01    0.7239318    0.4613241 -23.44   0.00339192    1.714    0.416
       161  -8.6673    201.6143     38.1613   7.1475709613e+01   2.9907190264e+01    0.3795377    0.2467905 -10.77  0.001004819    1.994    0.498
       162  -8.2718    201.5346     34.5107   7.0468018567e+01   3.0395282207e+01     0.218173     0.173838  14.28 0.0005554297    1.593    0.372
       163  -8.5895    173.3296     41.0242   7.6617373299e+01   3.6774570318e+01    0.7040114    0.3218041 -37.58  0.002529969    2.148    0.534
       164  -8.4157    169.1141     42.6282   7.7847491437e+01   3.7639490456e+01     0.341106    0.2019755 -37.67 0.0009699909    1.693    0.409
       165  -9.2896    169.6580     37.3113   7.6086444722e+01   3.8214092262e+01    0.3056726    0.2642718  70.32  0.001168324    1.128    0.113
       166  -9.4744    167.6591     34.0562   7.5400340555e+01   3.9148996812e+01    0.3104135    0.2844905  22.67 0.0004644581    1.170    0.145
       167  -9.6564    156.4979     41.6704   7.9875659546e+01   4.0994019986e+01     0.418398    0.3198945  88.50  0.001167926    1.541    0.351
       168  -8.8326    126.4927     43.0509   8.6880426595e+01   4.8152069427e+01    0.3028652    0.1857694  39.28  0.001367982    1.671    0.402
       169  -9.5852      4.4331     42.1146   1.3005981722e+02   6.6622254630e+01    0.2206987    0.1890777 -49.00 0.0009674686    1.147    0.128
       170  -8.5015    140.8627     40.8563   8.2803704715e+01   4.5016964489e+01    0.2491107    0.2086599 -46.24 0.0006254828    1.275    0.216
       171  -7.9139     34.4476    228.0793   1.4561103635e+02   2.4458479887e+01    0.1413181   0.08652133 -85.75 0.0002921733    1.447    0.309
       172  -8.8939    182.4970     30.9899   7.2108305317e+01   3.5705002844e+01    0.3227965    0.2432717 -40.49  0.000710008    1.339    0.253
       173  -9.2723    184.1937     26.3294   7.0474913964e+01   3.5828236208e+01    0.5940341    0.3130317  61.68  0.002637522    1.758    0.431
       174  -8.9664    186.3664     22.0151   6.8904745859e+01   3.5766337894e+01     0.411603    0.3074617  57.69  0.001469366    1.292    0.226
       175  -9.2304    130.5561     39.2654   8.4559070400e+01   4.7737187262e+01    0.3018658    0.2394909  84.07 0.0004472567    1.564    0.361
       176  -9.7444    111.6959     35.0579   8.7681388148e+01   5.2671685574e+01    0.7646235    0.3276944 -45.31  0.002398219    2.934    0.659
       177  -7.5693    194.4681     39.4824   7.2848212419e+01   3.1550048668e+01    0.1421694    0.1375136  79.14 1.534555e-06    1.047    0.045
       178  -7.5805    229.4799     38.5319   6.8136901798e+01   2.3004019557e+01    0.1380653    0.1236469 -63.51 0.0001763294    1.012    0.012
       179  -9.4967    209.5202     35.9857   6.9843656953e+01   2.8200681443e+01    0.4821807    0.3804187  24.74  0.002538973    1.600    0.375
       180  -8.5053    224.5009     32.5954   6.7182033412e+01   2.4948373960e+01    0.3522003    0.1643533  69.58  0.001317285    2.157    0.536
       181 -10.0168    218.6965     33.8651   6.8168184097e+01   2.6200337869e+01    0.5197704    0.3297637 -46.74  0.001932629    1.491    0.329
       182  -8.9391    215.9733     35.7732   6.8992139520e+01   2.6627799633e+01    0.2777594    0.2181136 -84.15 0.0008037899    1.283    0.220
       183  -7.3651    151.6223     38.2725   7.9703222073e+01   4.2690998054e+01    0.1507356    0.1121434 -75.85 0.0005694475    1.693    0.409
       184  -8.7492    103.2661     36.8981   9.0699039922e+01   5.4232162009e+01    0.3044157    0.2232856  -3.26  0.001565741    1.503    0.335
       185  -8.2554     96.1913     36.8284   9.2733004354e+01   5.5702853029e+01    0.1938276    0.1885702 -34.90 0.0005504659    1.193    0.162
       186  -8.8961     54.0203     35.7990   1.0692261940e+02   6.3081259283e+01    0.2503071    0.2302057 -64.20  0.001640032    1.494    0.331
       187  -9.8056    245.0967     33.1570   6.5191811909e+01   2.0055493098e+01    0.5988767    0.4210518 -69.63  0.003327607    1.410    0.291
       188  -8.3335     43.3611     35.4795   1.1110017615e+02   6.4511950569e+01    0.2255779    0.1013253 -43.95  0.001094597    1.928    0.481
       189  -7.7398     40.5067     32.5199   1.1113086362e+02   6.5366058574e+01     0.159027     0.114183  38.22  0.000969723    1.715    0.417
       190  -7.3912    225.6366     41.7016   6.9385846191e+01   2.3509892452e+01    0.1403482     0.104146  33.26 0.0007033633    1.720    0.419
       191  -9.0867    131.1321     34.2908   8.2641026950e+01   4.8279063070e+01    0.4132505     0.217725  50.08  0.001346946    1.774    0.436
       192  -8.7017     89.4944     34.6001   9.3894688183e+01   5.7359052673e+01    0.2662832    0.1715218 -40.70 0.0007326303    1.632    0.387
       193  -8.8486     75.1432     34.0618   9.8399063143e+01   6.0074742140e+01    0.3343022    0.2444879  55.29  0.001831226    1.771    0.435
       194  -9.0331     61.5230     34.8187   1.0363631594e+02   6.2161325581e+01    0.2283746    0.2120955  79.13  0.001460582    1.578    0.366
       195  -8.0225    234.7980     34.6039   6.6579157128e+01   2.2248414575e+01    0.1772334    0.1227786  89.00 0.0005662118    1.509    0.337
       196  -8.6814     81.6245     32.1850   9.5437698877e+01   5.9202919312e+01    0.4243205    0.2240729 -12.77   0.00171722    2.803    0.643
       197  -9.5271     31.5370     28.9725   1.1361316636e+02   6.6969808719e+01    0.2672683    0.2339798  35.97  0.001346895    1.522    0.343
       198 -10.4025     27.2676     30.6147   1.1616589533e+02   6.7106658240e+01    0.3755927    0.3270397 -48.24   0.00170281    1.324    0.245
       199  -9.6382     27.2643     26.5366   1.1456596026e+02   6.7821200711e+01    0.2455432    0.1911895  -4.08 0.0007839678    1.249    0.199
       200  -8.1302    149.2559     33.2583   7.8478337150e+01   4.3945555256e+01    0.1981956    0.1654967 -68.39  0.000939795    1.363    0.266
       201  -7.7422    159.2976     26.3138   7.4329102893e+01   4.2244323728e+01    0.2947525    0.1410545  31.67 0.0009681127    3.189    0.686
       202  -9.5902    155.2973     28.9026   7.5885120557e+01   4.2957234260e+01    0.4813854    0.3530979 -23.03  0.002184748    1.453    0.312
       203  -8.6174    150.7549     26.6013   7.5937794990e+01   4.4386583272e+01     0.398522    0.2266123  60.30  0.001803298    1.639    0.390
       204  -7.8771     98.3931     31.2271   8.9860610872e+01   5.6057706226e+01    0.2255181    0.1886421  -4.56 0.0008599834    1.151    0.131
       205  -8.8710     94.4240     30.5647   9.0758493387e+01   5.6962444367e+01    0.2783828    0.2385769  14.67 0.0009497673    1.086    0.079
       206  -9.0410    104.1867     30.2076   8.7818887449e+01   5.4974439661e+01    0.3101951    0.2231319 -13.40  0.001365421    1.440    0.306
       207  -7.7596    233.5195    176.5518   1.0019444262e+02   1.0725055992e+00    0.1303413    0.1152468   6.78 0.0002993136    1.054    0.051
       208  -7.5715     67.3464     31.6636   1.0017372546e+02   6.1753495815e+01    0.1217078    0.1049783 -71.34  -0.00014224    1.776    0.437
       209  -8.8323    203.7916     29.5031   6.8790391848e+01   3.0445805564e+01    0.4333874    0.2303126 -72.68  0.001717267    2.588    0.614
       210  -8.2333    176.3687     29.9784   7.2725102732e+01   3.7409973110e+01    0.2983488    0.1726594  65.32 0.0009809177    1.646    0.392
       211  -8.3121    244.8808    175.1557   9.7972422963e+01  -7.1418285755e-01    0.1830194    0.1681067 -14.97  0.000482813    1.222    0.182
       212  -8.3989    241.6471    168.9291   9.7256462878e+01   7.3160523564e-01    0.2287271      0.16321  26.01 0.0008350409    1.352    0.260
       213  -7.5790    225.2412    154.3875   9.7044812823e+01   5.9791557959e+00    0.1421859   0.09979002  -2.96 0.0006929911    1.651    0.394
       214  -8.6662    240.6557    147.8536   9.2968408163e+01   4.0390514386e+00    0.2347039    0.1748525  27.50 0.0007974364    1.361    0.265
       215  -8.6159    214.3849    144.4624   9.6823647140e+01   9.7724926493e+00     0.373428    0.2140008  26.47  0.001559725    2.249    0.555
       216  -9.7264    240.3792    140.8299   9.1468857638e+01   5.1688862975e+00    0.5258225    0.2548795 -26.75  0.001193533    2.118    0.528
       217 -10.0512    166.2448     27.1712   7.3448062629e+01   4.0358744947e+01    0.6205833    0.3365218 -63.46  0.002417022    2.663    0.624
       218  -8.1026     46.7658     28.9779   1.0705782815e+02   6.5190059599e+01    0.1835176    0.1413361 -62.35  0.001068784    1.992    0.498
       219  -8.3064     18.6588     28.6933   1.1937667365e+02   6.8213887546e+01    0.1232606   0.06968991 -26.51 0.0007042456    1.686    0.407
       220  -9.1585    228.2823     24.8156   6.4815128010e+01   2.4983938094e+01    0.3242582    0.2578044 -22.76  0.001824436    1.394    0.283
       221  -8.5924    161.4883     22.5411   7.2732580226e+01   4.2116254320e+01    0.2490751    0.1897569 -73.56 0.0008228566    1.493    0.330
       222  -7.8368    131.0324     25.7190   7.9546126219e+01   4.9384083207e+01    0.2016368    0.1714845  50.16 0.0008576189    1.106    0.096
       223  -8.0011    125.4303     26.2875   8.0991670481e+01   5.0658418064e+01    0.1901906    0.1291649 -37.40 0.0009403684    1.563    0.360
       224  -8.1793    212.8622     24.0322   6.6243574198e+01   2.8829270440e+01     0.328084    0.1718234  -8.13   0.00127324    3.139    0.681
       225  -7.4034     98.2957     24.6644   8.7221538678e+01   5.6949737803e+01    0.1300504    0.1063411 -60.41 0.0002962305    1.648    0.393
       226  -7.8488     76.6149     24.1616   9.3710179222e+01   6.1259543620e+01    0.1822061    0.1136464 -17.70 0.0006636106    1.621    0.383
       227  -8.0454     88.1914     23.2724   8.9607444563e+01   5.9186685688e+01    0.1643525    0.1553452 -44.06  0.001026868    1.303    0.233
       228  -8.5400     39.1396     23.0768   1.0777632721e+02   6.7098102909e+01    0.1946291     0.137718 -15.22  0.001220517    1.279    0.218
       229  -8.5199    198.4856     20.5967   6.6968637986e+01   3.2829935604e+01    0.3162439    0.1959763 -89.22   0.00149128    1.758    0.431
       230  -8.6947    155.9898     20.9789   7.3129625058e+01   4.3697767694e+01    0.2688862    0.2139527 -55.97 0.0004507671    1.377    0.274
       231  -8.4970    151.7551     20.4449   7.3674315146e+01   4.4834547520e+01    0.2688709    0.1064201  52.96  0.001039525    2.234    0.552
       232  -8.1262    147.4172     21.2580   7.4721168949e+01   4.5842371688e+01    0.1924788    0.1293188 -37.43 0.0009445495    1.569    0.363
       233  -8.0753    135.8112     21.1140   7.6879535101e+01   4.8750004449e+01    0.2104365    0.1874689 -76.37 0.0008660223    1.277    0.217
       234  -8.4948    228.8060    142.4016   9.3779706234e+01   7.1912327497e+00    0.2737375    0.2225038 -57.22   0.00147959    1.541    0.351
       235  -8.8027     96.9824     20.7045   8.5946912135e+01   5.7715794695e+01    0.1932534    0.1645808  34.07 0.0005619525    1.098    0.089
       236  -9.0553     61.2489     20.3706   9.7509989708e+01   6.4398634148e+01    0.4266558    0.1871368  34.30  0.001961742    2.413    0.586
       237  -8.1341    127.0712     18.9668   7.7889543725e+01   5.1111303508e+01    0.2154731    0.1633325 -63.33 0.0007521359    1.680    0.405
       238  -8.0492    207.4872    142.0093   9.7556538400e+01   1.1622517787e+01    0.2121139    0.1391722 -34.89 0.0004145154    1.505    0.335
       239  -8.6426    212.0015    136.8376   9.5526644222e+01   1.1562764718e+01    0.2478353    0.2088184 -11.95  0.000686369    1.194    0.163
       240  -8.8097    230.0036    132.5344   9.1335285169e+01   8.5390008850e+00    0.2831554    0.1822504 -46.99  0.001352395    1.701    0.412
       241  -7.5492    189.3076    131.3445   9.8625107441e+01   1.7452875662e+01    0.1556968    0.1169652   5.87 0.0003811759    1.696    0.410
       242  -9.9687    248.1160    127.7567   8.7294714131e+01   5.6790839260e+00    0.4813661    0.3742078 -22.46 0.0009455094    1.174    0.148
       243  -7.6889    182.6808    127.6958   9.9103502590e+01   1.9608647589e+01    0.1543674    0.1184479  10.06  0.000513155    1.630    0.386
       244  -8.3258    175.1637     16.6225   6.8809329551e+01   3.9239757289e+01    0.2200268    0.1781764 -47.92 0.0004589144    1.275    0.215
       245  -8.8289     18.9853     17.1082   1.1455862450e+02   7.0182846775e+01    0.1988215    0.1602154  16.45  0.001033549    1.414    0.293
       246  -8.5996    210.5767     15.5087   6.4234750646e+01   3.0356645986e+01    0.2847912    0.1763521 -77.90  0.001272501    1.733    0.423
       247  -8.8218    236.0437    125.3714   8.8672936080e+01   8.4559849604e+00    0.2687452    0.2418839  25.83 0.0008706778    1.142    0.124
       248  -9.9621    247.9440    119.3588   8.5405681031e+01   6.9996948205e+00    0.5809287    0.4895953  51.10  0.003067923    1.334    0.250
       249  -9.7139    241.7366    122.3770   8.7064384888e+01   7.7740145306e+00    0.3630151    0.2645292 -19.51 0.0009605795    1.349    0.259
       250  -8.9492    239.6122    118.7977   8.6568630260e+01   8.7683509968e+00    0.3375605    0.2031446 -42.20  0.001173759    1.618    0.382
       251  -7.9656    154.6404    124.3409   1.0441586594e+02   2.6513807245e+01    0.2469389    0.1903183 -85.91  0.001121048    1.738    0.425
       252  -7.4458    167.3644     15.2570   6.9491910676e+01   4.1390620577e+01    0.1477939   0.09452483  42.77 0.0006970066    1.631    0.387
       253  -9.4339    206.3908    119.5698   9.2457114679e+01   1.5780086701e+01    0.5294392    0.3767293 -46.13  0.002547238    1.447    0.309
       254  -9.3828    190.5390    120.0452   9.5626078191e+01   1.9268084328e+01    0.5177791    0.2973493 -46.69  0.001813019    1.825    0.452
       255  -8.5429    231.7111    121.4017   8.8457986460e+01   9.9876583357e+00    0.2809661    0.2232239  -9.78  0.001496251    1.310    0.236
       256  -9.3627    221.8458    119.3185   8.9629184276e+01   1.2426512306e+01    0.2826175    0.2573044  58.68 0.0006358951    1.215    0.177
       257  -8.0689    196.3153    120.0290   9.4484512062e+01   1.7962052550e+01    0.2181205    0.1884575 -35.40 0.0006360873    1.136    0.120
       258  -8.8517    181.5547    117.9741   9.6933792199e+01   2.1705415170e+01    0.3364884    0.2439944  79.25 0.0007258508    1.937    0.484
       259  -8.9764    176.6365    115.5165   9.7339228255e+01   2.3303148180e+01     0.334903    0.1519578  50.78  0.001228072    2.237    0.553
       260  -7.8396    223.4871    114.5195   8.8190445008e+01   1.2869748630e+01    0.2766986    0.1314847 -38.60 7.588462e-05    1.974    0.494
       261  -8.9533    219.2996    112.3331   8.8372113446e+01   1.4153154368e+01    0.3054541     0.240067  30.15 0.0008368879    1.384    0.277
       262  -8.8517    222.4016    111.1911   8.7563644263e+01   1.3660007222e+01    0.2716787     0.228178 -53.38 0.0008227413    1.278    0.217
       263  -7.5980     37.6886    115.3373   1.3359621403e+02   4.8077398560e+01     0.130354   0.08719742  77.36 0.0003557422    1.687    0.407
       264  -8.0193    213.8004    117.6481   9.0637386401e+01   1.4467351014e+01     0.203075    0.1408747  61.37 0.0009465908    1.671    0.402
       265  -7.8391    143.6023     13.1376   7.2580359278e+01   4.7654427012e+01    0.1820245    0.1301335   3.98 0.0003713142    1.640    0.390
       266  -7.8460    210.5740    112.8088   9.0023964972e+01   1.6019316365e+01    0.1960413    0.1348552 -45.00 0.0002829533    1.466    0.318
       267  -8.7627    198.0981    110.7896   9.1823716845e+01   1.9219388956e+01    0.4528132    0.2689837 -60.88   0.00160658    2.492    0.599
       268  -9.1063    193.7262    106.7951   9.1636894580e+01   2.0952269960e+01    0.3418725    0.3209347  49.57  0.001123702    1.091    0.083
       269  -9.0609    173.6075    110.1157   9.6588033828e+01   2.5040598574e+01    0.4530006    0.2031031 -45.09  0.001640367    2.283    0.562
       270  -7.6397    228.0998    109.1447   8.6118384685e+01   1.2750602872e+01    0.1895382    0.1628114 -59.40 0.0003801571    1.295    0.228
       271  -9.0103    243.9682    107.3545   8.3208421071e+01   9.6627372321e+00       0.2227    0.1685615  29.33  0.001177214    1.502    0.334
       272  -8.4174    238.3489    100.2577   8.2356561817e+01   1.1957164314e+01     0.296695    0.1968962  47.29  0.001131834    1.625    0.384
       273  -8.4633    229.2482    104.8390   8.4882930513e+01   1.3199917415e+01    0.3057092    0.2561165  73.37   0.00123416    1.405    0.288
       274  -9.0055    236.4919    105.5382   8.3912536291e+01   1.1521412800e+01    0.2673387    0.2457168 -27.53  0.001522241    1.006    0.006
       275  -9.5367    233.5876    102.8368   8.3709720993e+01   1.2576370829e+01    0.3498938    0.2983212  49.77 0.0009765339    1.261    0.207
       276  -8.2475    220.4916    104.0033   8.6110081819e+01   1.5278881684e+01    0.2033209    0.1984693  35.28 0.0003605465    1.078    0.073
       277  -7.6874    141.3161    104.6631   1.0252811466e+02   3.3519683458e+01    0.1589264    0.1229867 -82.18 0.0002919133    1.698    0.411
       278  -8.0444    170.1718    102.9633   9.5427877116e+01   2.7216442913e+01    0.2216556    0.1997478 -72.53 0.0003204421    1.215    0.177
       279  -7.8943    249.5869    101.7321   8.1063469573e+01   9.3677333933e+00    0.1940297    0.1569281 -36.61 0.0003631072    1.118    0.106
       280  -8.8859    245.9592     97.8411   8.0661231666e+01   1.0715874644e+01     0.525171    0.3203751  53.46  0.002576035    1.794    0.443
       281  -7.6130      9.5322     10.5062   1.1648108342e+02   7.2046719711e+01    0.1124112   0.08275833 -27.74 4.779362e-05    1.003    0.003
       282  -8.5531    212.6465    101.0614   8.6703076584e+01   1.7555836235e+01     0.267363    0.2221236  63.37  0.000911003    1.310    0.237
       283  -9.8123    185.7897     97.8968   9.0839720250e+01   2.4439794384e+01    0.3614676    0.2701318 -25.65 0.0002580665    1.413    0.292
       284  -9.7022    186.1782     92.3281   8.9255299638e+01   2.5345962123e+01    0.5631805    0.3525799 -62.53  0.002244327    2.201    0.546
