#   1 NUMBER                 Running object number                                     
#   2 MAG_AUTO               Kron-like elliptical aperture magnitude                    [mag]
#   3 X_IMAGE                Object position along x                                    [pixel]
#   4 Y_IMAGE                Object position along y                                    [pixel]
#   5 X_WORLD                Barycenter position along world x axis                     [deg]
#   6 Y_WORLD                Barycenter position along world y axis                     [deg]
#   7 A_WORLD                Profile RMS along major axis (world units)                 [deg]
#   8 B_WORLD                Profile RMS along minor axis (world units)                 [deg]
#   9 THETA_WORLD            Position angle (CCW/world-x)                               [deg]
#  10 FWHM_WORLD             FWHM assuming a gaussian core                              [deg]
#  11 ELONGATION             A_IMAGE/B_IMAGE                                           
#  12 ELLIPTICITY            1 - B_IMAGE/A_IMAGE                                       
         1 -13.0290    179.4686     29.7382   7.1328797857e+01   3.6860048223e+01     1.213188    0.8901899   0.39   0.00530286    1.917    0.478
         2 -12.1051    183.7725     23.1576   6.8921040267e+01   3.6575383554e+01    0.6444945    0.5861647 -56.16   0.00192121    1.173    0.148
         3 -11.7833    145.3855    227.2231   1.2450478406e+02   6.6777372947e+00     0.776733    0.3441137 -63.60  0.003031059    3.512    0.715
         4 -19.4111     35.6780    137.6319   1.3597366778e+02   4.3172083353e+01     19.49609     2.422004 -66.14   0.04655688    7.572    0.868
         5 -10.4346     87.4391    203.1896   1.3305410416e+02   2.1412776741e+01     0.231626    0.1592858  76.39  0.001140071    1.434    0.303
         6 -11.0178    197.2760    197.4421   1.0890592944e+02   2.3322223128e+00    0.6007986    0.3850625  39.00  0.001866021    1.461    0.315
         7  -9.7927    189.4234    188.6907   1.0881376197e+02   5.4783760553e+00    0.7110006    0.3721324 -67.04  0.001990964    5.821    0.828
         8  -8.7832    180.3109    193.9732   1.1172511638e+02   6.2874739632e+00    0.2232239    0.1161397 -65.73 0.0007044906    4.253    0.765
         9  -9.5279    163.3179    230.6679   1.2146006078e+02   2.8403418889e+00    0.1330213   0.09719382  70.49  0.000704787    1.690    0.408
        10  -9.4485    208.1392    185.7730   1.0444005451e+02   2.3199998761e+00    0.3620771    0.2391036  15.17  0.001641753    2.000    0.500
        11  -9.4204    212.5514    181.9644   1.0279606975e+02   2.1434939676e+00    0.2353187    0.1780667 -10.39 0.0006907632    1.515    0.340
        12  -8.5976     10.6270    213.7475   1.4879492627e+02   2.8908166797e+01   0.09260516   0.07879633 -61.65 0.0006960093    1.641    0.391
        13  -9.2948     99.3615    181.3613   1.2734228152e+02   2.4319565256e+01    0.2798444    0.1697215 -65.61  0.001340403    1.641    0.391
        14 -10.8459     88.4696    179.4791   1.2952818820e+02   2.6526455021e+01    0.3607654    0.2673137 -42.38 0.0008967139    1.688    0.408
        15 -11.0747     91.3987    173.8227   1.2797854641e+02   2.7358475031e+01    0.4612539    0.2615152 -47.78  0.002114807    1.970    0.492
        16  -9.4219    198.8645    177.9237   1.0470633085e+02   5.6145762424e+00    0.3076713    0.2093594 -45.87  0.001082081    1.543    0.352
        17  -9.4206    127.1352    172.6976   1.1945083048e+02   2.1283599097e+01    0.2493972    0.1796955  63.28  0.001197719    1.463    0.317
        18  -8.8617    110.3196    173.3197   1.2348265378e+02   2.4255232470e+01    0.1388649    0.1166116 -17.91 0.0007042891    1.665    0.399
        19  -9.9368    104.8901    172.1321   1.2454807021e+02   2.5484565693e+01     0.232461     0.184431  79.72 0.0009620059    1.282    0.220
        20  -9.8296    114.0073    170.0883   1.2204500992e+02   2.4330258760e+01    0.4731016    0.2634083  76.39  0.001618159    3.446    0.710
        21 -10.4909     97.0445    164.7187   1.2513048698e+02   2.8545327926e+01    0.3120229    0.2581296 -44.13  0.000707862    1.373    0.272
        22 -10.9514    101.7733    157.1553   1.2262026169e+02   2.9511287607e+01    0.6063948    0.3853842 -36.63  0.001692348    2.064    0.516
        23  -9.3375    163.5210    156.0486   1.0765313513e+02   1.7517130622e+01    0.2372085    0.1523164 -47.92  0.001029641    1.587    0.370
        24  -8.6375    139.8985    156.3259   1.1319945793e+02   2.2443665389e+01    0.2116799    0.1859416  54.21  0.000602885    1.115    0.103
        25  -8.8433     88.7706    147.0407   1.2398108664e+02   3.4069316851e+01     0.197801    0.1674936 -66.83 0.0003363932    1.090    0.082
        26  -9.5331    134.0000    145.0003   1.1218016290e+02   2.6224315421e+01    0.4350499   0.08672572 -49.21  0.001057838    4.993    0.800
        27 -10.7329    100.4546    141.6184   1.1991683000e+02   3.3398995936e+01    0.2856468    0.2615262 -53.88  0.000664039    1.104    0.094
        28 -10.2447    111.3706    141.1243   1.1700833406e+02   3.1552665501e+01    0.3786269    0.2712674 -36.21  0.001776299    1.616    0.381
        29  -8.4023    165.4747    208.4940   1.1743619913e+02   6.4250169122e+00    0.1400858    0.1263785  45.74 -6.273635e-05    1.002    0.002
        30  -9.6152    117.0021    131.6045   1.1345175483e+02   3.2697947751e+01    0.2755091    0.2127274 -25.29  0.001285116    1.612    0.380
        31  -9.9697    105.6825    128.7188   1.1576714351e+02   3.5489931258e+01    0.4995926    0.2561486 -52.82  0.001532946    1.867    0.464
        32  -9.0528    142.1731    127.3850   1.0607383341e+02   2.8474163466e+01    0.3803321    0.2345325  73.62   0.00136116    2.719    0.632
        33  -8.8339    111.9697    119.7337   1.1198168333e+02   3.6384228292e+01    0.2066006    0.1920763  49.25 0.0003733434    1.113    0.102
        34  -9.0644    168.8947    113.8402   9.6359665983e+01   2.5311970516e+01    0.2335815    0.2190526  14.61 0.0004858287    1.169    0.144
        35  -9.2649    164.0269    111.3013   9.6804062370e+01   2.6980112409e+01     0.222466    0.2059905  62.33 0.0005033865    1.081    0.075
        36  -9.6624    110.2020    208.0828   1.2895271726e+02   1.6644761207e+01    0.1912572    0.1890217  86.13  0.001218206    1.263    0.208
        37 -11.8883     11.1984    206.6183   1.4821497700e+02   3.0299836086e+01    0.5004017    0.3018643  34.55  0.003271933    2.071    0.517
        38 -12.1503    166.1240     44.9912   7.7878278792e+01   3.8183115931e+01    0.7229159    0.5384741 -16.28    0.0035546    1.631    0.387
        39  -9.8100    177.3707    236.8174   1.1965955601e+02  -6.8627266550e-01    0.2210464     0.164578 -71.94  0.001233152    1.951    0.487
