#   1 NUMBER                 Running object number                                     
#   2 MAG_AUTO               Kron-like elliptical aperture magnitude                    [mag]
#   3 X_IMAGE                Object position along x                                    [pixel]
#   4 Y_IMAGE                Object position along y                                    [pixel]
#   5 X_WORLD                Barycenter position along world x axis                     [deg]
#   6 Y_WORLD                Barycenter position along world y axis                     [deg]
#   7 A_WORLD                Profile RMS along major axis (world units)                 [deg]
#   8 B_WORLD                Profile RMS along minor axis (world units)                 [deg]
#   9 THETA_WORLD            Position angle (CCW/world-x)                               [deg]
#  10 FWHM_WORLD             FWHM assuming a gaussian core                              [deg]
#  11 ELONGATION             A_IMAGE/B_IMAGE                                           
#  12 ELLIPTICITY            1 - B_IMAGE/A_IMAGE                                       
         1 -13.1739      2.1509    126.6941   2.9249967129e+02   6.3016135985e+00   0.08806994   0.01672488 -65.20  0.004310821    6.911    0.855
         2 -14.2469      6.3830     17.5146   2.9179757861e+02   7.5452605996e+00    0.2017475   0.05045018 -56.08    0.0138784    3.379    0.704
         3 -13.6902    195.8790     17.3422   2.8958534704e+02   6.4500100509e+00   0.07020872   0.04678963 -75.19  0.005176039    1.679    0.404
         4 -14.0485    202.1550      9.7437   2.8946653633e+02   6.5015392374e+00   0.07634512   0.05100623  -3.07   0.00188462    1.913    0.477
         5 -14.0583    189.4258     22.5636   2.8969191696e+02   6.4270323838e+00    0.1042229    0.0523156 -51.04  0.007929655    1.927    0.481
         6  -9.2391    158.2364    241.9832   2.9136986735e+02   4.0603581992e+00  0.009347076  0.008491354 -58.14 0.0004009018    1.089    0.082
         7 -10.5147    205.2580    249.8112   2.9087018784e+02   3.6971483342e+00    0.0116803  0.008751302  39.61 0.0007296377    1.347    0.257
         8 -10.1407    152.7151    244.0538   2.9144641400e+02   4.0682481499e+00   0.01196255  0.009336521 -60.38  0.001165116    1.265    0.210
         9 -11.2878    143.4043    249.2291   2.9158553827e+02   4.0619745886e+00   0.01671718   0.01328767  78.59 0.0009566389    1.462    0.316
        10 -11.5803    150.4879    248.2623   2.9149741827e+02   4.0322326171e+00   0.02413384   0.01374164  23.88  0.002126714    1.808    0.447
        11 -11.0388    133.9428    249.6554   2.9169808923e+02   4.1117360728e+00   0.02418646   0.01040144  37.80  0.002047958    2.268    0.559
        12 -11.7037    111.8308    248.5244   2.9194849070e+02   4.2526884693e+00   0.04797641   0.01370126  38.26   0.00337733    3.300    0.697
        13  -9.9971    126.2749    248.8640   2.9178253512e+02   4.1652647009e+00   0.01642002  0.009285214  49.16  0.001156796    1.999    0.500
        14  -9.9510    122.8296    249.6246   2.9182713437e+02   4.1763408777e+00   0.01376049  0.009711995  50.12  0.001450039    1.532    0.347
        15 -10.4438    121.4590    244.8234   2.9181445236e+02   4.2400638335e+00   0.01881811    0.0101164  47.53  0.001706312    2.074    0.518
        16 -12.4105    126.3418    241.0084   2.9173491787e+02   4.2561767026e+00   0.02300653   0.02068144 -64.76  0.001661138    1.114    0.102
        17 -11.0513    101.3420    241.6390   2.9202946449e+02   4.3933157223e+00   0.04040117   0.01388411 -71.31  0.002530407    4.411    0.773
        18 -11.7805     96.2817    239.2757   2.9207425292e+02   4.4500152649e+00   0.02642437   0.02006777  75.30  0.002855932    1.578    0.366
        19  -9.4710    100.6983    250.3113   2.9208861711e+02   4.2962268034e+00   0.01120401  0.007862986  48.39 0.0007467855    1.521    0.342
        20 -11.1572     98.0551    246.6844   2.9209775862e+02   4.3536510676e+00   0.01996085   0.01191906  51.13  0.001366798    1.918    0.479
        21 -10.9722     81.4985    247.0798   2.9229271706e+02   4.4446407002e+00   0.02320156   0.01302028 -73.92  0.001950037    2.080    0.519
        22  -9.9423     74.7867    250.4651   2.9239095081e+02   4.4440140692e+00   0.01292141  0.008123671  25.82   0.00129888    1.605    0.377
        23 -13.7664     45.7673    246.1413   2.9270286923e+02   4.6616152652e+00   0.05558289   0.04082258 -16.66  0.005913027    1.613    0.380
        24 -13.4914     47.7590    228.5409   2.9257499929e+02   4.8547870517e+00   0.06207207   0.03372149   8.18   0.00531901    2.504    0.601
        25 -15.0237     56.9256    217.0542   2.9239991148e+02   4.9354993700e+00    0.1613121    0.1306661 -65.36   0.01859588    1.240    0.194
        26 -10.0916    132.7743    224.6752   2.9156266031e+02   4.4088057060e+00   0.01175842  0.008801396 -48.05  0.000767204    1.322    0.244
        27 -12.4893    135.0439    236.5603   2.9160718175e+02   4.2575519811e+00   0.02946806   0.01821031 -63.69  0.002463464    1.621    0.383
        28 -10.3079     90.0092    236.1925   2.9212886079e+02   4.5220787377e+00   0.01644259   0.01023701  50.44  0.001440142    1.798    0.444
        29  -9.9901     83.2434    238.3560   2.9222046955e+02   4.5359869261e+00   0.01766354  0.009225252  27.31  0.001487948    1.910    0.476
        30 -10.7009     86.4388    237.4310   2.9217778118e+02   4.5282950033e+00   0.01602935   0.01184104  80.46  0.001340059    1.659    0.397
        31 -10.6486    173.4580    240.0935   2.9118164440e+02   3.9942023558e+00   0.01651607   0.01134843 -87.36 0.0008631695    1.800    0.444
        32 -11.4020    145.9409    240.7200   2.9150528171e+02   4.1461797662e+00   0.01709281    0.0109449  32.11 0.0006418151    1.541    0.351
        33 -10.2681    116.0231    240.1914   2.9185006236e+02   4.3253183831e+00   0.01063038  0.008624685 -30.51 0.0009314887    1.308    0.236
        34  -9.4047    184.2389    250.0268   2.9111567117e+02   3.8163850274e+00  0.009030919  0.005500067 -61.67 0.0008834822    1.620    0.383
        35  -9.4846    150.9399    239.4706   2.9143970200e+02   4.1317766352e+00  0.009789451  0.006506393  26.43 0.0006784545    1.512    0.339
        36 -10.7592    222.3237    245.3225   2.9064515710e+02   3.6503838899e+00   0.01519544  0.008584681 -12.35  0.001224186    2.908    0.656
        37 -11.0318     98.3895    230.9939   2.9200037585e+02   4.5341145343e+00   0.02002117   0.01625594 -46.12  0.002304123    1.225    0.183
        38 -10.5254     83.7854    242.2135   2.9223713586e+02   4.4880137898e+00    0.0196079   0.01186057 -14.74   0.00173949    2.396    0.583
        39  -9.5698     92.4922    231.7246   2.9207334895e+02   4.5596809343e+00   0.01427545   0.00638927 -61.73  0.001214867    2.185    0.542
        40 -11.1743    142.1529    229.4300   2.9148195523e+02   4.2992933092e+00   0.02334783   0.01279774 -60.88  0.001997511    1.784    0.439
        41 -10.4099     84.0563    230.3022   2.9216303641e+02   4.6249242913e+00   0.01257393   0.01101905  -6.02  0.001040905    1.212    0.175
        42 -13.0614     42.3263    237.1153   2.9268923977e+02   4.7863934523e+00   0.03375796   0.02374143  24.65 0.0009222724    1.441    0.306
        43  -9.8863    181.0781    229.7822   2.9103148324e+02   4.0698637486e+00   0.01019775  0.008913285  60.93 0.0008326066    1.224    0.183
        44 -11.1906    121.5660    232.8275   2.9174167616e+02   4.3788694011e+00   0.01611871   0.01398962 -16.10 0.0005895595    1.228    0.186
        45 -10.8864    165.3217    227.3360   2.9120003771e+02   4.1895298755e+00   0.01890326   0.01206833  89.98  0.001408863    2.113    0.527
        46  -9.0345    150.3118    229.6614   2.9138845319e+02   4.2493950726e+00   0.00700931  0.004990736  64.17 0.0003909677    1.692    0.409
        47 -10.5277    156.6932    231.5674   2.9132563073e+02   4.1903147550e+00   0.01191407   0.01125425 -51.62 0.0002963631    1.045    0.043
        48 -12.1042    110.2604    230.2429   2.9185778369e+02   4.4742580832e+00   0.03589345    0.0231266  26.99  0.002319819    1.556    0.357
        49 -10.2203    190.9019    228.0777   2.9090711906e+02   4.0327545477e+00  0.009578282  0.009526332 -60.90 0.0003112207    1.015    0.015
        50  -9.0155    184.6570    228.6851   2.9098332920e+02   4.0618774226e+00  0.007121098  0.004910563 -26.49 0.0007047794    1.710    0.415
        51 -10.7646     78.7896    229.2632   2.9221813691e+02   4.6674052305e+00   0.01605187   0.01139506  -1.10  0.001659688    1.690    0.408
        52 -10.5800     92.2800    226.1724   2.9204272831e+02   4.6254507478e+00   0.02050569    0.0111699  47.71  0.001724043    2.047    0.511
        53 -11.4264     98.7365    223.1918   2.9194982773e+02   4.6228068021e+00   0.02035206   0.01681839  30.36  0.000249888    1.211    0.174
        54  -9.8744     93.7813    217.0994   2.9197116855e+02   4.7222548881e+00   0.01792407   0.01131442 -88.63  0.001674397    2.128    0.530
        55 -10.6574    110.6016    222.2540   2.9180616991e+02   4.5651481863e+00    0.0176366   0.01244917 -46.87  0.001040776    1.412    0.292
        56 -11.5272    105.0617    219.5919   2.9185475528e+02   4.6281081894e+00   0.02133724   0.01168356 -63.61  0.002009574    1.830    0.454
        57 -10.5524    117.3616    224.4520   2.9174062838e+02   4.5005245082e+00   0.01251043   0.01141576 -42.75 0.0005383272    1.089    0.082
        58  -8.8887    220.0077    223.5006   2.9054156916e+02   3.9172088539e+00  0.009280119  0.006492365  27.64 0.0009770161    1.431    0.301
        59  -9.0670    155.5530    223.4868   2.9129063641e+02   4.2908094741e+00  0.006548262  0.006419985  74.73 5.496545e-05    1.046    0.044
        60 -10.5463    150.0302    222.3738   2.9134821656e+02   4.3357094270e+00   0.01213484  0.009974408 -52.61 0.0003101538    1.195    0.163
        61  -9.6247    149.5695    218.5456   2.9133071227e+02   4.3828608277e+00   0.01136629  0.009881445  67.00 0.0001141556    1.250    0.200
        62 -10.2401    141.5110    212.6738   2.9138938065e+02   4.4977347337e+00    0.0199686   0.01230735  27.51  0.001302935    1.621    0.383
        63 -10.3447    137.5649    214.7449   2.9144765251e+02   4.4964991231e+00   0.01809517     0.011205  89.95  0.001374836    2.251    0.556
        64 -11.6169    141.9989    221.9639   2.9143917718e+02   4.3869491360e+00   0.01429548   0.01148767  31.47 0.0003334496    1.243    0.196
        65 -11.5921    142.3145    218.6993   2.9141601573e+02   4.4230617516e+00   0.01833707   0.01295075  55.99 0.0003051652    1.609    0.378
        66  -9.6232    164.2054    220.5399   2.9117241987e+02   4.2749570901e+00   0.01460636  0.007554702 -44.04 0.0008032652    2.034    0.508
        67  -9.7382    177.2341    219.5622   2.9101509636e+02   4.2108593104e+00   0.01149041  0.009360084 -44.92 0.0006904298    1.225    0.184
        68  -9.3198    175.6804    216.3354   2.9101387465e+02   4.2573482184e+00  0.006805452  0.006630888 -31.89 0.0003913025    1.019    0.018
        69  -9.7544    134.2141    218.0391   2.9150630098e+02   4.4776007056e+00   0.01397273   0.00939704  62.94  0.001385486    1.844    0.458
        70 -10.0585     89.2963    218.7795   2.9203338454e+02   4.7286260259e+00    0.0119659  0.009959403 -53.44 0.0005369142    1.180    0.152
        71 -11.2962     87.6499    250.5486   2.9224180913e+02   4.3688091440e+00   0.02757106   0.01548699  25.93  0.002275601    1.797    0.444
        72  -9.5621    232.8243    216.6134   2.9035149466e+02   3.9228460372e+00  0.009395028  0.005828043  38.73 0.0001427024    1.613    0.380
        73 -10.2072    183.1539    214.0838   2.9091352902e+02   4.2402074587e+00   0.01205615  0.009611995  45.51 0.0007068909    1.295    0.228
        74 -10.6896    101.9789    212.1645   2.9184632891e+02   4.7322607619e+00    0.0205826   0.01456084  39.29   0.00159125    1.423    0.297
        75 -10.6958     88.3216    213.0573   2.9201061385e+02   4.8007778822e+00   0.01409292   0.01192784 -52.75 0.0003747279    1.161    0.139
        76 -15.1748     12.0092    207.3475   2.9286516210e+02   5.3071308494e+00    0.1660567   0.09934586 -63.95   0.01643769    1.676    0.403
        77 -12.2772    131.9712    211.6238   2.9149409393e+02   4.5651340883e+00   0.02013556   0.01353395 -34.10 0.0004972191    1.661    0.398
        78  -9.4767    152.1453    211.9104   2.9126112020e+02   4.4450544180e+00    0.0102549  0.008799098  67.90 0.0006185214    1.277    0.217
        79  -9.0137    197.7971    208.1613   2.9070789500e+02   4.2241348717e+00  0.008738306  0.007353483 -30.24 0.0002649864    1.245    0.197
        80 -10.7213    174.7143    206.1331   2.9096411995e+02   4.3814729615e+00   0.01898836   0.01023623 -46.89  0.001239266    1.868    0.465
        81 -11.7279     93.1209    205.1472   2.9190757293e+02   4.8650145413e+00    0.0335173   0.01705321  35.41  0.001761118    1.914    0.477
        82 -11.6766    246.8016    205.7134   2.9012392414e+02   3.9682894375e+00   0.02836952    0.0180056   5.60  0.002735449    1.960    0.490
        83 -10.2818    166.9440    203.2524   2.9103725987e+02   4.4599572728e+00   0.01116542  0.009690318   2.35 0.0002911187    1.218    0.179
        84 -10.0490    169.8665    200.4021   2.9098623034e+02   4.4761438984e+00   0.01165287  0.009094135 -52.72 0.0003348798    1.255    0.203
        85  -9.6363    149.5666    204.5459   2.9124711645e+02   4.5455609657e+00   0.01458287  0.007873294 -36.28  0.001052958    2.223    0.550
        86 -10.3184    103.6723    203.2692   2.9177354625e+02   4.8258770263e+00   0.01418102   0.01074784 -32.18 0.0009131567    1.426    0.299
        87  -9.3517     75.5317    203.6382   2.9210334751e+02   4.9841308247e+00   0.02110037   0.01144087  15.98   0.00154345    2.151    0.535
        88  -9.6016    224.8895    202.6229   2.9035992523e+02   4.1313290738e+00  0.009160219  0.008000925  30.12 0.0004249435    1.148    0.129
        89  -9.9223    133.0628    202.9569   2.9142963580e+02   4.6595460274e+00  0.009774392  0.009539467 -74.00 0.0003187744    1.037    0.036
        90 -11.0915    134.1986    197.7703   2.9138543764e+02   4.7132508209e+00   0.01622917   0.01214905 -65.56 0.0002323637    1.348    0.258
        91  -9.1216    108.5536    202.4892   2.9171207403e+02   4.8067285313e+00   0.01163872  0.006566991 -79.57 0.0009555708    2.304    0.566
        92 -10.7777    197.3694    200.8970   2.9066940901e+02   4.3109913475e+00   0.01680737   0.01202239  28.45  0.001651295    1.396    0.284
        93  -9.8116    125.9198    205.6042   2.9152856315e+02   4.6701014589e+00  0.009941952  0.008978422 -62.95 0.0004681034    1.104    0.094
        94  -8.7477    158.5508    199.5155   2.9111254298e+02   4.5519909180e+00  0.006540758  0.006432141 -42.00 6.181221e-05    1.005    0.005
        95 -10.2385    100.7317    198.1194   2.9177704278e+02   4.9027350515e+00   0.01296348   0.01012531 -43.34 0.0004286889    1.290    0.225
        96  -9.3079     86.1435    199.0661   2.9195252836e+02   4.9760114013e+00   0.01295836  0.008148467 -51.61 0.0003574213    1.548    0.354
        97 -10.3427     83.9167    193.8567   2.9194737940e+02   5.0494332326e+00   0.02257512     0.016527  26.52  0.001547441    1.372    0.271
        98  -9.8041    192.0371    198.0314   2.9071425331e+02   4.3751919818e+00  0.009598768  0.009419875 -59.00            0    1.018    0.018
        99  -8.7237    141.7892    198.0269   2.9129864685e+02   4.6663382240e+00  0.008476653  0.005307924 -63.32 0.0003157875    1.595    0.373
       100  -9.2915     95.5075    197.0311   2.9183136729e+02   4.9455743589e+00   0.01001696  0.006452221 -61.65 0.0003934304    1.533    0.348
       101 -11.9397     76.4131    187.8903   2.9199916361e+02   5.1621252941e+00   0.01744442   0.01371499 -24.94 0.0006046031    1.402    0.287
       102 -11.9527     71.8140    194.7807   2.9209382094e+02   5.1085693687e+00   0.02455977   0.01293473 -39.79  0.002187832    2.147    0.534
       103 -10.6115     70.5752    190.4107   2.9208218557e+02   5.1665253073e+00   0.01063879   0.01048153  10.30 2.875686e-05    1.020    0.019
       104 -10.0895    113.5094    195.9938   2.9161561440e+02   4.8535777151e+00   0.01573872  0.008843912  50.03  0.001443858    2.046    0.511
       105  -9.6130    113.0431    192.1160   2.9159788695e+02   4.9013463307e+00   0.01001062  0.009384386 -31.22 0.0002629615    1.073    0.068
       106  -9.2392    107.5322    195.9789   2.9168510179e+02   4.8883090162e+00   0.01003849  0.006522129 -64.62 0.0006894374    1.551    0.355
       107  -9.5283    177.2222    194.5202   2.9086551020e+02   4.5018559493e+00    0.0126992  0.009270116 -18.44   0.00133152    1.623    0.384
       108 -10.5560    159.5119    194.1071   2.9106903096e+02   4.6092659456e+00   0.01724791   0.01139094  43.98 0.0009355689    1.570    0.363
       109 -10.4923    120.7206    194.4442   2.9152242462e+02   4.8298835037e+00   0.02034737   0.01054377  39.73  0.001870633    1.936    0.483
       110 -10.4263     38.5375    192.8684   2.9246998861e+02   5.3227306021e+00   0.01797158   0.01132506 -49.39   0.00096184    1.561    0.359
       111 -10.2312    172.9797    192.6633   2.9090374323e+02   4.5480144975e+00   0.01619786  0.009098619 -45.77 0.0009301332    1.811    0.448
       112  -9.4780    101.6139    192.6591   2.9173418153e+02   4.9611076790e+00   0.01536475  0.009416102 -31.99  0.001140404    1.955    0.488
       113  -9.5408     47.2206    192.9732   2.9236947265e+02   5.2714603479e+00   0.01028834  0.008152252 -35.17 0.0005347492    1.321    0.243
       114 -10.5168    191.4463    191.4422   2.9068169592e+02   4.4551558127e+00   0.01277393   0.01232516 -31.18 0.0006207704    1.032    0.031
       115 -11.1921     31.8044    189.0983   2.9252596437e+02   5.4053643411e+00   0.02360365   0.01970506  70.72   0.00246551    1.339    0.253
       116  -9.5386    135.3147    190.1911   2.9132716377e+02   4.7948739925e+00  0.009041789  0.008286728 -76.40 0.0006820392    1.122    0.108
       117 -11.5457    249.8212    187.7737   2.8998139887e+02   4.1590125540e+00   0.02172672   0.01271342 -50.73  0.002130558    1.665    0.400
       118 -10.8381    248.9800    178.5183   2.8993570341e+02   4.2713342936e+00   0.01816895    0.0111511  82.44  0.001608191    2.440    0.590
       119 -11.0462    136.1306    227.8350   2.9154247860e+02   4.3526687027e+00    0.0203504   0.00945142 -61.56  0.001775666    2.105    0.525
       120 -10.3023     44.2014    188.5626   2.9237835756e+02   5.3401497146e+00   0.02324487   0.01249286   6.63   0.00193789    2.646    0.622
       121 -10.0867    175.7832    187.0028   2.9083727565e+02   4.5975274678e+00   0.01052605  0.009526304  31.28 0.0003775923    1.110    0.099
       122  -9.3328     67.1793    186.9237   2.9210093962e+02   5.2266664674e+00    0.0104068  0.007495798 -25.35 0.0006303586    1.605    0.377
       123 -11.2337    140.9922    183.7906   2.9122283408e+02   4.8363887745e+00   0.02157724   0.01076497  45.28  0.001524027    2.180    0.541
       124  -9.4158     38.1856    184.1572   2.9242218604e+02   5.4260485055e+00   0.01015277  0.008766711 -32.10  0.000899924    1.195    0.163
       125  -9.6662    217.3495    183.2598   2.9033159944e+02   4.3999274691e+00    0.0104789  0.009027136  36.04 0.0003423756    1.167    0.143
       126 -14.7085     27.3641    248.1134   2.9292873923e+02   4.7446869427e+00   0.07501435   0.05389501  13.35  0.005625691    1.513    0.339
       127 -15.7156      6.6647    246.3914   2.9315939248e+02   4.8838296922e+00    0.1356517   0.07477967 -48.36    0.0129228    1.798    0.444
       128 -11.7644    104.3196    180.9220   2.9163259557e+02   5.0818963535e+00   0.01122408   0.01113607  45.10 0.0002689223    1.024    0.024
       129  -9.3974     65.8705    181.9371   2.9208643972e+02   5.2921939504e+00   0.00978817   0.00853351 -23.45 0.0003106252    1.205    0.170
       130  -8.9197    123.6975    185.7422   2.9143579150e+02   4.9138008971e+00  0.006598654  0.004965987 -23.50 0.0002110678    1.511    0.338
       131  -9.9331    115.6410    180.7307   2.9149963593e+02   5.0186522526e+00   0.01559747  0.009903974 -86.99 0.0008543411    2.070    0.517
       132  -9.5085    175.1219    179.9730   2.9080290418e+02   4.6830264580e+00   0.01459463  0.007455403  25.37  0.001318194    1.994    0.499
       133 -10.2255     87.0791    183.5925   2.9184930141e+02   5.1504892596e+00   0.02381537   0.01122035  25.55  0.002079809    2.160    0.537
       134 -10.4286    129.0319    179.3937   2.9133575814e+02   4.9567150109e+00   0.01173774  0.009551828 -70.87 0.0003328399    1.267    0.211
       135  -9.7215     48.1910    179.8576   2.9227999296e+02   5.4183612425e+00   0.00954945  0.008605207  51.11  0.000439567    1.149    0.130
       136  -9.4562     36.7852    179.9477   2.9241341613e+02   5.4830639099e+00   0.01701136  0.009714756  48.09  0.001594753    1.942    0.485
       137 -10.5287    181.1842    176.6747   2.9071265044e+02   4.6861968631e+00   0.02203503   0.01389226  48.63  0.002192554    1.733    0.423
       138 -12.0470     85.3470    175.8225   2.9182309106e+02   5.2508177316e+00   0.02096669   0.01932209  47.33  0.001211922    1.112    0.101
       139 -11.5777     96.2850    158.9108   2.9159466830e+02   5.3841822358e+00   0.02319798   0.01448525 -65.15  0.002331045    1.624    0.384
       140 -11.1498     80.6722    163.4781   2.9180383582e+02   5.4213166714e+00   0.01399878   0.01275953  50.12 0.0002537311    1.132    0.116
       141 -12.8053     90.5991    167.2741   2.9171086828e+02   5.3198393579e+00   0.03652683   0.02879283 -52.15  0.002832922    1.244    0.196
       142  -9.8300    109.0714    176.1694   2.9154887525e+02   5.1096617443e+00   0.01138984   0.00965008 -88.38  0.000279097    1.291    0.225
       143 -10.6118     85.0830    165.8509   2.9176662214e+02   5.3682545485e+00   0.01868807  0.009815004 -60.96  0.001241894    1.859    0.462
       144 -10.7124     77.1090    175.5471   2.9191740213e+02   5.3016002702e+00   0.01135761   0.01057126 -69.30 0.0003941953    1.085    0.078
       145 -12.2928     71.7102    174.4347   2.9197365138e+02   5.3457050634e+00   0.01772967   0.01354875 -35.27 0.0006151217    1.383    0.277
       146  -9.4829     67.6510    174.7343   2.9202272612e+02   5.3656545593e+00   0.01029242  0.006603875 -61.43 0.0003852709    1.536    0.349
       147 -11.5565     18.8573    172.7870   2.9257965454e+02   5.6695958845e+00   0.01944099   0.01452582  68.32   0.00161241    1.593    0.372
       148 -11.3781     16.2842    166.8492   2.9257426540e+02   5.7534494653e+00    0.0197739   0.01089605 -61.03   0.00187997    1.774    0.436
       149 -12.1534    248.1054    171.9187   2.8990630235e+02   4.3530214820e+00   0.02718347   0.02025939  12.11  0.002965008    1.456    0.313
       150 -10.1928    154.7893    172.8307   2.9099672748e+02   4.8838338988e+00   0.01392526   0.01007901 -35.21  0.001012038    1.487    0.327
       151  -9.7180     28.4756    173.4952   2.9247178763e+02   5.6059674316e+00   0.01132143  0.008717248 -69.44 0.0006107612    1.337    0.252
       152  -9.1249     31.4970    171.5475   2.9242496927e+02   5.6112056254e+00  0.009503263  0.006487548  12.33 0.0005073811    1.634    0.388
       153 -11.1092     28.6749    170.3216   2.9245055030e+02   5.6417185963e+00   0.01390502   0.01270188 -28.33  0.001691253    1.116    0.104
       154 -12.9171     14.5174    239.0074   2.9302415006e+02   4.9245215475e+00   0.02021421   0.01489759  -0.30 0.0003754716    1.581    0.367
       155  -8.8811    132.6949    171.2999   2.9124473149e+02   5.0295719357e+00  0.006807159  0.004992036  62.00 0.0003285281    1.591    0.372
       156  -9.4878    100.4044    170.8203   2.9161784702e+02   5.2219467559e+00  0.009269278  0.008413779  47.63  0.001114039    1.131    0.116
       157 -11.0514     68.8603    167.9342   2.9196805484e+02   5.4377267769e+00   0.01893753   0.01304482 -50.40 0.0007162276    1.423    0.297
       158  -9.7422     48.7420    169.3937   2.9221117288e+02   5.5368412054e+00    0.0125452  0.009846105 -30.21  0.001396157    1.372    0.271
       159  -9.0938     36.4861    170.5357   2.9236079888e+02   5.5942209668e+00   0.00651478  0.006467752 -35.31 0.0008094301    1.007    0.007
       160  -9.9734    107.4129    168.3023   2.9152118171e+02   5.2106887076e+00   0.01168862  0.008796453  25.58 0.0004383544    1.339    0.253
       161  -9.4467     58.4099    167.6421   2.9208807149e+02   5.5014353858e+00  0.009793021   0.00743691  62.32 0.0006650659    1.510    0.338
       162 -12.4276    245.3020    162.6671   2.8988340059e+02   4.4766966320e+00   0.02770703   0.02220948  14.47  0.003158076    1.309    0.236
       163 -12.2527    246.4462    157.4945   2.8983909090e+02   4.5300875091e+00   0.06352722   0.02462879  48.13   0.00458454    3.351    0.702
       164  -8.4969    124.2976    165.3142   2.9130670478e+02   5.1477345568e+00  0.006928185  0.004901191 -29.44 0.0002035243    1.605    0.377
       165 -10.0765     47.1809    163.4100   2.9219367128e+02   5.6154088106e+00   0.01149863  0.009227273 -64.99 0.0005578739    1.251    0.200
       166 -11.0179     43.8391    169.3555   2.9226807727e+02   5.5655564956e+00   0.01915163    0.0137681 -14.47  0.001049781    1.683    0.406
       167  -9.8604     37.0458    162.7903   2.9230809242e+02   5.6810455562e+00   0.01021425  0.008553267  53.35 0.0007103159    1.265    0.210
       168 -10.6482     12.2706    161.3838   2.9258848182e+02   5.8401005016e+00   0.01148852  0.009765645 -68.34   0.00134247    1.193    0.161
       169 -11.0944     23.9611    149.4489   2.9238104862e+02   5.9115429839e+00   0.02104317   0.01134539 -45.52   0.00170771    1.898    0.473
       170 -13.1373     31.7840    154.8664   2.9232216279e+02   5.8034924053e+00   0.03960746    0.0304192 -59.85  0.002199779    1.282    0.220
       171 -12.4177     23.5526    155.0794   2.9241938705e+02   5.8484382601e+00   0.02756398   0.02024283  -5.43  0.002460831    1.615    0.381
       172 -10.7148     73.7159    159.7088   2.9186237235e+02   5.5053077321e+00   0.02369998    0.0131581  43.01  0.001082465    1.871    0.466
       173 -11.0349     74.0634    156.6843   2.9184026080e+02   5.5384570449e+00   0.02517983  0.009840205  31.19   0.00205438    2.427    0.588
       174  -9.4579     52.5638    158.2626   2.9210022452e+02   5.6442026640e+00  0.009914543  0.008067702  12.33 0.0005754848    1.294    0.227
       175  -9.4928     47.1381    157.6707   2.9215992642e+02   5.6823782371e+00    0.0135653  0.008412308 -44.20  0.001345456    1.653    0.395
       176  -9.7995     88.9973    156.9997   2.9166814715e+02   5.4485172430e+00   0.01001888  0.009688544 -22.97 0.0003355887    1.035    0.034
       177  -9.9819    134.2673    155.7460   2.9113339250e+02   5.2012056077e+00   0.01122221  0.009309419 -58.67 0.0003928235    1.188    0.159
       178  -9.3032    175.8498    166.1472   2.9071168238e+02   4.8394166310e+00  0.009983145  0.008661632  65.64 0.0003253562    1.251    0.201
       179  -9.8410    120.6840    159.6597   2.9131497039e+02   5.2343576913e+00   0.02101139  0.008504086  44.79  0.001401261    2.771    0.639
       180  -9.5318     62.1985    152.9755   2.9195637851e+02   5.6500683501e+00   0.01733252  0.008303175 -69.21  0.001094087    2.335    0.572
       181 -11.4121    249.1829    149.8405   2.8976139100e+02   4.6030183030e+00   0.02799005    0.0165627 -74.87  0.002524516    1.970    0.492
       182  -8.9407    148.7693    152.9474   2.9094780957e+02   5.1497225606e+00  0.009161012  0.005409582 -61.06 0.0008833566    1.663    0.399
       183 -10.5349    112.9432    152.3871   2.9136163037e+02   5.3636607175e+00   0.01653008   0.01406146  37.83 0.0009248377    1.184    0.156
       184  -9.9841    105.5834    146.1553   2.9141009448e+02   5.4786557216e+00   0.01497058  0.009877023 -31.49  0.001355499    1.752    0.429
       185 -10.9624    102.6558    151.1342   2.9147397108e+02   5.4377274593e+00   0.01621818   0.01518517 -63.17  0.001133661    1.066    0.062
       186 -10.9416     56.3079    150.1476   2.9200814766e+02   5.7169344972e+00   0.01863152   0.01622548 -40.93  0.001024569    1.152    0.132
       187 -10.0260     53.0496    146.4540   2.9202407342e+02   5.7786692982e+00   0.01182746   0.01087679  50.57 0.0007209601    1.121    0.108
       188  -9.8065     45.9135    150.8710   2.9213362240e+02   5.7684866586e+00    0.0104645  0.008860477 -30.01 0.0005494189    1.235    0.190
       189  -9.2232     91.1237    150.5052   2.9160456199e+02   5.5117103741e+00  0.009458221  0.006495659  27.34 0.0003778561    1.458    0.314
       190 -11.9457     66.2633    128.5315   2.9176296557e+02   5.9107105813e+00   0.02670669   0.02254991 -65.13  0.002300086    1.188    0.158
       191 -12.4181     74.6989    139.2212   2.9172852295e+02   5.7377595620e+00    0.0399386   0.02706123  71.05   0.00265114    1.925    0.480
       192 -10.9514     65.0388    134.0294   2.9181009890e+02   5.8538853099e+00   0.01552604   0.01351227  55.95 0.0003708884    1.215    0.177
       193 -11.4866    133.4922    143.1979   2.9106732846e+02   5.3514884587e+00   0.04225003   0.01515066 -69.47   0.00291211    3.590    0.721
       194 -12.3981     32.7909    142.3984   2.9223603880e+02   5.9426308341e+00   0.03507778   0.01405674 -54.92  0.002909354    2.313    0.568
       195  -9.1620    142.3348    147.3227   2.9098905183e+02   5.2523487184e+00  0.007133083  0.004898142 -27.44 0.0007050523    1.709    0.415
       196 -12.6933    248.5551    240.0373   2.9030900025e+02   3.5596608664e+00   0.03718404    0.0266145 -64.26  0.004022307    1.403    0.287
       197 -12.0722      3.0812    139.0367   2.9256242633e+02   6.1527884473e+00   0.03466768   0.01627125  42.52  0.002686189    2.223    0.550
       198 -11.7363    248.1867    141.4478   2.8972261395e+02   4.7062123298e+00   0.04221398   0.01831585  15.17  0.003148059    3.199    0.687
       199 -12.5863    248.3238    134.5754   2.8967978205e+02   4.7851688051e+00    0.0422225   0.02737227 -52.56  0.004048504    1.499    0.333
       200 -11.3968     47.3555    142.9961   2.9206980413e+02   5.8517101314e+00   0.02277666  0.008850723  29.62  0.001656334    2.470    0.595
       201 -11.3245     27.1977    140.8327   2.9229191181e+02   5.9930604763e+00   0.01881293   0.01360717 -86.95  0.001711954    1.642    0.391
       202 -10.5999    164.1738    139.5572   2.9068831103e+02   5.2159815533e+00   0.01139954   0.01052139 -60.39 0.0003164327    1.076    0.071
       203  -9.5171     53.6818    140.0494   2.9197845845e+02   5.8494663139e+00   0.01101755   0.00870118  39.44 0.0004779153    1.278    0.218
       204 -11.8809     47.8128    138.4666   2.9203742791e+02   5.9017227438e+00   0.02711992    0.0113996  21.71  0.002164487    2.651    0.623
       205 -10.0747    119.9418    137.4796   2.9119092717e+02   5.4963830164e+00   0.01964289   0.01117092 -28.01  0.001671886    2.378    0.579
       206 -11.1561    112.9879    136.2916   2.9126482733e+02   5.5504331330e+00   0.02112568   0.01446504  29.92  0.001558023    1.451    0.311
       207 -11.6548     60.4596    136.0076   2.9187530181e+02   5.8573294265e+00   0.02714796   0.01618683  84.71  0.001364232    2.579    0.612
       208 -10.4194     35.1664    148.9138   2.9224722317e+02   5.8531996339e+00   0.01582929  0.008635723  38.97  0.001135835    1.830    0.454
       209 -12.2747     45.1723    131.1391   2.9202445469e+02   6.0021198656e+00   0.02533867   0.01988882  66.56  0.001965257    1.462    0.316
       210  -9.8980     87.8586    133.0723   2.9153838731e+02   5.7331786172e+00  0.009493627  0.009158154 -37.27 0.0003060949    1.028    0.027
       211 -10.5336    240.5275    131.4736   2.8975176025e+02   4.8664922035e+00   0.01051082  0.007886826 -25.69  0.000138967    1.503    0.335
       212 -13.3094     67.3522    144.0851   2.9184321422e+02   5.7236562063e+00   0.04102723   0.03031578  70.45  0.004361823    1.638    0.390
       213  -9.4599    106.7501    129.7593   2.9129841736e+02   5.6624269478e+00   0.01426711  0.006408371  46.31 0.0008667911    2.537    0.606
       214  -8.7345    141.6057    129.4863   2.9089074242e+02   5.4637798344e+00  0.006547179  0.006312086 -49.06 7.188407e-05    1.025    0.024
       215 -10.4464    236.7173    145.8972   2.8988257624e+02   4.7212337467e+00   0.01738701  0.009316975  11.26  0.001490572    2.424    0.587
       216 -11.6492     32.7205    126.9767   2.9214480198e+02   6.1222907948e+00   0.01500396   0.01172869 -78.82 0.0008423854    1.391    0.281
       217 -10.8382      9.4127    127.2229   2.9241811955e+02   6.2536792706e+00   0.01400108  0.006610686 -73.26  0.001121375    2.659    0.624
       218 -10.7515     11.4847    124.5173   2.9237780664e+02   6.2731993995e+00   0.01001372  0.006528095   9.70 -4.615513e-05    1.790    0.441
       219 -10.7522    250.3005    124.8278   2.8959830679e+02   4.8867855718e+00   0.02903573   0.01702188  72.47    0.0024557    2.708    0.631
       220 -11.9696    248.1544    100.5552   2.8947748329e+02   5.1808776979e+00   0.04437323   0.01900292 -53.81  0.003787845    2.192    0.544
       221 -10.9242    243.4268    120.1927   2.8965035583e+02   4.9805436205e+00   0.02648345    0.0146244  87.74  0.002078286    3.136    0.681
       222 -10.3031    249.6101    117.7605   2.8956389797e+02   4.9728023647e+00   0.01481408    0.0114318 -43.99 0.0006144724    1.303    0.233
       223 -11.7226    248.4335    113.0740   2.8954942906e+02   5.0340204566e+00   0.02819222   0.02218434 -37.50  0.003183421    1.317    0.241
       224 -10.3570    209.8069    125.8187   2.9007498945e+02   5.1106605938e+00   0.01158498   0.01072656 -47.27 0.0005329394    1.067    0.063
       225  -9.6369    160.3017    126.6580   2.9065609819e+02   5.3882541686e+00   0.00696292  0.005008581  65.27 0.0007038227    1.676    0.403
       226  -9.7889     86.1230    126.6822   2.9152039854e+02   5.8174660582e+00   0.01378317  0.009428651 -15.34  0.001087796    1.842    0.457
       227  -9.5892     61.0922    125.1270   2.9180290614e+02   5.9801300312e+00  0.009198796  0.007751486  61.35 0.0004229449    1.291    0.225
       228  -8.5835    114.6838    123.2595   2.9116706933e+02   5.6920309486e+00  0.006693594  0.004910647  57.10 0.0002106106    1.539    0.350
       229  -9.4898     50.4863    122.9903   2.9191380667e+02   6.0661706571e+00  0.009328316  0.005724164  81.36  0.000809136    2.438    0.590
       230  -9.5677    238.7796    122.0260   2.8971537162e+02   4.9862941189e+00   0.01162503   0.00671914 -37.84  0.001075827    1.958    0.489
       231  -8.7643     79.6991    122.3169   2.9156917171e+02   5.9053167306e+00   0.00685261  0.005006487  63.68  0.000405585    1.618    0.382
       232  -9.2811    143.1664    120.6504   2.9081963547e+02   5.5573696470e+00   0.01529847  0.008162517 -83.01  0.001234184    2.804    0.643
       233 -11.1393     20.9990    120.6250   2.9224359238e+02   6.2636514629e+00   0.01480496    0.0102811  -7.00 0.0009505354    1.792    0.442
       234 -12.4453     29.6761    115.9898   2.9211469498e+02   6.2675269804e+00   0.02939183    0.0183425  50.10 0.0008625617    1.787    0.440
       235 -10.8015    168.1956    113.4428   2.9048497500e+02   5.4959324446e+00   0.01593597   0.01210576  62.39 0.0009346648    1.511    0.338
       236 -10.2827     72.9452    115.0223   2.9160428416e+02   6.0290991578e+00  0.009614945  0.009481496 -14.89  0.001208744    1.011    0.011
       237 -11.5832     57.3870    110.9932   2.9176161667e+02   6.1657588456e+00   0.02899372    0.0142575  24.04  0.001858586    2.110    0.526
       238 -10.9463     69.0655    110.7183   2.9162377835e+02   6.1015183927e+00   0.02320181  0.007483098  42.59  0.001079638    3.368    0.703
       239  -9.7623     15.6739    116.6789   2.9228215292e+02   6.3401817534e+00  0.007086069  0.004892186 -28.00 0.0003208263    1.684    0.406
       240  -9.9849     62.5902    107.2403   2.9167849016e+02   6.1793241024e+00  0.009860528  0.005809986 -51.37 0.0009555619    1.649    0.393
       241 -10.2192    134.5447    105.2192   2.9082759828e+02   5.7865566696e+00   0.01670136  0.006014174 -59.60  0.001298264    2.602    0.616
       242  -8.7677     42.7104    103.6845   2.9188911101e+02   6.3353674510e+00   0.00689921  0.004884291 -30.24  0.000266626    1.592    0.372
       243  -8.7560     35.7601    102.6393   2.9196394824e+02   6.3875921006e+00   0.00692341  0.004698027 -36.90 0.0006922169    1.594    0.373
       244 -10.0250     62.9155     99.7425   2.9162984290e+02   6.2645551033e+00   0.01203896  0.008661497 -47.70 0.0008790232    1.378    0.274
       245 -12.1691      1.8118     89.7722   2.9228323358e+02   6.7326305826e+00   0.03874196  0.008652527 -64.24   0.00224051    4.892    0.796
       246  -8.9134    136.7118     94.2974   2.9073687603e+02   5.9008277332e+00  0.006692021  0.005011159  63.37 0.0002845607    1.553    0.356
       247  -9.4185     44.7816     90.3812   2.9178539222e+02   6.4779755261e+00  0.008951243  0.006371391  10.08 0.0002788049    1.569    0.363
       248  -9.3585    102.0196     88.0188   2.9110361298e+02   6.1746694978e+00  0.009383055  0.009237515  80.13  0.001177468    1.040    0.038
       249 -12.7092      2.1796     75.7424   2.9219510974e+02   6.8934930109e+00   0.06214041   0.00796677 -62.44  0.002965448    7.125    0.860
       250 -10.2143    107.9962    240.6397   2.9194610285e+02   4.3664916794e+00    0.0218217   0.01013794 -67.25  0.000950918    2.318    0.569
       251 -10.2685    104.6906    238.2122   2.9197008903e+02   4.4138061378e+00   0.01165389  0.009692255  10.33   0.00076915    1.267    0.210
       252  -9.3141    166.2278    241.4551   2.9127381606e+02   4.0202403057e+00    0.0132764  0.009154649 -10.17  0.001038215    1.827    0.453
