#   1 NUMBER                 Running object number                                     
#   2 MAG_AUTO               Kron-like elliptical aperture magnitude                    [mag]
#   3 X_IMAGE                Object position along x                                    [pixel]
#   4 Y_IMAGE                Object position along y                                    [pixel]
#   5 X_WORLD                Barycenter position along world x axis                     [deg]
#   6 Y_WORLD                Barycenter position along world y axis                     [deg]
#   7 A_WORLD                Profile RMS along major axis (world units)                 [deg]
#   8 B_WORLD                Profile RMS along minor axis (world units)                 [deg]
#   9 THETA_WORLD            Position angle (CCW/world-x)                               [deg]
#  10 FWHM_WORLD             FWHM assuming a gaussian core                              [deg]
#  11 ELONGATION             A_IMAGE/B_IMAGE                                           
#  12 ELLIPTICITY            1 - B_IMAGE/A_IMAGE                                       
         1 -14.7041    182.1292     81.1433   5.2031937888e+01   2.8203473703e+01     4.171707     1.100449 -40.51   0.01321569    3.525    0.716
         2 -14.5480    178.3112     68.3507   4.9457663182e+01   3.1196652597e+01     6.146888    0.8550429 -42.44  0.001950364    5.946    0.832
         3 -12.9731    185.2316     39.1869   4.1104119170e+01   3.3798624682e+01    0.6018872     0.417086 -54.59  0.001314749    1.396    0.284
         4 -16.0235    231.5282     27.7510   3.3659525616e+01   2.5105499403e+01     10.36393    0.9936327  61.72   0.03178105    6.468    0.845
         5 -14.7410    231.9247     52.7035   3.8717270717e+01   2.1753718817e+01     1.481234    0.9746345 -75.95  0.008575037    1.505    0.335
         6 -16.3603    222.5970     61.1153   4.1526447817e+01   2.2468175463e+01     11.86033     2.391181 -45.26    0.0327949    4.084    0.755
         7 -10.5107    190.7789     14.7712   3.4624090870e+01   3.5406167995e+01    0.3266622    0.1819613 -87.22   0.00156986    1.783    0.439
         8 -10.6387    141.4215     10.1369   3.9462283002e+01   4.7381294323e+01    0.2525545    0.2017107 -42.15  0.001585111    1.403    0.287
         9 -10.1845     81.7746     10.0904   5.1569896473e+01   6.0840157267e+01     0.168724    0.1563818  47.52 0.0003820272    1.164    0.141
        10 -12.9180    248.5680      2.6819   2.7699421953e+01   2.4606910269e+01    0.3611663    0.2562249 -46.61  0.002237268    1.366    0.268
        11 -11.0337    224.8156      8.4375   3.0333880381e+01   2.8702042736e+01     0.191706    0.1591525 -87.97 0.0005611255    1.164    0.141
        12  -9.7946    243.2560      7.7830   2.8949671753e+01   2.5077439029e+01    0.1364956    0.1158809  81.86  0.000741451    1.346    0.257
        13  -9.7125    138.8405      5.8524   3.8591948011e+01   4.8370858319e+01    0.1631935    0.1315073 -79.15 0.0003230718    1.263    0.208
        14 -11.0893    181.2733      2.4719   3.2683382346e+01   3.8795365933e+01    0.4870525    0.2140436  85.29  0.002285945    2.255    0.556
        15 -11.1360    208.8547    186.2673   7.0480208324e+01   3.1659656013e+00    0.3881022    0.2231363 -60.82  0.001561723    3.168    0.684
        16 -10.1633    228.6952    186.9395   6.6961602727e+01  -7.3338229609e-02    0.1809642    0.1464794 -26.34 0.0003524641    1.084    0.078
        17 -10.2647    175.4956    173.5042   7.4737522380e+01   1.1447828882e+01    0.1458494    0.1369022  -7.32 5.891234e-05    1.014    0.014
        18 -12.5595    230.3496    167.5535   6.2910572418e+01   2.9836079961e+00    0.4672898    0.2533118 -46.08  0.001806104    1.801    0.445
        19 -12.7043    248.4838    165.6471   5.9575934260e+01   4.9918922954e-01     0.481939    0.2852848 -46.04  0.002598512    1.628    0.386
        20 -10.8756    242.5959    230.7967   7.2391527931e+01  -8.7300561776e+00    0.1509622    0.1002565 -38.50 0.0005144353    1.615    0.381
        21 -10.9470     92.3994    230.2321   1.0318571928e+02   1.3652427977e+01    0.1773538     0.123785 -83.07 0.0009528149    1.673    0.402
        22 -10.8355    245.2056    220.4101   7.0170702627e+01  -7.5797332290e+00    0.1494511    0.1062688  36.36 0.0007459787    1.676    0.403
        23 -11.1263    183.5634    211.9966   8.0314290011e+01   2.6423143399e+00     0.309095    0.1610626  19.85   0.00128562    2.497    0.599
        24 -11.3712    135.0000    107.9723   6.9105301391e+01   3.3815466882e+01    0.8386528    0.2070256 -46.21  0.002259114    4.132    0.758
        25 -11.8845    246.4577    209.7365   6.8088135091e+01  -6.1742724736e+00    0.4469812    0.2484978  50.51  0.001932063    3.218    0.689
        26 -13.3915    201.2838    103.2910   5.4078119751e+01   2.0075268519e+01    0.7061354    0.5246376 -62.06  0.002362104    1.402    0.287
        27 -11.0887    172.7399    150.0466   7.0365955325e+01   1.6830731813e+01    0.2174261    0.1971576 -39.13  0.001004528    1.070    0.065
        28 -10.0711    127.4912    104.9898   7.0255010302e+01   3.6080187650e+01    0.2166106    0.1347517 -68.18 0.0007009447    2.436    0.589
        29 -10.2754    143.1267    104.1896   6.6099615715e+01   3.2803872335e+01    0.2393092    0.2085428  15.79  0.001132906    1.322    0.243
        30 -11.8123    150.7038    100.0002   6.3217071736e+01   3.1940540285e+01    0.5172682    0.3143845  37.59   0.00131056    1.872    0.466
        31 -10.7387    135.5857     96.4048   6.5856924117e+01   3.6067501390e+01    0.3353337    0.2540668  78.69  0.001132953    1.681    0.405
        32 -10.8719    133.7277    145.6637   7.8615186118e+01   2.5682368272e+01    0.8554316    0.1830866 -53.84  0.001648553    8.136    0.877
        33 -13.1472    161.8404     93.3534   5.9037452222e+01   3.0678281709e+01       1.1802     0.710416  25.54   0.00440621    2.885    0.653
        34 -13.7803    203.6441    111.5377   5.5572464091e+01   1.8083236544e+01    0.8237475    0.5749319   8.28  0.003236564    2.501    0.600
        35 -11.6848    144.0902     89.7972   6.2000920261e+01   3.5430602279e+01    0.3274818    0.3034146 -86.05 0.0007030648    1.117    0.105
        36 -13.0010    160.3263     83.6538   5.6795293086e+01   3.2806832502e+01    0.4749923    0.3847696 -58.09 0.0007762735    1.261    0.207
        37 -11.9160     66.3179    144.6533   9.7334116709e+01   3.7762857276e+01    0.5327666    0.3062802 -77.84  0.001530428    2.156    0.536
        38  -9.3739     86.3174    146.2315   9.1749277467e+01   3.4305506674e+01    0.1423348    0.1170458 -10.11 0.0002428103    1.501    0.334
        39 -11.8578     69.3245    145.6660   9.6626253548e+01   3.7076374208e+01    0.4600101    0.3344206  87.67  0.001341285    1.633    0.388
        40 -10.4576    211.4778    131.4755   5.8668283655e+01   1.2834606459e+01    0.1407759    0.1277528 -38.62 -3.51512e-05    1.012    0.012
        41 -12.0240    232.3738    208.1776   7.0239698239e+01  -4.0540098026e+00     0.306846    0.2080122 -17.62  0.001281062    1.365    0.268
        42 -12.3495    196.9841     72.3686   4.7487431039e+01   2.6290822065e+01    0.3507144    0.2359011  45.86  0.001772913    1.736    0.424
        43 -12.6564    202.7914     69.2485   4.5906281796e+01   2.5493662171e+01    0.4219885    0.3044699  40.88  0.002226271    1.772    0.436
        44  -9.8364    162.7705     66.9233   5.1833468401e+01   3.5074236823e+01    0.2517445    0.1551907 -65.38  0.001088264    2.076    0.518
        45 -10.5534    163.9272     62.4938   5.0429371018e+01   3.5500181431e+01    0.2155239    0.1841712 -47.20 0.0005249506    1.191    0.160
        46  -9.4595    196.1599     62.1471   4.5170261724e+01   2.8064615657e+01    0.1816854    0.1389703 -67.75  0.001004075    1.261    0.207
        47 -10.4058    248.9422     57.5076   3.7993616985e+01   1.7742252258e+01     0.169118    0.1125856  75.60 0.0004348923    1.584    0.369
        48 -11.9759    160.7924    128.5229   6.8077596583e+01   2.3844273167e+01    0.4108399    0.3545763 -52.42  0.001728241    1.153    0.133
        49 -11.9087    191.7249    152.9301   6.7031018497e+01   1.2520154307e+01      0.48867    0.2432174 -57.35  0.001778673    2.890    0.654
        50  -9.9323    194.8829     51.2812   4.2753592467e+01   2.9942553579e+01    0.2328692    0.1523723 -53.28 0.0007442074    1.452    0.311
        51 -11.4615    212.4171    124.0670   5.6885803592e+01   1.4018779217e+01    0.3866099    0.2058266 -57.21  0.001478111    2.332    0.571
        52 -10.8044    238.0582     40.4626   3.5632692244e+01   2.2178420725e+01    0.2138826    0.1705903 -56.19 0.0003645344    1.122    0.109
        53 -10.6498    237.8669     36.7561   3.4911714847e+01   2.2697728415e+01    0.2732713    0.2217468  41.19  0.001777991    1.848    0.459
        54 -12.6872    214.1591    118.1860   5.5301205996e+01   1.4747888142e+01     0.585811    0.3619199 -68.29   0.00206653    2.367    0.577
        55 -12.4578    160.4313    117.6224   6.5511784416e+01   2.6199825024e+01    0.5502053    0.3760686 -74.76 0.0008532834    2.131    0.531
        56 -12.3380    167.6916    114.0934   6.3058115725e+01   2.5321143466e+01    0.4982993    0.4360963   2.65  0.001310888    1.359    0.264
        57 -11.7066     10.8648    206.7124   1.1908213897e+02   2.8931110057e+01    0.2541595    0.1975748 -18.45  0.001577498    2.016    0.504
        58 -10.4258    134.9912    120.7212   7.2377747092e+01   3.1064105310e+01    0.3350869    0.1812119 -46.16  0.001146158    1.838    0.456
        59 -12.2398    240.6693    199.5234   6.7229454656e+01  -3.8428189638e+00    0.3369068    0.2566223  51.17  0.001858977    1.927    0.481
        60 -12.6187    234.6998    196.5572   6.7712280584e+01  -2.5367554194e+00    0.5284476    0.3071721  22.97  0.002792841    1.912    0.477
        61 -11.5668    192.2592    194.3095   7.5296797539e+01   4.4453268360e+00    0.8916454    0.4479886 -63.04  0.002489547    6.534    0.847
        62 -13.2782      2.4184    190.0105   1.1981260004e+02   3.3492674826e+01    0.7951757    0.2712499 -76.29  0.002994963    2.463    0.594
        63 -15.1655     31.7719    170.1192   1.1083480420e+02   3.5550529799e+01     2.096052     1.542009 -14.00   0.00153412    1.945    0.486
        64 -14.4478     43.5943    163.0612   1.0677645402e+02   3.6016033913e+01     1.133453      1.04895  -5.65  0.002521325    1.306    0.234
