#   1 NUMBER                 Running object number                                     
#   2 MAG_AUTO               Kron-like elliptical aperture magnitude                    [mag]
#   3 X_IMAGE                Object position along x                                    [pixel]
#   4 Y_IMAGE                Object position along y                                    [pixel]
#   5 X_WORLD                Barycenter position along world x axis                     [deg]
#   6 Y_WORLD                Barycenter position along world y axis                     [deg]
#   7 A_WORLD                Profile RMS along major axis (world units)                 [deg]
#   8 B_WORLD                Profile RMS along minor axis (world units)                 [deg]
#   9 THETA_WORLD            Position angle (CCW/world-x)                               [deg]
#  10 FWHM_WORLD             FWHM assuming a gaussian core                              [deg]
#  11 ELONGATION             A_IMAGE/B_IMAGE                                           
#  12 ELLIPTICITY            1 - B_IMAGE/A_IMAGE                                       
         1 -10.8912    235.8997     30.3694   2.8926005234e+02   6.0529475019e+00   0.04388738   0.03592802  73.01  0.005074437    1.368    0.269
         2 -10.6170    242.5065     13.8556   2.8908599718e+02   6.2049342428e+00   0.03339988    0.0243916 -71.48  0.003667888    1.419    0.295
         3 -10.8303    248.9923     14.1858   2.8901417439e+02   6.1634112598e+00   0.07957479   0.01854767 -51.71  0.005244758    3.760    0.734
         4  -9.6386    248.3652      4.3772   2.8896256030e+02   6.2801030523e+00   0.01988688   0.01878061  72.04  0.001867982    1.093    0.085
         5  -8.8827    233.7609     14.2175   2.8918770095e+02   6.2516070703e+00   0.01729981  0.007507151 -50.27   0.00147604    2.225    0.551
         6  -8.8207    210.4356     14.2913   2.8945373618e+02   6.3862839596e+00   0.01292879  0.005857937 -57.37   0.00097137    2.065    0.516
         7  -8.7031     94.5903     14.4262   2.9077587893e+02   7.0558159913e+00    0.0138374   0.01057794 -29.13  0.001532259    1.452    0.311
         8  -9.2502    218.5977     10.7764   2.8933973505e+02   6.3793980720e+00    0.0156059  0.009489234 -87.08  0.001429634    2.231    0.552
         9  -8.6541     94.9887      7.0426   2.9072721869e+02   7.1387156641e+00   0.02086919    0.0114293 -66.00  0.001499942    1.859    0.462
        10  -9.5411    229.1506      4.5061   2.8918202783e+02   6.3903495648e+00   0.02730367   0.01414443 -73.29  0.002397742    2.284    0.562
        11  -8.3391    102.3305      7.2588   2.9064466644e+02   7.0938002388e+00   0.01254857  0.008510588   8.83   0.00128229    1.746    0.427
        12 -10.3647    215.2049      3.1158   2.8933250471e+02   6.4874216524e+00   0.02404313   0.01990449  20.78  0.002827875    1.254    0.203
        13  -7.8367    159.7352      2.6500   2.8996195678e+02   6.8147075845e+00  0.008772782   0.00790571 -45.18 0.0004161574    1.102    0.092
        14  -7.8200    183.3585      1.7004   2.8968690545e+02   6.6886534912e+00  0.007007095  0.004836732  60.40 0.0007036099    1.711    0.415
        15  -8.8913    122.5475    109.7905   2.9102579798e+02   5.7928237756e+00   0.01536629   0.01126369 -71.56  0.001680467    1.412    0.292
        16  -8.2934    176.8137    109.8526   2.9040777863e+02   5.4782039037e+00  0.009842899  0.008820927 -31.69 0.0004640603    1.152    0.132
        17  -9.2466     23.8122    101.2949   2.9210174349e+02   6.4601887243e+00   0.01962158   0.01035051 -27.08  0.001574977    2.949    0.661
        18  -8.6706    173.7805     99.3347   2.9037957602e+02   5.6172770076e+00   0.01214971  0.009820202 -59.45  0.001403979    1.205    0.170
        19  -8.2409    140.8370    100.3966   2.9076130860e+02   5.7956585834e+00  0.009356767  0.006389687   9.51 0.0009524372    1.719    0.418
        20 -10.1271    125.0335     97.0735   2.9092166617e+02   5.9254254467e+00   0.02692762   0.02179986 -68.89  0.003128447    1.240    0.194
        21  -9.1137     67.4628     97.9610   2.9158367794e+02   6.2474524449e+00   0.01455509  0.006645786  56.72  0.001044258    3.552    0.718
        22  -9.7909     33.9623     96.6858   2.9195846652e+02   6.4551003116e+00    0.0340649   0.01074844  32.46  0.002575792    2.930    0.659
        23  -9.8040     73.7393     94.1516   2.9148937605e+02   6.2553046858e+00   0.02234313    0.0149026  69.45  0.002213943    1.939    0.484
        24  -7.8242    215.3410     95.6945   2.8988461162e+02   5.4184597322e+00  0.006952466  0.004880294  61.69 0.0007041413    1.682    0.405
        25  -8.6747     58.8369     93.1715   2.9165361786e+02   6.3525206490e+00   0.00967529  0.007662064 -30.85  0.001087506    1.367    0.268
        26  -8.1872    216.6635     91.6842   2.8984560766e+02   5.4570938371e+00  0.006995235  0.004870632 -27.78 0.0007047708    1.696    0.410
        27  -8.1575    140.0226     86.7232   2.9068904595e+02   5.9583512478e+00   0.01118724  0.009212595 -61.63 0.0004816705    1.188    0.158
        28  -7.7909    246.7151     86.1334   2.8947053227e+02   5.3467708907e+00    0.0113746  0.006328183  64.51 0.0009400191    2.727    0.633
        29  -7.5223     92.4841     86.4509   2.9122961914e+02   6.2361750457e+00  0.006461816  0.006359573 -58.30 9.938371e-05    1.004    0.004
        30  -7.6236    198.4496     81.5288   2.8999230251e+02   5.6799774332e+00  0.006491442  0.006322439  89.45 0.0001964515    1.037    0.036
        31 -10.4882    247.2793     72.1534   2.8938054350e+02   5.5048301347e+00   0.04648364   0.02980257 -73.15  0.004715911    1.694    0.410
        32  -7.3881    192.3017     79.6696   2.9005121145e+02   5.7370879854e+00  0.006848337  0.004950493  66.20 0.0002260241    1.649    0.394
        33  -7.0594    220.3067     80.6895   2.8973845714e+02   5.5628927313e+00  0.006789909  0.004940046  64.45 0.0004316597    1.616    0.381
        34  -8.4627    106.2357     72.5584   2.9098990622e+02   6.3172968613e+00     0.018721   0.01075978  65.39  0.001619947    2.556    0.609
        35  -9.3049     31.7705     66.0046   2.9180095979e+02   6.8223244653e+00    0.0144909   0.01038522 -59.60  0.001320223    1.352    0.260
        36  -7.9600     64.9851     57.4895   2.9137091185e+02   6.7294235304e+00   0.01021955  0.004565436  48.40 0.0008103959    2.689    0.628
        37  -7.4869     40.4835     53.5065   2.9162701178e+02   6.9165818506e+00  0.006522963  0.006320037 -45.56 0.0003336798    1.022    0.022
        38  -8.1304    250.1763     45.8955   2.8919053031e+02   5.7909181225e+00   0.01039508  0.009002659  69.28  0.001188743    1.246    0.197
        39  -8.9140    232.9072     44.3456   2.8937774368e+02   5.9091392859e+00   0.01162864   0.00918625 -79.34  0.001312175    1.352    0.261
        40  -8.0827     57.0104     45.5058   2.9139055444e+02   6.9138097079e+00  0.009987293  0.006461218  27.76  0.001025375    1.569    0.363
        41  -7.2504     52.3272     44.3004   2.9143686280e+02   6.9547150411e+00  0.006868278  0.004887203 -27.36 0.0004696736    1.639    0.390
        42  -8.2273     86.4561     43.7012   2.9104352955e+02   6.7648254195e+00   0.01711524  0.006517142  19.28  0.001217623    3.485    0.713
        43  -8.4937    102.8396     41.8127   2.9084522668e+02   6.6920235351e+00  0.009543431  0.007858829  68.47 0.0007269132    1.347    0.257
        44  -7.6300    156.6302    225.6921   2.9132709977e+02   4.2559165810e+00  0.007079943  0.004863785 -25.76 0.0007034825    1.761    0.432
        45  -7.7481    242.3912    221.5050   2.9032712677e+02   3.8084369732e+00  0.006505104  0.006200153 -57.05 -0.0002051289    1.027    0.026
        46  -7.9612    243.1585    207.1984   2.9023323435e+02   3.9692703722e+00   0.01360772  0.007968236  -4.85  0.001159505    2.671    0.626
        47  -7.7363    220.3969    178.7835   2.9032271525e+02   4.4293574502e+00  0.009944115  0.005672024 -52.04 0.0009593767    1.687    0.407
        48  -8.3793     43.3323     31.3462   2.9146240020e+02   7.1561243115e+00  0.007146923  0.004791786 -29.76 0.0007049651    1.763    0.433
        49  -8.9174    142.9533     27.7152   2.9030327934e+02   6.6227596798e+00   0.01150702  0.009288364 -60.25 0.0001774979    1.208    0.172
        50  -7.8479      9.3220     25.3075   2.9181512567e+02   7.4214903643e+00  0.006887783  0.004868674 -28.27 0.0003646342    1.643    0.391
        51  -8.1027     14.3461     22.6804   2.9174203671e+02   7.4229488712e+00   0.01118268  0.005909718 -78.17 0.0009429217    2.475    0.596
        52  -7.6877     14.3490     19.3052   2.9172188989e+02   7.4618994919e+00   0.01361432  0.005903077 -34.71 0.0009497338    3.659    0.727
        53  -7.9831    202.0952     19.2402   2.8957836489e+02   6.3776448219e+00   0.01435193  0.008203713  20.46  0.001308558    1.925    0.480
        54  -7.7407    193.0511    172.9992   2.9059931015e+02   4.6545012699e+00   0.01035484  0.007590926 -26.08  0.001101867    1.580    0.367
        55  -7.7650     97.2174    165.5695   2.9164643512e+02   5.2941336690e+00  0.008851817  0.006428846   7.49  0.000935175    1.590    0.371
        56  -8.9671     24.4550    158.2682   2.9243264773e+02   5.7975697744e+00   0.01440068  0.007044288  41.18  0.001290214    2.087    0.521
        57  -7.7860    183.1824    155.4031   2.9060681004e+02   4.9149780971e+00  0.009463633  0.005786756  39.93 0.0005855971    1.653    0.395
        58  -7.4346    143.6895     11.3700   2.9019715955e+02   6.8070932730e+00  0.007050837  0.004911786  67.21 0.0005086114    1.769    0.435
        59  -8.7398    157.1248    148.0862   2.9085991168e+02   5.1502943694e+00    0.0107055   0.00876889 -31.83  0.000730715    1.299    0.230
        60  -7.8753    113.6744    138.6550   2.9129882219e+02   5.5103984275e+00  0.007119678  0.004804066 -30.11 0.0007050466    1.742    0.426
        61  -9.0670    238.7519    124.8800   2.8979253244e+02   4.9456557704e+00   0.01237444   0.01139137  45.36 0.0003608634    1.109    0.098
        62  -7.4935    194.7205    122.3875   2.9027865290e+02   5.2296769178e+00  0.006946525  0.004938985  70.84 0.0007002121    1.733    0.423
        63  -8.9723    230.1718    118.0385   2.8984927876e+02   5.0744249310e+00   0.01810047  0.006613401 -55.60  0.001447305    2.486    0.598
