#   1 NUMBER                 Running object number                                     
#   2 MAG_AUTO               Kron-like elliptical aperture magnitude                    [mag]
#   3 X_IMAGE                Object position along x                                    [pixel]
#   4 Y_IMAGE                Object position along y                                    [pixel]
#   5 X_WORLD                Barycenter position along world x axis                     [deg]
#   6 Y_WORLD                Barycenter position along world y axis                     [deg]
#   7 A_WORLD                Profile RMS along major axis (world units)                 [deg]
#   8 B_WORLD                Profile RMS along minor axis (world units)                 [deg]
#   9 THETA_WORLD            Position angle (CCW/world-x)                               [deg]
#  10 FWHM_WORLD             FWHM assuming a gaussian core                              [deg]
#  11 ELONGATION             A_IMAGE/B_IMAGE                                           
#  12 ELLIPTICITY            1 - B_IMAGE/A_IMAGE                                       
         1 -14.4774    157.2311    106.6420   3.9520200154e+01   2.9278475262e+01     6.415407     3.687336 -26.70  0.004082222    2.105    0.525
         2 -15.7216    246.1818     62.9313   1.3737484171e+01   1.6963630163e+01     4.185245     2.196831 -51.12   0.01689272    1.876    0.467
         3 -14.6510    192.6942    159.0876   4.4321961809e+01   1.2289202505e+01     7.855868     4.245457  45.94    0.0361681    1.985    0.496
         4 -15.5642    191.9651     68.5137   2.2141399517e+01   2.7952339148e+01     8.916647     5.773598  -1.53   0.03741865    2.365    0.577
         5 -16.2967    208.2330    107.0744   2.9573503714e+01   1.8105902060e+01     5.784614     4.439551 -45.58   0.03083978    1.308    0.236
         6 -11.8896    240.1188      4.7503   7.2188682311e-01   2.5018490957e+01    0.8118992    0.2255504  56.77  0.002923671    4.435    0.775
         7 -11.3931    232.4373      3.5975   9.0008848818e-01   2.6758931708e+01    0.8175246     0.249714  54.83  0.003105273    4.212    0.763
         8  -9.6724    220.7866     14.4468   4.3065098582e+00   2.8220583917e+01    0.3197154    0.2081702  56.45   0.00142223    1.747    0.427
         9 -10.5189    218.5271     12.2011   3.9144340884e+00   2.8964998616e+01    0.5662373    0.2786753  56.29  0.002740509    2.273    0.560
        10 -10.1343    120.2482      9.2854   1.4670951526e+01   5.3958522424e+01    0.3404173    0.3089953 -21.22 0.0009311432    1.181    0.153
        11 -10.1142    209.7343      8.1164   3.5341809760e+00   3.1399557360e+01    0.2155267    0.1959078 -57.47 0.0003623306    1.088    0.081
        12  -8.1201    123.5112      1.5162   1.0942380020e+01   5.3795417016e+01    0.1388334    0.1241835  57.23 0.0001846336    1.033    0.032
        13  -8.5967     98.2119      1.3688   1.5698675086e+01   6.0202852220e+01    0.1780567    0.1237427  75.23 0.0002199829    1.512    0.339
        14  -8.2426    206.5505    215.4693   5.2035589772e+01   1.5340496559e+00    0.1198621   0.09630542  11.77 0.0003821656    1.059    0.055
        15 -11.9877    230.8278    239.5779   5.1574335746e+01  -4.5227764213e+00    0.8647442     0.303645  42.94   0.00374613    4.201    0.762
        16 -10.5914    247.8830    245.5972   4.9712331645e+01  -7.1252952409e+00    0.4299074    0.1940722 -12.73  0.002422105    2.494    0.599
        17  -9.5464    192.3924    213.0399   5.4263743568e+01   3.9019986701e+00     0.207168    0.1794259  29.65 0.0004755434    1.283    0.220
        18  -9.2688    247.5758    211.6440   4.4400919477e+01  -3.4619223988e+00    0.1975372   0.09189125 -25.46 0.0009405415    1.968    0.492
        19 -10.0219    207.8144    206.6641   5.0352748130e+01   2.5367100997e+00    0.4464827    0.2938148  59.88   0.00210921    3.490    0.713
        20  -8.9109    240.3754    206.7417   4.4734447099e+01  -1.9656895336e+00     0.193669    0.1312498  21.55 0.0004828052    1.286    0.222
        21  -8.7797    227.0223    206.1061   4.6863104897e+01  -1.0022198382e-01     0.174931    0.1354533   7.49 0.0003480513    1.036    0.035
        22  -9.3218    250.0849    203.3359   4.2585195630e+01  -2.8108710519e+00    0.2040383    0.1408646 -22.18 0.0007698541    1.320    0.242
        23 -10.4841    200.4107    199.2129   5.0448016699e+01   4.6828050334e+00     0.292189    0.2799739 -35.36  0.001454998    1.465    0.317
        24 -11.3713    193.8155    194.7447   5.0920652059e+01   6.3604687415e+00     1.005433    0.7602271  71.33  0.005167688    2.714    0.632
        25  -9.5640    243.8068    199.8386   4.2980186574e+01  -1.5780569509e+00    0.3494098    0.2529982  52.58  0.002091867    2.524    0.604
        26  -8.7636    232.6443    201.0335   4.5031358665e+01  -2.2617687044e-01    0.1610754    0.1234703 -10.03 0.0004751045    1.123    0.110
        27  -9.3373    117.1094    198.9243   6.7791641314e+01   1.7878723231e+01    0.1868299    0.1692788  39.34 0.0003347472    1.036    0.035
        28 -10.2543    238.0064    249.1226   5.1803187765e+01  -6.3604098357e+00    0.2127985    0.1268169  28.74  0.001499172    1.451    0.311
        29  -9.5088    213.1667    160.9005   4.0839850335e+01   8.4225873223e+00    0.2885877    0.2564732 -80.60  0.001297558    1.791    0.442
        30  -9.8026    133.5756    247.3678   7.0302614975e+01   7.3427142773e+00    0.3090235    0.1994509  66.66  0.001521977    2.422    0.587
        31  -9.1059    172.6491    178.1708   5.2167810008e+01   1.2533632370e+01    0.3088752    0.2344513  55.29  0.001661209    1.652    0.394
        32  -9.7310     96.9044    150.6086   6.5250254874e+01   3.1440770084e+01    0.2622086    0.2304218 -63.74 0.0003610351    1.155    0.134
        33  -8.0028    102.2882    150.6357   6.3799768386e+01   3.0541741146e+01    0.1512006    0.1106151  76.13 0.0002733865    1.697    0.411
        34 -11.8032     67.8525    143.0182   7.2153741932e+01   3.7651758201e+01     1.388114    0.7437658 -87.31  0.005506166    2.602    0.616
        35 -12.3981     68.3609    118.9903   6.7779692529e+01   4.3579892393e+01     1.671567     1.396983 -71.83  0.009042025    1.148    0.129
        36 -12.2748     39.5814    120.7922   7.7466409806e+01   4.6654576798e+01     0.660987    0.4601612  23.50 0.0009243973    1.641    0.391
        37 -11.7265     56.3216    121.5218   7.2142734659e+01   4.4554942253e+01    0.6134853    0.4157645 -61.92  0.001337308    1.361    0.265
        38 -13.5620     48.7103    119.7224   7.4316008044e+01   4.5930727926e+01     1.256506     1.113575  41.86  0.005233084    1.204    0.169
        39  -8.9978     18.3590    137.8710   8.5998175825e+01   4.4284933451e+01    0.2017171    0.1556672  54.94 0.0004170737    1.259    0.206
        40  -8.4740     81.1249    140.6708   6.7916240286e+01   3.6310262356e+01    0.2495224     0.185464 -79.17 0.0006637055    1.428    0.300
        41  -8.9656    101.0233    176.0024   6.8309619885e+01   2.5056923956e+01    0.1890302    0.1735137  50.70  0.001129861    1.008    0.008
        42 -13.1733      9.1008    123.6591   8.7504236467e+01   4.8475769021e+01    0.9636726    0.7610842 -85.85  0.003636677    1.049    0.047
        43 -10.8259     40.9198    125.0903   7.7657165550e+01   4.5422085551e+01    0.3066557    0.2558277 -42.69 0.0004057526    1.327    0.246
        44  -8.5061    101.9355    249.2775   7.6609512321e+01   1.1268945149e+01    0.1525907    0.1142321  38.38 0.0002181231    1.059    0.055
        45 -11.2860    125.1398    105.7136   4.7329633149e+01   3.6514487775e+01    0.7371576    0.5306946  84.28  0.003052013    2.141    0.533
        46  -8.8823    107.8994    107.3399   5.2686789175e+01   3.9677125275e+01    0.3376887    0.2419055   9.83  0.001436487    1.975    0.494
        47  -9.9330    141.3581    102.6083   4.2225902133e+01   3.3643585491e+01    0.3634277    0.3084658  84.83 0.0007536292    1.435    0.303
        48 -12.5379    171.6852     99.5112   3.4446786870e+01   2.7385877457e+01    0.9351605    0.6276121 -37.16 0.0008553641    1.432    0.302
        49  -8.7979    114.7787     94.2066   4.7035224797e+01   4.1247229021e+01    0.2176484     0.185124  -3.66 0.0004968782    1.366    0.268
        50 -15.4099    240.5845    116.9733   2.6868039534e+01   1.0354790977e+01     2.986353    0.8543925 -41.18  0.001638085    3.306    0.697
        51  -9.7166    120.3530     92.6384   4.4975502228e+01   4.0393719396e+01     0.350062    0.2920561  66.62 0.0005734155    1.360    0.265
        52 -10.1796    216.1387    248.3429   5.5314992005e+01  -3.6866171461e+00    0.2300234    0.0768263  28.42  0.001101309    2.629    0.620
        53 -15.3186    243.7781    107.9813   2.4403980092e+01   1.1101214397e+01     2.073487    0.8108464  42.45  0.008665783    3.106    0.678
        54  -8.3283    140.8331    163.1230   5.6404069005e+01   2.1019821601e+01    0.1897954    0.1636017 -11.49   0.00077588    1.262    0.208
        55  -8.6827    135.9448     81.0378   3.7270341292e+01   3.9246937712e+01    0.2407485    0.1904747   6.46 0.0004529368    1.582    0.368
        56  -9.1842    139.8161     78.6477   3.5562085347e+01   3.8792983324e+01    0.2915078    0.2096891 -10.01 0.0009892136    1.834    0.455
        57  -8.1785     86.9641     79.0853   5.1314954152e+01   5.0205557258e+01    0.1763972    0.1620018 -42.76  0.000325842    1.049    0.047
        58  -7.6746     51.2935     75.3086   6.3771945623e+01   5.6772581853e+01    0.1463446    0.1010051 -30.17 0.0003360046    1.586    0.369
        59  -8.8962    160.8789     70.0691   2.8186817055e+01   3.5226413584e+01    0.2225976    0.2101157 -35.52 0.0003583729    1.040    0.038
        60  -9.6702     88.9931     69.9186   4.7602437163e+01   5.1826718998e+01    0.2420831    0.2080796 -39.67 0.0003814021    1.124    0.110
        61 -13.9486    192.8327    105.1916   3.1811216515e+01   2.1673989734e+01     2.113587     1.664945   6.80   0.01071171    1.485    0.326
        62  -9.3722    134.0686     64.3304   3.2333101448e+01   4.2824187905e+01    0.2578966    0.2137888 -19.78 0.0004738152    1.287    0.223
        63  -9.4468    136.4487     60.5676   3.0486479628e+01   4.2898349063e+01    0.3670495    0.2534182  55.49  0.001074732    1.455    0.313
        64 -10.7258    153.1534     59.8175   2.6542263368e+01   3.8857474494e+01    0.4906588    0.2626249 -34.76 0.0008960399    1.832    0.454
        65 -10.5298    154.2787     52.9275   2.4075220660e+01   3.9666163138e+01     0.464418    0.2205752 -21.34  0.001635366    2.753    0.637
        66  -9.5328    144.4354     59.5944   2.8328868010e+01   4.1078123787e+01    0.2785456    0.2597825  -3.15 0.0005650132    1.132    0.116
        67 -11.5446    163.6955     50.4781   2.1526349919e+01   3.7645711809e+01    0.8030751     0.276883  61.66  0.002687964    2.947    0.661
        68 -10.7982    138.6787     46.4477   2.5088077649e+01   4.4622660746e+01     0.649738    0.3039394 -16.03  0.002066522    3.572    0.720
        69  -9.6709    163.0320     44.0130   1.9576051280e+01   3.8745825859e+01    0.2134334    0.2106382 -47.90 0.0003232402    1.045    0.043
        70  -9.5448    175.4028     42.2815   1.7046944365e+01   3.5840036268e+01    0.2384857    0.2188491  25.68 0.0006135183    1.224    0.183
        71  -9.6689    237.6771    181.6262   4.0678544503e+01   1.5950731414e+00    0.3819511    0.2233091  17.48  0.001759886    1.765    0.433
        72  -8.4199     26.8372    243.1957   9.0519959258e+01   2.1045310413e+01     0.125127    0.1094818  46.55  0.001018282    1.316    0.240
        73 -10.5190    167.4947     34.4970   1.5811694620e+01   3.8875292075e+01    0.3703938    0.2568127  -4.74  0.001305107    1.848    0.459
        74 -10.6415    170.2543     30.6107   1.4176839941e+01   3.8653098271e+01     0.357253    0.2967925  45.98 0.0009842288    1.290    0.225
        75  -9.7317    148.8042     33.0758   1.8404590943e+01   4.3887144875e+01    0.2720295    0.2046385  65.21   0.00125806    1.291    0.226
        76  -8.5067     60.8342    182.9145   7.9115187221e+01   2.9191030498e+01    0.1691874     0.160722  78.20 0.0002424984    1.150    0.130
        77  -9.2709    148.0195     25.4997   1.5898519058e+01   4.5024475127e+01    0.2720826    0.2007941   1.57 0.0007106492    1.666    0.400
        78 -10.0221    179.1119     23.9212   1.0945443534e+01   3.7187106167e+01    0.5061483     0.365331  73.31  0.002547483    1.352    0.260
        79  -9.2984    225.4758     19.3753   5.1676684386e+00   2.6645777271e+01    0.3073772     0.220383   7.19  0.001674386    2.034    0.508
        80  -7.9344    148.2178     17.9352   1.3212549414e+01   4.5820504648e+01    0.1753788    0.1148333 -27.41 0.0003908125    1.586    0.369
        81 -10.7941    246.0257    233.6122   4.8193655086e+01  -5.6926300695e+00    0.3593621    0.1866032  39.33  0.002180341    2.268    0.559
        82 -11.2849    242.9000    246.1339   5.0582040095e+01  -6.6179040537e+00    0.4800738    0.2893581 -44.03  0.002929287    3.169    0.684
        83  -9.2256    227.0417    219.9553   4.9162043541e+01  -1.8130401251e+00    0.3531129    0.1957808  51.31  0.001630031    3.978    0.749
        84  -9.5684    245.0110    220.0177   4.6197756690e+01  -4.0954465838e+00    0.1412795    0.1017329   7.37   0.00101023    1.047    0.045
        85  -8.3478     94.9673     12.9877   2.1999312018e+01   5.9887358578e+01    0.1660634    0.1518156  32.16 0.0009725926    1.010    0.010
        86 -10.7560     34.1186    217.0884   8.7806518193e+01   2.5106276685e+01    0.5526033    0.3417169  -9.80  0.002603156    4.108    0.757
        87  -9.3857    236.5349    217.0158   4.7089824674e+01  -2.6909301932e+00    0.2081252    0.1500902  15.55 0.0009346902    1.137    0.120
        88 -15.0463    248.3007     89.2854   1.9580553628e+01   1.2952055306e+01     1.686609     1.270402 -16.72  0.003276738    1.314    0.239
        89 -10.4477    236.3732    211.0881   4.6131327489e+01  -1.9666680496e+00    0.2450679    0.1970505  36.14 0.0004438368    1.643    0.391
