#   1 NUMBER                 Running object number                                     
#   2 MAG_AUTO               Kron-like elliptical aperture magnitude                    [mag]
#   3 X_IMAGE                Object position along x                                    [pixel]
#   4 Y_IMAGE                Object position along y                                    [pixel]
#   5 X_WORLD                Barycenter position along world x axis                     [deg]
#   6 Y_WORLD                Barycenter position along world y axis                     [deg]
#   7 A_WORLD                Profile RMS along major axis (world units)                 [deg]
#   8 B_WORLD                Profile RMS along minor axis (world units)                 [deg]
#   9 THETA_WORLD            Position angle (CCW/world-x)                               [deg]
#  10 FWHM_WORLD             FWHM assuming a gaussian core                              [deg]
#  11 ELONGATION             A_IMAGE/B_IMAGE                                           
#  12 ELLIPTICITY            1 - B_IMAGE/A_IMAGE                                       
         1 -13.5869    244.0340    109.0464   2.8973370642e+02   5.0103951637e+00    0.2968265   0.04673925 -54.21   0.01726092    4.777    0.791
         2 -13.3953    235.3433     35.3901   2.8937090728e+02   5.9003498208e+00    0.1177837   0.05528328  28.11   0.01028841    2.092    0.522
         3 -13.3615    205.0093     59.7691   2.8987916032e+02   5.8134464033e+00    0.1882993    0.1038704  78.72   0.01357525    3.860    0.741
         4 -13.4944    220.0721     37.3567   2.8956176401e+02   5.9735575257e+00    0.1017781   0.06077479  71.82   0.00526576    2.720    0.632
         5 -12.9602    220.0758     26.2850   2.8949186622e+02   6.0990810156e+00   0.07510114   0.04594621 -41.12  0.007348608    1.760    0.432
         6 -14.1676    222.9900      2.5010   2.8930766980e+02   6.3504419178e+00    0.2660198   0.07337435  21.57   0.01355619    6.463    0.845
         7 -14.1763    242.5234     15.7879   2.8916330702e+02   6.0776213118e+00   0.06935541   0.05687342  53.09  0.005168268    1.294    0.227
         8 -13.1177    248.5201      4.4511   2.8902167464e+02   6.1685323582e+00   0.05158227   0.03407609 -67.05   0.00482387    1.628    0.386
         9 -13.5841    239.6974     79.9800   2.8960123120e+02   5.3673550395e+00    0.1945182    0.1241927 -84.41   0.01835657    2.123    0.529
        10 -11.7268    119.8574     10.2925   2.9056400156e+02   6.9059986297e+00   0.03899173   0.02944785  38.10  0.003224741    1.303    0.233
        11 -12.8799    127.4724     22.9889   2.9055479554e+02   6.7145249140e+00    0.1348147   0.06790314  19.38   0.01162095    2.266    0.559
        12 -12.5722    208.3264     47.6472   2.8976396324e+02   5.9302541877e+00   0.05390131   0.04487956  44.32  0.006186188    1.215    0.177
        13 -11.7729    144.5568     19.6444   2.9033359439e+02   6.6459948558e+00   0.06225933   0.03457458 -66.69  0.001057935    1.980    0.495
        14 -14.0811    141.7239     42.4796   2.9051067790e+02   6.4045416742e+00    0.2554204   0.03355608  37.55   0.01367735    5.517    0.819
        15  -9.8838    104.9176      3.4286   2.9069584920e+02   7.0768717320e+00   0.02044924   0.01162689 -61.85  0.001952192    1.810    0.447
        16  -8.7728    172.1170      3.1318   2.8990674508e+02   6.6612958416e+00   0.01662669   0.01026582  89.37   0.00132553    2.460    0.593
        17  -8.4254     49.8141    222.1400   2.9271348765e+02   4.9334643610e+00  0.009558293  0.008806798  58.88 0.0002829533    1.137    0.121
        18 -13.4129     13.2735    207.4145   2.9304897002e+02   5.3271151404e+00    0.1188527   0.07604717 -15.21  0.008108867    2.155    0.536
        19 -12.6033    193.5199     60.7686   2.9001979725e+02   5.8738567975e+00   0.05564662   0.04063499   8.12  0.005762654    1.535    0.349
        20 -12.9263     54.4345    173.8898   2.9235786286e+02   5.4536784273e+00    0.0688599   0.05162748   1.93  0.002479172    1.525    0.344
        21  -9.4478    192.7813    194.7803   2.9087117712e+02   4.3563833325e+00   0.02506828   0.01330104  86.86  0.001691149    4.338    0.769
        22  -9.9582    191.4170    188.1433   2.9084545920e+02   4.4402983846e+00   0.01464498   0.01234892 -34.45 0.0004455782    1.232    0.188
        23  -9.7947    221.6534    191.2933   2.9051219009e+02   4.2160980802e+00   0.01675356   0.01196372  53.61   0.00107389    1.555    0.357
        24 -11.3868    216.9924    189.4699   2.9055514842e+02   4.2658647135e+00   0.05695575   0.01619838  44.65  0.001812216    4.418    0.774
        25  -8.6142    134.0015    148.1602   2.9126560654e+02   5.2521569971e+00   0.01660684  0.008667546 -74.04  0.001392942    2.521    0.603
        26  -9.9611     69.7924    145.5866   2.9200087260e+02   5.6803304402e+00   0.01727496    0.0146992  68.05  0.001219665    1.311    0.237
        27 -10.4504     66.4010    144.2115   2.9203196109e+02   5.7170045488e+00   0.02525938   0.01746641 -65.26  0.001521914    1.518    0.341
        28  -8.0460    191.9993    144.0174   2.9056150749e+02   4.9380286699e+00  0.007857315  0.007759352  -8.75 0.0003405703    1.015    0.014
        29  -7.4089    124.6834    140.7176   2.9132789920e+02   5.3947151994e+00  0.006820334   0.00504868 -21.17 0.0002692034    1.580    0.367
        30  -8.9171    188.5251    136.9947   2.9055796324e+02   5.0394686360e+00   0.01040992   0.00655783 -59.61  0.001035977    1.605    0.377
        31  -9.4625    136.0097    135.4330   2.9116221215e+02   5.3843183861e+00   0.01166706  0.009847681 -61.84 0.0003404451    1.214    0.176
        32  -9.1742     59.5725    131.8139   2.9203422781e+02   5.9003228831e+00   0.01303726  0.008730478 -84.45 0.0009786005    1.932    0.482
        33 -10.1651    160.5219    128.1011   2.9082944227e+02   5.3150237942e+00    0.0165466   0.01501292 -79.63  0.001854975    1.176    0.150
        34  -9.3082    136.0271    127.7178   2.9111355459e+02   5.4718922884e+00     0.017926  0.008119354 -65.51    0.0014787    2.457    0.593
        35 -10.4217    183.6027    123.7844   2.9053244039e+02   5.2202245165e+00   0.01591987   0.01152421 -67.46  0.001702204    1.471    0.320
        36 -10.3492    186.0013    120.8105   2.9048569921e+02   5.2390490173e+00   0.01460637   0.01183367 -70.38  0.001655107    1.315    0.240
        37  -8.6865    200.1145    123.8699   2.9033999356e+02   5.1162790332e+00  0.009658862  0.008773122  59.34 0.0002629025    1.162    0.139
        38  -9.6013    141.0704    102.9119   2.9089865588e+02   5.7223598435e+00   0.01768655   0.01018821 -20.02  0.001465615    2.705    0.630
        39 -10.0750    133.9102    119.5592   2.9108707088e+02   5.5777815810e+00   0.02579532   0.01513628 -48.00  0.002034487    1.721    0.419
        40 -10.8607    134.7694    108.8037   2.9100942962e+02   5.6946494957e+00   0.04010517   0.01379997 -51.98  0.003067724    2.759    0.638
        41 -13.3886     45.0024    182.1679   2.9252002375e+02   5.4179592973e+00   0.07299501   0.05657291 -15.05  0.001500298    1.482    0.325
        42  -8.9947    217.3110    117.0704   2.9009629486e+02   5.0861866756e+00   0.01563198  0.008915921  38.88 0.0009254483    1.716    0.417
        43  -8.8957    212.3163    117.0415   2.9015446267e+02   5.1176906102e+00    0.0139769   0.01235036 -58.36  0.001662834    1.151    0.131
        44 -10.3664    167.5838    113.5994   2.9065568964e+02   5.4357773494e+00   0.01811086   0.01734624 -78.58 0.0009836326    1.091    0.083
        45  -8.1742    189.3625    180.6906   2.9082267613e+02   4.5377830870e+00   0.01026801  0.007354612  61.74 0.0006775362    1.671    0.402
        46  -9.9335    222.2810    177.6120   2.9041893403e+02   4.3675942559e+00   0.02386896   0.01054563  56.37  0.001577456    4.144    0.759
        47 -10.4566    147.3237     97.1006   2.9078893884e+02   5.7494328428e+00   0.01796095   0.01328678 -33.20  0.001030685    1.477    0.323
        48  -9.7423    134.2144     95.0871   2.9092969592e+02   5.8539428568e+00   0.01717285   0.01325611 -69.77  0.001796128    1.388    0.279
        49  -8.6273    226.9198     96.1343   2.8985224168e+02   5.2638690032e+00   0.01688471  0.007238724 -48.47  0.001182568    2.351    0.575
        50  -8.3484    195.5182     96.5270   2.9022165402e+02   5.4554650514e+00  0.006614702  0.006458057   6.34 5.696533e-05    1.007    0.007
        51 -11.2395    157.4751     89.0879   2.9061975113e+02   5.7771951115e+00   0.02730722   0.01941228 -21.90  0.002814249    1.691    0.409
        52 -10.1611    213.8404     88.0968   2.8995442780e+02   5.4367920623e+00   0.01891185   0.01287155  52.25   0.00149627    1.634    0.388
        53  -7.9645    198.5434     87.4306   2.9012901806e+02   5.5398612113e+00  0.006604011  0.006394386   1.60 0.0001042468    1.023    0.022
        54 -11.4895    161.3172     81.4041   2.9052644259e+02   5.8405082322e+00   0.03861612   0.02291321  68.05   0.00302522    2.626    0.619
        55 -11.4429    155.2392     78.1658   2.9057717980e+02   5.9151664967e+00   0.01879084   0.01346082 -56.75 0.0006685905    1.402    0.287
        56  -9.5248    205.4936    110.0010   2.9018987363e+02   5.2402169868e+00   0.01969099    0.0121531  14.11  0.001883614    1.863    0.463
        57  -8.9577    131.8301     65.1808   2.9076947286e+02   6.2084609384e+00  0.009568305  0.007863172 -20.07  0.000761256    1.332    0.249
        58 -12.5299    185.4974     85.3111   2.9026820224e+02   5.6453396218e+00    0.1469266   0.03727966 -65.87  0.007752788    6.155    0.838
        59 -10.0167    141.1455     86.3227   2.9079344874e+02   5.9103395468e+00   0.01524521   0.01336952 -83.92 0.0007477968    1.247    0.198
        60  -9.9476    220.0634    169.9518   2.9039669509e+02   4.4684353919e+00   0.01779965  0.008061416  38.88  0.001523594    2.142    0.533
        61  -8.8549    220.3721     54.0909   2.8966379594e+02   5.7818755971e+00   0.01176153  0.008975037  10.66 0.0006021535    1.413    0.292
        62 -10.4500    181.1337     52.3103   2.9011136377e+02   6.0471690389e+00   0.02273738   0.01452016  22.60  0.001895314    1.602    0.376
        63 -12.6994    175.3381     76.4378   2.9033114954e+02   5.8094650131e+00    0.0793489   0.02724817  32.88  0.005130798    2.663    0.625
        64  -9.0526    239.7043     45.0131   2.8938067544e+02   5.7639532669e+00    0.0223666   0.01659678 -60.90  0.002447871    1.376    0.273
        65 -11.4630    179.3114     70.9359   2.9025002489e+02   5.8471380411e+00   0.02463106   0.02340787  18.09 0.0005109771    1.034    0.032
        66 -12.8365    171.1357     60.3343   2.9027889039e+02   6.0184892516e+00    0.0399875   0.03858535 -53.46  0.002938672    1.055    0.052
        67  -9.2387     59.6051     40.3756   2.9145978143e+02   6.9391648246e+00    0.0117892   0.01022585  35.81 0.0005218305    1.136    0.119
        68  -7.6510     61.7192    109.7274   2.9187059162e+02   6.1381065034e+00  0.006596684  0.005015393 -23.17 0.0002181371    1.497    0.332
        69  -7.6054    171.3263     35.2946   2.9011886248e+02   6.3014563793e+00  0.006927058   0.00504273 -21.67 0.0006981657    1.625    0.384
        70  -9.5591     68.8719     30.4304   2.9128855014e+02   6.9945517956e+00   0.01299305  0.009483658 -87.00  0.001348819    1.693    0.409
        71  99.0000    178.4534     25.0161   2.8997064711e+02   6.3735647606e+00   0.01665053   0.01008861 -22.93  0.001484132    2.302    0.566
        72  -8.3488    181.6755     24.3027   2.8992844578e+02   6.3615360409e+00  0.009626728  0.007846478 -12.70 0.0007868896    1.364    0.267
        73  -8.2363    203.5779    160.7862   2.9053161773e+02   4.6753431429e+00  0.009107411  0.006539804 -80.55 0.0006755851    1.660    0.398
        74  -9.5838    246.4116    201.7723   2.9028910256e+02   3.9427258851e+00  0.009926418  0.005907246 -48.95 0.0009576574    1.687    0.407
        75  -7.8747    214.2090     18.6223   2.8951209266e+02   6.2226444253e+00  0.008517537  0.008040531 -82.09 0.0002102222    1.117    0.105
        76  -8.9612    179.9007    106.0818   2.9046437336e+02   5.4443828880e+00   0.01070077  0.008911924  60.20  0.001043453    1.316    0.240
        77  -9.0905    171.4928     97.9878   2.9051177108e+02   5.5887363043e+00   0.01335491  0.008759324  44.20  0.001140604    1.563    0.360
        78  -9.1660    120.4608    103.4770   2.9114342843e+02   5.8442163967e+00  0.006594669  0.006463817   9.77 2.277184e-05    1.002    0.002
        79  -9.3131     72.0115    242.9147   2.9258369028e+02   4.5596230844e+00   0.01039752  0.009451818 -55.78            0    1.115    0.103
