#   1 NUMBER                 Running object number                                     
#   2 MAG_AUTO               Kron-like elliptical aperture magnitude                    [mag]
#   3 X_IMAGE                Object position along x                                    [pixel]
#   4 Y_IMAGE                Object position along y                                    [pixel]
#   5 X_WORLD                Barycenter position along world x axis                     [deg]
#   6 Y_WORLD                Barycenter position along world y axis                     [deg]
#   7 A_WORLD                Profile RMS along major axis (world units)                 [deg]
#   8 B_WORLD                Profile RMS along minor axis (world units)                 [deg]
#   9 THETA_WORLD            Position angle (CCW/world-x)                               [deg]
#  10 FWHM_WORLD             FWHM assuming a gaussian core                              [deg]
#  11 ELONGATION             A_IMAGE/B_IMAGE                                           
#  12 ELLIPTICITY            1 - B_IMAGE/A_IMAGE                                       
         1 -13.6983    193.0860     82.7553   2.3503683762e+01   2.5570113036e+01     2.351809     1.264412 -55.82  0.009946972    2.013    0.503
         2 -11.4862    202.7979     18.4128   6.8708971399e+00   3.2605318735e+01    0.8788376    0.5402838  71.23  0.003419823    1.452    0.311
         3 -13.9263    195.0982     37.5894   1.2206688046e+01   3.2030338149e+01     1.601082      1.50315  56.25   0.01028143    1.306    0.234
         4 -11.8406    179.5288     34.8780   1.3586434386e+01   3.6092191981e+01      1.23149    0.8185368   1.13  0.005141563    2.852    0.649
         5 -14.1486    219.3719     56.7665   1.3645821859e+01   2.3775917959e+01     2.397666     1.359434 -62.62  0.002962759    1.788    0.441
         6 -13.4483    234.8202     47.6001   9.9603659544e+00   2.1767391752e+01     1.544923    0.7887614 -47.17  0.004893659    1.686    0.407
         7 -12.8106    220.7012     38.4553   9.4744731861e+00   2.6068895611e+01    0.9170716    0.4440177 -63.80  0.001635669    2.204    0.546
         8  99.0000     30.8886     21.4416   4.9452787054e+01   6.8611763202e+01    0.9535808     0.886294  10.65  0.004734743    1.395    0.283
         9 -12.2482     11.0930     24.9712   6.0997583440e+01   7.0093435822e+01    0.6079294      0.33782   9.38  0.001139925    1.799    0.444
        10 -13.6442     57.9790     66.5497   5.4521507251e+01   5.7446791725e+01     1.814167    0.8505103 -35.81   0.00779885    2.278    0.561
        11 -14.2545     10.1683     68.4518   7.4568544782e+01   6.1988994590e+01     1.897001    0.9230778 -56.23    0.0101788    1.657    0.396
        12 -14.7555     37.7975     57.3507   5.9739111753e+01   6.1816664890e+01      3.56393     1.845375  -4.14   0.01451755    3.353    0.702
        13 -13.7956     94.7291     71.1164   4.3156244112e+01   5.0249971712e+01      2.05484      1.27129 -64.90  0.006287655    2.609    0.617
        14 -12.5543     50.6011     33.0399   4.5492836750e+01   6.4275630548e+01     1.201373     1.003359 -87.15  0.007076602    2.266    0.559
        15 -11.7753     78.6705      9.8094   2.5810105540e+01   6.2123080937e+01    0.3412505    0.2041944  43.72 0.0003587049    1.393    0.282
        16 -14.2128     10.8479     37.3509   6.5598462779e+01   6.8013903721e+01     1.566381     1.112791 -42.89  0.008461942    1.235    0.190
        17 -12.5706     53.2345     20.5936   3.9220089587e+01   6.5560757408e+01     1.315183     1.011179  75.23   0.00567061    2.621    0.618
        18 -13.7325     64.4265     17.5056   3.3659850459e+01   6.4026997045e+01     1.870853     0.973349 -13.36  0.009130145    2.485    0.598
        19 -11.7002    160.9844     38.3031   1.7303501752e+01   4.0152724819e+01     1.052351    0.8084777  33.52  0.004737851    1.627    0.385
        20  99.0000    133.7086     40.0714   2.2912102886e+01   4.6530490305e+01     0.995609    0.8235136 -58.40  0.005665642    1.331    0.248
        21 -11.8121    220.7275     29.1800   7.4746021937e+00   2.7270309354e+01     1.211762    0.4941642  81.95  0.005138929    2.782    0.641
        22 -11.8493    211.2691     21.0492   6.6265893171e+00   3.0373211245e+01    0.5055384    0.3274206  61.78  0.002932611    1.588    0.370
        23 -12.9804    226.0114     22.6507   5.6136554554e+00   2.6927013358e+01    0.4626434    0.4311787 -66.10  0.001074146    1.319    0.242
        24 -11.7685    233.1230      3.8238   1.2815407972e+00   2.7577458928e+01    0.6019915    0.2374992 -39.90  0.002023629    2.286    0.563
        25 -13.9886    244.3773      8.3441   1.3788784541e+00   2.4761524448e+01     1.048124    0.4610162 -82.84  0.004254379    2.306    0.566
        26 -12.7172    221.4652      8.2616   3.0252518195e+00   2.9577048556e+01    0.5995896    0.2292127 -58.72  0.001222122    2.531    0.605
        27 -11.0565    228.9016     10.6316   2.9291913952e+00   2.7715140716e+01    0.5790821    0.2394708 -64.28  0.001989338    2.417    0.586
        28  99.0000    244.0103     18.3131   3.2954334196e+00   2.3673684439e+01     0.419692    0.2239743 -69.59  0.002385219    1.663    0.399
        29 -13.1368    176.2511     23.5420   1.1130139825e+01   3.8260503003e+01    0.3134809    0.2841921  75.21 0.0006033291    1.149    0.130
        30 -10.5762    147.3350     24.9362   1.5777276557e+01   4.5101450887e+01     0.429718    0.2078947  41.92  0.001835286    2.494    0.599
        31 -10.7070    154.4461     17.6225   1.2562529892e+01   4.4176827273e+01    0.3826473    0.1827948 -47.02  0.001512408    2.286    0.563
        32 -12.6154     24.6827     40.2879   5.9879641377e+01   6.6309723453e+01     1.212804    0.4953922 -44.95  0.002109206    2.132    0.531
        33 -11.2174     94.0707     16.0042   2.3971426530e+01   5.8341616216e+01    0.3086591    0.1584393  46.45  0.001557072    1.653    0.395
        34 -10.2277    187.4328     13.3424   7.2846350124e+00   3.6736390968e+01     0.274485    0.1378468 -67.84 0.0009448329    2.215    0.548
        35 -11.0617    149.8089     12.9681   1.1932333877e+01   4.5768176449e+01     0.277462    0.1881892 -87.00  0.001309298    1.512    0.339
        36  -9.8228    146.2960      6.6694   1.0640893712e+01   4.7205131072e+01    0.3535749    0.2245338   8.37  0.001788067    2.493    0.599
        37  -9.7437    121.1967      4.7484   1.4084246516e+01   5.3294285720e+01    0.1743705    0.1400963  56.55  0.000511704    1.066    0.062
        38 -11.7558    115.7965     10.1029   1.6886972114e+01   5.4074662647e+01    0.4893652    0.2748462  -7.38   0.00227346    2.505    0.601
        39 -10.3058    120.6490      8.9927   1.5576773320e+01   5.3054576180e+01      0.19871    0.1724738 -85.39 0.0001890439    1.243    0.195
        40 -13.0183     76.2063     23.5383   3.2135131412e+01   6.1149696324e+01     1.206472     0.693792  32.79  0.004410566    1.682    0.405
        41 -10.6125    132.7364     11.3410   1.4160582481e+01   5.0004852727e+01    0.2286145    0.1792141 -74.51 0.0002441711    1.402    0.287
        42  -9.3716    131.4594      8.4630   1.3483878922e+01   5.0570824607e+01    0.3213587    0.2215132  56.82  0.001871934    1.239    0.193
        43 -10.6097    125.2229      9.8243   1.5003051392e+01   5.1914145849e+01    0.2774312    0.2391068  -5.27  0.001057272    1.401    0.286
        44 -10.1502     87.6745     11.7149   2.4028567193e+01   6.0108422577e+01    0.3085105    0.1998943  64.63  0.001721568    1.625    0.385
        45  -9.6023    108.8750     10.3133   1.8391256281e+01   5.5630406918e+01     0.269949    0.1523287 -35.58  0.001424367    2.037    0.509
        46 -13.0680    173.0140      6.7697   7.2596306625e+00   4.0815151849e+01    0.3782393    0.3081847  -8.65  0.001904177    1.707    0.414
        47 -10.5630    101.2332      7.7917   1.9177986974e+01   5.7557260369e+01    0.3059102    0.2082534 -20.00   0.00106537    1.710    0.415
        48  -9.7226     46.3479      9.8054   3.7191311772e+01   6.7915138995e+01    0.2584478    0.1132447  30.76  0.001269414    2.260    0.557
        49 -11.6054     47.3320      2.4591   3.3314131258e+01   6.8513839829e+01    0.4604316    0.3021511  -3.62  0.002103203    1.532    0.347
        50 -10.4245     26.5153      9.7184   4.6249387719e+01   7.0705465253e+01    0.2511907     0.151482   2.92  0.001322402    1.685    0.406
        51  -9.6478    165.4202      9.3446   8.8237477075e+00   4.2374396498e+01     0.161216    0.1123023 -49.49 0.0007498428    1.503    0.335
        52 -11.6907    193.6587      7.4637   5.2709837778e+00   3.5903502584e+01    0.2643811    0.1958928  75.45 0.0006445661    1.191    0.161
        53 -12.3925     57.1898      4.4358   3.0493368843e+01   6.6658436501e+01    0.4232214    0.3108241  42.30  0.001034665    1.234    0.190
        54 -10.2896     12.7916      7.3117   5.2387157517e+01   7.2540296878e+01    0.1429525    0.1079932  -8.40  0.001062768    1.029    0.028
        55 -11.1720      2.7187      5.8784   5.7562064898e+01   7.3639059114e+01    0.2290172    0.1519726   6.38 0.0009822082    1.310    0.236
        56  -8.8116    210.7073      6.1106   3.4450762834e+00   3.2174437419e+01    0.1993962    0.1476086  20.93 0.0009429613    2.478    0.597
        57 -10.6602    217.6514      2.3188   2.0993310534e+00   3.1042512284e+01    0.2761767    0.1792217 -89.38  0.001234826    1.260    0.206
        58  -9.8847    213.3123      2.3089   2.4314193754e+00   3.1994762711e+01    0.1684223    0.1024637  65.44 0.0005448291    1.610    0.379
        59  -9.5239     90.5892      6.3906   2.1200649053e+01   5.9978297411e+01    0.2284558    0.1111137  73.73 0.0009493157    3.099    0.677
        60 -10.5695    111.9622      4.2202   1.5643292334e+01   5.5457466298e+01    0.2588346    0.1592406  60.23  0.001170805    1.336    0.252
        61  99.0000    183.6050      3.7693   5.3928241930e+00   3.8610469370e+01    0.3779317    0.1987251 -85.00  0.001905745    1.896    0.473
        62  -9.5691    186.9998      1.2353   4.4620549259e+00   3.8063947391e+01    0.1962517    0.1446579 -84.16 0.0006568653    1.126    0.112
        63  -9.9754    135.1170      2.9957   1.1217608219e+01   5.0180967760e+01    0.2611671    0.1433487  26.36  0.001225849    2.724    0.633
        64 -10.0194    207.1978      3.0676   3.0841153732e+00   3.3274776222e+01    0.1531013    0.1299838 -71.93 0.0008879761    1.156    0.135
        65  -9.7525    143.5322      2.5796   9.8543532434e+00   4.8222205010e+01    0.1278261    0.1039946  81.26 4.791209e-05    1.077    0.071
        66 -12.2060     85.8268      1.4447   2.0473256622e+01   6.1387251583e+01    0.3986496    0.1092082  57.05  0.001208782    2.832    0.647
        67 -10.0238    250.2902      1.4528   3.5973572718e+02   2.4346785405e+01    0.1374415    0.0838162 -80.53 0.0002505339    1.311    0.237
        68  -9.5586    101.0423    176.0220   6.6316348471e+01   2.4850931010e+01    0.1696214     0.158732  75.64            0    1.007    0.007
        69 -11.9251    215.1009     41.9668   1.0851018464e+01   2.6839704780e+01    0.4647804    0.2696809 -87.14 0.0008680357    1.836    0.455
        70 -12.4207     55.9680     94.0441   6.3049880681e+01   5.1902721031e+01    0.3815034    0.3248168  76.43  0.001624738    1.452    0.311
        71 -13.2164     62.1451     90.0729   5.9821977880e+01   5.1941767444e+01     1.049471    0.3384822 -58.47  0.003180235    3.842    0.740
        72 -12.2581     57.9094     88.7924   6.0998882335e+01   5.2818343088e+01    0.4281802    0.2690932 -39.48  0.001273656    1.549    0.354
        73 -10.8527     70.9847     87.9566   5.6134727953e+01   5.1075077084e+01    0.3027408    0.2975907  -3.40 0.0008784395    1.068    0.063
        74 -12.6603     67.0390     82.7239   5.6044080975e+01   5.2810078527e+01    0.6428649    0.5110216  65.42  0.001428525    1.664    0.399
        75 -12.2843     48.5519     95.1691   6.5980055703e+01   5.2584281109e+01    0.4402009    0.2536702  43.19  0.002098592    1.993    0.498
        76 -10.3413    249.8480     93.6818   1.7782219700e+01   1.1679897675e+01    0.3372311     0.152996 -46.81  0.001319103    1.860    0.462
        77 -10.8810    206.4909     94.5279   2.4101723234e+01   2.0455419402e+01    0.2816022    0.1918917 -51.07  0.001399147    1.372    0.271
        78 -11.0316    182.2929     93.9936   2.8201816841e+01   2.6059006074e+01    0.2812264    0.2590622  83.95  0.001289721    1.054    0.052
        79 -11.7638    185.6892     92.6950   2.7247765109e+01   2.5509594304e+01    0.3871573    0.2318375 -62.45  0.001625246    2.009    0.502
        80 -10.4458      4.7598    101.9762   8.2848286262e+01   5.4832297830e+01    0.1696353   0.08667546 -67.91 0.0005671813    1.598    0.374
        81 -10.1615    173.0351     91.1353   2.9266700097e+01   2.8762510841e+01    0.2682365    0.2168408 -62.03 0.0008737041    1.247    0.198
        82  -9.8880     79.5286     91.0227   5.4075054915e+01   4.9009995995e+01      0.22269    0.1873331 -14.61 0.0005280465    1.288    0.223
        83 -10.5900    167.7289     89.9968   3.0038852735e+01   3.0230404262e+01     0.345413    0.2202083  59.42 0.0007163929    1.580    0.367
        84  -9.5890    236.7313    146.0054   3.0444627743e+01   5.0920796928e+00    0.1885045    0.1547161 -37.36 0.0003703906    1.073    0.068
        85  -9.3724    184.6917    134.6894   3.7487728142e+01   1.7486960675e+01    0.1496453    0.1205416  -0.35  0.000368585    1.620    0.383
        86  -9.3881    152.9366    124.0474   4.1988015854e+01   2.6711245871e+01    0.1850617    0.1748441 -60.00 0.0003289796    1.047    0.045
        87 -13.9759     43.9783     73.0240   6.1928058350e+01   5.7978134109e+01     1.551071    0.9596803 -27.38  0.007917197    1.738    0.425
        88  -9.8748    220.7840    121.3507   2.7824263015e+01   1.2559856777e+01    0.1897359    0.1294031  41.40 0.0004369607    1.706    0.414
        89 -10.9899    181.2324    118.1642   3.4326070170e+01   2.1606250560e+01    0.3622289     0.240665 -46.72 0.0007874832    1.459    0.314
        90  -9.2352     73.0257    118.9912   6.3220252718e+01   4.3582553465e+01    0.1693521    0.1638492 -61.35            0    1.020    0.020
        91 -11.9606     90.5361     51.1840   3.7855575158e+01   5.4526291357e+01    0.2521074    0.2358304 -49.53 0.0003553741    1.227    0.185
        92 -10.3113    203.6372    115.9612   2.9546128728e+01   1.7124648771e+01    0.4336646    0.2035511  66.08  0.001480204    3.417    0.707
        93 -10.9340     89.9124    113.9388   5.6728281657e+01   4.1996995050e+01    0.2889632    0.2059971   5.83  0.001260442    2.005    0.501
        94 -13.1429      4.1927     55.1778   7.3970039841e+01   6.5068780051e+01    0.8611234    0.4799891 -54.41  0.001072692    1.464    0.317
        95 -11.3895    138.2868    112.5496   4.2698226322e+01   3.2481016036e+01    0.4384252     0.259519  27.78  0.001626684    2.447    0.591
        96  -9.6068    210.3073    111.7139   2.7421160789e+01   1.6499762452e+01    0.2815377    0.1295094  61.79  0.001064455    2.750    0.636
        97 -10.7110     38.2970    110.4219   7.2862887032e+01   5.0140485450e+01    0.2332474    0.1577507 -86.50 0.0008427694    1.758    0.431
        98 -13.1442     79.8761     59.3946   4.4186561275e+01   5.5192448995e+01    0.8442151    0.6352438  17.60  0.004542803    1.416    0.294
        99 -12.6795     81.3488     49.4270   4.0221932091e+01   5.6585284370e+01    0.6776687    0.5067822  29.67   0.00377448    1.281    0.220
       100 -11.8761     75.9593     51.9560   4.2966802079e+01   5.7165062725e+01    0.2700659    0.2177122 -43.43  0.000351678    1.362    0.266
       101 -11.8340    222.0237     88.4861   2.0363583299e+01   1.8135062986e+01    0.3693508    0.2241925  71.04  0.001784936    1.876    0.467
       102 -10.9945    225.9497     85.3016   1.9110746331e+01   1.7839866695e+01    0.2503109    0.2204518 -10.16 0.0004794499    1.515    0.340
       103 -11.8346     50.9162     88.1811   6.3386462738e+01   5.3871514123e+01     0.369789     0.216993 -36.21  0.001585215    1.753    0.429
       104 -12.0763     47.7030     85.2607   6.3822158502e+01   5.4913742542e+01    0.4914741    0.2418189  21.13  0.002027964    2.418    0.587
       105 -11.5528    238.0965     86.4078   1.7744305283e+01   1.5158438551e+01    0.3336141     0.251382  81.62  0.001144349    1.428    0.299
       106 -11.5137    231.9220     84.4764   1.8130664711e+01   1.6731880634e+01    0.4766661    0.2902607 -81.63  0.001629896    2.185    0.542
       107 -11.8981    175.9956     85.5019   2.7246448757e+01   2.9096760882e+01     0.601725    0.3569733  34.24  0.001624188    2.470    0.595
       108 -12.1673    168.7980     80.5654   2.7352048863e+01   3.1698047765e+01    0.4744727    0.4144645  82.83  0.001074821    1.119    0.107
       109 -10.8550    168.5149     76.4584   2.6321486039e+01   3.2488308702e+01      0.33009    0.2375542  60.48 0.0007742145    1.348    0.258
       110 -10.7040     30.7474     85.1153   7.0205948786e+01   5.6764195189e+01    0.2348912    0.2035867 -50.53 0.0003665311    1.058    0.055
       111 -10.7585    246.9848     83.2290   1.5989120969e+01   1.3915801433e+01    0.4709846    0.2707747  81.54  0.002309937    2.275    0.561
       112  -9.8616     23.8523     85.3144   7.2885651732e+01   5.7327575701e+01    0.1812053    0.1411968 -61.84  0.001103201    1.195    0.163
       113 -11.9501     83.2734     83.9387   5.0795728997e+01   4.9867475485e+01    0.2849503    0.2266794  34.81 0.0004843248    1.265    0.209
       114 -11.7663    221.7390     79.6277   1.8431312366e+01   1.9675730244e+01    0.3183849    0.2301685 -85.25  0.001706789    1.481    0.325
       115 -11.8675    160.8131     84.2823   2.9958638143e+01   3.2936541470e+01    0.8060809    0.5618083  36.04  0.003687147    1.725    0.420
       116 -13.4735    210.2556     59.6527   1.5446031211e+01   2.5382232442e+01     1.599518    0.6719817 -65.16  0.001909208    4.442    0.775
       117 -11.4157     87.4609     73.4611   4.6228255513e+01   5.1204370191e+01    0.3981645    0.2664289 -27.71  0.001060829    1.678    0.404
       118 -11.5568     84.6781     71.6701   4.6584193677e+01   5.2064592357e+01    0.4604104    0.2877387  21.31  0.001278751    2.022    0.505
       119 -13.4803     80.6316     41.5570   3.7607318103e+01   5.7922228826e+01     1.220517    0.5311308  51.16  0.005149068    2.430    0.588
       120 -10.2540    250.7276     81.6402   1.5228547614e+01   1.3445183338e+01    0.2496625    0.1158988 -39.39 0.0006008802    1.921    0.479
       121 -10.2028    161.9184     77.4084   2.7880793808e+01   3.3909091234e+01    0.2415639    0.1940682 -59.94 0.0006885197    1.271    0.213
       122 -10.4670    155.9321     76.5450   2.8882962998e+01   3.5501069859e+01     0.349498    0.2617685  76.23  0.001105115    1.443    0.307
       123  -9.8882     62.9083     70.3237   5.3844920519e+01   5.5979326651e+01    0.2846377    0.2070715  13.03  0.001512755    1.505    0.335
       124 -12.3266     72.4545     73.6137   5.1398626210e+01   5.3819721162e+01    0.7181981    0.5724392  58.27  0.003874465    1.560    0.359
       125  -9.7798    138.7493     60.8304   2.8124412829e+01   4.2279983679e+01     1.177494    0.8038471 -55.76  0.005645166    1.659    0.397
       126 -11.0044    145.3500     53.2838   2.4475488775e+01   4.1864672591e+01    0.6627968    0.4397078  15.12  0.002821687    2.584    0.613
       127 -10.7921    196.0375    107.9100   2.9037590023e+01   2.0311292599e+01    0.4360597    0.2760534 -63.33  0.001636196    1.873    0.466
       128 -12.0909    145.5600     66.6400   2.8317997218e+01   3.9697823573e+01     1.056696    0.7718166   2.60  0.003591774    2.115    0.527
       129 -11.6087    154.0319     62.0007   2.5219004003e+01   3.8409903027e+01    0.9174497    0.5420131 -51.68  0.004112362    1.841    0.457
       130 -11.2308    191.3777    102.6618   2.8636353549e+01   2.2348318296e+01    0.6399751    0.2098264 -50.77  0.001923214    3.670    0.727
       131 -11.2886    123.8167     69.1284   3.4225652621e+01   4.4379013722e+01    0.4637541    0.3505185  88.29  0.001375289    1.747    0.427
       132 -13.7784    116.7681     62.1663   3.3912249467e+01   4.7164274124e+01     1.173573     0.766888  37.44  0.002071266    1.595    0.373
       133 -12.1272    144.3122     45.0159   2.2247318912e+01   4.3309377827e+01    0.4681353     0.305121  33.47  0.001271879    1.942    0.485
       134 -12.8917    148.8177     40.5877   2.0082620310e+01   4.2817973235e+01    0.5864136    0.3781083 -50.33  0.001620679    1.683    0.406
       135 -10.7954    106.0814     71.1682   3.9731918721e+01   4.7917603986e+01    0.2498833    0.2162568 -58.23 0.0008035176    1.285    0.222
       136 -10.5546    161.4792     67.0258   2.5143659519e+01   3.5786454808e+01    0.3851155    0.2271086 -48.08 0.0008027083    1.746    0.427
       137 -11.9506    166.7416     64.6016   2.3486659900e+01   3.4904690333e+01    0.6093612    0.5757875  55.04  0.002357689    1.146    0.128
       138 -11.4380    127.2915     58.7650   3.0172237316e+01   4.5313365253e+01     0.526373    0.2865278  37.40  0.002180108    2.153    0.536
       139 -10.3286    167.0190     51.7800   1.9973688532e+01   3.6811516144e+01    0.3029698    0.1993182  25.11  0.001315635    2.521    0.603
       140 -11.0951    162.1935     57.4852   2.2389503231e+01   3.7131749657e+01    0.4761758    0.3214742  35.98  0.001329747    1.885    0.469
       141 -10.5087    159.0504     54.2302   2.2069829264e+01   3.8392010155e+01    0.6531469    0.2019975  50.78  0.002197179    3.118    0.679
       142 -10.6254    160.4776     50.5445   2.0784441931e+01   3.8587885963e+01    0.6278031    0.3987649 -12.42  0.002737909    2.538    0.606
       143 -10.7208     99.2691     47.6198   3.3976389357e+01   5.3281635928e+01    0.2713197    0.2110494   7.27  0.001460183    1.490    0.329
       144 -11.2579    100.7742     54.2399   3.5792890058e+01   5.1940450130e+01    0.6281767    0.4356416  45.43  0.001569146    1.350    0.259
       145 -10.3506    109.0362     55.8059   3.3961145331e+01   4.9916163130e+01    0.3623932    0.2048981 -38.91  0.001653928    1.872    0.466
       146 -10.7458    174.5499     55.4146   1.9671257099e+01   3.4440470684e+01    0.3597164    0.2068479 -56.82 0.0008232646    1.903    0.475
       147 -10.0723    170.5562     56.5217   2.0638887969e+01   3.5242769533e+01    0.2599023    0.1683856  74.11  0.001031557    1.565    0.361
       148  -9.8742    137.1360     52.9328   2.6114386204e+01   4.3892744054e+01     0.314631    0.1902136  52.03  0.000500628    1.529    0.346
       149 -10.1109    133.2164     52.9928   2.7005066430e+01   4.4816834263e+01    0.3275894    0.2274989  21.45  0.001328945    2.006    0.502
       150 -11.4464    246.4707     49.9884   9.2973866019e+00   1.9032395310e+01    0.4482369    0.2883322  64.31  0.002646773    1.682    0.405
       151 -11.2979    247.0520     42.2783   7.7119253775e+00   1.9984635590e+01    0.3965722    0.2291853 -71.69  0.001816749    1.657    0.396
       152 -10.5202     38.8436     40.4515   5.3438159856e+01   6.4714051615e+01    0.7307566    0.3249342  18.98  0.003166281    2.942    0.660
       153  -9.9870    121.1949     44.7562   2.7210556543e+01   4.8833438102e+01    0.2597764    0.1758414 -60.53 0.0008173442    1.917    0.478
       154  -9.7659    105.0053     43.4472   3.0921350286e+01   5.2658810120e+01    0.2078991    0.1246296  50.72 0.0008238366    1.525    0.344
       155  -9.9120    100.0813     41.2974   3.1543667696e+01   5.4023381039e+01    0.2769614    0.2220881  -0.68   0.00155941    1.407    0.289
       156 -10.6264     94.0888     41.2258   3.3254460989e+01   5.5293905941e+01    0.2448283    0.2041457   6.57 0.0007191787    1.265    0.209
       157 -10.4186     41.4922     44.9685   5.3937549515e+01   6.3621202261e+01    0.2749293    0.2161763  36.73   0.00163473    1.464    0.317
       158 -11.5630    134.7239     71.1018   3.2103162206e+01   4.1508979287e+01    0.7592775    0.6074563 -80.99  0.002964531    1.485    0.327
       159 -11.8350    122.4744     33.3829   2.3215404677e+01   5.0038650691e+01    0.3880062    0.2277653 -49.28 0.0005680375    2.047    0.511
       160 -10.8056    123.6349     28.5308   2.1380762518e+01   5.0350425751e+01    0.2578226    0.2168009 -79.65 0.0006420602    1.346    0.257
       161 -10.8221    112.2955     32.8643   2.5412627494e+01   5.2442047828e+01    0.3857081     0.240765  46.55  0.001341941    1.443    0.307
       162 -11.0327     92.0155     33.9081   3.1217014008e+01   5.6714101235e+01    0.3564529    0.2208484  37.98  0.001436106    1.516    0.340
       163 -10.4753     75.0816     33.5793   3.6461301585e+01   6.0089843102e+01    0.2814921    0.1917686  39.22 0.0009461857    1.330    0.248
       164  -9.3802    234.6678    108.7008   2.2948387614e+01   1.2069403694e+01    0.1281513    0.1068653   1.20 0.0003296826    1.647    0.393
       165 -11.1700    153.1033    108.1740   3.7966056683e+01   3.0056442266e+01    0.2397142    0.2282285 -87.86 0.0004633048    1.032    0.031
       166  -9.2579    215.5142    107.4439   2.5597923541e+01   1.6182774887e+01    0.1420106    0.1281882 -60.15 9.226471e-05    1.011    0.011
       167 -11.8104    161.9126    106.6469   3.5574807035e+01   2.8340242520e+01    0.3148256     0.228776 -51.25  0.001458853    1.378    0.274
       168  -9.9651    210.2047    105.6245   2.6052411393e+01   1.7642265193e+01    0.2588652    0.2231992 -84.39  0.001385131    1.197    0.164
       169 -10.4010    183.9166    104.9289   3.0591145730e+01   2.3611609965e+01     0.531399    0.2854868 -65.78  0.001843216    3.035    0.671
       170 -12.1610    145.1741    103.5025   3.8631306714e+01   3.2845559782e+01    0.6019288    0.3570481  51.24   0.00193962    1.679    0.404
       171  -9.4624    242.1773     30.1656   5.7454971609e+00   2.2578077920e+01    0.3607844    0.1601982 -59.31  0.001785009    2.070    0.517
       172  -9.7976    237.7008     30.5814   6.2103231155e+00   2.3451174264e+01     0.295982    0.1859883  82.57  0.001340981    1.474    0.322
       173  -9.8356    104.2445     27.3570   2.5499743205e+01   5.4902695731e+01    0.1671145    0.1567809  45.55 0.0005153861    1.075    0.070
       174  -9.4184     80.5954     30.2177   3.3337489956e+01   5.9482370304e+01    0.1603113    0.1192995 -11.01 0.0005478316    1.450    0.310
       175 -11.2855     86.2926     28.6893   3.0975516513e+01   5.8543824742e+01    0.4016455    0.2240588  46.35  0.001188636    1.581    0.368
       176  -9.6143     90.4812     26.6630   2.8972040403e+01   5.7931052574e+01    0.1477097    0.1242631 -43.19   0.00089582    1.414    0.293
       177 -10.1847    128.3158     27.3652   2.0031017140e+01   4.9384294749e+01    0.3052639    0.1520989 -37.45  0.001416364    2.192    0.544
       178  -9.2106    114.3554     28.2667   2.3359571745e+01   5.2526956993e+01    0.1402151   0.08982075  36.26 0.0004595147    1.631    0.387
       179  -9.8928    168.3235     26.8036   1.3056050007e+01   3.9793402323e+01    0.2398018    0.1651907  87.72  0.001291983    1.399    0.285
       180 -10.9888    234.3451     24.1109   5.1969615302e+00   2.4969342198e+01    0.3203673    0.2293905  85.52  0.001451213    1.245    0.197
       181 -13.2830    105.4070     95.0995   4.7034239842e+01   4.3297862173e+01    0.9336507    0.6634791  15.75  0.003770621    1.897    0.473
       182 -11.1628    247.1490     22.6032   3.8808621572e+00   2.2516688737e+01     0.199684    0.1679937  82.41 0.0009015188    1.311    0.237
       183 -11.6584    242.2871     22.6198   4.2585372672e+00   2.3502572811e+01    0.4189585     0.232132  83.84   0.00173486    1.676    0.403
       184 -11.5413     96.0282     90.7900   4.8671055325e+01   4.6066983998e+01    0.5215081    0.4269936  57.42  0.001255757    1.339    0.253
       185 -10.4463    114.0655     23.1637   2.1690603393e+01   5.3169453296e+01    0.2629948    0.1896325  49.49 0.0009084795    1.213    0.176
       186 -10.1005    102.6777     23.2803   2.4440910735e+01   5.5710332047e+01    0.1774046    0.1593458 -19.45 0.0005159646    1.245    0.197
       187 -10.5452     98.9945     21.9491   2.4897431827e+01   5.6660261938e+01    0.3047137    0.2007318  51.05  0.000732926    1.310    0.237
       188 -10.0121    119.7384     22.0374   2.0074167808e+01   5.1985328566e+01    0.1893683    0.1668555 -84.70  0.000481498    1.250    0.200
       189  -9.5189    125.0000     16.0044   1.7037147107e+01   5.1380036342e+01      0.15798    0.1079476 -25.91 0.0004778565    1.710    0.415
       190 -10.0825    123.8888     20.8503   1.8827434789e+01   5.1144447249e+01    0.2184803    0.1675896 -59.17            0    1.531    0.347
       191  -9.9517    121.8027     17.1270   1.8028147736e+01   5.2015380101e+01    0.1919826    0.1622946 -87.13 0.0004959179    1.284    0.221
       192 -12.8237    114.3378     80.4773   4.0208344240e+01   4.4400290395e+01    0.9936501    0.5442163 -34.90  0.004103623    2.034    0.508
       193  -8.9589    163.3016     20.7071   1.2133376881e+01   4.1703827921e+01    0.1339667   0.09020589 -74.16  0.000345503    1.570    0.363
       194 -11.0114    134.3192     24.6401   1.8000868661e+01   4.8265979701e+01    0.4812749    0.2104396  73.08  0.001884272    2.697    0.629
       195  -8.1382    105.7325     20.7043   2.2771325446e+01   5.5313637929e+01    0.1301766    0.1167027  58.07 0.0002529398    1.086    0.079
       196  -9.2647    103.2790     19.3124   2.2867158314e+01   5.6003940472e+01    0.1308961    0.1162464  53.61 0.0004750796    1.065    0.061
       197 -13.0883    205.4793     47.0521   1.3142963752e+01   2.8319962013e+01     1.576663    0.6213533  61.45  0.006703658    2.389    0.581
       198 -11.6601    140.8955     96.5213   3.7804639671e+01   3.5258700921e+01    0.8734576    0.3807282 -53.88  0.002921724    2.876    0.652
       199 -10.6697    130.0301     19.2186   1.7110331860e+01   4.9868885558e+01    0.2752485    0.1572131  63.69 0.0004493088    1.514    0.339
       200 -11.7168    147.7085     83.4925   3.2608955743e+01   3.6202413317e+01    0.7819787    0.6630744  67.02  0.003385766    1.167    0.143
       201 -13.3901    202.9992     60.5135   1.6626024024e+01   2.6910357488e+01     1.751813    0.7736682 -66.89   0.00555622    4.326    0.769
       202  -9.8268    138.7651     17.9507   1.5153452398e+01   4.7919015293e+01    0.2694222    0.1913422  47.92  0.001067081    1.368    0.269
       203 -14.0841    131.4028     95.3547   3.9876467106e+01   3.7658886724e+01     1.978036    0.9978877  33.67  0.006967032    2.706    0.630
       204 -10.7333    142.9697     79.5031   3.2582141609e+01   3.8061197509e+01    0.2416036    0.2091197 -14.92  0.001242126    1.370    0.270
       205  -9.4048    160.0039     14.0216   1.0778967268e+01   4.3208061180e+01     0.149928    0.1277199  81.73 0.0003467707    1.020    0.020
       206 -12.6023    129.8028     89.7218   3.8718197591e+01   3.9157255070e+01     1.069562    0.3737765  42.29  0.003375542    3.124    0.680
       207 -13.2356    123.5623     85.4939   3.9153013836e+01   4.1395109204e+01     1.199475    0.8388584 -12.94  0.005143581    2.111    0.526
       208 -12.6404    134.5989     82.9795   3.5584740671e+01   3.9370770670e+01    0.6581396    0.5924684  53.98 0.0009102669    1.077    0.071
       209 -11.2100    132.9669     77.4990   3.4407226599e+01   4.0771911612e+01     0.272111    0.2543088  81.61 0.0003276393    1.083    0.076
       210 -10.8891    109.5146    104.0362   4.8275583315e+01   4.0521104599e+01    0.2354988    0.1501321 -47.35 0.0007412988    1.567    0.362
       211 -12.0550     75.6739    103.1699   5.8591600226e+01   4.6920787230e+01    0.4702592    0.2617455 -69.47  0.001085014    2.570    0.611
       212  -9.2685    141.4842     13.0483   1.3234365686e+01   4.7758223291e+01    0.1697188    0.1329068 -20.23  0.001013108    1.565    0.361
       213 -11.7570     73.4786     97.0122   5.7734246433e+01   4.8676789467e+01    0.3432996    0.2994465 -35.67  0.001903545    1.113    0.102
       214 -10.4509    165.1939    102.0835   3.3694244658e+01   2.8494744324e+01    0.2305759    0.2147156  -7.34 0.0007252428    1.247    0.198
       215 -12.7459     87.5693     98.4547   5.3479399811e+01   4.5971105276e+01    0.6339698    0.4135412  27.78  0.002885013    1.719    0.418
       216 -11.7550    226.0138     98.3517   2.1967587694e+01   1.5606682518e+01    0.4186159    0.3663622 -61.08  0.002373201    1.018    0.017
       217  -9.1745    212.3279     11.6601   4.4940536607e+00   3.1212451234e+01    0.1354247   0.07326116 -67.58 0.0007051601    1.735    0.424
       218 -12.3117    151.5029     97.4849   3.5540602497e+01   3.2605647387e+01    0.7554429    0.4084833 -61.10  0.002737276    2.583    0.613
       219 -11.1912    158.7172     99.2807   3.4382511362e+01   3.0562781193e+01    0.2817012    0.2266297  84.95 0.0001928047    1.406    0.289
       220 -11.2109    156.9813     95.8108   3.3856531961e+01   3.1654169597e+01    0.5666158    0.3726835  58.08  0.001455962    1.541    0.351
       221 -12.3691    116.7648     92.8175   4.3110160822e+01   4.1407057924e+01    0.4662838    0.3984206 -15.87 0.0007974996    1.344    0.256
       222 -11.0717     33.8840     99.9829   7.2305601019e+01   5.3064036413e+01    0.2450121     0.168888 -65.64  0.001046093    1.360    0.265
       223  -9.6923    244.4853     98.2063   1.9392444852e+01   1.1954456396e+01    0.2565459    0.1182758 -36.37  0.001135118    2.094    0.522
       224 -10.8230    170.3226     97.6298   3.1477359172e+01   2.8167848235e+01    0.4401109    0.3243272 -61.75   0.00208696    1.447    0.309
       225 -11.6400     11.8710     97.4870   7.9662609541e+01   5.5437102739e+01    0.2845613    0.2413206 -56.82  0.001030647    1.021    0.021
       226 -11.3560     15.8034     93.0850   7.7465028003e+01   5.6182993718e+01    0.2953281    0.2005824 -19.21   0.00170482    1.663    0.399
       227 -13.6859    201.2891     76.5966   2.0698222769e+01   2.4727704043e+01     2.247221    0.9836447  74.85  0.007389225    3.842    0.740
       228 -12.4105    249.6178     72.3896   1.3480762222e+01   1.5100739318e+01     2.132089    0.5434749 -40.40  0.007888272    3.233    0.691
       229 -11.0844     36.3326    248.6558   8.9258139665e+01   1.7872277635e+01    0.2367032    0.1300756 -69.73  0.001391513    1.884    0.469
       230 -12.7232    177.0668     71.4428   2.3422838148e+01   3.1287163030e+01     1.424723    0.4448437 -48.47  0.004480776    3.603    0.722
       231 -12.9260    183.9464     57.4884   1.8693118010e+01   3.1860777390e+01     1.007544    0.7773937 -61.31 0.0004857935    1.257    0.205
       232 -11.2573    113.5987    246.4627   7.3416405969e+01   7.4795160661e+00    0.3466895    0.2724347  -2.82  0.001307643    1.851    0.460
       233 -10.3071    180.7969    243.5926   5.9117984713e+01  -2.6167112444e+00    0.1861173    0.1039368  43.11 0.0009532189    1.728    0.421
       234 -13.8729    194.7207     66.6020   1.9294975272e+01   2.7883925426e+01     1.348742    0.9807601 -77.33  0.005793256    1.431    0.301
       235 -12.1016    173.2448     44.2147   1.6933092745e+01   3.6371872337e+01     0.759556    0.4762643  51.72  0.002274383    1.628    0.386
       236  -9.7055    218.5128    239.5376   5.1178035578e+01  -7.5410061061e+00     0.121782    0.1001852   7.49 0.0002319699    1.023    0.023
       237 -10.6116     88.3982    238.7910   7.7867034547e+01   1.2825656345e+01    0.1613089    0.1190201 -56.89 0.0002773447    1.590    0.371
       238 -12.7700    242.0985     60.5580   1.1881016314e+01   1.8387261924e+01    0.7131099    0.4943654 -46.41 0.0005066905    1.287    0.223
       239  -9.7489     15.9848    238.4969   9.2498534877e+01   2.2222356791e+01    0.1254793    0.1016374 -12.05 -0.0003569564    2.282    0.562
