#   1 NUMBER                 Running object number                                     
#   2 MAG_AUTO               Kron-like elliptical aperture magnitude                    [mag]
#   3 X_IMAGE                Object position along x                                    [pixel]
#   4 Y_IMAGE                Object position along y                                    [pixel]
#   5 X_WORLD                Barycenter position along world x axis                     [deg]
#   6 Y_WORLD                Barycenter position along world y axis                     [deg]
#   7 A_WORLD                Profile RMS along major axis (world units)                 [deg]
#   8 B_WORLD                Profile RMS along minor axis (world units)                 [deg]
#   9 THETA_WORLD            Position angle (CCW/world-x)                               [deg]
#  10 FWHM_WORLD             FWHM assuming a gaussian core                              [deg]
#  11 ELONGATION             A_IMAGE/B_IMAGE                                           
#  12 ELLIPTICITY            1 - B_IMAGE/A_IMAGE                                       
         1 -13.5487    213.1736     30.1521   4.5017852027e+01   2.8197281128e+01    0.9414467    0.7777472 -60.01  0.004288186    1.122    0.109
         2 -13.1284    219.1066     23.3324   4.2632699018e+01   2.7599853230e+01    0.6911351    0.4448003  56.39  0.001505396    1.635    0.389
         3 -13.5429    235.0299      7.0185   3.7287025326e+01   2.5734469971e+01    0.7558894     0.570766 -64.19  0.002658385    1.134    0.118
         4 -10.1843     18.2448      2.7462   8.6669800733e+01   7.2641736018e+01    0.1858255   0.06776315 -31.84 0.0008982236    2.435    0.589
         5 -12.1554    218.0294    234.4681   9.0425585664e+01  -5.4749318431e+00    0.4865186    0.2571312  16.63   0.00242316    2.268    0.559
         6 -12.0531    210.4875    247.9470   9.3866871806e+01  -6.0273972016e+00    0.5514943    0.4011779  39.70  0.003700874    1.352    0.260
         7 -12.6357    205.0486    240.5791   9.3736543575e+01  -4.2793899042e+00    0.5440572    0.3323437 -17.43  0.003120674    2.005    0.501
         8 -15.3720    175.3104    240.5699   9.9248874021e+01   3.9715157918e-01     2.892634     1.643196  33.41   0.01550883    1.491    0.329
         9 -12.5413    120.4153    230.9792   1.0857309482e+02   1.0774044936e+01     0.795505    0.5791157 -63.93  0.004682648    1.603    0.376
        10 -14.8880     38.0141    201.4469   1.2200872741e+02   2.8011999561e+01     3.701602     1.687121  76.22   0.01612361    2.382    0.580
        11  -9.9853     90.1985    219.0542   1.1320793009e+02   1.7608071156e+01    0.5718984    0.4180831  37.91  0.003517043    1.393    0.282
        12 -13.0901    207.0956    212.0491   8.8695298304e+01  -6.4647256799e-01    0.8318884    0.4704377 -31.11  0.004328125    1.920    0.479
        13 -10.2337     73.8786    215.6923   1.1612279547e+02   2.0595999922e+01    0.2655765    0.2577963 -74.26   0.00191164    1.377    0.274
        14 -12.9593    196.7515    197.9775   8.8181231785e+01   3.3265423489e+00    0.9082157    0.7179646 -85.24  0.004736925    2.213    0.548
        15 -10.8122    250.3040    200.7934   7.8827535708e+01  -5.9752945007e+00     0.280329    0.1330533 -28.39  0.001404536    2.020    0.505
        16  -9.9226     56.8377    200.0470   1.1806949135e+02   2.6060445275e+01    0.1939681    0.1314749  71.68 0.0004831092    1.301    0.231
        17  -9.7566     86.0071    186.7294   1.1026305538e+02   2.4904738425e+01    0.1913334    0.1653903  64.67 0.0009382198    1.049    0.047
        18 -11.2872     40.7697    183.9303   1.1994307472e+02   3.1463546669e+01    0.3108657    0.1754367  71.22 0.0006049704    1.709    0.415
        19 -11.5503    210.8989    178.3767   8.1631423248e+01   3.9998502683e+00    0.3112262    0.2602916 -33.03  0.001757759    1.242    0.195
        20 -11.5635     57.4247    183.9030   1.1630796429e+02   2.9484375445e+01    0.3158488    0.2468456 -40.35  0.001075518    1.777    0.437
        21 -11.5798     63.4462    177.4839   1.1422561807e+02   3.0148187122e+01    0.2639938    0.2245911 -54.78 0.0009319296    1.374    0.272
        22 -13.5057    171.1261    223.2478   9.7508108800e+01   3.7028561453e+00     1.203921    0.7293562   2.12  0.005170519    3.212    0.689
        23 -10.1099    195.0580    169.0390   8.2863229785e+01   8.6355813786e+00    0.2297814    0.2113362  15.95  0.001136233    1.018    0.018
        24 -11.1320     73.7049    167.1189   1.1047648962e+02   3.1128858299e+01    0.2504044    0.2099674 -77.93 0.0003539818    1.104    0.094
        25 -13.2848     60.4744    163.7684   1.1321950168e+02   3.3690348138e+01    0.4897582     0.281346 -48.13  0.001611149    2.029    0.507
        26 -11.3847    108.4976    249.1696   1.1281696088e+02   9.5162902401e+00    0.7168174    0.2940603  42.86  0.003669264    1.902    0.474
        27 -12.2803     81.1840    159.9908   1.0759444664e+02   3.1710564432e+01    0.5104713    0.5003313  18.09  0.001897975    1.240    0.193
        28 -13.7286     66.5091    142.6223   1.0862089438e+02   3.7934932037e+01     2.771437     1.307083  89.37  0.004296571    5.009    0.800
        29 -15.7964      8.8039    238.7690   1.2946337014e+02   2.3827283059e+01     2.834355     1.748356  82.50   0.02132657    1.249    0.200
        30  -9.0495    179.6872    148.2865   8.1593218370e+01   1.5712987591e+01    0.1462448    0.1219236  87.93 0.0003238228    1.580    0.367
        31 -13.1365     28.5525    212.9144   1.2465387538e+02   2.6706634923e+01    0.4403512    0.3648144 -69.05 0.0008242614    1.475    0.322
        32 -10.7395     96.0046    145.3155   1.0128295399e+02   3.2853457845e+01    0.3202664    0.2810433 -18.03  0.001015487    1.421    0.296
        33 -10.1778     98.6119    142.1677   9.9992236699e+01   3.3163947341e+01    0.2974798    0.2074616 -31.87  0.001148821    1.865    0.464
        34 -12.0613     84.0355    143.8385   1.0416782665e+02   3.5122086276e+01     0.308841    0.2538728 -57.50 0.0004318842    1.182    0.154
        35 -11.2959     30.2495    143.5369   1.1821455504e+02   4.1834444197e+01    0.2637504    0.1306902  23.90  0.001298668    2.593    0.614
        36 -14.8831      9.3069    207.4834   1.2786931096e+02   2.9718034320e+01     1.444893     1.050371 -86.96  0.004963951    1.207    0.172
        37 -11.0464    107.2428    132.2410   9.5635951561e+01   3.4003266209e+01    0.4361201    0.3572808  58.42  0.001560877    1.275    0.216
        38 -12.8034    122.6467    247.2995   1.1000691734e+02   7.6901823196e+00     1.087252    0.5850511  33.56  0.005925307    1.824    0.452
        39 -10.7786     95.0786    129.4086   9.8352399085e+01   3.6810247551e+01    0.2843091    0.2510371 -26.53 0.0005262769    1.298    0.229
        40  -9.7293    105.7757    120.8822   9.3470579801e+01   3.6951504659e+01     0.214818    0.1971059 -31.01 0.0003761309    1.156    0.135
        41  -9.7050    168.1435    113.2391   7.5617102564e+01   2.5387706875e+01    0.2939378    0.2031878 -67.76 0.0009437135    1.983    0.496
        42  -9.9451    204.5044    110.9744   6.7518820224e+01   1.7432071706e+01    0.3124453    0.2098289  33.80   0.00139339    1.721    0.419
        43 -10.3233     52.6195     89.8782   1.0246530793e+02   5.2345109796e+01    0.2455213    0.2002513  40.84 0.0009186185    1.411    0.292
        44  -8.8771     63.3047     83.6456   9.7244503754e+01   5.2432697596e+01    0.1372488    0.1077997  87.74  0.000704069    1.713    0.416
        45 -10.3882     13.4899     60.0172   1.0976241298e+02   6.2498540209e+01    0.1872219   0.09633982 -60.53 0.0004828378    1.552    0.356
        46 -11.9882      9.4657     56.3732   1.1052871336e+02   6.3511606791e+01    0.2694285    0.1596984 -37.14   0.00163035    1.489    0.328
        47 -13.1093     15.1544     44.6446   1.0500761161e+02   6.5593668422e+01    0.5676115    0.4931283  53.43  0.004013313    1.619    0.382
        48 -13.3564    205.8085     33.7894   4.6864175288e+01   2.9544057459e+01    0.8139363     0.568844 -14.34   0.00317145    1.801    0.445
        49 -13.3944    115.8099    236.3582   1.1008836614e+02   1.0560709421e+01     1.221024    0.8609067  56.08  0.006852942    1.228    0.185
        50 -15.2314      4.4591    142.3838   1.2447562889e+02   4.4206117671e+01     5.551074     1.093067 -79.06    0.0172968    5.163    0.806
        51 -12.2596     22.5143     36.5309   9.9063490471e+01   6.6633453928e+01    0.3505748    0.3020697 -32.69  0.002502303    1.147    0.128
        52  -9.7300    189.4870     15.4697   4.3895434278e+01   3.5811015561e+01    0.1374734    0.1228953 -89.23 0.0001392732    1.009    0.009
        53 -12.5894    229.9370    230.9982   8.7731498906e+01  -6.8232478200e+00    0.8941298    0.5822431   3.77  0.005164319    1.539    0.350
