#   1 NUMBER                 Running object number                                     
#   2 MAG_AUTO               Kron-like elliptical aperture magnitude                    [mag]
#   3 X_IMAGE                Object position along x                                    [pixel]
#   4 Y_IMAGE                Object position along y                                    [pixel]
#   5 X_WORLD                Barycenter position along world x axis                     [deg]
#   6 Y_WORLD                Barycenter position along world y axis                     [deg]
#   7 A_WORLD                Profile RMS along major axis (world units)                 [deg]
#   8 B_WORLD                Profile RMS along minor axis (world units)                 [deg]
#   9 THETA_WORLD            Position angle (CCW/world-x)                               [deg]
#  10 FWHM_WORLD             FWHM assuming a gaussian core                              [deg]
#  11 ELONGATION             A_IMAGE/B_IMAGE                                           
#  12 ELLIPTICITY            1 - B_IMAGE/A_IMAGE                                       
         1 -13.8801    241.5451     93.1586   8.4767175367e+01   1.3192291030e+01       2.6971    0.5176314 -31.64  0.008203871    4.173    0.760
         2 -16.1954    202.0632     42.6165   7.6668631218e+01   2.9001870228e+01     4.587844     1.663666 -33.84   0.01426431    2.476    0.596
         3 -14.4675    238.7669     32.4955   6.9158678372e+01   2.1042681076e+01    0.7306534    0.4358572 -16.80  0.001832277    1.653    0.395
         4 -16.9208    125.6143     71.2408   1.0062072082e+02   4.3038526414e+01     4.790771      2.38188 -43.63   0.01062629    1.940    0.485
         5 -17.4848    181.7633     82.1735   9.1679259104e+01   2.8356096407e+01     3.365801     2.466354 -42.90    0.0100745    1.401    0.286
         6 -16.3251    144.4661     67.0523   9.4913880616e+01   3.9633873666e+01     3.126604     1.941572  82.83   0.01181769    2.883    0.653
         7 -16.1735    187.4485     69.9307   8.7180296823e+01   2.8877902643e+01     3.076314     1.512678 -61.45  0.008708461    4.930    0.797
         8 -12.2779    249.6687     15.5479   6.3515480387e+01   2.0195649196e+01    0.6634424    0.4313022 -25.90   0.00346722    1.387    0.279
         9 -12.3342    249.4770      8.0859   6.1541932061e+01   2.0950294654e+01    0.5721247    0.3555653 -24.47  0.001562398    1.465    0.317
        10 -10.3049    150.5608     10.5149   7.3781076671e+01   4.6295174878e+01    0.3854143    0.1883552 -36.79  0.001568875    2.026    0.506
        11 -12.5731    104.7601      3.6090   8.0165517833e+01   5.8273562936e+01    0.6549686    0.4844923  33.68  0.001933699    1.338    0.252
        12 -16.8545    222.4737     25.4970   6.8942958850e+01   2.5808431192e+01     2.333064     1.757796 -19.37  0.008647833    1.287    0.223
        13 -15.7449    248.4996     38.4365   6.9746685599e+01   1.8105109169e+01     1.493822    0.4806067 -26.75  0.004980464    2.621    0.618
        14 -10.2388    208.2600      1.3782   6.3182538502e+01   3.1855357255e+01    0.3083613    0.1379414  77.50 0.0008223456    2.383    0.580
        15 -14.8929     99.1520    173.9379   1.2690796673e+02   2.8029561021e+01     1.407797    0.7724843  32.67  0.007484447    2.295    0.564
        16 -13.3069     14.6140    194.5691   1.4387876651e+02   3.4459244826e+01     0.507511    0.3916961  48.58  0.003729861    1.440    0.306
        17 -10.8986    129.1603    206.6832   1.2528051955e+02   1.8386920992e+01    0.2923984    0.2239951  71.56  0.002145633    1.318    0.241
        18 -10.9721    219.0147    181.5179   1.0670130885e+02   6.8437572936e+00    0.2765286   0.08979068  41.92  0.001215472    2.556    0.609
        19 -11.6425     24.5418    177.3526   1.4125899817e+02   3.6488533068e+01    0.1854044    0.1446775  77.52 0.0007756695    1.134    0.119
        20 -14.7389     46.3586    199.9487   1.3883783394e+02   3.0358859811e+01    0.8641307    0.7944974 -51.99   0.00749387    1.783    0.439
        21 -10.5562    115.1272    163.1491   1.2239388440e+02   2.7463209149e+01    0.3356476    0.2138054  74.12  0.001846812    1.882    0.469
        22 -10.9903    248.7535    152.3190   9.6759146659e+01   4.8652725807e+00    0.1968273    0.1825526  11.94 0.0006847237    1.249    0.199
        23 -11.5391      1.9366    149.5731   1.4396661742e+02   4.3579522388e+01    0.3244837    0.1070585 -86.73   0.00171109    2.578    0.612
        24 -13.5174    238.1262    145.4976   9.7011202074e+01   7.5411139269e+00    0.6477187    0.4324505 -22.79  0.003779966    1.498    0.333
        25 -14.0077    240.6606    134.4748   9.4343059222e+01   8.3497266011e+00     1.057186    0.7162556  20.41  0.005956065    1.455    0.313
        26 -14.4035    241.3217    118.8230   9.0829365833e+01   1.0088373664e+01     1.436259    0.8146059 -24.44  0.007264473    1.699    0.411
        27  -9.1597    202.0205    248.0412   1.1859673716e+02   2.8412876665e+00    0.1172643    0.0851275  35.45 0.0003089518    1.048    0.046
        28 -12.1781     67.6154    144.2452   1.2973309979e+02   3.7931380375e+01    0.5849881    0.3149274  60.96  0.002953206    1.851    0.460
        29 -11.0371    125.6181    143.4167   1.1718412803e+02   2.9239540188e+01     0.432198    0.1955908  52.18  0.001832452    2.177    0.541
        30 -11.5428    249.7566    137.5958   9.3634345605e+01   6.2944106184e+00    0.2692398    0.1961201 -14.44 0.0004750552    1.292    0.226
        31 -12.2931    121.1990    134.3643   1.1652525913e+02   3.1690545763e+01    0.6427793    0.4950223  89.15  0.003694933    1.458    0.314
        32 -12.6066    211.0312    134.0735   9.9022137502e+01   1.4197573616e+01    0.5410097     0.269765  51.37   0.00249754    1.974    0.494
        33 -12.4737    183.7378    134.6080   1.0397429836e+02   1.9629657746e+01    0.5316995    0.2639059  50.91  0.001697508    1.933    0.483
        34 -11.5675    209.6953    128.5002   9.8048578436e+01   1.5229737501e+01    0.2832802    0.1950797   7.45  0.001442032    1.743    0.426
        35 -11.9674    161.2013    127.3400   1.0678538109e+02   2.5363227927e+01    0.3831654    0.3091086 -17.59  0.001457956    1.479    0.324
        36 -11.5406    214.0698    128.1549   9.7233619005e+01   1.4385396643e+01    0.2173015    0.1683912  18.84 0.0007393479    1.284    0.221
        37 -13.7012    249.3015     65.0592   7.6653517235e+01   1.4902966288e+01     1.249932    0.3596073 -24.06  0.004196647    3.267    0.694
        38 -10.5598     94.7048    234.0807   1.3341707674e+02   1.9390908419e+01    0.1331445    0.1015459  62.03 0.0004050938    1.093    0.085
        39 -13.3529     22.9038    227.8094   1.4398986984e+02   2.8452687925e+01    0.5198058    0.3816433 -73.79  0.004756024    1.728    0.421
        40 -12.8816     17.7048    225.1278   1.4465768906e+02   2.9349964190e+01    0.4503514    0.2826647 -66.89  0.003780904    2.073    0.518
        41 -12.1303    135.8637    223.3775   1.2596242297e+02   1.5140775220e+01    0.6202353    0.3177966  44.25  0.002974849    1.493    0.330
        42 -11.2942     77.2714    225.3242   1.3549925358e+02   2.2812498196e+01     0.311841    0.1294438  47.44  0.001582675    1.761    0.432
        43 -13.0309    197.1272    118.3390   9.7967885182e+01   1.9307119069e+01    0.6532417    0.4446465 -83.63  0.002757868    2.913    0.657
        44 -10.1429    238.8282    224.9065   1.1035837811e+02  -4.6206749273e-01    0.1283803     0.104077  36.00 0.0003939398    1.303    0.232
        45 -14.3794    228.4953     93.7028   8.6820256204e+01   1.5942687339e+01      1.99903      1.00631 -13.68  0.008075875    2.455    0.593
        46 -12.1132    167.3750    112.9239   1.0234199131e+02   2.6528118652e+01    0.4105732    0.2843702 -84.23  0.001807274    2.412    0.585
        47 -13.2099    203.8274    110.1692   9.4874766615e+01   1.9068206062e+01    0.6942039    0.3093303  45.55   0.00286977    2.151    0.535
        48 -12.3282    231.4185    109.0493   9.0088404332e+01   1.3324061188e+01    0.3895486    0.2301564 -30.69  0.001585196    1.644    0.392
        49 -10.7673     36.0064     98.9992   1.3135940061e+02   5.0995747182e+01    0.3011004    0.2202892  67.04  0.001341807    1.360    0.265
        50 -10.6931     36.2093     94.8050   1.3068364317e+02   5.1884834592e+01    0.3396757    0.2033344  72.95  0.001671763    1.856    0.461
        51 -11.8870    218.8493     80.8174   8.4992428195e+01   1.9832802653e+01     0.772535    0.5350986  -3.14  0.003730816    1.625    0.385
        52  -9.5081     74.1794     68.1523   1.1391097656e+02   5.3012819866e+01    0.1779307    0.1434326 -77.44 0.0004302746    1.319    0.242
        53 -14.0235    236.1128     58.8058   7.6660618585e+01   1.8641670942e+01    0.7403787    0.6002997 -18.01  0.001804471    1.151    0.131
        54 -12.0568     12.9167     45.4631   1.2927039352e+02   6.4531690289e+01    0.2691627    0.1943623 -49.16  0.001238817    1.262    0.208
        55 -12.5240      6.1818     35.4479   1.2967611321e+02   6.7079940721e+01    0.3927524    0.2820276 -56.81   0.00260608    1.098    0.089
        56 -11.0654     89.4460     29.4324   9.5950698139e+01   5.7856493004e+01    0.4071833    0.2355077 -19.60  0.001696808    2.150    0.535
        57  -9.6586    138.0797     20.4828   7.9979531754e+01   4.8320296506e+01    0.2255169    0.1885381 -23.70 0.0004239661    1.166    0.143
        58 -11.7788    150.1691    219.1389   1.2320415465e+02   1.3555377716e+01    0.4649586    0.2885774  33.31  0.002038524    1.623    0.384
        59 -14.8323     65.9749    186.6882   1.3440930988e+02   3.0296158370e+01     2.159225     0.962109  48.55   0.01288593    1.815    0.449
        60  -9.9395     38.7799     19.2266   1.1020946826e+02   6.7493465536e+01    0.1669919    0.1212389 -28.99 0.0005503676    1.294    0.227
        61 -14.9803     82.0635    165.2602   1.2922569621e+02   3.2003106077e+01     1.932978     1.037316  38.82   0.01017344    1.906    0.475
        62 -14.7467     33.1469    197.1008   1.4090057520e+02   3.2235517591e+01     1.334569    0.5461343  84.86  0.005825985    2.508    0.601
        63 -13.7878    119.4435    179.2740   1.2373565533e+02   2.4052829065e+01    0.9765377    0.6828142  62.91  0.005535042    1.323    0.244
        64 -13.9947    108.1843    179.0207   1.2580776466e+02   2.5822280306e+01    0.7723809    0.4996196  43.02  0.004030602    1.427    0.299
