#   1 NUMBER                 Running object number                                     
#   2 MAG_AUTO               Kron-like elliptical aperture magnitude                    [mag]
#   3 X_IMAGE                Object position along x                                    [pixel]
#   4 Y_IMAGE                Object position along y                                    [pixel]
#   5 X_WORLD                Barycenter position along world x axis                     [deg]
#   6 Y_WORLD                Barycenter position along world y axis                     [deg]
#   7 A_WORLD                Profile RMS along major axis (world units)                 [deg]
#   8 B_WORLD                Profile RMS along minor axis (world units)                 [deg]
#   9 THETA_WORLD            Position angle (CCW/world-x)                               [deg]
#  10 FWHM_WORLD             FWHM assuming a gaussian core                              [deg]
#  11 ELONGATION             A_IMAGE/B_IMAGE                                           
#  12 ELLIPTICITY            1 - B_IMAGE/A_IMAGE                                       
         1 -14.4221    104.6342     71.8434   3.8479609245e+01   4.7905756292e+01     2.242615     1.162672 -24.62  0.007535172    3.166    0.684
         2 -15.5093     89.4989     63.2026   4.0423192883e+01   5.2864946742e+01     1.774485     1.545193 -60.83  0.009381377    1.281    0.220
         3 -14.6248     10.5944     79.9976   7.7890449439e+01   5.9686361563e+01     1.742413    0.8952619  80.32   0.00759067    2.613    0.617
         4 -15.1951     69.1956     53.1970   4.4265461960e+01   5.8810716534e+01     2.484901    0.7358656 -46.08  0.008046424    3.437    0.709
         5 -14.6195    239.2331     48.8494   7.8097466604e+00   2.0315078039e+01    0.7252443    0.5534821 -49.91  0.004614368    1.089    0.082
         6 -13.7656    191.7852     30.9632   8.2241925911e+00   3.2972989160e+01    0.7142695    0.5032762 -64.16  0.002419518    1.368    0.269
         7 -14.5472     57.3110     11.7968   3.0132182527e+01   6.7770886454e+01     1.340072     1.062349 -83.54  0.007303528    2.115    0.527
         8 -11.8656      9.6870     14.9494   5.9523493467e+01   7.4222549847e+01    0.3202855    0.2757684 -17.05   0.00224582    1.099    0.090
         9 -14.3450     58.8470     56.9423   4.9979981262e+01   5.9838025594e+01     2.193959     1.089171 -60.04  0.008405246    2.800    0.643
        10 -12.0253    173.6201      5.3432   3.0069883088e+00   4.0165423178e+01     0.254419    0.2254518  65.51  0.001349783    1.195    0.163
        11 -13.4158    131.9454      3.6423   7.3540554822e+00   5.0891069273e+01    0.8324292    0.4322318  84.93  0.003699301    2.043    0.510
        12 -12.4561     14.4686    193.9823   8.7437966112e+01   3.1604724141e+01    0.6737178    0.2741023  78.74  0.003105021    2.538    0.606
        13 -13.6408    233.7938    248.9274   4.7742618077e+01  -6.3439672957e+00    0.5498556    0.2891744   5.18  0.003364333    1.900    0.474
        14 -12.2382    156.5493    250.0373   6.1791763720e+01   3.1323840718e+00    0.3178408    0.1355641  33.20  0.001651902    1.835    0.455
        15 -14.2324    106.9378    245.0988   7.1158232066e+01   1.0591116130e+01     1.196799    0.5676367  44.12  0.006389879    1.749    0.428
        16 -15.1464     15.3118    120.0293   8.1501023611e+01   4.9275807087e+01     2.050828     1.415087  53.85   0.00982708    1.482    0.325
        17 -13.8697     43.1166    248.0978   8.4312731504e+01   1.7942206640e+01    0.7340029    0.4105197  39.35  0.004623917    1.381    0.276
        18  99.0000     80.5704    232.2380   7.5453845445e+01   1.6316802579e+01     1.973253     1.135436  86.73   0.01044023    2.400    0.583
        19 -14.3243     45.9527    167.6441   7.7444629308e+01   3.4454522977e+01     2.330637    0.8040991 -68.44    0.0091966    2.738    0.635
        20 -13.8965     24.5183    248.1267   8.7920761114e+01   1.9897192762e+01    0.6780989    0.3239785  43.77  0.003872471    1.505    0.335
        21 -13.5235      5.9874    222.8262   9.0558990342e+01   2.6389801615e+01    0.8822342    0.2705802  59.64  0.004172634    2.693    0.629
        22 -13.3845     13.5753    243.8030   8.9836260099e+01   2.1743126196e+01    0.8934551    0.2843876 -81.40  0.004483838    3.244    0.692
        23 -13.9605      2.9069    239.1832   9.1706840124e+01   2.3565659244e+01     1.203263     0.344365  88.69  0.005507334    3.706    0.730
        24 -14.5869     63.0123    239.2325   7.9724898287e+01   1.7237919716e+01     1.418417    0.8189356  65.97  0.007876913    1.779    0.438
        25 -14.4515      8.7675    146.4017   8.5916089288e+01   4.3158105292e+01     1.640715    0.8136282  75.04  0.007903109    1.996    0.499
        26 -14.7484     23.9710    146.9393   8.1549381194e+01   4.1788504421e+01     1.807422    0.6661747  56.17  0.006885068    3.098    0.677
        27 -15.1739     31.5317    184.7814   8.2748483214e+01   3.2015015664e+01     2.186156     1.014397  73.95  0.009087169    2.394    0.582
        28 -15.1727     28.2823    163.3721   8.1839447491e+01   3.7359751858e+01      1.60546    0.7171129  63.03  0.006419148    2.436    0.589
        29 -14.0964     30.4659    240.8519   8.6428808123e+01   2.0599430359e+01    0.8598198    0.2734486  58.47  0.003793648    2.918    0.657
        30 -14.4116     12.0214    216.8609   8.9078434362e+01   2.7028091509e+01     2.464334    0.6235461  67.01  0.008400904    5.206    0.808
        31 -14.3660     47.9182    213.0590   8.1028679319e+01   2.4086764578e+01     1.287337    0.7322221  43.74  0.006799417    1.435    0.303
        32 -13.7678     41.1129    234.9211   8.3958464077e+01   2.0560119542e+01    0.7890783    0.3969193  59.16  0.004078033    1.742    0.426
        33 -13.5774     45.4095    225.9302   8.2492196944e+01   2.1799232681e+01     1.181461    0.3261541  47.34  0.005062971    2.758    0.637
        34 -10.7277     55.4934    250.5144   8.2016587052e+01   1.6125655317e+01    0.2096412   0.06573632  41.72  0.001019006    2.182    0.542
        35 -12.7784    149.0909    202.1837   5.6651856922e+01   1.1806015102e+01    0.4690568    0.2136382  39.46  0.002111699    1.956    0.489
        36 -11.9746     89.2115    192.3548   6.9168041765e+01   2.3065989495e+01    0.5028173    0.2762854  67.70  0.002124663    2.618    0.618
        37 -14.0229      5.5546    183.8489   8.9007524985e+01   3.4607675957e+01    0.6546578    0.4708854 -88.30  0.003757459    1.242    0.195
        38 -14.0541      3.1322    175.4222   8.9175810688e+01   3.6701714505e+01    0.6798473     0.370954  78.85  0.002866748    1.605    0.377
        39 -14.1951     96.7281    155.7120   6.1697231917e+01   3.0163040440e+01     2.106948     1.326006 -87.74  0.008727813    2.380    0.580
        40 -14.4614    115.9200    173.2341   5.9676944942e+01   2.2988920760e+01     1.084971    0.8179271 -51.20  0.005704122    1.422    0.297
        41 -12.7359    101.1903    170.7993   6.3038697973e+01   2.5963857732e+01    0.5471443    0.3572659 -65.79  0.002555278    1.709    0.415
        42 -11.4692      2.4604    162.0415   8.8642672545e+01   3.9855195743e+01    0.3209682     0.184375  71.46  0.001788111    1.534    0.348
        43 -14.0546    106.2093    175.1673   6.2447361792e+01   2.4178206348e+01    0.9475989    0.6313084 -45.84  0.004610719    1.660    0.398
        44  99.0000     49.5125    129.5025   7.1431148506e+01   4.3534410567e+01     3.599355     1.182699 -74.40   0.01076565    4.171    0.760
        45 -13.3694     43.7616    147.3898   7.5735669458e+01   3.9673793020e+01    0.5751543    0.4390771  68.51  0.001337204    1.274    0.215
        46 -13.9113     37.9826    133.0336   7.5663435147e+01   4.3932795744e+01     2.184428     0.890783  82.38  0.006088037    5.493    0.818
        47 -13.0156    233.8220    146.3759   2.9838358072e+01   7.1488756537e+00    0.6959994    0.2895679  44.08  0.003176808    2.675    0.626
        48 -11.5257     73.7674    133.8140   6.4452856852e+01   3.9143422079e+01    0.2303636    0.2259914 -52.69 0.0003713269    1.083    0.076
        49 -14.2493     64.2652    217.9622   7.7756686537e+01   2.1128896774e+01     1.021719    0.5480437  64.29  0.004914448    2.012    0.503
        50 -14.9796    127.3387    113.2322   4.4012052669e+01   3.4180653995e+01     1.558067      1.10014 -60.65  0.006971803    1.618    0.382
        51 -15.0349    132.3115    102.6468   3.9900864026e+01   3.5381675040e+01     1.244111    0.9089662 -77.77  0.005374514    1.921    0.480
        52 -13.7048    231.9018    113.2656   2.3117241804e+01   1.2523874264e+01    0.6974921    0.5103273 -49.12  0.003075052    1.398    0.285
        53 -12.1678    100.6624    115.5672   5.2221716134e+01   3.9026898929e+01    0.3870128    0.2486914  79.09  0.001420507    2.761    0.638
        54 -12.0099     38.7256    110.8104   7.2047370577e+01   4.9547573334e+01    0.5653269      0.32633 -79.34  0.002578105    1.823    0.451
        55 -12.5856     35.5819    139.4183   7.7233551886e+01   4.2560851531e+01    0.8109453    0.4119199 -89.62  0.003479376    2.230    0.552
        56 -13.4595     85.0710     44.9372   3.5042472890e+01   5.7167294621e+01    0.9999464    0.8403599 -70.26  0.005285014    1.515    0.340
        57 -14.6263    109.4134     98.4925   4.5132505810e+01   4.1218893529e+01     1.481593    0.8464702 -63.83  0.005503221    2.452    0.592
        58 -13.3036     89.5030     93.6019   5.0043830268e+01   4.6298664037e+01     1.230437    0.6851832  40.87  0.005110715    1.809    0.447
        59 -13.7242    169.4010    244.4750   5.8603056182e+01   2.1799182216e+00    0.6651058    0.3940843  41.00  0.003855893    1.631    0.387
        60 -14.6654     85.3786     80.5891   4.7620696119e+01   5.0033332335e+01     1.249545     1.085311 -79.95  0.005390444    1.344    0.256
        61 -14.7819    117.2283    229.3226   6.7288809214e+01   1.1830349769e+01     1.438551    0.6108999  43.16  0.005480223    2.027    0.507
        62 -12.4376      2.0297     92.1702   8.3127649234e+01   5.7118862802e+01    0.4480142    0.2297014 -79.29  0.001648124    1.712    0.416
        63 -13.1396      9.7368     97.9137   8.0862456058e+01   5.5257131996e+01    0.6987664    0.3611032 -74.32  0.003135725    1.674    0.403
        64 -12.5978     35.0893     94.8083   7.0481139436e+01   5.4000217840e+01    0.7535022    0.2647437 -55.43  0.002909801    2.382    0.580
        65 -12.9325     21.9756     93.8677   7.5496959029e+01   5.5423227206e+01    0.6814333    0.4391964  66.71  0.003237349    1.841    0.457
        66 -12.8422     25.6329    219.2564   8.6314129510e+01   2.5235659242e+01    0.9126732    0.2988703  88.32  0.003675209    3.929    0.746
        67 -11.9796     63.2165     93.2285   5.9265436363e+01   5.0859703870e+01    0.4796916    0.2160868 -62.04  0.001796625    2.390    0.582
        68 -12.9070    135.3813     91.3395   3.5950016356e+01   3.7019479715e+01     0.418956    0.3776861 -52.52  0.001813475    1.123    0.110
        69 -12.3013      1.7623     98.6503   8.3960532550e+01   5.5512134610e+01    0.5987099    0.2292818 -86.22  0.002409043    2.628    0.620
        70 -11.6141     21.4779    210.7287   8.6756642420e+01   2.7383892901e+01    0.4323614    0.1391647  57.16  0.001886397    2.809    0.644
        71 -13.0120     26.3036     79.2101   7.0910170040e+01   5.8723907908e+01    0.6294245     0.445373 -37.02  0.003246908    1.406    0.289
        72 -13.8275     26.1337     66.1988   6.7935219299e+01   6.1884284541e+01     1.016379    0.6575139  47.68  0.005226877    1.887    0.470
        73 -11.6908    212.3421     59.6744   1.3211879728e+01   2.4471177562e+01    0.3688068    0.2125973  66.66  0.001823495    1.878    0.468
        74 -13.0371    142.2343    216.8965   6.0326030232e+01   1.0301504187e+01    0.3572355    0.3186871  13.05  0.002098873    1.098    0.090
        75 -13.6699    218.0050     46.3643   9.3119128542e+00   2.5045235494e+01    0.4499798    0.4123949 -77.00  0.001854426    1.104    0.094
        76 -12.4302     29.5930     48.8055   6.1057311735e+01   6.5509100611e+01    0.5324811    0.3963584 -78.25  0.002896042    1.767    0.434
        77 -13.0145    220.8990     52.1202   1.0390800302e+01   2.3661894064e+01     0.427789    0.3243647  70.16  0.002319421    1.418    0.295
        78 -13.2481    172.0313     34.7317   1.1737824165e+01   3.7326031666e+01    0.5072212    0.3451177  60.89  0.002600734    1.440    0.306
        79 -13.8306     62.6480     68.9215   5.2495403605e+01   5.6641521217e+01     1.197744    0.6738214  52.31  0.004986567    2.320    0.569
        80 -14.7910    127.8509    209.8759   6.2475955503e+01   1.3731995231e+01     1.355767    0.9459463  72.64  0.006097382    2.149    0.535
        81 -12.4577     42.5344     26.1445   4.4726436549e+01   6.8263423504e+01    0.7224665     0.362045  27.98  0.003320894    2.154    0.536
        82 -13.7076     64.1089     26.7028   3.4943128829e+01   6.4389662802e+01    0.4730733    0.3181702  46.77  0.002473702    1.476    0.323
        83 -12.5554      9.0621     25.6750   6.4694405654e+01   7.2195486965e+01    0.6501902    0.3469792  -3.59  0.003353124    2.145    0.534
        84 -12.4486    217.3950     25.7483   4.3930080933e+00   2.7717556628e+01     0.488867    0.2670694 -89.60  0.002393941    1.988    0.497
        85 -13.4069    150.3581     21.9226   1.0890265740e+01   4.4348080283e+01    0.5174688    0.3111639 -85.73   0.00235004    1.929    0.482
        86 -11.9712    115.6886    216.7021   6.6087243322e+01   1.4304263120e+01    0.4058302    0.2068921  44.17  0.001997152    1.745    0.427
        87 -13.6930     73.0231    196.3395   7.3599758684e+01   2.4480945467e+01     1.997204     1.102021  76.78  0.008935998    2.470    0.595
        88 -14.2823     71.2702    175.1105   7.1529845237e+01   2.9475296769e+01     1.170125    0.5529474  43.49  0.004060781    1.917    0.478
        89 -12.2795    190.8732     16.7441   4.5086394215e+00   3.4816441415e+01    0.2658243    0.1658083 -77.81   0.00137691    1.604    0.377
        90 -15.0194     65.8737    163.8314   7.1513385526e+01   3.2877052659e+01     2.036254     1.302611 -68.20  0.009150066    1.571    0.364
