#   1 NUMBER                 Running object number                                     
#   2 MAG_AUTO               Kron-like elliptical aperture magnitude                    [mag]
#   3 X_IMAGE                Object position along x                                    [pixel]
#   4 Y_IMAGE                Object position along y                                    [pixel]
#   5 X_WORLD                Barycenter position along world x axis                     [deg]
#   6 Y_WORLD                Barycenter position along world y axis                     [deg]
#   7 A_WORLD                Profile RMS along major axis (world units)                 [deg]
#   8 B_WORLD                Profile RMS along minor axis (world units)                 [deg]
#   9 THETA_WORLD            Position angle (CCW/world-x)                               [deg]
#  10 FWHM_WORLD             FWHM assuming a gaussian core                              [deg]
#  11 ELONGATION             A_IMAGE/B_IMAGE                                           
#  12 ELLIPTICITY            1 - B_IMAGE/A_IMAGE                                       
         1 -10.9253    237.1452     30.4049   3.9413024974e+01   2.2970529125e+01    0.6127456    0.3745569 -41.81  0.003384424    1.444    0.308
         2  -9.9426     29.5583     17.6047   8.2658377129e+01   6.9249360391e+01    0.3339332    0.1834986 -20.63   0.00104908    1.748    0.428
         3 -11.6523    111.4067     19.2422   5.4699764013e+01   5.4399568535e+01    0.5584466     0.412323  49.51  0.002434385    1.225    0.184
         4 -11.0014    101.7539     16.2440   5.5860854715e+01   5.6875376922e+01    0.4505809    0.3293296  23.18  0.001260665    1.355    0.262
         5 -10.9409    149.8267     18.4140   4.6880957606e+01   4.5288788617e+01    0.3399841    0.2978586 -47.74 0.0006874626    1.219    0.179
         6  -9.6926    154.9130     16.2714   4.5397774213e+01   4.4251183274e+01    0.4186029    0.2797788   0.66  0.002093396    1.973    0.493
         7  -9.6879    156.0905     10.4390   4.3406545633e+01   4.4532518360e+01    0.2626705    0.2427991 -71.76  0.000885167    1.115    0.104
         8  -8.9335    158.9583      7.0003   4.1955480400e+01   4.4143523417e+01    0.2004984    0.1696938 -82.15 0.0004374814    1.170    0.145
         9 -10.3054     86.7618     16.7772   6.0150179102e+01   6.0002300418e+01    0.6266085    0.2758548 -42.27  0.002618425    3.012    0.668
        10 -10.0244     55.1708     17.8587   7.1469458731e+01   6.5664063300e+01    0.4366134    0.2379611  14.92  0.001994867    2.296    0.564
        11 -10.7663     56.7748     14.1947   6.9094467762e+01   6.5858486601e+01    0.6032826    0.3034891  30.43  0.002096312    1.969    0.492
        12 -10.2706     37.6804     17.8368   7.8935518443e+01   6.8213287132e+01    0.3435432    0.2096964  19.80  0.001205803    1.613    0.380
        13  -9.7792     22.9286     15.9607   8.5171282849e+01   7.0229043920e+01    0.2878443    0.2603076 -41.24  0.002099225    1.598    0.374
        14 -10.1196     11.0219     15.0151   9.0999213918e+01   7.1500077639e+01    0.4241245    0.2769878 -28.39   0.00286566    1.169    0.145
        15 -10.6104     24.8151      5.3885   7.8863454844e+01   7.1500179076e+01    0.4422539    0.3052841 -44.86  0.001225075    2.046    0.511
        16 -11.1079     11.8516      6.6662   8.6493530744e+01   7.2695259553e+01    0.4226039    0.3950515 -43.96  0.003260158    1.772    0.436
        17  -9.6738      6.9911      3.0163   8.7381960460e+01   7.3654567278e+01    0.2067024    0.1867453 -20.59  0.001176077    1.538    0.350
        18  -9.3693     78.5397     14.2277   6.1518783688e+01   6.1920842329e+01    0.3443477    0.2514698 -12.23  0.001778488    1.341    0.254
        19 -10.3075    187.3947      9.8055   3.9322447527e+01   3.6897562903e+01    0.2992944    0.2523438  -2.07 0.0009142368    1.499    0.333
        20 -10.1431    186.0230     13.5297   4.0478870904e+01   3.6851298266e+01    0.3149995    0.2181771  72.43 0.0009967244    1.319    0.242
        21  -8.6668    129.5752     10.2821   4.7630586727e+01   5.1021316505e+01    0.1872818      0.15361  50.86 0.0007326591    1.090    0.082
        22 -11.5097    122.4672     11.1667   4.9292487100e+01   5.2631878009e+01    0.5267761    0.3137364  46.25  0.001024604    1.513    0.339
        23 -10.2628    127.0802      4.9733   4.6200133007e+01   5.2080644223e+01     0.278643    0.2379062  32.21 0.0004341757    1.162    0.139
        24  -9.1849     34.5247     12.4816   7.7776625542e+01   6.9362477562e+01    0.1848933    0.1014053 -30.84  0.000630707    1.625    0.385
        25  -9.9686     16.8808      2.9439   8.1738664222e+01   7.2710767710e+01     0.279434    0.2193284 -10.62  0.001420001    1.137    0.120
        26  -9.5131    216.6510      8.3037   3.6125996028e+01   3.0129004399e+01    0.2770952    0.2162087 -49.82  0.001740642    1.203    0.169
        27 -10.4234    210.6639     10.4074   3.7157441331e+01   3.1290835567e+01    0.3946044     0.256942 -53.03   0.00223121    1.415    0.293
        28 -10.2619    212.8051      6.3178   3.5984383624e+01   3.1220150431e+01    0.3232348    0.1946838 -35.76 0.0009787277    1.639    0.390
        29  -9.2237     93.2425     10.3889   5.5631879011e+01   5.9299670231e+01    0.1948877    0.1592721 -68.02 0.0005571756    1.730    0.422
        30  -9.2041     88.8329     10.3130   5.6781452060e+01   6.0237394517e+01    0.3718428    0.1557935  63.63  0.001431283    3.049    0.672
        31  -9.5783     47.2047      9.3544   7.0555943856e+01   6.7958263735e+01    0.2617192     0.188371  13.32  0.001370096    1.198    0.165
        32  -9.9727     78.6166      6.8507   5.8167274526e+01   6.2647680552e+01    0.3278369    0.2690203  40.90  0.002105768    1.155    0.134
        33  -9.7969    104.5451      2.1159   4.9530383521e+01   5.7538714109e+01    0.3921615     0.208676  73.39  0.001833562    2.239    0.553
        34  -9.7708    108.4515      5.0295   4.9843142040e+01   5.6419865988e+01    0.3923511    0.2082915 -19.98   0.00195466    2.044    0.511
        35  -8.4335     56.9878      6.9701   6.5475241749e+01   6.6637990608e+01    0.1486545    0.1176262   0.58 0.0003771699    1.093    0.085
        36  -9.4710      2.1983      5.5449   9.1504799930e+01   7.3669390836e+01    0.2986081    0.1734792 -40.83  0.001980238    1.467    0.318
        37 -10.3895     90.5871      3.5686   5.3411769838e+01   6.0474483252e+01    0.3515854    0.2726447  78.48   0.00154737    1.649    0.394
        38 -10.5825     84.4871      1.3749   5.4043096679e+01   6.1934955290e+01    0.2555086    0.1337413  60.63 2.475152e-05    1.936    0.483
        39 -10.4078     38.7604      4.6375   7.1766844636e+01   6.9761235919e+01    0.3908721    0.2040567  19.12  0.002078283    2.055    0.513
        40  -8.7564    162.8397      2.5616   4.0126110057e+01   4.3581624802e+01    0.1999362    0.1145812  71.02  0.001009247    1.543    0.352
        41  -8.9935     67.7791      1.7121   5.9116845595e+01   6.5211714930e+01    0.3239078    0.1622487  66.48  0.001212058    3.442    0.709
        42  -8.8059    242.0303      1.4656   3.2700218839e+01   2.5241949050e+01    0.1676162    0.1035921  81.29 0.0004325357    1.509    0.337
        43 -10.8527    180.9145     13.4228   4.1045660267e+01   3.8112393580e+01    0.5711904    0.3066362  43.42  0.001907038    2.210    0.548
        44  -9.1786    185.5551      1.5243   3.7307499514e+01   3.8135140932e+01    0.1281768    0.1114804 -89.37 4.188932e-05    1.007    0.007
        45  -8.3745    137.2423      1.3420   4.3268886280e+01   4.9934489680e+01    0.1804514    0.1122326  78.55 0.0003318168    1.612    0.380
        46  -9.8876     19.0454     10.8386   8.4688042060e+01   7.1389804291e+01    0.2008092    0.1742141 -16.75 0.0004151047    1.336    0.252
        47  -8.7304    100.2954    109.0121   8.7980683738e+01   4.0727492872e+01     0.218987    0.1851633 -49.90 0.0005985633    1.118    0.106
        48  -8.9686     91.2023    108.8499   9.0637018872e+01   4.2381447271e+01    0.2119271    0.1771441 -16.76  0.001074638    1.367    0.269
        49  -8.2617     81.6895    109.7157   9.3739203247e+01   4.3751099677e+01    0.1466017    0.1114736 -22.39 0.0003893304    1.572    0.364
        50  -8.7472     28.7043    109.0715   1.1025216712e+02   5.0405728694e+01    0.1955666    0.1452153 -64.00  0.001150499    1.103    0.094
        51 -10.5978      6.4824    107.3233   1.1686519875e+02   5.2455014611e+01    0.4057931     0.242097  85.59  0.001222481    1.786    0.440
        52 -10.1460      8.6800    103.5644   1.1565596749e+02   5.3212391478e+01    0.3496227    0.1832576 -78.05  0.001668668    1.705    0.414
        53  -9.0471     11.5501    101.5226   1.1444254217e+02   5.3514902296e+01    0.2003361    0.1795961 -57.51 0.0005957296    1.152    0.132
        54  -9.1707     35.0000    107.4769   1.0797615799e+02   5.0219548130e+01    0.3032673   0.06496377 -63.92 0.0009297293    3.894    0.743
        55  -9.0576    123.2672    105.5605   8.0560229321e+01   3.6991584177e+01    0.4398306    0.1281683 -40.94  0.001223736    3.649    0.726
        56  -9.2813    118.8079    107.6089   8.2339124949e+01   3.7455948300e+01    0.2169986    0.1480775  53.81  0.000944847    1.637    0.389
        57  -8.0349     72.2825    107.3061   9.6071803246e+01   4.5766918942e+01    0.1456371    0.1052826 -29.77 0.0002498434    1.560    0.359
        58  -9.2941    134.4448    104.7241   7.7369094640e+01   3.4781637737e+01     0.497256     0.150426 -44.72   0.00146092    3.217    0.689
        59 -10.5741     79.6980    103.7897   9.2877876870e+01   4.5474343174e+01    0.3512916    0.2825345 -15.34 0.0007824398    1.457    0.314
        60  -9.7651    108.4385    103.1885   8.4052927931e+01   4.0523983057e+01    0.3760772    0.2532359  25.35  0.000646335    1.814    0.449
        61  -9.2198     17.0149    104.1320   1.1311708854e+02   5.2520983385e+01    0.2155545    0.1183634 -34.32  0.001091392    2.117    0.528
        62  -8.6796    143.3026    102.6431   7.4548511730e+01   3.3258821492e+01      0.16313    0.1252988 -76.83 0.0007038699    1.714    0.417
        63  -8.8565     64.9160    103.9584   9.7611578259e+01   4.7613155614e+01    0.2095709    0.1665375 -39.10            0    1.220    0.180
        64  -8.6992     94.9776    101.6921   8.7618429770e+01   4.3386187072e+01    0.2049906    0.2028206   3.31 0.0006982972    1.070    0.066
        65 -10.0200     45.2900    101.8572   1.0352173880e+02   5.0528244426e+01    0.2714324    0.2158588  53.71 0.0005019672    1.489    0.328
        66 -10.5693     53.7232     98.8105   1.0005376774e+02   5.0286039454e+01    0.4641316    0.2695841 -46.21  0.002243463    1.542    0.352
        67  -8.3245      1.2303    100.6185   1.1756994744e+02   5.4334020042e+01    0.1210549   0.07783484  85.10  0.000689759    1.620    0.383
        68 -10.0329     69.3842     96.8581   9.4403292204e+01   4.8663596239e+01     0.345878    0.2418567 -61.83  0.000935047    1.434    0.303
        69  -8.6570     15.8653     89.5582   1.1097991340e+02   5.6044956356e+01    0.6393312    0.1680017 -43.59   0.00228982    3.750    0.733
        70 -10.2809     21.0614     97.7031   1.1071302138e+02   5.3754029109e+01    0.2665883    0.2259546   1.53 0.0008306851    1.444    0.307
        71  -9.4285     16.0643     95.0744   1.1190750835e+02   5.4737918082e+01    0.3278499    0.2185431  68.26  0.001055281    1.924    0.480
        72  -9.5108    147.5124     96.3206   7.1734048095e+01   3.3608674246e+01    0.2765539    0.2466948  33.41 0.0006071301    1.170    0.145
        73  -8.0005     28.6910     97.7626   1.0818760900e+02   5.3123230596e+01    0.1254836   0.08548849 -36.97 -0.0001541599    1.493    0.330
        74 -10.1362     79.1370     95.1869   9.0793771132e+01   4.7567066934e+01    0.4158439    0.3257225  -1.82  0.001631878    1.554    0.357
        75 -10.1037     35.5540     95.1434   1.0534493698e+02   5.3123764653e+01    0.4917755    0.2650198 -25.51  0.001639697    2.590    0.614
        76  -9.0470    153.2242     95.4407   7.0129497465e+01   3.2463434964e+01    0.2153752    0.1538774  63.48 0.0005575499    1.609    0.379
        77  -9.9179    132.5490     93.2559   7.4591055633e+01   3.7628825051e+01    0.3033023    0.2447987  10.87  0.001092621    1.496    0.332
        78  -8.1736    117.3191     94.2688   7.8996832675e+01   4.0699297984e+01    0.1527286    0.1212625   2.09 0.0003116902    1.560    0.359
        79  -9.6752      1.4568     93.5674   1.1649308230e+02   5.5968940590e+01    0.3181075   0.08104905 -66.41 0.0008802863    2.663    0.624
        80  -9.4291     89.4913     92.4676   8.6743225390e+01   4.6451498445e+01    0.3499047    0.2629201  10.55  0.001682453    1.651    0.394
        81  -9.9023     86.6833     89.0474   8.6645991296e+01   4.7700846446e+01    0.4654612    0.2591986 -64.23  0.001243639    2.580    0.612
        82  -8.7090     51.8119     91.7372   9.9002353399e+01   5.2182195540e+01    0.1761619    0.1526629 -83.46 0.0004437099    1.315    0.239
        83  -8.8935     32.1849     89.6367   1.0532212775e+02   5.4732823105e+01    0.1864539    0.1618447  59.10 0.0006933225    1.401    0.286
        84 -11.3036    119.8037     88.0315   7.6453719505e+01   4.1491779879e+01    0.6119814    0.4034801  37.69    0.0025746    1.606    0.377
        85 -10.1441    124.4935     85.4945   7.4403824831e+01   4.0997924294e+01    0.2556751    0.2368711 -70.04 0.0005401674    1.185    0.156
        86  -9.5569    109.6303     88.3545   7.9435730455e+01   4.3540309457e+01    0.3057603    0.2409494 -56.30  0.001217243    1.357    0.263
        87  -8.0929     62.6313     89.6766   9.4773467667e+01   5.1275812098e+01    0.1510475     0.100608 -23.73 0.0001775198    1.802    0.445
        88  -8.6637     57.1798     89.3541   9.6554059801e+01   5.2070604227e+01    0.1791834     0.127636  41.45 0.0005005174    1.622    0.384
        89  -8.9163     47.9260     88.9581   9.9660284094e+01   5.3282032485e+01    0.2021928    0.1715761 -46.80 0.0003250431    1.014    0.013
        90  -8.1449    145.6461     88.3288   6.9865222409e+01   3.5640879894e+01    0.1634968    0.1244387 -79.38 -7.195932e-05    1.775    0.437
        91 -10.5905    139.5019     88.5230   7.1426107433e+01   3.7021498249e+01    0.9137368    0.1887016 -41.78  0.002274581    4.637    0.784
        92 -11.6672    131.8306     86.6233   7.2806761831e+01   3.9142799463e+01    0.3014959    0.2840323 -20.83 0.0003021314    1.053    0.051
        93 -10.1546    135.0083     83.3036   7.0986120270e+01   3.9081578750e+01    0.5055639    0.3792067  82.98  0.001322083    1.862    0.463
        94 -10.9933    157.3989     83.4663   6.5718388513e+01   3.3799544327e+01    0.4219201    0.2606097  40.21  0.001295261    1.771    0.435
        95 -10.4235     75.8273     83.0365   8.8433702256e+01   5.0821966438e+01    0.3309281    0.2414373 -49.23 0.0003941989    1.283    0.221
        96  -8.9188     71.0303     83.5169   9.0195812419e+01   5.1458549997e+01    0.2469541    0.2241409  65.99  0.001407543    1.341    0.254
        97  -9.6602    173.6941     84.6987   6.2628206322e+01   2.9657852349e+01    0.2274881    0.2006961  58.18 0.0004006992    1.166    0.142
        98  -9.7643    175.4954     81.5443   6.1380084297e+01   2.9794024855e+01    0.3174372    0.2150059  34.53   0.00124757    1.773    0.436
        99 -10.4811     46.2517     83.0099   9.8746648642e+01   5.4837371492e+01    0.4818509    0.1548008 -43.58  0.001219428    2.947    0.661
       100 -10.3889     55.9463     73.3729   9.2527560627e+01   5.5797631446e+01    0.6984049    0.3869458 -13.05  0.002702611    3.225    0.690
       101  -8.7177     33.5934     83.7887   1.0349847707e+02   5.5959198500e+01    0.1806745    0.1137983 -70.41 0.0004883116    1.645    0.392
       102  -8.1619     26.6880     84.6939   1.0618723223e+02   5.6358090277e+01    0.1355612   0.08046603 -38.09 0.0007023215    1.618    0.382
       103  -8.8498     81.7151     84.8418   8.7016698561e+01   4.9469227112e+01    0.1987095    0.1737847 -40.05 0.0002909814    1.054    0.051
       104  -8.8095      2.0291     73.0267   1.1283142431e+02   6.0630799717e+01    0.1650196     0.132934 -52.46 0.0003829087    1.071    0.067
       105 -10.2689      6.6096     80.5244   1.1256178516e+02   5.8700229069e+01    0.3435704    0.1942152 -37.34 0.0001710968    1.710    0.415
       106  -9.4905      4.9669     76.0249   1.1231345035e+02   5.9808580748e+01    0.2351744    0.1524738 -70.81 0.0004715689    1.349    0.259
       107  -9.8307    143.8191     80.7546   6.8039779417e+01   3.7531877598e+01    0.2660978    0.2223464 -54.97 0.0008825743    1.263    0.208
       108 -11.5314    105.0730     78.1814   7.7627590018e+01   4.6565803574e+01    0.6624767    0.5185305 -10.26  0.002156268    1.469    0.319
       109  -9.2087    110.4971     71.5204   7.3880156409e+01   4.6758166501e+01     0.289534      0.14408 -35.55  0.001136263    2.031    0.508
       110  -9.8891     55.2547     80.3274   9.4793678647e+01   5.4362711913e+01     0.304588    0.2139931 -34.05  0.001031053    1.359    0.264
       111  -9.0343     22.0152     80.5402   1.0696929392e+02   5.7683816512e+01    0.2041171    0.1387348 -59.06 0.0006128717    1.201    0.167
       112 -10.6260    155.0459     79.2140   6.4984898097e+01   3.5152350561e+01     0.408519    0.2758456  28.29  0.001737009    1.886    0.470
       113  -8.7651     38.1629     80.3929   1.0101058608e+02   5.6292354027e+01    0.1759944    0.1189783  40.01 0.0009536357    1.789    0.441
       114 -10.4842     97.4919     76.8275   7.9497478683e+01   4.8330862157e+01    0.5342025    0.4040538 -36.94  0.002684373    1.258    0.205
       115  -8.1641     28.5182     78.3770   1.0407449973e+02   5.7647803773e+01    0.1286304    0.1053588 -44.69 0.0007969336    1.045    0.043
       116 -10.8869     78.1320     75.0842   8.5219321880e+01   5.2152559534e+01    0.3615048    0.2828193  13.89 0.0009629908    1.414    0.293
       117 -10.4303     74.4919     75.4554   8.6577415809e+01   5.2664810375e+01    0.3640689    0.2841744 -25.42  0.001206329    1.263    0.208
       118 -10.1100    129.8411     75.4100   6.9858572765e+01   4.1776693812e+01    0.3609941    0.2385631  33.95   0.00100112    1.689    0.408
       119 -11.2039    151.9822     73.2603   6.3873997088e+01   3.6966506396e+01    0.4176992    0.3668991  69.27  0.001310773    1.203    0.168
       120  -8.3717     21.2763     75.6235   1.0613794462e+02   5.8854095901e+01    0.1219838   0.09205242  87.02 0.0007004733    1.699    0.411
       121  -8.4077     11.5088     75.4521   1.0976897455e+02   5.9562514769e+01     0.126675   0.09636239 -51.33 0.0001617591    1.045    0.043
       122  -8.8168    173.5067     74.4961   5.9762449195e+01   3.1517001090e+01    0.1503908    0.1465787 -58.17 -0.0001562081    1.006    0.006
       123  -9.9769     45.5307     72.8208   9.6235672754e+01   5.7189062461e+01    0.2613827    0.1971953 -42.29 0.0005832071    1.123    0.109
       124 -11.5647    137.8785     69.8162   6.6076406969e+01   4.0942378403e+01    0.5967896    0.4003672  43.95 0.0006817711    1.507    0.336
       125  -9.0317     31.0397     72.7073   1.0171140282e+02   5.8694293945e+01    0.1704589    0.1495834 -23.95 0.0005502069    1.155    0.134
       126 -10.5791     97.4964     69.5717   7.7121010661e+01   4.9770271715e+01    0.4389278    0.2836738 -50.22  0.001682615    1.672    0.402
       127 -10.0870     64.4609     70.5877   8.8570442546e+01   5.5214700500e+01    0.3840807    0.2372954  44.28  0.001865861    1.928    0.481
       128  -9.7440     60.0131     66.2112   8.8790645031e+01   5.6755028913e+01    0.3694913    0.2224879 -28.99  0.001343012    1.739    0.425
       129  -8.5334     39.2197     71.3454   9.8212206561e+01   5.8197811459e+01    0.1549681    0.1202516  34.28 0.0002524694    1.527    0.345
       130  -8.1778    184.2744     70.7212   5.6693281601e+01   2.9532492340e+01    0.1475524    0.1114297 -67.97 0.0001794768    1.496    0.332
       131  -8.9585     17.8027     69.4884   1.0602872783e+02   6.0475134172e+01    0.2545102    0.1359164 -59.22  0.001215099    1.518    0.341
       132  -9.4894    121.6972     67.7386   6.9520824147e+01   4.5031562487e+01    0.2802934    0.2222042  -2.57 0.0006908528    1.466    0.318
       133 -10.0107     89.7245     67.4978   7.8884699809e+01   5.1650989120e+01    0.3543109    0.2692794  44.55 0.0009298497    1.419    0.295
       134 -10.1532    153.1392     66.1318   6.1435896127e+01   3.7923717413e+01    0.4256411    0.2462067 -36.18  0.001813199    1.719    0.418
       135  -9.6610    109.7159     64.0177   7.1591952894e+01   4.8316834887e+01    0.5110891    0.2891678 -64.54  0.001666088    3.942    0.746
       136  -8.6118     49.2726     65.4411   9.2599668553e+01   5.8322364894e+01     0.158103    0.1280871  35.82 0.0004723158    1.448    0.309
       137 -10.1782     44.3005     62.6968   9.3670499833e+01   5.9482928295e+01    0.4539565    0.2793626 -41.75  0.002424564    1.379    0.275
       138 -10.7022    173.1690     61.6210   5.6096059627e+01   3.3738287672e+01    0.4997965     0.314383 -31.85   0.00225988    1.622    0.383
       139  -8.8998     66.7285     63.2835   8.5352362264e+01   5.6365930721e+01    0.1985019    0.1793077 -27.74 0.0001768458    1.067    0.063
       140  -9.8812     70.1070     61.8221   8.3631845675e+01   5.6129135765e+01    0.4873188    0.2907117  57.76  0.002048764    2.874    0.652
       141  -9.1846     32.7332     64.0459   9.8673051979e+01   6.0416734720e+01    0.2045054    0.1792303  -7.03  0.001044353    1.208    0.172
       142  -8.9549    147.1646     62.8414   6.1714355434e+01   3.9926701384e+01    0.2013845    0.1760154   6.72 0.0003851082    1.271    0.213
       143 -12.1591      7.1274     57.5237   1.0742719483e+02   6.3745036199e+01    0.5111127    0.2238799 -31.63  0.002538558    2.324    0.570
       144  -9.1331     97.4953     61.0408   7.4200291038e+01   5.1369326852e+01     0.238758    0.1950385 -38.84 0.0006347389    1.220    0.180
       145 -10.3330     95.3522     56.8799   7.3389785527e+01   5.2536233722e+01    0.5351452    0.3297835 -13.49  0.002282322    2.193    0.544
       146  -9.1892     88.3237     60.5052   7.6923247126e+01   5.3234635046e+01    0.2598941    0.2025749  37.55 0.0007881948    1.319    0.242
       147 -10.4563     50.8050     59.5255   9.0089497717e+01   5.9341200856e+01    0.2295924     0.185383 -38.52 0.0002859937    1.100    0.091
       148 -10.0293    199.7858     56.3113   5.0234108111e+01   2.8044495043e+01    0.4167364    0.2940911   2.61  0.001420555    2.172    0.540
       149  -9.2810    211.8131     49.7900   4.6872756950e+01   2.6134138632e+01    0.2883219    0.1971951  75.93 0.0009067209    1.520    0.342
       150 -10.3044    204.0530     52.2079   4.8537746058e+01   2.7625489820e+01    0.6707056    0.3782816 -72.82    0.0027407    2.487    0.598
       151  -9.4894    207.6976     49.9497   4.7453452097e+01   2.7082704637e+01    0.2740554    0.2504641 -77.97 0.0007536443    1.037    0.035
       152  -9.9578    159.8522     56.7205   5.7156431952e+01   3.7803559903e+01    0.3292414    0.2773388   1.66 0.0009637483    1.391    0.281
       153 -10.1699    163.0932     53.0131   5.5400352870e+01   3.7567973267e+01    0.3414446    0.3131897 -52.81  0.000753337    1.097    0.088
       154 -10.6614    150.9044     57.7264   5.9291823398e+01   3.9847716563e+01    0.2669781    0.2529201  88.05 0.0002381174    1.091    0.083
       155 -10.6032    146.9874     55.5659   5.9439781513e+01   4.1145477481e+01    0.4385495    0.2859113  25.94  0.001819261    2.028    0.507
       156  -9.7981     59.1457     57.5900   8.6211245791e+01   5.8598686409e+01     0.410542    0.2443615  22.93  0.001562769    1.901    0.474
       157  -9.1198     34.2042     57.7088   9.6166608425e+01   6.1596631989e+01     0.219796    0.1509168 -56.19  0.001254059    1.430    0.301
       158  -8.6487    214.2799     57.6516   4.8547876083e+01   2.4414262026e+01    0.1496496   0.09619172 -60.88 0.0007011438    1.642    0.391
       159  -9.3569    112.1491     56.1030   6.8165774701e+01   4.9170634132e+01    0.3083052    0.2232289  29.38  0.001505805    1.467    0.318
       160  -9.5066     69.3481     55.8426   8.1794462574e+01   5.7389414553e+01    0.3404073    0.2133978 -43.62  0.001708865    1.533    0.348
       161  -8.5455    185.6512     56.7032   5.2529309406e+01   3.1424445239e+01    0.1482303    0.1115427  28.81 0.0007034356    1.680    0.405
       162  -9.0779    105.4746     56.1702   7.0086887793e+01   5.0590486569e+01    0.2550757    0.1926443  44.21 0.0006338063    1.327    0.246
       163  -9.8341     80.5376     53.5655   7.7017343990e+01   5.5909762152e+01    0.6079999    0.3285618 -15.35  0.002277336    3.067    0.674
       164  -9.6753     84.6432     47.9387   7.3527162898e+01   5.6124537645e+01    0.3249073    0.2148215 -20.67 0.0008566834    1.584    0.368
       165  -8.5259     26.0053     56.4604   9.9192594609e+01   6.2619060306e+01     0.161967     0.120311  14.05 0.0005267686    1.512    0.338
       166  -9.2761     22.0826     55.9985   1.0070804192e+02   6.3042602815e+01    0.1878393     0.143682 -41.14 0.0003436165    1.033    0.032
       167  -8.7752     23.3143     52.6883   9.9188660079e+01   6.3621152508e+01    0.2044925     0.108591 -55.38 0.0006034594    1.658    0.397
       168 -10.1807    173.9678     53.1343   5.3470959512e+01   3.4848507531e+01    0.3553333    0.2494923 -23.29  0.001617512    1.584    0.369
       169  -8.9008     86.1311     53.7442   7.5206545097e+01   5.4857681507e+01     0.291603    0.1841326 -27.32  0.001396425    1.600    0.375
       170  -8.6698     36.3438     53.6938   9.3984943822e+01   6.2188851132e+01    0.2400232    0.1397747 -59.97 0.0008716253    1.973    0.493
       171 -10.2440     43.5164     51.9463   9.0417926075e+01   6.1730115084e+01    0.4043627    0.2820034 -48.65  0.001587173    1.379    0.275
       172  -9.8183     49.5404     49.3187   8.7019074098e+01   6.1481266018e+01    0.2550554    0.1812944 -10.60 0.0007486024    1.453    0.312
       173  -9.8415     46.0299     47.2307   8.7685941574e+01   6.2318223746e+01     0.210703    0.1729718 -25.28 0.0002099774    1.022    0.021
       174  -9.9921    136.2846     51.9343   6.0628534438e+01   4.4296391615e+01    0.3793842    0.3081681 -15.47  0.001524966    1.327    0.246
       175 -11.3220    106.5301     50.6597   6.7805632372e+01   5.1278749429e+01    0.4650813    0.3095908  66.41 -3.836353e-05    2.034    0.508
       176  -8.4597     29.4555     52.4801   9.6492904894e+01   6.3117925728e+01     0.129733    0.1003502 -33.09 0.0008080222    1.056    0.053
       177  -8.6729      1.3747     51.8471   1.0846349032e+02   6.5242182960e+01     0.168256   0.07629714 -51.69 0.0003967265    1.570    0.363
       178  -9.6151    126.6275     50.2895   6.2358271147e+01   4.6831778786e+01    0.2628056    0.2282618  17.95 0.0003064478    1.189    0.159
       179  -9.9596     17.5790     50.9398   1.0114389928e+02   6.4430496480e+01    0.3460383    0.1881963  10.33  0.001651142    2.171    0.539
       180  -8.8224    114.0584     49.7132   6.5381023327e+01   4.9786187271e+01    0.3773488    0.1893731  67.37  0.001278434    3.528    0.717
       181  -8.7156     55.4226     50.4626   8.5093894500e+01   6.0475013453e+01    0.2162602    0.1388004 -30.79 0.0006664159    1.424    0.298
       182 -10.5373     59.0290     47.7641   8.2677145476e+01   6.0449766384e+01    0.3201329    0.2479452   1.16 0.0004405203    1.284    0.221
       183  -9.1813    121.5408     48.6935   6.3068886724e+01   4.8253177974e+01    0.2993201    0.2169572 -65.40  0.001398475    1.910    0.476
       184  -9.9450      5.9638     48.0817   1.0545195485e+02   6.5775776229e+01    0.1885079    0.1318174 -43.99 0.0003276512    1.079    0.073
       185  -9.1701     96.4997     47.3341   6.9532734243e+01   5.3905628310e+01      0.36787    0.2606394  -6.69  0.001821307    1.620    0.383
       186  -9.0036     25.5387     47.9108   9.6694735408e+01   6.4384810978e+01    0.2818943    0.1307459  26.83  0.001426169    2.414    0.586
       187  -8.9628    169.8876     48.1659   5.2712029048e+01   3.6590432834e+01    0.1952654    0.1676909  32.93 0.0004027649    1.291    0.226
       188 -10.2907    153.2812     46.2420   5.5176451074e+01   4.0994384155e+01    0.3027669     0.235775  44.99 0.0004494923    1.286    0.222
       189  -8.5782    138.3282     47.3001   5.8623205727e+01   4.4501456579e+01    0.1518605    0.1087931  25.60  0.000464568    1.641    0.390
       190  -8.9951    186.4899     46.5193   4.9542203118e+01   3.2705846527e+01    0.1419786    0.1335329 -79.25 0.0008102863    1.005    0.005
       191 -10.2283    142.7549     43.4493   5.6394934454e+01   4.3978627064e+01    0.4859083     0.342244  14.65  0.001830438    1.851    0.460
       192 -10.2038    167.1590     43.5760   5.1808818429e+01   3.7916959498e+01    0.3507924    0.2893846  33.55  0.001074648    1.351    0.260
       193  -9.1240     20.3966     43.3689   9.7475545801e+01   6.5712425007e+01    0.3185706    0.2188039 -37.15    0.0020105    1.146    0.128
       194  -8.2228    174.9552     44.7658   5.0855199219e+01   3.5809191159e+01    0.1802164    0.1156458  62.32 0.0003431497    1.510    0.338
       195  -9.7854    109.0386     43.8163   6.4601483185e+01   5.1794923864e+01    0.2989101    0.2450591  55.69  0.000968139    1.291    0.225
       196  -8.8806     76.0925     43.9682   7.4903721937e+01   5.8333781957e+01    0.2220594    0.1515446   4.94 0.0006384209    1.721    0.419
       197  -8.5588    187.6670     43.3266   4.8475641136e+01   3.2858917190e+01    0.1527656    0.1009625 -66.70 0.0007051428    1.714    0.417
       198  -8.5439     69.8633     43.3644   7.6890651191e+01   5.9504435505e+01    0.1741605    0.1168514  24.32 0.0001325052    1.540    0.351
       199  -8.6497    216.9552     41.7934   4.4226011273e+01   2.6040626062e+01     0.233981    0.1385287 -73.01  0.001081793    1.981    0.495
       200  -9.8236    204.9104     41.7295   4.5683564351e+01   2.8887908722e+01    0.2467292    0.1815904 -48.29  0.001327175    1.274    0.215
       201  -8.4289    118.2507     41.9823   6.1512176797e+01   4.9998903176e+01    0.1798619    0.1208567 -29.70 0.0008695863    1.521    0.342
       202  -8.9719     36.4810     42.4663   8.9967529085e+01   6.4326786642e+01    0.2467415    0.1393649 -18.46  0.001229402    2.041    0.510
       203  -9.3156     36.1157     38.6922   8.8688126163e+01   6.5051371118e+01     0.277156    0.1940304 -32.86 0.0008176493    1.187    0.158
       204  -9.8648     32.4152     38.5094   9.0268779686e+01   6.5489375744e+01    0.2372305    0.1850437 -39.76   0.00071391    1.212    0.175
       205  -9.8149     33.3756     35.2782   8.8570699632e+01   6.5959610549e+01    0.2472762    0.1670714   1.96 0.0006670936    1.527    0.345
       206  -8.3069     10.6922     42.6512   1.0169712951e+02   6.6573640410e+01     0.130921   0.06611063 -34.08 0.0004744953    1.707    0.414
       207  -9.7367    149.2214     38.5373   5.3494497216e+01   4.3059016905e+01    0.4436629    0.2168656 -37.42 0.0008369451    2.068    0.516
       208  -9.4439     34.6102     47.0426   9.2443702872e+01   6.3670629663e+01    0.2435656    0.1936145  62.47   0.00133108    2.087    0.521
       209 -10.6973     63.0864     40.2854   7.8187546953e+01   6.1115819380e+01    0.4354418    0.4025528 -14.99  0.001625717    1.185    0.156
       210  -9.5242     56.5452     41.5246   8.1227005021e+01   6.1905341274e+01    0.2400984     0.210274  -1.84 0.0008996852    1.086    0.079
       211  -8.6422     27.8369     41.2100   9.3342605534e+01   6.5457477499e+01     0.175675    0.1135038 -27.14 0.0003745079    1.361    0.265
       212  -9.6544    112.1482     38.7746   6.1905424296e+01   5.1831958194e+01     0.411148    0.2611745 -50.25  0.001911685    1.972    0.493
       213  -8.6471      4.7052     40.3708   1.0378637897e+02   6.7391441694e+01    0.1049002   0.08754419 -89.97  0.000702743    1.729    0.422
       214  -8.0790    181.7082     38.3419   4.7952225155e+01   3.5000009036e+01    0.1492898   0.09989645 -63.63 0.0007026893    1.653    0.395
       215  -9.7754    160.5772     37.8592   5.1203303753e+01   4.0327743687e+01    0.5291974    0.2121003  61.64  0.001458689    2.360    0.576
       216  -8.6480    132.9831     38.0137   5.6647262687e+01   4.7089589219e+01    0.2307912    0.1734929 -70.46  0.001135946    1.722    0.419
       217  -9.4164     48.5210     37.2243   8.2758669134e+01   6.3765452717e+01    0.2413896    0.1896578 -85.69  0.001238194    2.793    0.642
       218  -8.3152    249.6767     37.3114   3.9807237944e+01   1.9409627716e+01    0.1364752   0.07896082 -61.98 0.0007038852    1.654    0.396
       219 -10.0343    192.8829     34.4681   4.5315828709e+01   3.2750023216e+01    0.4305201     0.333749 -84.69  0.002026376    1.288    0.224
       220  -9.6853    127.5263     36.7214   5.7413025228e+01   4.8562543714e+01       0.2734    0.2452398  49.78 0.0008719912    1.067    0.063
       221  -9.6521     81.4338     26.3517   6.5883288929e+01   5.9924023034e+01    0.4169742    0.2369924 -34.69  0.002091524    1.814    0.449
       222  -9.9180     82.9835     35.9933   6.9380359171e+01   5.8301198760e+01    0.3822395    0.2483652 -53.20  0.001468253    2.233    0.552
       223 -10.7575     78.7427     31.4224   6.8905043301e+01   5.9754851985e+01    0.3621402    0.2486763  -9.58 0.0004278801    1.517    0.341
       224  -8.7031     74.5259     37.5251   7.2875703247e+01   5.9631019942e+01    0.2084853     0.128566  53.30 0.0003431803    2.061    0.515
       225  -9.5560     69.8014     36.7249   7.4234874924e+01   6.0577676231e+01    0.3122945    0.2479851   9.92  0.001842649    1.184    0.156
       226  -8.7014    216.1352     35.1601   4.2675063131e+01   2.7106345193e+01     0.190264    0.1403034 -71.61 0.0005427976    1.311    0.237
       227  -9.7198    106.9595     34.9899   6.1856402435e+01   5.3501222794e+01    0.2032428     0.184651  22.71 -0.003769674    1.008    0.008
       228  -8.4513    247.2927     34.3108   3.9363164204e+01   2.0297724824e+01    0.1118055   0.09935115  21.96 0.0002339629    1.588    0.370
       229  -8.3537     86.3611     34.1521   6.7543504205e+01   5.7911830963e+01    0.1854792    0.1188043 -39.05 0.0009333348    1.672    0.402
       230  -8.7536    106.8923    247.4034   1.0985155613e+02   9.2703061989e+00    0.1989875    0.1361364 -36.26  0.001155035    2.229    0.551
       231 -10.0647    238.9936     22.6651   3.7511667809e+01   2.3518266084e+01    0.3211067    0.2531455  70.89  0.001210109    1.343    0.255
       232 -10.0112     43.0527     29.6746   8.1921009117e+01   6.5729737020e+01    0.3774143    0.1793026 -40.85 0.0009510794    1.962    0.490
       233  -9.9026     47.6207     28.4828   7.9435232888e+01   6.5297202016e+01    0.2439346    0.2107225  11.28 0.0007909709    1.190    0.160
       234  -9.7553    110.5325     29.2656   5.8747919225e+01   5.3444751109e+01    0.3100541    0.2637247  56.38 0.0009255212    1.199    0.166
       235  -9.2442    114.5953     32.2115   5.8843046240e+01   5.2154989462e+01    0.2417973    0.1756722  53.18 0.0003927303    1.319    0.242
       236  -8.9389    229.9370     29.7350   3.9939480408e+01   2.4646330409e+01    0.1759352     0.145269 -68.97 0.0002749618    1.050    0.047
       237  -8.2146    221.6480     30.7392   4.1004348355e+01   2.6395854408e+01    0.1248252   0.09740512  43.13 0.0003497824    1.612    0.380
       238  -9.2412     65.8733     30.3288   7.2984088833e+01   6.2201600430e+01    0.1832277    0.1669949  46.98 0.0006945143    1.416    0.294
       239  -9.1058    215.5061     28.4576   4.1090785949e+01   2.8097027237e+01    0.2116412    0.1315183 -16.46 0.0008639275    2.152    0.535
       240  -8.5167    201.2895     29.4038   4.2920017300e+01   3.1345429384e+01    0.1801106    0.1208019  87.02 0.0003805581    1.514    0.339
       241 -10.4382    182.2244     27.3635   4.4774657006e+01   3.6245498217e+01      0.53442    0.3067936  42.92  0.001582006    2.051    0.512
       242  -8.2646    158.3227     29.2952   4.8927479807e+01   4.1962235652e+01    0.1440976    0.1008433  35.35 0.0007019414    1.618    0.382
       243  -9.9511     16.2040     27.9386   9.3815837198e+01   6.8906169983e+01    0.3587252    0.1750286 -25.75  0.001675266    2.026    0.506
       244  -8.6930     15.0133     23.9813   9.2806269212e+01   6.9689061216e+01    0.1421829    0.1028335 -30.91 0.0009584413    1.076    0.071
       245  -9.3347    206.4594     26.5075   4.1582705024e+01   3.0461829842e+01     0.276239    0.2250125  -6.58  0.001116306    1.592    0.372
       246  -8.5674    154.7895     27.3786   4.8917467829e+01   4.3067799251e+01    0.1983798    0.1151203  53.24  0.000241722    1.604    0.377
       247 -10.1047    120.9912     25.7692   5.4953047252e+01   5.1460747552e+01    0.2944731    0.2559309  28.99 0.0006025633    1.106    0.096
       248  -9.6227     75.3589     25.1964   6.7394083912e+01   6.1224820199e+01    0.3769488    0.2162552 -10.81  0.001803112    2.051    0.513
       249  -8.5155     22.4946     26.4904   9.0104575368e+01   6.8589748587e+01    0.1222452   0.09211541 -21.97 0.0008103649    1.033    0.032
       250 -10.2886     30.5570     22.5965   8.4492178639e+01   6.8375370682e+01    0.3738328    0.2190309 -11.92  0.001407977    1.807    0.447
       251 -12.4540     76.0248    219.2072   1.1296616892e+02   1.9012826778e+01    0.9145481    0.6392925  49.46  0.004582255    1.253    0.202
       252  -8.5017     98.4175     23.7622   5.9766671986e+01   5.6771370859e+01    0.1806266    0.1241905  -7.41 0.0006225296    1.572    0.364
       253  -8.0353     95.2542     24.6583   6.1006805628e+01   5.7337919282e+01    0.1250297    0.1032278 -54.89 0.0001991449    1.579    0.367
       254  -8.4209     57.8667     24.3622   7.3408981146e+01   6.4363562514e+01    0.1759568    0.1043102  27.54  0.000467358    1.667    0.400
       255  -9.2500    226.6973     22.9117   3.8656291953e+01   2.6205268743e+01    0.2395587    0.1683782 -89.97 0.0006485395    1.357    0.263
       256  -9.5257    179.0759     22.6795   4.3872887175e+01   3.7566857210e+01    0.2539697    0.2273765 -44.02  0.001210258    1.162    0.139
       257 -10.1018    164.2205     22.3530   4.5865175975e+01   4.1292464106e+01    0.3115442    0.2357211  40.00 0.0008732406    1.431    0.301
       258 -11.0032     69.2140    217.5353   1.1418135318e+02   2.0286031089e+01    0.4178015    0.2801854 -76.81  0.001196648    1.470    0.320
       259  -9.9961     90.7376    214.7767   1.0943577242e+02   1.7800993099e+01    0.3883972     0.163756  30.03  0.001485742    3.040    0.671
       260  -8.9905    218.2866     21.8689   3.9207119285e+01   2.8244493871e+01    0.1726503    0.1544258 -64.71 0.0003297098    1.078    0.073
       261 -10.1073    141.9749     21.2094   4.9139712071e+01   4.6926003887e+01    0.3096538    0.2472328 -35.24 0.0005772416    1.340    0.254
       262  -9.0447     19.1134     21.6826   8.9730940201e+01   6.9708527248e+01    0.1588246    0.1196407 -11.52 0.0003538365    1.119    0.107
       263  -9.4815      1.8244     21.6537   9.8797398309e+01   7.1050926823e+01    0.2149078    0.1348806 -49.06  0.001004947    1.385    0.278
       264  -8.9863    222.3232     20.4760   3.8491121532e+01   2.7482736094e+01     0.211963    0.1659909  57.86 0.0006296153    1.429    0.300
       265  -8.0872    205.7160     21.2730   4.0337034538e+01   3.1254800499e+01    0.1337611   0.08799246 -65.99            0    1.503    0.335
       266  -9.3582    131.5310     20.0340   5.0689451591e+01   4.9590569498e+01    0.2813968    0.2024973 -84.57  0.001202498    1.764    0.433
       267  -8.3585    132.6723    211.3144   1.0008070330e+02   1.1819337239e+01    0.1374618   0.09823955  67.61 0.0007043864    1.672    0.402
       268  -9.2635      1.3202    185.3226   1.2539608745e+02   3.4668430889e+01    0.3068933   0.08448146 -78.06  0.001295455    2.925    0.658
       269  -9.1936     13.2395    174.5487   1.2212318071e+02   3.6066493267e+01    0.1402044    0.1196477   1.84 0.0009540874    1.749    0.428
       270  -8.9279      6.5848    168.7536   1.2313463708e+02   3.7948000431e+01    0.1739849   0.09062261 -89.63 0.0009513781    1.617    0.381
       271  -9.4338      7.0454    163.3141   1.2260341364e+02   3.9160158548e+01    0.1862976    0.1322856 -73.80 0.0002077099    1.197    0.165
       272  -8.6280     69.5523     20.0127   6.7100623152e+01   6.2943579623e+01    0.1845046    0.1164541 -22.14 0.0004771972    1.534    0.348
       273  -8.9949     63.8298     19.3765   6.8866584217e+01   6.4031987714e+01    0.1978467    0.1576639 -24.79 0.0005343584    1.282    0.220
       274  -9.2504     22.9911    162.5135   1.1883104938e+02   3.7979565970e+01    0.1604284    0.1207594  38.21 0.0003768399    1.513    0.339
       275  -9.4706      6.8539    155.8704   1.2202777002e+02   4.0902820446e+01    0.1769902    0.1385609 -70.15 0.0003372478    1.199    0.166
       276  -9.8275    119.6665     18.9877   5.2747102080e+01   5.2519059136e+01    0.2608635    0.1850173  57.94 0.0006905962    1.309    0.236
       277 -10.4570      2.9267    152.7385   1.2268791213e+02   4.1924471609e+01    0.3480381    0.2469266 -45.12  0.002228733    1.709    0.415
       278  -8.5642     24.6430    145.2559   1.1656636097e+02   4.1953921951e+01    0.1285022   0.08281802  66.50 0.0006965117    1.613    0.380
       279 -10.4729     36.9706    141.2570   1.1280592171e+02   4.1747622732e+01    0.3831227     0.251679 -30.93  0.001670389    2.103    0.524
       280 -10.0959     21.9121    141.8967   1.1688267674e+02   4.3006096635e+01    0.2072553    0.1716466  51.46 0.0003707974    1.335    0.251
       281  -9.7136      5.5383    141.0480   1.2099959571e+02   4.4486153069e+01    0.2336008    0.1533229 -46.94  0.000879276    1.694    0.410
       282  -9.8432     29.9990    137.9206   1.1423676364e+02   4.3245922537e+01    0.3119174    0.1981273  16.33  0.001245138    2.124    0.529
       283  -8.5283     13.0000    136.9458   1.1865453145e+02   4.4920107468e+01    0.2151747   0.05791235 -72.38 0.0008043595    2.956    0.662
       284  -8.7386    213.1626     18.2006   3.8817464752e+01   2.9854722403e+01     0.180955    0.1300458 -67.66 0.0003901008    1.288    0.223
       285  -9.8665    226.8949    134.4492   6.5347454880e+01   8.7268269072e+00    0.4121246    0.2760529  55.18  0.002026187    1.793    0.442
       286  -8.8628     15.6654    132.0801   1.1738503667e+02   4.5887221786e+01    0.2646488    0.1015055 -80.07  0.001094328    2.546    0.607
       287  -8.9724    144.4993     14.0020   4.6317830635e+01   4.7046209247e+01    0.1850668     0.135853 -18.32 0.0006412769    1.528    0.346
       288  -9.5599      4.6857    131.0824   1.2021884897e+02   4.6909959723e+01    0.1832632    0.1491309  72.25 0.0003229031    1.251    0.200
       289 -10.3557     48.4335    125.5161   1.0712715195e+02   4.4398198306e+01    0.4057944    0.2849657 -23.36  0.001762338    1.913    0.477
       290 -10.5325    230.6160    124.2305   6.2365743215e+01   9.7875854993e+00    0.5091226    0.3356185 -44.79    0.0022677    1.436    0.304
       291  -8.9889     67.2578     12.8493   6.4606950053e+01   6.4196866616e+01    0.2630385    0.1461371  36.21  0.000902797    1.638    0.389
       292  -9.2477     38.3229    125.5225   1.1008580082e+02   4.5480605256e+01    0.2372027    0.1273274 -49.96 0.0008122271    1.739    0.425
       293 -10.2751     28.0197    125.6604   1.1308725176e+02   4.6424538940e+01     0.274165    0.2050271 -51.15 0.0008872978    1.294    0.227
       294  -9.7741     31.0000    123.9807   1.1197589375e+02   4.6566034838e+01    0.2626548    0.1268613 -67.52 0.0009697065    1.714    0.417
       295  -8.7917     23.2826    125.2583   1.1438605642e+02   4.6930723151e+01    0.1738946    0.1307472  81.66 0.0008127271    1.335    0.251
       296  -9.2110      8.5379    123.4891   1.1832327276e+02   4.8466631457e+01    0.2752567    0.1258252 -45.25  0.000918021    2.321    0.569
       297  -9.5705     93.9609    122.5535   9.3158755665e+01   3.8633526012e+01    0.2705746    0.2527026  79.14 0.0002925729    1.128    0.113
       298  -9.8525     90.0801    122.0393   9.4160514877e+01   3.9414366151e+01      0.22031     0.204742 -56.41 0.0003230218    1.009    0.009
       299  -9.2499     78.2594    123.0818   9.7847335202e+01   4.1044819103e+01    0.2027369    0.1759889 -64.29 0.0003072941    1.070    0.065
       300  -9.1823      7.8903     22.5875   9.5936317260e+01   7.0483880266e+01    0.1845452    0.1444363 -17.48 0.0006669062    1.124    0.111
       301  -8.6650     60.4916    121.3116   1.0276063449e+02   4.3976110102e+01    0.2453189    0.1732155  14.57  0.001003318    1.838    0.456
       302  -9.7292     57.6630    117.9075   1.0293539310e+02   4.5173810414e+01    0.2852759    0.2299562 -81.16  0.000640853    1.264    0.209
       303  -8.0523     73.6667    121.7398   9.8915617816e+01   4.2058292478e+01    0.1411735    0.1093182 -23.95 0.0006959203    1.573    0.364
       304  -9.3338     70.0083    117.9749   9.9201918148e+01   4.3507948849e+01     0.228131    0.2022068 -61.99 0.0007465557    1.026    0.025
       305  -9.7469     98.5078    117.0989   9.0545849275e+01   3.9145542894e+01    0.2616428    0.2256989  33.80 0.0004053263    1.244    0.196
       306 -10.4607     26.3048    116.5304   1.1221425080e+02   4.8801230077e+01     0.299432    0.2459834  33.82 0.0009787836    1.453    0.312
       307  -9.4789     38.6278    114.6632   1.0815175441e+02   4.8116106272e+01    0.2617078     0.169191  74.19 0.0007687936    1.993    0.498
       308 -11.2677     11.7711    114.3862   1.1623846499e+02   5.0430543793e+01    0.2969238     0.232224   0.12  0.001907753    1.687    0.407
       309  -9.9951     46.4866    112.9864   1.0540576515e+02   4.7698685639e+01    0.2663918    0.1998744  -9.07  0.001437195    1.743    0.426
       310  -9.5103     49.9454    111.9477   1.0412055833e+02   4.7562416576e+01    0.2728096    0.2078387 -60.24 0.0008974721    1.131    0.116
       311  -9.5583     62.8590    111.8133   1.0005484737e+02   4.5994383088e+01    0.2257991    0.1780665 -37.58 0.0007122063    1.295    0.228
       312 -10.5722     20.9559    110.0332   1.1282317856e+02   5.0810300755e+01    0.3998482    0.2058547  39.90  0.002036082    2.262    0.558
       313  -8.5257      1.4007    111.4797   1.1892065325e+02   5.1765978940e+01    0.1240669   0.09319144 -71.44 0.0004078943    1.021    0.020
       314  -8.9665    127.8389    109.7857   8.0485641329e+01   3.5092154671e+01    0.2439751    0.2190803  -6.93   0.00122689    1.221    0.181
