#   1 NUMBER                 Running object number                                     
#   2 MAG_AUTO               Kron-like elliptical aperture magnitude                    [mag]
#   3 X_IMAGE                Object position along x                                    [pixel]
#   4 Y_IMAGE                Object position along y                                    [pixel]
#   5 X_WORLD                Barycenter position along world x axis                     [deg]
#   6 Y_WORLD                Barycenter position along world y axis                     [deg]
#   7 A_WORLD                Profile RMS along major axis (world units)                 [deg]
#   8 B_WORLD                Profile RMS along minor axis (world units)                 [deg]
#   9 THETA_WORLD            Position angle (CCW/world-x)                               [deg]
#  10 FWHM_WORLD             FWHM assuming a gaussian core                              [deg]
#  11 ELONGATION             A_IMAGE/B_IMAGE                                           
#  12 ELLIPTICITY            1 - B_IMAGE/A_IMAGE                                       
         1 -15.1034    148.7323    128.9328   1.0367729000e+02   2.6731939280e+01     2.250115     1.888303 -41.63   0.01133067    1.238    0.192
         2 -14.9158      8.2723     21.6365   1.2008352049e+02   7.0638911586e+01     1.510379    0.6241093 -38.08  0.008259176    1.947    0.486
         3 -12.3006     83.9396     22.6118   8.7952295726e+01   6.0145008606e+01    0.3784373    0.2898144  -1.58   0.00163287    1.308    0.236
         4 -12.3333     75.4776     13.3839   8.6667630452e+01   6.2893118570e+01    0.3806593    0.2495326  42.61  0.001128095    1.392    0.282
         5 -13.6502     84.0461      3.3063   7.9452001770e+01   6.2201158469e+01     1.098349    0.5019079  50.57  0.005320736    1.864    0.463
         6 -12.9989     96.1251      3.3346   7.6220714672e+01   5.9609286379e+01    0.4819721    0.3196494  53.70  0.001847892    1.332    0.249
         7 -12.1778     82.2052     13.7906   8.4683008381e+01   6.1528458292e+01    0.3062297    0.2257795  40.99 0.0007959417    1.221    0.181
         8 -13.0055     86.7243     11.5516   8.2330514719e+01   6.0845672265e+01     0.604516    0.3818113  67.95  0.002013429    2.071    0.517
         9 -11.4184    123.8561     10.2758   7.2724159235e+01   5.2520583062e+01    0.2526529    0.2030007  26.93 0.0006111183    1.268    0.212
        10 -11.4868    137.3690      5.6014   6.8553948946e+01   4.9585270779e+01    0.3332313    0.1616528  72.82  0.001440318    2.037    0.509
        11 -11.8682    110.9228      4.5671   7.3258959105e+01   5.6129151177e+01     0.296687    0.1254594  47.36  0.001299406    2.001    0.500
        12 -12.1806    104.2025      3.2622   7.4243567709e+01   5.7797951306e+01    0.3649247    0.2411703 -14.34  0.002003246    1.661    0.398
        13 -11.8697     31.8432      4.0138   9.9791579550e+01   7.1008092381e+01    0.3997349    0.1507255  34.28  0.001979246    2.621    0.619
        14 -12.0778     73.1552      1.5560   8.1930796350e+01   6.4549979660e+01    0.2487298    0.1414875  49.68 0.0005014535    1.596    0.373
        15 -11.6840    177.8059    212.4087   1.1383078704e+02   5.1002997811e+00    0.1965201    0.1079807  32.66 0.0009473671    1.713    0.416
        16 -12.1220    180.1447    208.1114   1.1265828201e+02   5.3618520638e+00    0.2101515    0.1680605  20.02  0.001238374    1.231    0.188
        17 -10.9523    199.0238    202.9940   1.0808400099e+02   2.7544453996e+00    0.2160544    0.1470533  12.71  0.001130209    1.686    0.407
        18 -11.1233     53.5031    201.5008   1.3827149962e+02   2.7470865874e+01    0.1230708   0.09719703  71.26 5.416113e-05    1.006    0.006
        19 -13.2049    191.4886    197.3460   1.0854398959e+02   5.0087620799e+00    0.3671523    0.2457651  41.83  0.001962975    1.339    0.253
        20 -12.0563     71.9897    198.0048   1.3402732668e+02   2.5706452081e+01    0.1598622    0.1309214  67.57   0.00102114    1.010    0.010
        21 -12.9547    238.1091    191.5279   9.8788649076e+01  -2.3893959127e+00    0.7296306    0.4010072 -41.60  0.003724178    2.111    0.526
        22 -12.0145    229.4394    191.2212   1.0025898457e+02  -8.7554615319e-01    0.3293189    0.1995585 -32.84  0.001766374    1.690    0.408
        23 -11.7159    200.9998    194.3652   1.0614392007e+02   3.7286288075e+00    0.3063685    0.2424718  46.19  0.001563806    1.289    0.224
        24 -12.4268     34.3514    177.1325   1.4012590871e+02   3.4890930366e+01    0.2908844    0.2356061 -15.66  0.001842666    2.025    0.506
        25 -11.3811    197.9803    168.4800   1.0169861023e+02   8.5627059027e+00    0.2218505    0.1322072  43.89  0.001030874    1.588    0.370
        26 -11.7170    211.8762    164.6176   9.8203648756e+01   6.4559419571e+00    0.5326368     0.266139  31.27   0.00218137    2.334    0.571
        27 -11.7047    216.7533    174.8331   9.9377217580e+01   3.8697580328e+00    0.4459842    0.2636255  48.38  0.002168038    1.763    0.433
        28 -12.6808    200.2043    155.2908   9.8480560494e+01   1.0400017870e+01    0.8452441    0.4067099 -41.85  0.003493824    2.161    0.537
        29 -14.0577     58.9068    145.6217   1.3044378311e+02   3.9108588626e+01     1.541864    0.5735526  55.47   0.00532338    3.891    0.743
        30 -13.9479     51.6165    143.4673   1.3204884125e+02   4.0522564414e+01    0.9184703    0.3752898  50.09   0.00387417    2.665    0.625
        31 -13.0799    243.0828    247.5047   1.0756239668e+02  -9.9461945061e+00    0.5658128    0.2392625  21.87  0.002696279    2.773    0.639
        32 -14.5801    142.7804    117.6644   1.0235873811e+02   3.0420031359e+01    0.7677138    0.6541309 -59.06  0.002906339    1.238    0.193
        33 -13.0713    190.9662    155.9851   1.0048349889e+02   1.2202339485e+01    0.6900876    0.4840035 -27.71  0.003358869    1.556    0.357
        34 -11.2868     79.8833    109.8817   1.1780272494e+02   4.4448252123e+01    0.2112835    0.1839911 -33.19 0.0003848195    1.232    0.189
        35 -13.3846    120.3367    103.1604   1.0440925702e+02   3.8406628544e+01    0.4692108    0.3653615  80.77  0.002191488    1.642    0.391
        36 -13.5292     17.1683    101.0512   1.3567424688e+02   5.3699880374e+01    0.4266445    0.3617163 -77.16  0.002953627    1.072    0.067
        37 -13.1141     44.4056     96.9016   1.2613838549e+02   5.2180676362e+01    0.3986893    0.2798884 -33.98  0.002220953    1.563    0.360
        38 -12.6315    132.6579    103.1177   1.0111925866e+02   3.5730680988e+01    0.3665148    0.2806412  18.66  0.000393053    1.642    0.391
        39 -11.7373     54.8913     94.9436   1.2225682798e+02   5.1402347854e+01    0.3311601    0.2442316 -39.82  0.001302664    1.348    0.258
        40 -10.8809    188.8521     94.8191   8.6177859443e+01   2.3888772420e+01    0.2136617    0.1808188 -79.88 0.0004840872    1.336    0.251
        41 -13.2497     39.5711     92.6566   1.2685931165e+02   5.3654161406e+01     0.405615    0.3068214 -49.11  0.002322492    1.186    0.157
        42 -11.6879     33.6889     89.5398   1.2820439020e+02   5.4932138843e+01    0.2041094    0.1284126  16.26 0.0007446276    1.961    0.490
        43 -12.6483     22.8982     88.2367   1.3162982064e+02   5.6153519287e+01    0.3690735    0.2227793  62.44  0.001896934    2.272    0.560
        44 -10.8921    128.9305     83.1267   9.6397981207e+01   4.0598741415e+01    0.2294941     0.210064  87.86 0.0004811002    1.205    0.170
        45 -12.3759     56.8778     77.8694   1.1731448759e+02   5.4918634292e+01    0.2124021    0.1700489 -29.49 0.0007954994    1.243    0.195
        46 -10.2894     42.6651     77.7145   1.2236319197e+02   5.6645111076e+01    0.1316666   0.08871814 -28.37 0.0004058305    1.624    0.384
        47 -11.3014     72.7539     75.0187   1.1096567003e+02   5.3238883451e+01    0.1853937     0.111146 -48.21 0.0007087079    1.576    0.366
        48 -12.9599     96.7615     72.0290   1.0217721167e+02   4.9610249458e+01    0.5629241    0.3640868  32.35  0.001276444    1.668    0.400
        49 -12.1804     90.2513     72.9840   1.0453512654e+02   5.0658702836e+01    0.2803984    0.2350067  38.14 0.0007163218    1.217    0.178
        50 -11.8235    121.3902    127.3828   1.1017680830e+02   3.2898412877e+01     0.338924    0.2730447  40.50   0.00158041    1.245    0.197
        51 -10.9378     18.6796     72.1431   1.2990802395e+02   6.0006915995e+01    0.1776686    0.1623906  35.86 0.0006337221    1.324    0.245
        52 -12.2759     59.8887     71.1414   1.1433461084e+02   5.5934664612e+01    0.2023684    0.1855653 -81.54   0.00123991    1.298    0.230
        53 -10.9303     76.6919     70.6976   1.0830150233e+02   5.3487129060e+01    0.1406162    0.1047418 -11.14 0.0004470759    1.602    0.376
        54 -10.8782     83.2388     68.4307   1.0537647226e+02   5.2821262154e+01    0.1811578    0.1342883  50.06 0.0003459814    1.511    0.338
        55 -10.2504    167.6682     63.7400   8.1615681164e+01   3.4499374322e+01    0.1538437    0.1137077  32.30 0.0002280698    1.570    0.363
        56 -12.8178    125.5111     57.5232   8.9168763131e+01   4.5997346266e+01    0.3603599     0.278162  46.46  0.000653772    1.238    0.192
        57 -10.8422     52.6486     56.9463   1.1263818722e+02   5.9755969826e+01    0.1834142    0.1500599 -38.76 0.0004824625    1.105    0.095
        58 -12.5093     67.1448     53.5381   1.0599775395e+02   5.8323953872e+01    0.3793142    0.2918316 -64.31  0.001741932    1.749    0.428
        59 -11.0084    133.1545     53.8911   8.6048020271e+01   4.4751378847e+01    0.2722258    0.2000144  53.92  0.001256217    1.300    0.230
        60 -11.2406     95.0573     49.1050   9.4871762119e+01   5.4073483106e+01    0.2084825    0.1921476  12.10 0.0003509806    1.010    0.010
        61 -12.7885     42.3448     47.7448   1.1368491208e+02   6.2784118269e+01    0.3082591    0.2784077   7.79 0.0006210947    1.183    0.155
        62 -12.5669     41.2714     42.8607   1.1242084004e+02   6.3812486340e+01    0.5253977    0.3192022   3.83  0.002700676    2.080    0.519
        63 -10.3580    210.6556     54.2482   7.1827853348e+01   2.4977417893e+01    0.1853869    0.1352391 -22.10 0.0006057413    1.572    0.364
        64 -12.2156      2.6860     46.4673   1.3044517138e+02   6.6317759052e+01    0.2502486    0.2131949 -40.69  0.001144269    1.111    0.100
        65 -10.6648    156.8629     43.9127   7.7666823453e+01   4.0250941479e+01    0.2182336    0.1869209  33.06 0.0005163172    1.244    0.196
        66 -10.2205    102.4901     43.5558   9.0576243816e+01   5.3401910826e+01     0.140968    0.1305644  21.84 0.0002319046    1.012    0.012
        67 -10.7244    197.5632     40.9886   7.0128678279e+01   3.0095910437e+01    0.2150432    0.1747718  72.26 0.0001135783    1.161    0.138
        68 -12.8674    225.6979    248.0447   1.1059452953e+02  -7.5156452269e+00    0.2691158    0.2133796  12.69   0.00196472    1.109    0.098
        69 -11.2622     81.8666     34.8558   9.3692465582e+01   5.8878275803e+01    0.2104851    0.1704025  10.49 0.0008104307    1.196    0.164
        70 -10.6309    176.4376     33.4611   7.1095031042e+01   3.6527546654e+01     0.144128    0.1321094  81.69 3.485093e-05    1.010    0.010
        71 -11.3037     42.0300     32.9043   1.0831793915e+02   6.5464202892e+01    0.3745069    0.1531967  19.16  0.001382529    4.256    0.765
        72 -10.7222    140.9545     31.6114   7.6799226011e+01   4.5940906847e+01    0.1969806    0.1665021  59.55  0.001069486    1.090    0.083
        73 -10.8296     79.4597     30.2261   9.2620102615e+01   6.0000289035e+01    0.2500381    0.1255986 -27.45  0.001141383    2.071    0.517
        74 -12.2945    193.9010    248.6598   1.1629800021e+02  -2.7340420081e+00    0.1972129    0.1857425 -27.27  0.001486765    1.409    0.290
        75 -11.9239     64.1588     17.4677   9.2531744299e+01   6.4464673209e+01    0.4263218     0.232642  46.53  0.001840376    1.882    0.469
        76 -13.4458    234.7061    246.7135   1.0885029251e+02  -8.6773337674e+00    0.4110924    0.1546497  39.07  0.002088811    2.195    0.545
        77 -13.0277    232.0854    237.7146   1.0789004474e+02  -7.2889528516e+00    0.2829905     0.169111  23.27  0.001666547    1.427    0.299
        78 -12.7858    244.6284    235.5902   1.0541287697e+02  -8.8791665410e+00    0.2145583    0.1911131  41.82  0.001574966    1.638    0.390
        79 -12.9506    188.6530    232.9308   1.1496292051e+02   1.8906936909e-01    0.4031386    0.1611015  42.11  0.001871518    2.055    0.513
        80 -12.6101    194.2930    229.3731   1.1336406734e+02  -2.5883871197e-01     0.263719    0.2081949  12.35  0.001284956    1.244    0.196
        81 -12.6269    237.7922    227.6322   1.0526631251e+02  -6.9659330800e+00     0.363101    0.2376874  55.58   0.00199271    2.555    0.609
        82 -11.4879    216.0059    229.5165   1.0940659079e+02  -3.8227364094e+00     0.193104    0.1000837  37.87 0.0007310644    1.604    0.376
        83 -12.8878    243.5661    223.3557   1.0356107710e+02  -7.3240985594e+00    0.2539372    0.2058063 -39.65  0.001721757    1.730    0.422
        84 -12.1059    191.7375    217.0188   1.1187508157e+02   1.9381321361e+00    0.2462854     0.165265  37.98  0.001191797    1.255    0.203
        85 -12.2686    243.3445    214.8588   1.0213458130e+02  -6.2673959191e+00    0.2009935    0.1498976  34.00 0.0008296337    1.306    0.235
