#   1 NUMBER                 Running object number                                     
#   2 MAG_AUTO               Kron-like elliptical aperture magnitude                    [mag]
#   3 X_IMAGE                Object position along x                                    [pixel]
#   4 Y_IMAGE                Object position along y                                    [pixel]
#   5 X_WORLD                Barycenter position along world x axis                     [deg]
#   6 Y_WORLD                Barycenter position along world y axis                     [deg]
#   7 A_WORLD                Profile RMS along major axis (world units)                 [deg]
#   8 B_WORLD                Profile RMS along minor axis (world units)                 [deg]
#   9 THETA_WORLD            Position angle (CCW/world-x)                               [deg]
#  10 FWHM_WORLD             FWHM assuming a gaussian core                              [deg]
#  11 ELONGATION             A_IMAGE/B_IMAGE                                           
#  12 ELLIPTICITY            1 - B_IMAGE/A_IMAGE                                       
         1 -10.1158      9.3979     19.7126   1.2256186803e+02   6.9346336320e+01     0.374001    0.2195579  -2.03  0.001333992    1.914    0.477
         2 -10.4709     24.7199     16.7262   1.1419993423e+02   6.8606396011e+01    0.3021599    0.2562537  15.57 0.0008857977    1.408    0.290
         3  -9.3179     31.4982     10.7516   1.0842241422e+02   6.8840831635e+01    0.4594045    0.2052173 -23.19  0.001641258    2.509    0.601
         4  -7.9138    127.8258     16.9083   7.9737507513e+01   5.0680592280e+01    0.2106323    0.1676869  27.26 0.0002582979    1.193    0.161
         5  -9.0876     79.8793     12.7865   9.0673270452e+01   6.1340967683e+01    0.2542658     0.213989 -30.67  0.001128475    1.355    0.262
         6  -9.3453     74.5252     13.1249   9.2571116006e+01   6.2271320508e+01    0.3678541    0.2234999 -12.66  0.001446442    1.625    0.384
         7  -9.6477     63.9737     14.4003   9.6833032184e+01   6.3897452562e+01    0.3798667    0.2377188  14.00  0.001007414    1.695    0.410
         8  -8.7965     88.6499     13.2701   8.8193328425e+01   5.9610510782e+01    0.3555819    0.1743402  28.24  0.001549892    2.334    0.571
         9  -8.7816     97.2549     12.0740   8.5229888272e+01   5.8004793853e+01     0.276712    0.1833439  27.81 0.0008938183    1.433    0.302
        10  -8.3085    105.9908     11.0839   8.2525921318e+01   5.6252240158e+01    0.2358386       0.1861 -10.81 0.0006777617    1.244    0.196
        11  -8.0610     38.6699     10.1964   1.0496592406e+02   6.8080101223e+01    0.2758521     0.120115 -19.68  0.001164353    3.114    0.679
        12  -8.4138    136.9138      8.6548   7.4847442540e+01   4.9326312857e+01    0.3250951    0.1799295  -7.39  0.001466097    2.112    0.527
        13 -10.5876     20.0641      8.7950   1.1288939568e+02   7.0304497059e+01    0.2771849    0.1857947  -0.59 0.0004109971    1.446    0.308
        14  -7.8400     64.8709      9.1856   9.4079030209e+01   6.4407908845e+01    0.1748982    0.1236593   9.93 0.0004365713    1.298    0.230
        15  -8.2072      2.2101      8.1422   1.2157943113e+02   7.1800623806e+01    0.1972534    0.1453028 -29.49  0.001491481    1.051    0.048
        16  -9.0451    128.7469      7.1915   7.5882967113e+01   5.1428288726e+01    0.3576008    0.1619949 -12.34  0.001466232    2.585    0.613
        17  -7.6450    119.3254      7.3121   7.7887355155e+01   5.3628503565e+01    0.1476745    0.0890384  30.24 0.0007040849    1.661    0.398
        18  -8.8284     56.4154      4.9508   9.5148350805e+01   6.6277556835e+01     0.349766    0.1839301   0.38  0.001583128    2.508    0.601
        19  -8.6951     68.9672      3.7838   9.0072566799e+01   6.4326102767e+01    0.3986523    0.1810116  -9.88  0.001702531    2.797    0.642
        20 -10.0155     49.0876      4.6213   9.7855031245e+01   6.7421725699e+01    0.2600848    0.1783781   1.66  0.000353513    1.308    0.235
        21  -8.6783     12.3453      4.8108   1.1488643333e+02   7.1598653434e+01    0.2487343    0.1642097 -36.21  0.001728478    1.224    0.183
        22  -9.3316    110.8144      4.0911   7.8490981100e+01   5.5861811530e+01    0.3468656    0.1952207 -32.10  0.001355539    1.913    0.477
        23  -8.2733    153.7850      3.3851   7.0125189847e+01   4.5621003147e+01    0.1973886    0.1095105  54.61 0.0002538473    1.577    0.366
        24  -8.6833    125.3788      3.6233   7.5196509323e+01   5.2545554788e+01    0.2600785     0.201179  30.08 0.0005895711    1.201    0.167
        25  -7.9498    182.3018      2.0316   6.5808069344e+01   3.8525287423e+01    0.1739418    0.1724244 -50.04  0.000343605    1.092    0.085
        26  -7.7988    143.2434      2.0334   7.1351499670e+01   4.8358497107e+01     0.177427    0.1673207  34.17 0.0002149463    1.062    0.058
        27  -7.7390      3.0277      1.1998   1.1810132315e+02   7.2869153722e+01    0.1196034   0.07629556   9.46 0.0003535152    1.654    0.395
        28  -7.4480    204.5115    231.0037   1.1739336637e+02  -5.3597893259e-01    0.1510445   0.09242765  -1.06 0.0004018514    2.279    0.561
        29  -8.0063    248.9817    249.9622   1.1285270294e+02  -9.2178589449e+00    0.1334183   0.09641606  16.43 0.0005294347    1.042    0.040
        30  -9.7714    200.6746    249.1447   1.2067669927e+02  -2.0804004924e+00    0.3374644    0.1929438  25.93  0.001417325    1.619    0.382
        31  -9.3017    151.0988    249.3078   1.2915247069e+02   5.5155412737e+00    0.2811147    0.1643115  32.44  0.001709222    1.627    0.386
        32  -7.8009    123.2743    250.6150   1.3403087504e+02   9.4948200706e+00    0.1559771   0.08634616  36.61 0.0009387164    1.663    0.399
        33  -7.5884    194.8103    229.3779   1.1885202347e+02   1.2274708987e+00    0.1740214   0.09079009  32.79 0.0005388295    1.665    0.399
        34  -7.5987    158.5041    228.9945   1.2531013266e+02   7.1871489929e+00    0.1440411    0.1006911  -9.46 0.0006030131    2.273    0.560
        35  -7.7926    133.6983    229.2089   1.2983841574e+02   1.1109602668e+01    0.1827226   0.08081566  34.83 0.0004309596    2.316    0.568
        36  -7.6352    100.5111    229.5203   1.3584489899e+02   1.6039433071e+01    0.1129245   0.09292891  55.84 0.0001787435    1.070    0.066
        37  -7.5173    174.8290    228.1594   1.2224297763e+02   4.6461473009e+00    0.1601308    0.1233237  20.42  0.000409863    1.310    0.237
        38  -8.6298    246.6613    225.6355   1.0936682187e+02  -6.4453236710e+00    0.3354915    0.1651955  20.96  0.001764184    2.091    0.522
        39  -7.6087    229.5536    226.4980   1.1237019970e+02  -3.9458039949e+00    0.1191977   0.09221637  20.18 4.602191e-05    1.013    0.013
        40  -8.3157    186.9812    226.4760   1.1981270360e+02   2.8836026858e+00    0.1933977   0.09888263  39.93 0.0005872456    1.593    0.372
        41  -7.8675     70.1567    225.8486   1.4085617842e+02   2.0772919137e+01    0.1339688    0.1212752  54.81 0.0008099292    1.327    0.246
        42  -7.7639      2.9961    226.0000   1.5190418419e+02   2.8017471614e+01    0.1391091   0.04649395  36.34 0.0008020511    2.940    0.660
        43  -7.3203    223.6746    224.6698   1.1307702347e+02  -2.8162980805e+00     0.125636   0.07699785  13.88  0.000705059    1.704    0.413
        44  -7.1045    200.3158    223.3438   1.1695212401e+02   1.1079280452e+00    0.1257083   0.08232313  13.39 0.0007048165    1.714    0.417
        45  -7.2483    206.5196    222.4687   1.1571373809e+02   2.0550730202e-01    0.1245791   0.09643706  23.15 2.363058e-05    1.074    0.069
        46  -8.2256    238.1757    221.1495   1.1002893283e+02  -4.6689562781e+00    0.1914568    0.1303516  15.26 0.0009812844    1.263    0.208
        47  -7.7669     51.7073    221.4361   1.4370191593e+02   2.3799927359e+01    0.1329547    0.0952747  37.91 0.0009424481    1.582    0.368
        48  -8.2808    182.4427    219.7993   1.1962862609e+02   4.5506187278e+00     0.250474    0.1355488  28.94 0.0009559985    1.885    0.469
        49  -7.7517    130.4526    220.4937   1.2936150874e+02   1.3002135857e+01    0.1202149    0.1008688  48.92   0.00041125    1.028    0.027
        50  -7.2928    217.3476    219.6960   1.1336107424e+02  -1.2068657618e+00    0.1104919    0.0927468  58.67 0.0007040856    1.694    0.410
        51  -7.7560    173.5409    218.9503   1.2113526348e+02   6.1645892681e+00    0.1537999    0.1024812  -8.06 0.0005989737    2.298    0.565
        52  -7.8287    203.6630    216.5908   1.1527696594e+02   1.4372520044e+00    0.1917188    0.1259849  15.31  0.000543821    1.634    0.388
        53  -8.0447    105.9970    217.7322   1.3358855017e+02   1.7223567489e+01    0.1571022   0.08836006  43.58 0.0008904503    1.524    0.344
        54  -8.3864    193.6843    215.5032   1.1690540615e+02   3.2571662095e+00    0.2689593    0.1635575  19.08 0.0009380319    1.912    0.477
        55  -9.0072    247.6471    213.4777   1.0712868528e+02  -5.2548754665e+00    0.3725631    0.1925953 -18.10  0.001928342    2.086    0.521
        56  -7.2442    210.3472    215.3278   1.1387504417e+02   4.9162539902e-01     0.131025   0.08261654  14.28 0.0007049794    1.754    0.430
        57  -8.1526    232.0477    212.4408   1.0958571880e+02  -2.6888977381e+00    0.2432526    0.1507696  -6.51  0.001374811    1.794    0.443
        58  -7.4324     39.0053    213.2212   1.4530169507e+02   2.6707301732e+01    0.1276517   0.07483355  44.20 0.0002853662    1.583    0.368
        59  -7.3872    169.3365    212.3300   1.2091898367e+02   7.8584519832e+00     0.127776    0.0910012  13.20  0.000705206    1.732    0.422
        60  -7.8722    186.1780    210.7779   1.1752619815e+02   5.2010110461e+00    0.1809537    0.1338245  17.06  0.001075317    1.397    0.284
        61  -7.7789     54.6859    210.6682   1.4233132019e+02   2.5387134963e+01   0.09615783   0.08484785 -45.43 0.0005898809    1.680    0.405
        62  -7.7747    162.9780    207.9971   1.2146101202e+02   9.6182596293e+00    0.1913202    0.1410089  16.31 0.0005330445    1.598    0.374
        63  -8.1645    215.8356    205.4116   1.1120574653e+02   8.7185875273e-01    0.2428127    0.1550201  18.55 0.0007786165    1.585    0.369
        64  -9.2295    124.0148    206.0009   1.2871233637e+02   1.6475161522e+01    0.1760402    0.1509756  53.49            0    1.009    0.009
        65  -7.8827    246.9806    205.0014   1.0573376963e+02  -4.1722776760e+00    0.1977631    0.1217931   8.65 0.0009221752    1.645    0.392
        66  -8.3323    226.7451    204.2472   1.0906727761e+02  -8.0595618398e-01     0.325598    0.1533938 -16.98  0.001388505    3.137    0.681
        67  -7.8758    117.2478    205.4087   1.2995353585e+02   1.7657140338e+01    0.2316442    0.1085857  37.86  0.001046963    2.039    0.510
        68  -8.1838    121.9333    213.2097   1.3004836160e+02   1.5560137812e+01    0.2188824    0.1533537  29.98  0.001070384    1.590    0.371
        69  -7.3788    157.3136    203.3670   1.2183856034e+02   1.1339372751e+01    0.1285878   0.09641886   6.53 0.0007038028    1.769    0.435
        70  -8.3506    250.5094    199.4483   1.0413075375e+02  -4.0698357955e+00    0.3054568    0.1110644 -26.67  0.001328891    2.939    0.660
        71  -8.0233    195.3522    200.1828   1.1404195087e+02   5.1440213059e+00     0.252535    0.1417115  48.83  0.001263745    1.804    0.446
        72  -8.1985    243.4988    198.0403   1.0504811778e+02  -2.7779699340e+00    0.2631052     0.111537 -24.03  0.001191907    2.629    0.620
        73  -7.5775    221.9457    199.0075   1.0897355139e+02   6.8515770501e-01    0.1540488    0.1267474  16.91 0.0003997983    1.006    0.006
        74  -8.4780    165.8739    197.7197   1.1926906254e+02   1.0759999441e+01    0.2674227    0.1549346  33.42 0.0008806164    1.672    0.402
        75  -7.8431    237.1603    194.8624   1.0554150121e+02  -1.3385508567e+00    0.1816232     0.128066   7.96 0.0006170751    1.331    0.249
        76  -8.1676    192.8608    194.4899   1.1351118997e+02   6.4336615284e+00    0.2597712    0.1673878 -14.40  0.001313726    2.021    0.505
        77  -7.2443    124.3108    193.3575   1.2689496161e+02   1.8697258758e+01    0.1231415    0.1010248  -4.21  0.000372916    1.736    0.424
        78  -7.5073     90.2467    192.3642   1.3366953146e+02   2.4177234362e+01    0.1756497   0.09715927  49.99  0.000523461    1.632    0.387
        79  -7.9041    245.9628    190.6437   1.0324285922e+02  -2.2594051592e+00    0.1802012    0.1376549  19.81 0.0007476329    1.106    0.096
        80  -7.3616    186.3404    189.3338   1.1383700871e+02   8.4116530357e+00     0.139556   0.09681055  11.09 0.0007051331    1.752    0.429
        81  -7.9738     64.5282    189.5067   1.3850229113e+02   2.8219146643e+01    0.1831495    0.1145095  25.68  0.000933319    2.223    0.550
        82  -7.8096    224.9487    189.5158   1.0667925680e+02   1.4488555952e+00    0.1832417   0.09434187  22.74 0.0005778843    2.330    0.571
        83  -7.7631    165.3688    182.7776   1.1681232053e+02   1.3361166535e+01     0.184436    0.1252708 -30.29 0.0009458965    1.742    0.426
        84  -8.0829    249.8789    182.0636   1.0092616708e+02  -1.8176682142e+00    0.1942714     0.154953   6.99 0.0005733441    1.029    0.028
        85  -7.9149    224.6930    180.6472   1.0501624327e+02   2.7280865577e+00    0.1399063   0.09164269   8.08 0.0007042523    1.715    0.417
        86  -7.8717    183.8146    180.2128   1.1265166342e+02   1.0348467915e+01    0.1934429    0.1519818  11.86  0.001072227    1.360    0.265
        87  -7.1035    156.6605    180.7122   1.1822345667e+02   1.5330837289e+01    0.1354349     0.102736  12.10 0.0007020325    1.639    0.390
        88  -7.8860    173.3942    178.2038   1.1435568522e+02   1.2648436881e+01    0.1801206    0.1306448 -54.66  0.000942183    1.679    0.404
        89  -7.8078     96.4265    178.3679   1.3056180450e+02   2.6027891989e+01    0.1729245    0.1531946  -9.72 0.0006009865    1.561    0.359
        90  -7.6129     69.0186    178.2420   1.3634282320e+02   2.9911156144e+01    0.1507953   0.09582873  41.62 0.0006662058    1.566    0.362
        91  -7.9312    148.7765    174.6329   1.1878627496e+02   1.7889967947e+01    0.2613082    0.1597917  27.45  0.001194033    1.957    0.489
        92  -7.6918     46.5035    175.5253   1.4071808309e+02   3.3186288139e+01    0.1687488    0.1159184  21.29  0.001017128    2.103    0.524
        93  -8.1748    183.7476    172.0509   1.1109857469e+02   1.1720427200e+01    0.2290121    0.1559307  -4.21  0.001077919    2.019    0.505
        94  -7.8096     14.7793    170.3797   1.4666199546e+02   3.7372561758e+01    0.1258098    0.1058203  20.63 0.0009515443    1.710    0.415
        95  -8.1698    177.0333    167.4988   1.1155776883e+02   1.3802999412e+01    0.2833182    0.1701465  -2.65     0.001033    3.462    0.711
        96  -7.8751    199.4747    166.5322   1.0689235988e+02   9.5887215604e+00    0.1415832    0.1232734  15.12  0.000259095    1.055    0.053
        97  -7.7773    122.9347    162.5317   1.2224798711e+02   2.4911676419e+01    0.1867744    0.1211661  16.65 0.0008081101    2.484    0.597
        98  -7.2981    160.4694    159.4931   1.1342223019e+02   1.8495798996e+01    0.1423162    0.1319323  22.28 0.0003493422    1.060    0.057
        99  -8.0434    168.6866    163.8318   1.1255264933e+02   1.6086038784e+01    0.2712683    0.1768842  22.15   0.00120695    1.894    0.472
       100  -7.4501    139.3069    158.3473   1.1781925651e+02   2.2782078021e+01    0.1410535     0.111276  -4.26 0.0007043005    1.701    0.412
       101  -7.9083     21.1977    157.2180   1.4426352037e+02   3.9535155430e+01    0.1791581   0.09689215 -42.09 0.0009504688    2.793    0.642
       102  -7.3487    107.6344    152.2784   1.2392605635e+02   2.9662847991e+01    0.1419564    0.1006353  71.31 0.0007010865    1.678    0.404
       103  -7.4462    169.4774    151.4746   1.0983652807e+02   1.8196464608e+01    0.1451795     0.134704  19.02 0.0001257268    1.042    0.040
       104  -7.6766    133.3944    147.7616   1.1707256124e+02   2.6029055613e+01    0.1962379    0.1327491 -38.23 0.0006965475    1.625    0.385
       105  -9.3436     66.9711    144.4642   1.3231379260e+02   3.7389508709e+01    0.4561804    0.2895341  80.28  0.002269538    1.897    0.473
       106  -7.5125     40.9597    140.0000   1.3794320967e+02   4.1378365991e+01    0.1704118   0.06880993  31.06  0.000594815    2.850    0.649
       107  -7.7971    139.5225    138.0022   1.1360102241e+02   2.6850516984e+01    0.1989522    0.1261703 -22.05 0.0006684311    2.363    0.577
       108  -8.0862     55.1901    135.0014   1.3377563708e+02   4.0936267728e+01     0.211699    0.1234737 -41.95  0.001068994    2.081    0.519
       109  -8.5998      5.0602    134.0790   1.4572338587e+02   4.5728627637e+01    0.2406152     0.147559  -3.92  0.001426572    2.887    0.654
       110  -7.7730     68.6623    133.6614   1.3018300047e+02   3.9575136632e+01    0.1321985   0.09609265 -33.22 0.0007051036    1.758    0.431
       111  -8.2680     23.4967    130.2237   1.4096215385e+02   4.5160981727e+01    0.2652599    0.1351798 -36.41  0.001285723    3.061    0.673
       112  -7.9480    133.9116    124.6269   1.1191228801e+02   3.0726056290e+01    0.3500536     0.139944  43.45  0.001263229    2.513    0.602
       113  -8.7194    240.2826    122.3066   8.9642508349e+01   8.4124686009e+00    0.2374242    0.1917967  -1.21  0.000330836    1.217    0.178
       114  -7.3594    153.4802    123.5529   1.0702750780e+02   2.6916965723e+01    0.1512219    0.1420154   7.63 0.0006748546    1.081    0.075
       115  -9.6742     13.4981    120.1050   1.4225897332e+02   4.8166708397e+01    0.4113469    0.1887037 -43.45  0.002099475    2.635    0.620
       116  -7.1430    159.3666    117.3117   1.0413983722e+02   2.6879905763e+01    0.1603606    0.1184868   9.78  0.000703807    1.763    0.433
       117  -8.9840      2.6136    109.8888   1.4387763654e+02   5.1118218435e+01    0.3359208    0.1523194 -40.31  0.001754247    2.753    0.637
       118  -8.4051     28.4983    110.4833   1.3705539833e+02   4.9124720583e+01    0.1222602   0.09833644 -66.49 -5.099026e-05    1.042    0.040
       119  -7.9803    133.9031    106.4702   1.0741913203e+02   3.4488019913e+01    0.3106413    0.1980772 -25.39  0.001308812    1.950    0.487
       120  -7.9418    124.3520    107.3994   1.1007848220e+02   3.6228848678e+01    0.2900515    0.1327614  30.49 0.0009523661    3.295    0.696
       121  -9.2001     13.7975    106.0451   1.4043401070e+02   5.1242274240e+01    0.2671258    0.1540962 -41.50  0.001128113    1.913    0.477
       122  -8.6665     17.3430    103.3323   1.3908332607e+02   5.1591832889e+01     0.195792     0.119382 -53.00  0.001193396    1.439    0.305
       123  -7.3274    190.6296    103.6839   9.3946516905e+01   2.2335686482e+01    0.1634146    0.1156993  15.76 0.0007035194    1.786    0.440
       124  -7.6048     93.1873    103.6008   1.1749111756e+02   4.2701622029e+01    0.1906348    0.1364463  22.57  0.000940512    1.699    0.411
       125  -8.9139      3.8749    101.2488   1.4252291390e+02   5.2927182175e+01    0.3009909    0.1147588 -45.17   0.00147321    2.749    0.636
       126  -9.7340      8.8445     96.3392   1.4048844885e+02   5.3702338000e+01    0.3946351    0.1841372  -6.63  0.001800598    4.254    0.765
       127  -7.6330    129.9976     97.3195   1.0595499995e+02   3.7162236744e+01     0.245238    0.1169797  26.66 0.0007041054    4.214    0.763
       128  -9.2296     19.9818     91.4979   1.3649326848e+02   5.4018335526e+01     0.229254    0.1578318 -36.72  0.001448125    1.563    0.360
       129  -7.3274     53.2362     92.9898   1.2670633980e+02   5.0605326358e+01    0.1776889   0.09527107 -58.02 0.0008747347    1.601    0.375
       130  -8.6421     44.8573     91.4527   1.2893340566e+02   5.1852831182e+01     0.277551    0.1836404 -23.44  0.001287529    1.949    0.487
       131  -7.6234    109.6775     91.6617   1.0979302205e+02   4.2351894317e+01    0.1520752     0.113776  -8.67  0.000610059    1.717    0.418
       132  -8.1508     96.5154     90.4558   1.1317186192e+02   4.4976883590e+01    0.3275743    0.2047639   4.80  0.001262429    3.022    0.669
       133  -8.3714     67.5682     85.9790   1.2065334332e+02   5.0375356738e+01    0.3943403    0.1714776  28.63  0.001629089    2.878    0.653
       134  -9.2915     36.0753     81.7425   1.2963050990e+02   5.4847121120e+01    0.5072529    0.2402936 -30.95  0.002213387    3.002    0.667
       135  -7.7801    128.1635     83.1909   1.0239207720e+02   4.0349905899e+01    0.3320212    0.1073826  41.15  0.001015194    3.430    0.708
       136  -8.3547    184.7507     78.5898   8.8225638845e+01   2.8025165237e+01    0.3522652     0.215313 -53.25  0.001286046    1.991    0.498
       137  -8.4025     89.1174     78.5953   1.1201959184e+02   4.8705910107e+01    0.2627628    0.1755133  21.20 0.0009846987    1.843    0.458
       138  -9.7978      8.2896     77.0528   1.3766568915e+02   5.7935806572e+01    0.4832256    0.1686109 -48.28  0.002365975    2.318    0.569
       139  -8.9161     48.8457     76.6723   1.2429366507e+02   5.4665448857e+01    0.3531657    0.2396437 -32.36  0.001654129    1.509    0.337
       140  -7.2698    105.3263     76.3183   1.0655870908e+02   4.6284662534e+01    0.1501302    0.1115486  -4.01 0.0007045843    1.677    0.404
       141 -10.0392     24.7919     72.5051   1.3134992713e+02   5.7804025533e+01    0.7312308    0.2664757 -36.15  0.002914639    3.614    0.723
       142  -8.1917     23.5102     69.5069   1.3112986464e+02   5.8544354415e+01    0.2244361    0.1485668 -55.75 0.0005874792    1.183    0.155
       143  -7.7880     75.0265     74.7774   1.1528153756e+02   5.1706433957e+01    0.2107675    0.1487072  -4.27 0.0005439561    1.870    0.465
       144  -8.8380     43.2919     67.9024   1.2391974039e+02   5.7120416214e+01    0.2705866    0.1824715 -29.89   0.00102957    1.512    0.338
       145  -8.2062     80.6281     67.9225   1.1144622521e+02   5.2244464287e+01    0.2413899    0.1894535 -18.96 0.0006749941    1.307    0.235
       146  -8.2646     84.0656     63.9297   1.0908870845e+02   5.2473758046e+01     0.339983    0.2093624  10.90  0.001177881    2.470    0.595
       147  -8.3274     61.8515     67.1417   1.1736932628e+02   5.5112884644e+01    0.2847702    0.1593504 -47.84 0.0006371659    1.551    0.355
       148  -9.4980     65.1736     61.3432   1.1448527537e+02   5.5837501690e+01    0.4048185     0.286592 -10.05  0.002172146    1.671    0.402
       149  -7.4467    106.2598     66.9916   1.0335805745e+02   4.7901955515e+01    0.1900541    0.1196759 -38.75 0.0008089344    1.510    0.338
       150  -9.6176     17.3882     62.6128   1.3172589184e+02   6.0445528311e+01    0.4912238    0.1828555 -45.90  0.001986671    2.149    0.535
       151 -10.7615     38.2284     57.8390   1.2296466320e+02   5.9712439835e+01    0.5285988    0.3035729 -24.06            0    2.069    0.517
       152  -8.3350    193.9366     60.6670   8.1411909817e+01   2.8573942256e+01    0.2287245    0.1959025 -11.65 0.0002409537    1.222    0.182
       153  -8.5327     52.2054     60.8370   1.1882476217e+02   5.7595327344e+01    0.2540952    0.2071694 -15.21  0.000750459    1.249    0.199
       154  -8.0344     49.6945     58.6947   1.1907324126e+02   5.8319758480e+01    0.2028636    0.1712467  -8.68 0.0007630377    1.228    0.186
       155  -9.4994      2.7759     55.2113   1.3539162465e+02   6.2851634195e+01    0.4745088    0.2251913 -49.04  0.002796104    1.570    0.363
       156  -7.9576     99.3614     54.4429   1.0116231194e+02   5.1506766042e+01    0.2429748    0.1270646 -38.38  0.001059296    1.817    0.450
       157  -9.3213     75.0491     50.5317   1.0752223665e+02   5.6440597988e+01    0.4096046    0.2679784  -4.13 0.0003514306    1.997    0.499
       158  -7.4052    118.7681     51.4036   9.4605944111e+01   4.8068756683e+01     0.195452    0.1317793  36.87 0.0002698883    1.497    0.332
       159 -10.3216     45.3270     49.0560   1.1765594923e+02   6.0714250170e+01    0.2661554    0.2005958 -21.76 0.0005134321    1.257    0.204
       160 -10.0057      9.8416     47.6695   1.3096451547e+02   6.4005511431e+01    0.5282533     0.241334 -32.31  0.001898556    2.245    0.555
       161  -9.0287      2.4794     45.4556   1.3330627778e+02   6.4855690652e+01    0.2813635    0.1934111 -22.13  0.001597417    1.532    0.347
       162  -9.3536    249.1398     46.8689   7.0072574112e+01   1.7317884196e+01    0.2579117    0.2274117 -31.08 0.0004412168    1.095    0.087
       163  -8.3765    106.8487     48.1527   9.6739814823e+01   5.1096834651e+01    0.1988939    0.1864618 -22.22 0.0002792805    1.116    0.104
       164  -9.5702     23.6065     47.4195   1.2550652195e+02   6.3102202563e+01    0.3782523    0.2323427   0.81  0.002230369    2.020    0.505
       165  -9.5927     29.8638     44.9850   1.2231589746e+02   6.3054722039e+01    0.4524156    0.2331268  -7.03  0.002092377    3.122    0.680
       166 -10.1785     83.2259     40.1379   1.0097332278e+02   5.6875343528e+01    0.3481426    0.2440814  -1.53    0.0018112    1.593    0.372
       167  -8.3119     92.8798     42.8450   9.8934168953e+01   5.4688110449e+01    0.2209629    0.1739664   3.09 0.0007967121    1.282    0.220
       168  -9.5721     38.9449     41.5697   1.1761426203e+02   6.2828062100e+01    0.4217223    0.2347988   2.15  0.002075552    2.591    0.614
       169  -9.7175     17.7903     38.2744   1.2512270240e+02   6.5332063335e+01    0.5580805    0.1656157 -34.42  0.002014322    4.438    0.775
       170  -8.5837      3.7751     40.1564   1.3145564001e+02   6.5844564997e+01    0.2424344    0.1066229 -62.77 0.0008698307    1.923    0.480
       171  -7.3566    123.4407     40.5317   8.9522803194e+01   4.8711081950e+01    0.1463947    0.1316407  12.05 0.0001536358    1.041    0.039
       172  -9.0602     91.5580     37.0971   9.7149950777e+01   5.5843858687e+01    0.3550068    0.2235995  20.73  0.001041373    1.841    0.457
       173  -9.0566     95.9939     33.3092   9.4320261827e+01   5.5558038671e+01    0.2698871    0.2051726  -0.36 0.0003532364    1.315    0.240
       174  -9.4849     54.6573     36.5992   1.0970997683e+02   6.1865309251e+01    0.3098205    0.2378533 -14.42    0.0010552    1.186    0.157
       175  -8.3661    106.6399     36.6159   9.2524703681e+01   5.2923783101e+01    0.3247749    0.1979545  19.54  0.001432747    2.051    0.512
       176  -8.9191     36.8302     36.1077   1.1654536522e+02   6.4057163100e+01    0.3034614    0.1874291  -8.51  0.001683847    1.921    0.479
       177  -9.3168     70.9695     35.5496   1.0333707986e+02   5.9666010506e+01    0.3960376    0.1496006  30.60  0.001449633    3.590    0.721
       178  -7.3152    143.6627     34.2530   8.2618067799e+01   4.4822151006e+01    0.1396802     0.113875 -77.52 0.0001823433    1.569    0.363
       179  -9.2145      7.3597     33.9357   1.2821286592e+02   6.6854184163e+01    0.3871315    0.2395529 -34.71  0.002562709    1.345    0.257
       180  -7.7770     82.0103     32.4959   9.8373017083e+01   5.8290378495e+01    0.1891919     0.125578  36.10  0.000438699    1.515    0.340
       181  -8.4320    127.7915     30.4267   8.4778220245e+01   4.9096630401e+01    0.2329824    0.1891943 -14.13 0.0002018654    1.231    0.188
       182  -9.1482      1.4971     29.7836   1.2953211963e+02   6.7970661870e+01    0.3027748   0.08971934 -55.97  0.001462083    2.348    0.574
       183  -7.8130    112.7296     29.9590   8.8328129641e+01   5.2553326869e+01    0.3084608    0.1463485  31.22  0.001176187    2.648    0.622
       184  -7.7882    184.0145     27.6860   7.3268514479e+01   3.5472703009e+01    0.1980198    0.1736785  56.95 0.0006160369    1.096    0.088
       185 -10.1416    143.6523     26.5122   7.9919455702e+01   4.5786529403e+01    0.2810283      0.24599   1.34 0.0004076052    1.156    0.135
       186 -10.3537     71.3098     25.6863   9.9186834083e+01   6.1134878897e+01    0.6453972    0.3028315  46.68  0.002107829    2.442    0.591
       187  -7.1352    161.4868     27.6028   7.6913399228e+01   4.1213339231e+01    0.1439548    0.1326391  45.75 0.0001055053    1.027    0.026
       188  -8.1211    153.6435     26.7080   7.8043712608e+01   4.3289848411e+01    0.2348664    0.1526829  28.93 0.0008017852    1.719    0.418
       189  -8.2857     62.2992     26.7015   1.0286055762e+02   6.2404661601e+01     0.184504    0.1532304  16.74    0.0004199    1.198    0.165
       190  -8.7381     57.7881     25.3640   1.0399104462e+02   6.3274943221e+01    0.2621395    0.2133468  29.41 0.0009240759    1.358    0.264
       191  -7.7776    104.8609     31.3848   9.1006246011e+01   5.4037324702e+01    0.2003176    0.1175213  37.93 0.0006453425    1.672    0.402
       192 -10.3849     48.2348     25.5713   1.0781771771e+02   6.4544616064e+01    0.2739188    0.2010275  12.60  0.000452037    1.368    0.269
       193  -7.5885    109.1991     24.2169   8.7014055174e+01   5.4058401642e+01    0.2130584    0.1148295  64.75 0.0008817679    2.514    0.602
       194  -9.4706     84.0644     21.8952   9.3321307579e+01   5.9422872108e+01    0.4275638    0.2269365  32.87  0.001021274    1.931    0.482
       195  -8.1879    131.7757     20.8296   8.0348033931e+01   4.9313701048e+01    0.3622728    0.1785014  23.13  0.001317904    3.047    0.672
       196  -8.3558     92.6940     20.9777   9.0292119155e+01   5.7885130778e+01    0.2529056    0.1654733  25.13  0.001064459    1.534    0.348
       197  -8.3324     45.6496     20.2531   1.0659759106e+02   6.5712990276e+01    0.2514556    0.1414496 -39.81  0.001192069    1.643    0.391
       198  -8.7877     63.7297    247.4276   1.4358360375e+02   1.8014016949e+01    0.1677798    0.1553282  75.32 0.0002401738    1.419    0.295
       199  -8.3070    116.7428     19.9847   8.3450052050e+01   5.2898302758e+01    0.1923847     0.168042  -9.83 0.0001865908    1.136    0.120
       200  -7.0957    146.6750     19.2607   7.6793483574e+01   4.5862972035e+01     0.136401    0.1087024 -73.00 0.0002573454    1.558    0.358
       201  -7.9057     17.9734    248.0000   1.5063380284e+02   2.2984359025e+01    0.1399853   0.04344122  38.86 0.0007915039    2.867    0.651
       202  -8.5760    218.8464    245.4217   1.1709646375e+02  -4.4148365917e+00    0.2116799    0.1320225  -5.61  0.001312323    1.928    0.481
       203  -8.0010    243.0052    244.6328   1.1300151355e+02  -7.8678502453e+00    0.2088863    0.1081629  -8.32  0.001160432    2.441    0.590
       204  -8.6836     50.5834     15.1843   1.0231797499e+02   6.5804339311e+01    0.2819428      0.17182  13.18  0.001082141    1.791    0.442
       205  -7.7843    189.6133     15.2363   6.8785237844e+01   3.5412667094e+01     0.186754    0.1337872  -3.78 0.0007865647    1.663    0.399
       206  -9.2073    158.0174    245.0449   1.2745230879e+02   5.0232457307e+00    0.2361043    0.1291472  51.80  0.001365195    1.706    0.414
       207  -8.5419    249.3668    243.6595   1.1182541579e+02  -8.6716561621e+00    0.1545389     0.134577 -31.60 0.0005806671    1.780    0.438
       208  -8.4087    249.1355    239.1879   1.1116216872e+02  -8.2013665493e+00    0.2261662    0.1509408  12.19  0.001556697    1.238    0.192
       209  -8.4743    233.9943    243.4781   1.1429574522e+02  -6.4522954208e+00    0.2085562    0.1333239   1.02 0.0009090315    1.620    0.383
       210  -7.8421    134.8148     13.2310   7.6924615264e+01   4.9392629985e+01    0.1993381    0.1436439  31.52 0.0004053709    1.354    0.262
       211  -9.4674    192.6738    243.6615   1.2128111574e+02  -2.0806185174e-01    0.2111831     0.167856  36.59  0.000795275    1.108    0.097
       212  -8.6439    176.4581    243.5117   1.2405907691e+02   2.3453850823e+00    0.1168508   0.09080147  35.48 4.216299e-05    1.015    0.014
       213  -7.9820     95.8183    243.3950   1.3798170527e+02   1.4476884396e+01    0.1460285   0.08897406  37.77 0.0005298021    1.598    0.374
       214  -9.2535    170.6589    239.4706   1.2453718528e+02   3.7848002764e+00     0.234958    0.1741714  12.94 0.0009624626    1.585    0.369
       215  -7.4418     25.6849    240.7019   1.4912943629e+02   2.3379673350e+01   0.07938323   0.07277951 -79.85 0.0006627367    1.608    0.378
       216  -7.7663    224.7388    238.7620   1.1511467358e+02  -4.5782299944e+00    0.1596723      0.13042  64.82  0.001050503    2.113    0.527
       217  -7.1341    121.7082    239.3155   1.3312519557e+02   1.1390037146e+01    0.1135777   0.07411765  65.30 0.0005186637    1.596    0.373
       218  -7.7649     79.2363    238.5698   1.4036335624e+02   1.7471698082e+01    0.1414354   0.09066863  39.00    0.0005826    1.555    0.357
       219  -8.7817    242.1417    236.5381   1.1188100947e+02  -6.9268539133e+00    0.2258415    0.1384844  11.82  0.001424589    1.532    0.347
       220  -8.3751    146.7490     14.0872   7.4975114906e+01   4.6383295251e+01    0.2333876    0.1841036  57.26 0.0003616328    1.182    0.154
       221  -7.4555    148.4410    237.5683   1.2821452262e+02   7.5542664276e+00    0.1172793   0.09239677  46.94 0.0001485237    1.047    0.045
       222  -8.0675    195.7981    236.1274   1.1967321250e+02   2.1956077434e-01    0.1722976    0.1380633  40.41 0.0005550925    1.191    0.160
       223  -9.7237    188.8509    234.4532   1.2064715392e+02   1.5374797435e+00    0.2789446    0.2086727  40.08  0.001066238    1.140    0.123
       224  -8.2557    162.0083    234.1822   1.2537001870e+02   5.8836487166e+00    0.1793931    0.1347518  28.02  0.000564829    1.281    0.219
       225  -7.6527    137.9871    235.0000   1.2976181673e+02   9.5614119594e+00    0.1930729   0.05453204  41.77 0.0007889085    2.849    0.649
       226  -7.2247    130.6346    234.6752   1.3103401403e+02   1.0745292612e+01    0.1123877   0.08573361  15.81 0.0007038438    1.796    0.443
       227  -7.8384     91.6691    234.6928   1.3789826723e+02   1.6433016079e+01   0.09707401   0.08602972  15.28 0.0007039483    1.662    0.398
       228  -8.7938    247.6242    231.6074   1.1019188476e+02  -7.2160229847e+00    0.2956126    0.1914954 -44.32  0.001521632    2.568    0.611
       229  -8.7394    236.5116    226.4619   1.1119053978e+02  -5.0095438238e+00    0.2017608    0.1002597 -16.78  0.001039108    2.484    0.597
