#   1 NUMBER                 Running object number                                     
#   2 MAG_AUTO               Kron-like elliptical aperture magnitude                    [mag]
#   3 X_IMAGE                Object position along x                                    [pixel]
#   4 Y_IMAGE                Object position along y                                    [pixel]
#   5 X_WORLD                Barycenter position along world x axis                     [deg]
#   6 Y_WORLD                Barycenter position along world y axis                     [deg]
#   7 A_WORLD                Profile RMS along major axis (world units)                 [deg]
#   8 B_WORLD                Profile RMS along minor axis (world units)                 [deg]
#   9 THETA_WORLD            Position angle (CCW/world-x)                               [deg]
#  10 FWHM_WORLD             FWHM assuming a gaussian core                              [deg]
#  11 ELONGATION             A_IMAGE/B_IMAGE                                           
#  12 ELLIPTICITY            1 - B_IMAGE/A_IMAGE                                       
         1 -12.3050     78.7580     32.8213   6.6439103741e+01   5.9637150800e+01    0.5805011    0.5108519  73.33  0.003473954    1.594    0.373
         2 -12.4787     67.6826     30.9044   6.9585946005e+01   6.1918922586e+01    0.8786419    0.5613542  42.06    0.0047833    1.555    0.357
         3 -13.0522    247.0022     26.1126   3.5052762270e+01   2.2102527178e+01    0.7396997    0.3245488 -31.69  0.003616886    2.359    0.576
         4 -11.4221     30.6213     24.2966   8.2681305186e+01   6.8293790826e+01    0.4837221    0.2509621 -42.38  0.002118594    1.881    0.468
         5 -11.8551     18.6977     15.2780   8.4725697124e+01   7.0951489638e+01    0.5642759    0.2701757 -43.10  0.003123031    2.011    0.503
         6 -10.2835    161.6805     18.7197   4.2411638852e+01   4.2421865309e+01    0.4190985    0.2190706 -42.47  0.002004476    1.994    0.499
         7 -10.2539    126.0742      7.2536   4.4517401082e+01   5.2104462882e+01    0.3352807    0.1425119  50.96  0.001082305    1.992    0.498
         8 -10.4187    120.4783     10.7302   4.6780878241e+01   5.3114107486e+01    0.4106934    0.1971104  32.89  0.001765555    2.552    0.608
         9 -11.3188    116.6128     14.6003   4.8954371901e+01   5.3652616505e+01    0.3796009     0.284803  61.43  0.002166282    1.226    0.184
        10 -10.3060    111.8688     13.1854   4.9459924917e+01   5.4879876789e+01    0.3011457     0.198224  84.59  0.001508027    2.016    0.504
        11 -13.0643    241.7858     14.0303   3.2975576864e+01   2.4587930785e+01    0.4884524    0.3713094  55.99  0.003219044    1.648    0.393
        12 -12.4992    248.6652      8.5689   3.1399675444e+01   2.3798735195e+01     0.622404    0.3458678 -50.65  0.003783496    1.466    0.318
        13 -10.2686    150.2240     15.9444   4.3297023997e+01   4.5496166045e+01    0.3289268    0.2559059  48.43  0.001790343    1.256    0.204
        14 -10.3006    169.1030     15.3331   4.0428479139e+01   4.0969218865e+01    0.3453787    0.2848915  48.24  0.001382549    1.287    0.223
        15  -9.6730      6.5384      1.5361   8.4875682788e+01   7.4072068542e+01    0.1679953   0.09102144  18.66 0.0005531062    1.748    0.428
        16 -12.3055      4.4609     10.7221   9.0706471552e+01   7.2891737103e+01     0.551084    0.3674148 -40.80  0.002120665    1.400    0.286
        17 -10.4004      1.6922      3.0946   8.8704709904e+01   7.4250770708e+01    0.2474987    0.1694995 -13.59  0.001777463    1.103    0.093
        18 -11.1000     92.3166     13.1554   5.4205600896e+01   5.9211164730e+01       0.3677    0.1880957 -18.14  0.001779986    2.195    0.544
        19 -10.2740     93.6265      6.9404   5.1326834263e+01   5.9503937435e+01    0.2619653    0.1453525 -36.56  0.001277991    2.119    0.528
        20 -10.6810    105.4689      2.0965   4.6671319751e+01   5.7287313927e+01    0.3573493    0.2757505  77.20  0.001797633    1.409    0.290
        21 -10.3030    108.6369      7.3316   4.7978575365e+01   5.6143533586e+01    0.2610279    0.2003644 -73.04 0.0009848973    1.715    0.417
        22 -10.5656    100.9909     12.5074   5.1721710868e+01   5.7391002541e+01    0.3933229    0.1844058  41.07  0.001818381    1.975    0.494
        23 -11.0986    104.6678      8.9889   4.9488589055e+01   5.6894952419e+01    0.3317668      0.22386  31.41  0.001034983    1.453    0.312
        24 -10.2641    148.2702     10.2687   4.1856154342e+01   4.6516464871e+01    0.2252423    0.1990296  87.94 0.0001977339    1.100    0.091
        25  -9.2284     54.1277     10.8258   6.5749248999e+01   6.6764950405e+01    0.1745196    0.1190727  16.28 0.0005502062    1.321    0.243
        26  -9.7884     49.0077     11.0552   6.7958315248e+01   6.7570967761e+01    0.1670244    0.1528004 -51.39  0.001055946    1.730    0.422
        27 -10.3407    200.7346      7.4458   3.4902582188e+01   3.4274011082e+01     0.306746    0.1809648 -48.38  0.001481274    1.600    0.375
        28  -9.5872    194.6010     10.2234   3.6166403344e+01   3.5412953349e+01    0.1610416    0.1237621  -8.05 0.0009449442    1.774    0.436
        29 -12.3392     23.8324      7.0244   7.7865108790e+01   7.1552983280e+01    0.6126274    0.5192733  15.72  0.004543042    1.380    0.275
        30 -11.1378     12.5070      5.4755   8.3369914820e+01   7.2974861145e+01    0.2408228    0.1683131 -24.64  0.001111635    1.195    0.163
        31  -9.8149     77.8471      9.0599   5.6615118938e+01   6.2590134591e+01    0.1707411    0.1606074  35.73 0.0003050839    1.221    0.181
        32 -11.7977     16.0015      8.0243   8.2672848135e+01   7.2274250680e+01    0.3671038    0.2405613   6.10  0.002001579    1.341    0.254
        33 -11.4036    233.7852      7.3745   3.2185136128e+01   2.6986655033e+01    0.1975914     0.186792 -67.68 0.0003852694    1.291    0.225
        34 -10.3716    226.6223      7.7767   3.2801875083e+01   2.8468847859e+01    0.1624704    0.1339461 -85.43 0.0005835636    1.095    0.087
        35 -10.9342    161.0788      5.7223   3.8745829443e+01   4.3831945792e+01    0.3994405    0.2293494  38.93  0.001812731    2.090    0.522
        36 -10.3416    139.6335      4.1899   4.1261776393e+01   4.9132169774e+01    0.4324939    0.2297855  -9.67  0.002066817    2.513    0.602
        37 -10.3034    100.8255      5.7858   4.9126712614e+01   5.8027602765e+01     0.196877    0.1486884  37.61 0.0005236772    1.172    0.147
        38  -9.2309     51.3436      6.3320   6.4658351822e+01   6.7714430046e+01    0.1313429   0.07653892  15.94 0.0007050649    1.756    0.430
        39 -10.3426     71.6718      3.4229   5.5990445781e+01   6.4320974604e+01     0.339121    0.2035612 -25.62    0.0019377    1.792    0.442
        40  -8.8815    181.7677      3.9670   3.5896941918e+01   3.9040589714e+01    0.1452523    0.1049958 -30.07 0.0003821081    1.555    0.357
        41  -9.5759    132.0028      4.4831   4.2564527020e+01   5.0931229129e+01    0.2041331    0.1117748  65.38 0.0008877706    1.572    0.364
        42  -9.3878    197.5193      3.4910   3.4251073401e+01   3.5404146103e+01    0.1251193    0.1041705 -83.54 0.0008103101    1.003    0.003
        43  -9.2584     41.5096      3.5291   6.7388835108e+01   6.9574746920e+01    0.1206664   0.09202503  10.26  7.80619e-05    1.026    0.025
        44  -9.4893    188.4738     94.5031   5.8914037917e+01   2.4721521636e+01    0.1484229    0.1426716 -28.95 6.499655e-06    1.069    0.065
        45 -11.7663      4.6194     88.1957   1.1265083964e+02   5.7311704975e+01    0.6952604    0.2370684 -48.58  0.002319778    2.271    0.560
        46 -10.3774     52.9457     91.8623   9.5840724075e+01   5.2331832803e+01    0.3383365    0.2732729 -21.81  0.001896972    1.275    0.216
        47  -9.3483     39.5064     92.4793   1.0083526271e+02   5.3682213683e+01    0.1801225      0.12638  36.67 0.0002160253    1.644    0.392
        48 -10.2006     34.5814     91.6287   1.0243142264e+02   5.4360468061e+01    0.3692985    0.2058005  -1.79  0.001676123    2.556    0.609
        49 -10.3139     21.5599     91.8971   1.0721202861e+02   5.5386535575e+01    0.2461825      0.15516  44.22  0.001322481    1.972    0.493
        50 -11.2183    146.3621     83.3197   6.4714116097e+01   3.6649211351e+01    0.3888894    0.3311816 -32.51 0.0006060894    1.190    0.159
        51  -9.9069    119.3692     86.5320   7.2652595865e+01   4.2096450213e+01    0.3451645    0.1490667  43.31  0.001022591    2.347    0.574
        52 -11.0221    137.5928     83.8058   6.6994580377e+01   3.8585191796e+01     0.382338    0.3006589  33.95   0.00128976    1.344    0.256
        53 -10.3649     25.4379     84.5546   1.0425859281e+02   5.6803435049e+01    0.2690977    0.1884297  65.23  0.001443748    2.022    0.505
        54 -10.3410     13.4831     83.9450   1.0863077595e+02   5.7795345755e+01    0.1820816     0.164371 -29.15 0.0007471403    1.184    0.155
        55  -9.8624     41.4755     82.4824   9.7686986053e+01   5.5793991561e+01     0.234337    0.1768803 -31.80  0.000931961    1.245    0.197
        56 -10.0942     40.8920     78.8860   9.6974301317e+01   5.6666714277e+01    0.3381701    0.2170936 -38.57  0.001168007    1.401    0.286
        57 -11.1128     36.1970     78.2399   9.8624077484e+01   5.7288564494e+01    0.2744975    0.2279897 -70.02 -0.000430966    1.334    0.251
        58 -10.9426    161.0195     81.8104   6.0975276539e+01   3.3473860370e+01    0.4316294    0.2558079  65.99  0.001756663    2.039    0.510
        59  -9.9820    103.9525     80.7720   7.5397926112e+01   4.6467693454e+01    0.6162836    0.2537484  29.74  0.001773809    4.273    0.766
        60 -10.2879    106.3176     77.9224   7.3787512614e+01   4.6559324296e+01    0.3629307    0.2780201  55.38  0.001081262    1.467    0.318
        61 -10.9113    177.0034     78.5717   5.6845710535e+01   3.0248201177e+01    0.2689438    0.2120125 -38.79 0.0001575627    1.249    0.199
        62 -11.9848    146.0368     75.4118   6.2450351576e+01   3.8182795875e+01     0.523571    0.3598502  16.96 0.0006152186    2.116    0.527
        63  -9.8188    189.6791     77.6722   5.4302583337e+01   2.7411217863e+01    0.1465915    0.1161573  15.85 0.0007047996    1.687    0.407
        64 -10.1121     98.9106     76.1453   7.5495818372e+01   4.8395710345e+01    0.4521501    0.2274374 -35.47  0.001803818    2.078    0.519
        65 -12.1022     20.9983     72.2661   1.0316076547e+02   5.9931219418e+01    0.5556559    0.3090757 -51.42  0.002998174    1.429    0.300
        66  -9.4832    204.0713     75.9921   5.1500947886e+01   2.4365500893e+01    0.2488421    0.1359179  38.66 0.0008606289    2.541    0.606
        67 -11.1254    115.2583     71.4806   6.9120319148e+01   4.5910632658e+01    0.4918741    0.3386145  33.68  0.001409063    1.528    0.345
        68 -11.4311     31.1148     70.9557   9.8728859527e+01   5.9382657345e+01    0.4051766     0.231196 -30.20  0.001285591    1.773    0.436
        69 -10.1101      3.9215     72.5614   1.1007799747e+02   6.0914749365e+01    0.2613216    0.1135506 -52.22   0.00105578    1.688    0.408
        70 -10.7014      6.1158     77.2700   1.1013906758e+02   5.9744508082e+01    0.2360872    0.2000929  44.39  0.001181543    1.499    0.333
        71 -11.0978     52.6345     71.4271   9.0303715081e+01   5.6930248249e+01    0.3036879    0.2398858 -19.83 0.0005288129    1.221    0.181
        72 -10.3019     56.9045     69.1400   8.7946268059e+01   5.6848891898e+01    0.2541498    0.2474916  59.56 0.0007178572    1.289    0.224
        73 -11.5104     56.1856     63.4143   8.6379168331e+01   5.8114758873e+01    0.5465328     0.301829 -46.07  0.001064667    1.671    0.401
        74 -10.4438    141.3015     69.9545   6.1904549810e+01   4.0265995597e+01    0.3601773    0.2293016  12.75  0.001356561    2.752    0.637
        75  -9.5440     66.6847     70.6826   8.4745436811e+01   5.5127819711e+01     0.146294     0.101457 -15.11 0.0003648176    1.650    0.394
        76  -9.8533     69.7547     69.0395   8.3085207233e+01   5.4989404183e+01     0.277485    0.1866353  52.73 0.0008794714    1.988    0.497
        77 -11.3206    149.3587     65.6278   5.8757471632e+01   3.9086035157e+01    0.4265219    0.3679778 -81.48    0.0022363    1.298    0.230
        78 -10.7578     40.0543     66.4675   9.3816833827e+01   5.9459121116e+01    0.3144336    0.2334973  -7.91  0.001322833    1.403    0.287
        79 -10.0287    122.0499     65.9598   6.5467420913e+01   4.5406624674e+01    0.2194398    0.2107648  -9.22 0.0004047177    1.037    0.036
        80 -12.1170     15.0320     62.2330   1.0314647550e+02   6.2539932619e+01    0.8445184    0.3858082  -5.39  0.003215815    3.058    0.673
        81 -10.6264     24.0361     60.2519   9.8731672411e+01   6.2288983859e+01    0.1723545    0.1450002 -19.25  0.000640423    1.133    0.117
        82 -11.6323     30.3479     60.1274   9.5979144291e+01   6.1760749674e+01     0.442651    0.3209992  72.21  0.002064305    2.493    0.599
        83 -11.2384     33.5441     58.4945   9.4109076483e+01   6.1788544803e+01    0.3704713    0.2374537  10.41 0.0001262584    1.710    0.415
        84  -8.6785     73.4997     62.4857   7.9520852642e+01   5.5671039671e+01     0.141968    0.1254421 -10.66 0.0001947449    1.027    0.026
        85  -9.9852     78.0823     60.5413   7.7204990445e+01   5.5257343136e+01     0.239296    0.1836759 -44.19 0.0005402182    1.354    0.261
        86 -10.2523    127.6987     59.5525   6.1918611870e+01   4.5205135233e+01    0.3671464    0.2495013  85.41  0.001537067    2.363    0.577
        87 -10.3582    106.6483     59.5828   6.7639478578e+01   4.9880023097e+01    0.2425252    0.2365348  13.23 0.0005408382    1.075    0.070
        88 -11.6826     88.1913     57.3574   7.2615834346e+01   5.3988776685e+01    0.6616728    0.3641659  35.74  0.002159155    1.847    0.459
        89 -10.7653     86.7922     51.4824   7.0956653382e+01   5.5260991949e+01     0.409502    0.2910611  29.47 0.0009462732    1.392    0.282
        90 -10.3236    100.6810     57.4313   6.8674117913e+01   5.1496322693e+01    0.4128499    0.2185015  42.34  0.001790741    1.845    0.458
        91 -10.6719     99.0116     54.5058   6.8151948106e+01   5.2332150824e+01    0.3927968    0.2331311  32.63  0.001033318    1.796    0.443
        92  -9.2014    173.8588     57.1902   5.1492667187e+01   3.4489836283e+01     0.190232    0.1695293  22.54 0.0004236959    1.311    0.237
        93 -10.2762      3.0135     56.7504   1.0701233491e+02   6.4400224466e+01    0.2172942    0.1409695 -54.96 0.0007669038    1.219    0.180
        94  -9.9568    184.8289     56.1136   4.9366298918e+01   3.2002927897e+01    0.1849371    0.1685121  10.48 0.0004504491    1.321    0.243
        95 -10.6714    120.8408     55.1003   6.2193229157e+01   4.7496491779e+01    0.2729065    0.2421136  19.63 0.0002711077    1.138    0.121
        96 -10.6549    165.9389     53.5709   5.1869269388e+01   3.6960467549e+01    0.3562116    0.1766991 -47.08  0.001177667    2.141    0.533
        97 -12.2340    147.3060     53.7492   5.5560414538e+01   4.1469002849e+01     0.555928    0.3979821 -39.53 0.0001563158    1.437    0.304
        98 -10.6509    152.4153     43.6067   5.1412425637e+01   4.1687373875e+01    0.3487433    0.2289866 -41.51 0.0009595623    1.580    0.367
        99 -10.2420    148.7868     41.4204   5.1432295406e+01   4.2868813493e+01    0.2944418       0.2126  29.71 0.0005107629    1.636    0.389
       100 -10.1396    141.6718     45.0198   5.3997097460e+01   4.4101787337e+01    0.2240063    0.1873921  68.17 0.0003884649    1.189    0.159
       101 -11.0407    144.5238     42.5530   5.2627802997e+01   4.3752192710e+01     0.462263    0.2605337 -41.95  0.002098527    1.871    0.465
       102 -10.1209    133.5377     54.3829   5.8819000511e+01   4.4665352478e+01    0.3454693    0.2399911  -8.76  0.001590002    1.871    0.465
       103 -10.4203     41.9179     53.7736   8.8975225449e+01   6.1824416466e+01     0.206772     0.159825 -32.14 0.0003692936    1.106    0.095
       104 -10.8782    161.0641     50.7351   5.1933620218e+01   3.8567363129e+01    0.3963733    0.1988511 -36.05  0.001094351    2.013    0.503
       105 -11.1420     58.5134     49.8258   8.0686810612e+01   6.0364121676e+01    0.5175701    0.4456181 -55.79  0.003103708    1.495    0.331
       106 -10.0940    140.6335     52.1534   5.6492103683e+01   4.3316765261e+01     0.255233    0.1929026  67.35 0.0006475904    1.377    0.274
       107 -10.0510    107.1143     51.9973   6.4866271503e+01   5.1032721467e+01    0.4816865    0.1708549  43.69  0.001705987    2.758    0.637
       108  -9.5087     29.1972     49.1748   9.3007362549e+01   6.4069906320e+01    0.1554463    0.1492257 -52.63 0.0008825081    1.359    0.264
       109  -9.3362    208.8052     45.8743   4.3343417209e+01   2.7827137178e+01    0.1850932    0.1395351 -68.25 0.0003235487    1.277    0.217
       110 -11.1155     76.2669     42.3524   7.1111299898e+01   5.8693392160e+01    0.4259638     0.221561 -30.00 0.0006615217    1.964    0.491
       111  -9.5204    103.6452     43.8638   6.2940244384e+01   5.3023600553e+01    0.2169172    0.1690725  -0.19 0.0006959821    1.400    0.286
       112 -11.3377     87.2793     39.4375   6.6246034532e+01   5.7049564447e+01    0.6064302    0.2809706 -37.24  0.002647992    2.225    0.551
       113 -10.8083    147.9822    247.2629   9.8652645127e+01   2.6625350777e+00    0.1711268   0.09241728  36.64 0.0008906642    1.544    0.352
       114  -9.3843     55.9815    216.6452   1.1436489557e+02   2.1893777400e+01    0.1874723    0.1400647 -82.72 0.0007084602    1.270    0.212
       115 -11.3523     60.3522     27.4283   7.0902070271e+01   6.3649167859e+01    0.6147576    0.3221656  19.48   0.00277529    2.441    0.590
       116 -10.4692    159.8965     43.4656   4.9992724717e+01   3.9876782036e+01    0.4139368    0.1929829  61.56  0.001714562    2.037    0.509
       117 -10.1159    157.6282     40.0949   4.9390265151e+01   4.0884265558e+01    0.2587084    0.2351236  70.60 0.0005216564    1.032    0.031
       118  -9.3862    220.4851     42.4877   4.1159298023e+01   2.5650213039e+01    0.1296604    0.1158077 -69.85 0.0008097971    1.054    0.051
       119  -9.4140    105.5560     33.4689   5.8570945061e+01   5.4040950696e+01    0.2094795    0.1505544  22.69 0.0005503445    1.484    0.326
       120 -10.4255    106.8858     29.5732   5.6765895756e+01   5.4235280064e+01    0.6294188    0.3649843  78.22  0.002507012    3.112    0.679
       121  -9.9707     98.6979     41.5630   6.3528677427e+01   5.4411008403e+01     0.259894    0.2239005 -46.89  0.001367667    1.356    0.263
       122 -10.4116    101.5938     37.7638   6.1269778107e+01   5.4331219408e+01     0.407874    0.2490065  33.50  0.001958907    1.676    0.403
       123 -10.5107     32.8173     41.6954   8.8703355720e+01   6.5110437505e+01    0.3975588    0.2252287  21.66  0.002169559    1.837    0.456
       124 -12.0111     11.2766     40.1334   9.8469544483e+01   6.7283816426e+01    0.4253576    0.2475349 -18.85  0.001275885    1.670    0.401
       125 -11.6505     56.6748     37.9313   7.6802400096e+01   6.2659126663e+01    0.5073439    0.3128803   0.29  0.002503303    2.018    0.504
       126 -11.7573     49.1321     39.7838   8.0697663728e+01   6.3448268796e+01    0.4227178    0.3671306  27.55 0.0002428937    1.317    0.241
       127  -9.8340    174.3338     39.0819   4.6333857575e+01   3.6930654682e+01    0.3236004    0.1618726  50.77  0.001369374    2.014    0.503
       128  -9.6363     40.9473     39.3500   8.4107061443e+01   6.4591089667e+01      0.23977    0.1416848  11.44  0.001174288    1.888    0.470
       129 -10.1539    220.9918     36.7232   3.9766822159e+01   2.6297258767e+01     0.180795    0.1505164 -82.19 0.0004276823    1.089    0.082
       130  -9.8622    125.6450     36.5238   5.4689268975e+01   4.9067244850e+01    0.2887403    0.1965497 -83.05  0.001306592    2.245    0.555
       131  -9.3295    124.0065    205.9990   9.7893512823e+01   1.4171827867e+01    0.1603705     0.145456  44.04 0.0009399962    1.015    0.015
       132 -10.1285    147.4037     34.8682   4.9649640438e+01   4.4055704397e+01    0.2510368    0.1485075  56.46 0.0009268937    1.540    0.351
       133 -11.8796    235.8931     33.2353   3.7512905293e+01   2.3517455914e+01    0.2650444     0.221238  86.29  0.001226455    1.181    0.153
       134 -10.9233     18.0198     38.5045   9.4597114229e+01   6.7088929443e+01    0.3276483    0.1936095 -37.21  0.001081576    1.358    0.263
       135  -8.7816    206.6586     33.7256   4.0633167930e+01   2.9923039000e+01    0.1260714   0.09756581  42.04 0.0005726297    1.616    0.381
       136  -9.5463    155.1778     32.9909   4.7677802231e+01   4.2388821603e+01    0.2137288    0.1527507  16.46 0.0004270464    1.890    0.471
       137  -8.6986    202.7003     37.7020   4.2079674800e+01   3.0330916112e+01    0.1254404     0.102102  35.26 0.0002447658    1.576    0.366
       138  -9.9667     93.7003     30.8377   6.0902934310e+01   5.6922452010e+01    0.2792169    0.1647583  74.38  0.001088307    3.386    0.705
       139 -10.4508     29.8896     30.4345   8.5668503184e+01   6.7387436904e+01    0.2428147    0.1738757 -30.90 0.0004122687    1.196    0.164
       140  -8.5134    223.2510    187.7170   7.3507500865e+01   6.3995041853e-01    0.1146856    0.1045355 -53.92            0    1.467    0.318
       141 -11.3836    167.4433     29.2377   4.4596975562e+01   3.9839132689e+01    0.2526444    0.2378052  48.19 0.0003910352    1.150    0.130
       142 -10.2875     22.7702     28.9100   8.8571086056e+01   6.8374385654e+01     0.272387    0.2188565  61.25  0.001654123    2.400    0.583
       143 -11.1095      3.0440     27.5370   9.8395929693e+01   7.0152448014e+01    0.4048972    0.1963626 -31.46  0.002320684    1.705    0.413
       144 -10.3693     36.2476     25.4801   8.0489342685e+01   6.7436711817e+01    0.2262554    0.1705735 -14.39 0.0007092246    1.097    0.089
       145 -10.7995    228.3899     27.2372   3.6891581545e+01   2.5867599917e+01    0.2179582     0.155488  78.77 0.0004861542    1.347    0.257
       146  -9.7677    204.2741     25.6469   3.8933272725e+01   3.1462023198e+01    0.3328318    0.1262697 -23.25  0.001222418    3.814    0.738
       147 -11.3534     12.0635     25.1369   9.2620048523e+01   6.9953252393e+01    0.2281071    0.1644071 -22.31 0.0003337124    1.081    0.075
       148  -9.8705    179.9693     25.0596   4.1677641652e+01   3.7283316488e+01    0.1983593    0.1732187 -84.63 0.0003175611    1.047    0.045
       149  -9.1504    147.5694     24.2158   4.6287616837e+01   4.5271355355e+01    0.1669583    0.1329895  -1.40 0.0004675784    1.523    0.343
       150  -9.5460    115.4434     23.9353   5.2593403798e+01   5.2954673321e+01    0.2028279     0.161582  50.28 7.467403e-05    1.125    0.111
       151  -9.9295     49.8978     24.3610   7.3833808263e+01   6.5724868385e+01    0.2439805    0.1619446 -19.96   0.00126689    1.401    0.286
       152 -10.2172    177.1475     21.0060   4.0947267507e+01   3.8420530030e+01    0.3694725     0.245655   5.09  0.001810328    2.363    0.577
       153 -10.2301    123.2289     22.1398   5.0235121087e+01   5.1339816591e+01    0.2764471    0.1810705  24.18 0.0009383227    1.809    0.447
       154  -9.5004     68.3411     22.8748   6.5893721673e+01   6.2872570221e+01    0.1766329    0.1435923   0.04 0.0004859436    1.114    0.103
       155  -9.3041    100.9988    175.9929   9.8606490224e+01   2.4682722151e+01    0.1615177    0.1535221  76.15            0    1.000    0.000
       156  -8.7312     24.7395    154.6245   1.1544677556e+02   3.9769558718e+01    0.1335256   0.08209629 -51.17 0.0003690417    1.662    0.398
       157  -9.5178    157.8668     19.8700   4.3310498251e+01   4.3230218659e+01    0.1817783    0.1463654 -68.65 0.0004999365    1.300    0.231
       158 -10.6027    130.4114     19.7307   4.7954741662e+01   4.9893204229e+01    0.4075751    0.1958307  68.54  0.001339679    2.129    0.530
       159 -10.5632     84.1337     19.8951   5.9347811037e+01   6.0203625885e+01    0.1875385    0.1842253 -13.67  0.001245992    1.258    0.205
       160 -12.3818    249.4218    147.1787   6.0698568312e+01   3.1360854933e+00    0.5645149    0.1715998 -40.98  0.002100568    2.843    0.648
       161 -12.0068     13.7066    133.5968   1.1606413053e+02   4.5827221311e+01    0.5519015    0.4475154 -46.79  0.001931202    1.307    0.235
       162 -10.7808      4.1833    147.1350   1.2003291287e+02   4.3201904078e+01    0.2934687    0.1761447 -64.16 0.0003286162    1.408    0.290
       163 -10.6514      6.8062    143.3508   1.1899299875e+02   4.3936055024e+01    0.3493936    0.1712555  84.30  0.001674708    2.119    0.528
       164 -10.0126     44.0604    146.0818   1.0912382789e+02   3.9977844652e+01    0.2100582    0.1785454 -69.99 0.0005525618    1.048    0.046
       165 -10.9499      6.8526    136.8391   1.1832777773e+02   4.5511131731e+01     0.756269    0.2316363 -82.78  0.002657005    3.681    0.728
       166  -9.3735    145.0012     16.0000   4.4145449274e+01   4.6758693390e+01    0.3225574   0.06849624  65.38 0.0009656509    4.188    0.761
       167 -10.1654    153.8825     17.8052   4.3298060173e+01   4.4417089797e+01    0.2728572    0.1701641  43.01 0.0003076777    1.700    0.412
       168 -11.4571     42.0608    128.8938   1.0705993202e+02   4.4504604249e+01    0.2391527    0.2271386 -48.15            0    1.136    0.120
       169  -9.9146    110.6743     17.8909   5.1475208217e+01   5.4690039266e+01    0.2366547    0.1536163  47.18 0.0004147445    1.350    0.259
       170  -9.8919      6.9440     19.9634   9.3318821463e+01   7.1215501064e+01    0.1933525    0.1466653 -42.08  0.001305979    1.321    0.243
       171  -9.6248     63.9561     18.0750   6.5362759961e+01   6.4241851156e+01     0.212333     0.131605  14.00  0.001124484    1.735    0.424
       172  -9.5936     55.3377     17.9383   6.8634763061e+01   6.5724219173e+01    0.1744759    0.1381772  -8.58  0.000593173    1.142    0.125
       173 -11.2310    232.9335     16.9855   3.4273966650e+01   2.6103424303e+01    0.1877258     0.154714 -69.70 0.0004925625    1.030    0.029
       174  -9.6261    182.0002     15.6513   3.8917577620e+01   3.7829804498e+01    0.1871506    0.1471533  79.13 0.0004401251    1.133    0.117
       175 -11.5282    249.5302    127.0286   5.6417285399e+01   6.4753735695e+00    0.3088418     0.167109 -24.33  0.001391922    2.113    0.527
       176 -12.4561     12.2100    125.6124   1.1553779547e+02   4.7888027533e+01    0.3462199    0.3100061 -82.67 0.0004640134    1.113    0.101
       177  -9.4900     56.1050    125.6187   1.0216893485e+02   4.3731835506e+01    0.2031589    0.1684823 -78.72 0.0006844666    1.195    0.163
       178  -9.2530     66.4723    125.5020   9.8939261216e+01   4.2417598268e+01    0.1460936     0.132086 -54.08 -1.953052e-05    1.035    0.034
       179  -9.9014     90.5489    122.5988   9.0941708969e+01   3.9463789707e+01    0.2691263    0.1818596  40.04  0.000705759    1.550    0.355
       180 -10.8089     75.4426    120.0155   9.4985599136e+01   4.2498057266e+01    0.2394207    0.2140712  33.40 0.0002281148    1.204    0.169
       181  -8.5933     61.3483    120.2863   9.9474421079e+01   4.4400634172e+01    0.1469582     0.104541 -28.05 0.0007021367    1.656    0.396
       182 -10.1252     28.2068    119.7536   1.0985670838e+02   4.8101397172e+01    0.2354304    0.1969256  81.85  0.001430238    1.253    0.202
       183 -10.9961     33.0765    119.5078   1.0828808208e+02   4.7729154447e+01    0.3204041    0.2496917  13.15  0.001861083    1.550    0.355
       184 -10.3199     20.2513    118.2098   1.1210550386e+02   4.9124977888e+01    0.2998036    0.2178647 -79.89  0.001750083    1.255    0.203
       185  -9.8520    116.0537    116.9321   8.2080550210e+01   3.6127061441e+01    0.2293869    0.2169597 -26.68 0.0003200207    1.057    0.054
       186 -10.7977     40.4748    116.0206   1.0532092163e+02   4.7878183292e+01    0.2554722    0.1836274 -18.22  0.001320906    1.724    0.420
       187 -10.5168      3.0205    113.2748   1.1677820318e+02   5.1447508758e+01    0.2738857    0.1833075  -5.16  0.001623887    1.959    0.489
       188 -10.5494     16.5704    109.8785   1.1202869637e+02   5.1428864507e+01    0.2396513    0.1967643   9.13 0.0009077976    1.486    0.327
       189 -11.1524     13.1250    106.3066   1.1260763115e+02   5.2525247223e+01    0.3835543    0.2295648 -35.77  0.002082829    1.774    0.436
       190 -10.4383      7.3326    106.9483   1.1458638498e+02   5.2725731668e+01    0.2539783    0.1745467 -69.87 0.0006794397    1.176    0.150
       191  -8.8351     59.4678    112.5331   9.8440417893e+01   4.6560136978e+01    0.1436564    0.1289074 -52.29 2.201271e-05    1.006    0.006
       192  -8.8266     21.3096    108.3232   1.1023563182e+02   5.1463583713e+01    0.1384322   0.08078516 -42.76 0.0007037166    1.650    0.394
       193 -11.0245      8.1150    111.2555   1.1492962059e+02   5.1642287030e+01    0.3688479    0.1537994 -63.72  0.001042606    1.803    0.446
       194 -11.0634    142.2467    101.6777   7.0958919110e+01   3.3936720381e+01    0.4203886    0.3121175  26.01  0.001044757    1.584    0.369
       195  -9.8544    133.4902    101.9870   7.3293227280e+01   3.5811392114e+01    0.2416313    0.1525157 -43.85 0.0004429123    1.559    0.359
       196  -9.0646     62.4967    102.5339   9.5141648159e+01   4.8588196766e+01    0.1432171     0.130805 -49.24  2.63103e-05    1.028    0.028
       197 -11.1844     15.3149    101.0573   1.1104568309e+02   5.3644422419e+01    0.3071912     0.184828 -60.58  0.000495404    1.320    0.242
       198 -10.6776      3.9122     99.6515   1.1467125296e+02   5.4655941176e+01    0.3329496    0.1283202 -62.80  0.001214597    1.889    0.471
       199 -11.1359     25.3836     97.1246   1.0686107250e+02   5.3850891932e+01    0.4228043    0.2896084  27.14    0.0024067    1.699    0.412
       200 -10.5444    156.0391     96.9027   6.6317387633e+01   3.1767747441e+01      0.25994    0.2180727 -39.49            0    1.173    0.148
       201 -10.5441     75.2467     95.4263   8.9003960771e+01   4.8411719441e+01    0.3726654    0.3155959 -57.89  0.001691117    1.199    0.166
       202  -9.7438     55.1309     96.3713   9.6184130771e+01   5.1005517002e+01    0.2538134     0.183451 -20.78  0.001181055    1.571    0.363
       203  -9.4402     39.0122     96.4982   1.0191014151e+02   5.2779350737e+01    0.1847557    0.1359673  15.15  0.001008664    1.567    0.362
