#   1 NUMBER                 Running object number                                     
#   2 MAG_AUTO               Kron-like elliptical aperture magnitude                    [mag]
#   3 X_IMAGE                Object position along x                                    [pixel]
#   4 Y_IMAGE                Object position along y                                    [pixel]
#   5 X_WORLD                Barycenter position along world x axis                     [deg]
#   6 Y_WORLD                Barycenter position along world y axis                     [deg]
#   7 A_WORLD                Profile RMS along major axis (world units)                 [deg]
#   8 B_WORLD                Profile RMS along minor axis (world units)                 [deg]
#   9 THETA_WORLD            Position angle (CCW/world-x)                               [deg]
#  10 FWHM_WORLD             FWHM assuming a gaussian core                              [deg]
#  11 ELONGATION             A_IMAGE/B_IMAGE                                           
#  12 ELLIPTICITY            1 - B_IMAGE/A_IMAGE                                       
         1 -12.2241      2.4011     37.7803   1.4107786165e+02   6.8059941695e+01    0.8903785    0.1955055 -71.29    0.0031462    3.541    0.718
         2 -13.6494      6.2630     11.6396   1.3102328042e+02   7.3869299050e+01     1.912771    0.7494317 -57.01  0.009271268    1.903    0.475
         3 -13.5727    188.3431     27.1879   7.4436222994e+01   3.4714755497e+01     1.259662      1.21345  61.58   0.00612688    1.094    0.086
         4 -14.0102    200.8386      9.4615   6.7488766972e+01   3.3396005417e+01      1.78631     1.143033  41.38  0.008933255    1.722    0.419
         5 -10.0786     82.1127    248.9790   1.4184853830e+02   1.6668849574e+01    0.1786767    0.1102063  40.63 0.0006250243    1.188    0.158
         6 -11.1048    139.6979    249.5283   1.3192754081e+02   9.8762958567e+00    0.2484515    0.1497909  35.27  0.001787043    1.212    0.175
         7 -10.7978    126.1319    249.9446   1.3430972439e+02   1.1471902210e+01    0.2651222    0.1122361  34.48  0.001596754    1.757    0.431
         8 -10.6336     98.5228    249.2819   1.3903708499e+02   1.4797033644e+01    0.2069063    0.1478306  42.23  0.001499409    1.041    0.039
         9 -10.7559     66.5570    250.2434   1.4458218816e+02   1.8146137972e+01    0.3056501    0.1317011  32.42  0.001427173    1.921    0.480
        10 -10.5500     46.4438    248.7572   1.4788827826e+02   2.0362888466e+01    0.2524885    0.1408807  71.63  0.001333565    1.769    0.435
        11 -10.8277     28.9681    249.2764   1.5078768040e+02   2.1904785862e+01    0.2125034     0.196464  13.96  0.001175925    1.593    0.372
        12 -12.0342     35.2756    244.7886   1.4958153499e+02   2.1987902352e+01    0.4917701    0.4170147  18.38  0.004434665    1.593    0.372
        13 -14.0823      7.7296    185.9351   1.5232246372e+02   3.4203008285e+01     2.163696    0.7277216 -81.89    0.0114743    2.719    0.632
        14 -14.5286     58.4621    213.3136   1.4377009321e+02   2.4661023671e+01     7.831524      1.43385  45.42   0.03252281    3.717    0.731
        15 -10.5419    198.0138    245.0312   1.2154675305e+02   3.1192901137e+00    0.1467188    0.1150283  42.57  0.001137881    1.696    0.410
        16 -13.4889     10.4578    206.7994   1.5253257529e+02   3.0222579935e+01    0.7346209    0.6905687  63.52   0.00346082    1.345    0.257
        17 -10.4897     95.0065    241.5696   1.3906421767e+02   1.6251932300e+01    0.1810293    0.1502844 -69.71 0.0006476133    1.538    0.350
        18  -9.6513     76.8562    245.1607   1.4250753717e+02   1.7771537091e+01    0.1584572    0.1022893  51.20 0.0008327615    1.237    0.192
        19 -10.3399     66.6704    243.2251   1.4415652427e+02   1.9131167476e+01    0.2018542    0.1376456  60.70 0.0007508196    1.301    0.232
        20 -10.0313    183.5889    238.2056   1.2310907612e+02   5.6512725317e+00    0.1355052   0.09017352 -13.70 0.0009536516    1.711    0.416
        21  -8.2618     18.2914    236.2986   1.5211594237e+02   2.4762953195e+01   0.07324407   0.07224389 -27.46 0.0002749668    1.562    0.360
        22 -10.1114     35.0487    229.8668   1.4899602397e+02   2.4278011497e+01    0.2651227    0.0988955  50.15  0.001243541    1.962    0.490
        23  -9.7111    155.4967    228.5096   1.2685870014e+02   1.0463796305e+01    0.1116554   0.08506806  28.24 0.0002978204    1.004    0.004
        24  -9.5821    177.2342    226.9880   1.2278119241e+02   7.7584583974e+00    0.1549497    0.1284992  34.86 0.0006042004    1.315    0.239
        25 -15.3354      3.9179    237.2895   1.5451590204e+02   2.5784435220e+01     11.34011    0.8358296 -78.90   0.04069759    9.367    0.893
        26 -12.6969     44.7789    234.2570   1.4749118090e+02   2.2675182101e+01    0.2709982    0.2425463  68.58 0.0007815838    1.260    0.206
        27 -10.7314    172.9115    221.7974   1.2286957119e+02   8.9674491058e+00    0.2589739    0.1788252  33.71  0.001476992    1.198    0.165
        28  -9.6502     27.6499    221.7455   1.4996316366e+02   2.6252236598e+01     0.189137    0.1110938  50.58  0.000640688    1.267    0.211
        29 -13.9355     50.8063    225.1648   1.4593542705e+02   2.3506329998e+01    0.9016714    0.6082435  61.57  0.005736537    1.253    0.202
        30  -8.9030    152.4839    212.9373   1.2547628324e+02   1.2937658698e+01    0.1366905    0.1143994 -37.70 0.0003674614    1.459    0.314
        31 -11.9897     28.7352    204.1391   1.4897283903e+02   2.9144914879e+01    0.4089051    0.1544597  39.65 0.0006657941    2.003    0.501
        32 -11.4333     68.8575    199.3873   1.4066041006e+02   2.5931840837e+01    0.2803275    0.2049219 -41.24  0.001247133    1.866    0.464
        33  -9.9893    193.0063    195.2938   1.1531210627e+02   9.4595464310e+00    0.5392241    0.2770939 -55.67  0.001870233    6.966    0.856
        34 -11.6401     73.9983    191.4736   1.3889164435e+02   2.6764927137e+01    0.2234865    0.2080743 -48.13 0.0005741379    1.319    0.242
        35  -8.9272    106.3150    182.0011   1.3086305528e+02   2.4358759517e+01    0.1538875     0.142348  56.12 0.0003893447    1.083    0.077
        36 -10.9464     82.8128    178.7545   1.3567555450e+02   2.8071488260e+01    0.2088253    0.1934523 -73.25 0.0004121253    1.182    0.154
        37 -13.2163     70.3901    176.5726   1.3823184648e+02   3.0005266734e+01    0.4405895    0.2607948 -41.98  0.002049654    2.303    0.566
        38  -8.7203    172.7640    174.5914   1.1568113051e+02   1.5475488044e+01    0.1692289    0.1094974  43.13 0.0003394411    1.550    0.355
        39 -12.0319     89.7587    169.0607   1.3293959299e+02   2.9051447366e+01    0.8230183    0.5119752  48.56  0.004615841    1.513    0.339
        40 -10.1979    194.6453    158.3624   1.0836271108e+02   1.4268483303e+01     0.322952    0.2658847 -74.07  0.001401052    2.293    0.564
        41  -9.9009    101.2523    152.6664   1.2787312283e+02   3.0730445573e+01     0.273523    0.2365216 -32.17 0.0007422185    1.300    0.231
        42  -9.1169    103.9848    148.2257   1.2648316432e+02   3.1232755059e+01    0.2082064    0.1746062 -10.12  0.001205073    1.429    0.300
        43 -11.9929     90.1084    152.1652   1.3054609700e+02   3.2425492296e+01     0.255909    0.2328443 -17.70 0.0005465276    1.277    0.217
        44 -12.5638     66.9713    143.9769   1.3529387511e+02   3.7188989616e+01    0.8034133    0.4976657  68.94  0.004143212    1.884    0.469
        45 -11.7743     57.7386    131.9630   1.3617015606e+02   4.0963635933e+01     2.100273    0.6909764 -80.03  0.004817225    9.159    0.891
        46 -10.6185    174.8672    138.3512   1.0813966215e+02   2.0888815393e+01     0.465724    0.3375206  83.62  0.001978052    3.165    0.684
        47  -9.7303    111.3572    137.4560   1.2272801264e+02   3.2309778290e+01    0.3268987    0.2227229 -11.80  0.001412835    2.240    0.554
        48  -9.0200     88.6663    137.9409   1.2869951740e+02   3.5660430660e+01    0.1751786    0.1622361 -85.36  0.000422076    1.078    0.072
        49 -10.7477     99.1412    135.1596   1.2546180229e+02   3.4716340542e+01     0.313777    0.2333383 -45.43 0.0005820963    1.395    0.283
        50  -9.6276    169.4279    133.2689   1.0816494059e+02   2.2761093429e+01    0.2353851    0.2131909  54.66 0.0008094737    1.346    0.257
        51  -8.6785    192.0071    144.0095   1.0591474734e+02   1.6865886263e+01    0.1631084    0.1378317  -4.08 0.0003769577    1.059    0.056
        52  -9.0868    108.1882    124.2113   1.2094152951e+02   3.5630855113e+01    0.1905389    0.1791829  -3.51  0.000348986    1.104    0.094
        53  -9.4317     46.4996    121.5098   1.3795920965e+02   4.4595290184e+01    0.1284335    0.1135293  89.95 -2.659807e-05    1.022    0.022
        54  -9.6461    151.4440    117.4984   1.0850997961e+02   2.9061947381e+01     0.534497    0.3389231  78.85  0.001667498    4.909    0.796
        55 -10.5327    168.0539    113.1661   1.0369510877e+02   2.6523131259e+01    0.3390294    0.2874204 -76.54  0.001130144    1.703    0.413
        56  -8.8162    203.4693    111.5083   9.6244476131e+01   1.9642001759e+01    0.1461872    0.1218367   0.32 0.0001149144    1.073    0.068
        57 -12.0233     30.5217    140.0429   1.4439171545e+02   4.1833059648e+01    0.3547445    0.2350017  38.57  0.002182509    1.503    0.335
        58  -9.3533     41.3105    110.3431   1.3798983182e+02   4.7758793116e+01    0.1345435   0.08814143 -42.38 0.0003091808    1.699    0.411
        59  -9.7673    126.9900    100.1358   1.1019331514e+02   3.7308630936e+01    0.4052291    0.2510029  63.71  0.001602638    2.521    0.603
        60  -9.8716     30.0719     91.0771   1.3884824541e+02   5.3429578406e+01    0.2687557    0.1691853  38.61 0.0008527988    1.740    0.425
        61  -9.6410    155.0330     75.4864   9.6064042899e+01   3.5983712639e+01    0.2260383     0.151473  48.51 0.0005073862    1.541    0.351
        62  -9.9650     21.4729     67.9610   1.3821083304e+02   5.9747145920e+01    0.2079335    0.1901228  23.19 0.0004505882    1.309    0.236
        63 -11.6287      2.0520     61.1721   1.4518104639e+02   6.2437568951e+01    0.7719558    0.1117105 -75.24  0.002222922    5.278    0.811
        64 -10.6094    248.7779    248.5575   1.1403899780e+02  -3.2033708868e+00    0.2934035    0.1511937   6.75  0.002030183    1.704    0.413
        65  -9.8615    162.4682    248.9954   1.2797073324e+02   7.1253312085e+00    0.1252965    0.1018793 -30.71  0.001031531    1.592    0.372
        66 -10.4963     84.2701    245.0076   1.4120602726e+02   1.6982578698e+01    0.3544361    0.1222049  54.15  0.001749492    3.316    0.698
