#   1 NUMBER                 Running object number                                     
#   2 MAG_AUTO               Kron-like elliptical aperture magnitude                    [mag]
#   3 X_IMAGE                Object position along x                                    [pixel]
#   4 Y_IMAGE                Object position along y                                    [pixel]
#   5 X_WORLD                Barycenter position along world x axis                     [deg]
#   6 Y_WORLD                Barycenter position along world y axis                     [deg]
#   7 A_WORLD                Profile RMS along major axis (world units)                 [deg]
#   8 B_WORLD                Profile RMS along minor axis (world units)                 [deg]
#   9 THETA_WORLD            Position angle (CCW/world-x)                               [deg]
#  10 FWHM_WORLD             FWHM assuming a gaussian core                              [deg]
#  11 ELONGATION             A_IMAGE/B_IMAGE                                           
#  12 ELLIPTICITY            1 - B_IMAGE/A_IMAGE                                       
         1 -13.7937    229.2626     26.7927   3.5531700491e+02   2.5526722502e+01    0.8244973    0.6907426 -51.93  0.004191154    1.105    0.095
         2 -11.1369     47.7113     19.2594   2.8117866850e+01   7.0298292172e+01    0.3706486     0.178678  52.17  0.001577689    2.212    0.548
         3 -10.4155    227.3812      9.5886   3.5156397321e+02   2.7769708714e+01    0.2097379    0.1769295 -56.55 0.0007252385    1.136    0.120
         4 -11.9317    151.9487    237.2135   5.0660119471e+01   5.9719283883e+00    0.2532534    0.1995286   7.52  0.001298395    1.122    0.108
         5 -13.9577    136.0276    240.2294   5.4303421897e+01   7.5331154864e+00    0.9995849    0.7273307 -79.57  0.006004089    2.451    0.592
         6 -12.9713    113.9969    237.3395   5.8677611774e+01   1.0805967203e+01    0.8325292    0.4219764 -47.22  0.004467814    2.414    0.586
         7 -14.8676    127.8559    232.4031   5.5111509057e+01   9.8241355671e+00     2.004239     1.556579 -15.24   0.01297411    1.460    0.315
         8 -13.4994    107.3613    229.0405   5.9250860159e+01   1.3084387719e+01     1.172623     1.010116   9.63   0.00560589    1.197    0.165
         9 -13.0981    116.8850    229.2865   5.7148546963e+01   1.1788500431e+01    0.8743613    0.3985293  33.45  0.004352123    1.732    0.423
        10  -9.5677     75.2686    250.2869   6.8287822965e+01   1.3366736404e+01     0.138265     0.098473  82.73 0.0005464848    1.765    0.433
        11 -18.7613     12.4989    192.8631   7.9709894373e+01   3.1590937121e+01     12.77026     3.185274 -83.74   0.04539263    4.125    0.758
        12 -11.2314     39.4025    193.7159   7.2695056235e+01   2.8778156323e+01     0.499191    0.3823197  41.34  0.002342324    1.122    0.108
        13  -8.9559     49.5570    196.4898   7.0224690683e+01   2.7009733738e+01    0.1314593    0.1157361  47.55 0.0002575322    1.068    0.064
        14 -10.4244     68.8624    193.6796   6.4858945494e+01   2.5262285833e+01    0.2164768    0.1750383  69.85 0.0003722723    1.251    0.200
        15  -9.1979    234.2702    190.9608   2.8582241560e+01   2.1120188368e+00    0.1376934   0.08253459 -29.80 0.0003967079    1.437    0.304
        16 -16.0086     70.6699    145.5853   5.8083010457e+01   3.6638380405e+01     7.728081      4.10389  76.57    0.0265308    3.185    0.686
        17 -12.1213    128.8424    185.6612   4.8426791267e+01   1.8162039854e+01     0.409929    0.3097056  13.12  0.002206869    1.377    0.274
        18 -10.8339     46.5527    173.7051   6.9039201030e+01   3.2716357020e+01    0.4870722     0.307234 -29.47  0.002213833    2.378    0.579
        19  -8.7245     78.2750    184.2750   6.1265846216e+01   2.6114436739e+01    0.1287436    0.1073226 -14.14 0.0002352616    1.491    0.329
        20 -13.0231     48.5585    181.2763   6.9176471998e+01   3.0652413753e+01    0.6097953    0.4139975  80.81  0.001701367    1.528    0.346
        21  -9.1464     39.4119    182.4312   7.1835411170e+01   3.1411460882e+01    0.1361905    0.1144731  56.17 0.0001537122    1.015    0.015
        22 -11.0310    171.6573    175.0134   3.6974733147e+01   1.3296424172e+01    0.3141602    0.2832687  10.39 0.0007849174    1.066    0.062
        23 -12.0553    173.7592    171.7461   3.5939198707e+01   1.3531380790e+01    0.5823043    0.3312147  29.65  0.002846696    1.756    0.431
        24 -11.1666    105.1221    172.3887   5.2318753073e+01   2.4762803624e+01    0.2684439    0.2218479 -72.94 0.0008991894    1.382    0.276
        25 -10.7954     56.2250    235.5360   7.1467325624e+01   1.8186519652e+01    0.1727933    0.1274707  50.83 0.0004199849    1.145    0.126
        26  -8.7884     53.0727    233.4694   7.2049210983e+01   1.8930747008e+01    0.1654405    0.1052451  19.93 0.0009474468    1.602    0.376
        27 -11.4944     45.4822    229.5455   7.3546563711e+01   2.0523158117e+01     0.350832    0.1815648  18.56   0.00147924    2.119    0.528
        28 -11.7666    101.6062    245.7409   6.2212664561e+01   1.0973737153e+01    0.5244472    0.4102171 -56.68  0.003603555    1.645    0.392
        29 -10.8554    110.7538    167.3261   4.9982025372e+01   2.4971675193e+01    0.2743049    0.2229461  73.72 0.0008068762    1.466    0.318
        30  -9.5311     45.6502    158.4777   6.7756696702e+01   3.6637390602e+01    0.2334885    0.1304316 -73.95  0.000878368    1.808    0.447
        31 -12.7525     89.4941    145.5062   5.2188261989e+01   3.3679073314e+01    0.8113216    0.5413958 -26.48  0.002294602    2.127    0.530
        32 -11.3412     91.1843    154.1763   5.3214191645e+01   3.1275057936e+01    0.4224792    0.2708864  28.40  0.001599484    1.573    0.364
        33 -11.9560     88.0790    150.1103   5.3435940003e+01   3.2776255391e+01    0.3501329    0.3000136  63.77 0.0006596945    1.179    0.152
        34 -12.1915     85.0276    146.9411   5.3808946406e+01   3.4058662134e+01    0.5923952    0.2968205 -49.19  0.001361947    2.142    0.533
        35 -11.0069    134.0000    147.9903   4.0289438611e+01   2.5111847395e+01    0.5260977    0.2174231 -54.88  0.001840375    2.905    0.656
        36 -11.5076    131.5384    143.3850   3.9953240137e+01   2.6570311126e+01    0.5435408    0.3697551 -37.95  0.001628312    1.571    0.363
        37 -11.2266    108.8936    145.2727   4.6445235038e+01   3.0351593159e+01    0.3240803    0.3161626 -45.45 0.0007020392    1.075    0.070
        38  -9.0648    168.2840    136.6244   2.9948292728e+01   2.0920662702e+01    0.1415005    0.1130911 -74.62 0.0007014739    1.715    0.417
        39 -11.8869    105.1261    131.5094   4.4679095795e+01   3.4319295562e+01    0.5909781    0.4345489 -20.34  0.001522782    1.831    0.454
        40 -10.6852    222.4914    129.5408   1.8855725641e+01   1.2519748232e+01    0.5216439    0.1799948 -47.09  0.001921319    3.575    0.720
        41 -11.7191     91.9545    131.3756   4.8675718974e+01   3.6769763367e+01     0.304172     0.286069  51.49 0.0003412488    1.022    0.021
        42 -11.2901    112.6909    125.6174   4.1142962190e+01   3.4258379888e+01    0.3468721    0.2687186  15.76 0.0009094343    1.565    0.361
        43 -10.3403     99.9122    120.8704   4.3868521382e+01   3.7890128987e+01    0.3060194    0.2432584  14.81 0.0009139272    1.509    0.337
        44 -10.4278     76.0747    120.2447   5.1587038135e+01   4.2356606305e+01    0.2660639    0.1633205  59.34 0.0006011683    1.937    0.484
        45  -9.7531    123.5399    117.4440   3.6136074721e+01   3.3930679855e+01    0.1538904     0.150473  66.12 0.0001381129    1.016    0.016
        46  -9.9575    108.3587    115.9412   4.0106633850e+01   3.7406137280e+01    0.2181076    0.1981205 -52.95 0.0003625628    1.120    0.107
        47 -10.7338    165.0140    226.7368   4.6636100041e+01   5.8532119187e+00    0.1749358    0.1309419  19.01 0.0004426505    1.075    0.070
        48  -8.8743     41.7072    226.0529   7.4216091713e+01   2.1617910244e+01     0.157217    0.1160788  60.68 0.0006642698    1.212    0.175
        49  -9.1223     37.3369    224.2566   7.5135405421e+01   2.2439463788e+01    0.1090496   0.09109242  -2.34 0.0003101748    1.574    0.365
        50 -10.4446    115.4945    108.5004   3.6116621462e+01   3.7654734590e+01    0.1561809    0.1535775  66.70 -6.438608e-05    1.010    0.010
        51 -10.4434    112.6058    106.2134   3.6355186010e+01   3.8793146927e+01    0.2212789    0.1493542 -39.36 0.0008154945    1.593    0.372
        52 -11.1482    103.5005    236.8764   6.0934561513e+01   1.2222840723e+01    0.3353619    0.2261454 -42.30  0.001495033    1.862    0.463
        53  -9.5214     71.5195    222.7532   6.6947091230e+01   1.8837514687e+01    0.1885483    0.1189122 -58.65  0.001059291    1.902    0.474
        54  -9.2968     91.6197     99.2497   4.1118221803e+01   4.4792448871e+01    0.2056527    0.1489021 -43.98 0.0003105349    1.440    0.306
        55 -10.6596     88.7064    221.3407   6.2744704909e+01   1.6936668821e+01    0.3338589    0.1910383  23.17  0.001386357    1.654    0.395
        56  -9.5928    113.3190     94.3399   3.2861701835e+01   4.1320640300e+01    0.1611619    0.1284643  -1.12 0.0007049563    1.712    0.416
        57  -9.8201     67.9127     93.5031   4.8289018155e+01   5.0647462939e+01    0.2328196    0.1505616  37.84 0.0007702626    1.533    0.348
        58 -11.0622     53.9958     91.9987   5.3635930243e+01   5.3248263645e+01    0.3145464    0.2124584  42.60 0.0007307591    1.494    0.330
        59 -11.5717     50.0317     90.2656   5.4925134006e+01   5.4269945816e+01    0.4340996    0.2255988  22.10  0.001686631    2.210    0.548
        60  -8.8193     64.2770     91.6383   4.9256196505e+01   5.1735257242e+01    0.1598125    0.1188339  77.12 0.0007009063    1.666    0.400
        61 -11.5990     35.5859     88.5149   6.1030525508e+01   5.6544524943e+01    0.4274115    0.1721164 -50.74   0.00119276    2.366    0.577
        62 -13.5848    124.8593    210.3933   5.2996461785e+01   1.4038910560e+01    0.9888958    0.4419649 -34.79  0.003987867    3.367    0.703
        63  -9.1781     86.5995     79.8453   3.7148187874e+01   5.0406007232e+01    0.2144705    0.1488794 -63.45 0.0003486277    1.644    0.392
        64  -9.3037     90.1450     77.1795   3.5021862414e+01   5.0256388820e+01    0.2113233    0.1808743  82.42            0    1.313    0.239
        65 -11.9908    182.6820     65.0440   9.5452466999e+00   3.0487862736e+01    0.4022401    0.3306741 -46.19 0.0007399321    1.108    0.098
        66 -13.5025    199.7244     52.9334   4.1909269448e+00   2.8428692230e+01     1.048144    0.8775374  32.03  0.003982964    1.579    0.367
        67 -12.2947    205.6634     47.9659   2.3020080448e+00   2.7810034701e+01    0.4160009    0.4103486  32.51  0.001200089    1.275    0.215
        68  -9.7482    210.8954    198.7959   3.3726003892e+01   3.9516032452e+00    0.1770415    0.1297965  -1.25 0.0004577854    1.156    0.135
        69  -8.6040     37.0000    198.9563   7.3688961096e+01   2.7850110440e+01    0.2265439    0.1557666  89.88 0.0007049307    1.496    0.332
        70  -9.4746     60.2053     44.1521   3.4619689076e+01   6.3444294956e+01    0.1950906    0.1733684  73.53 0.0005361393    1.318    0.241
        71 -11.8208     18.6509     36.5762   5.6116091099e+01   7.1241584123e+01    0.2496367    0.1995087 -42.73 0.0006587856    1.146    0.127
        72  99.0000     50.9350    244.7206   7.3214592748e+01   1.7081759966e+01    0.2715892   0.09267482  43.10  0.001291976    2.074    0.518
        73 -10.5077     60.5010     21.7684   2.3274136502e+01   6.7258665461e+01    0.2593895    0.1906496  47.62 0.0009147651    1.264    0.209
        74 -10.2266    163.1872    237.5006   4.8451140436e+01   4.5247115400e+00    0.1840663    0.1513702 -16.82 0.0005124208    1.283    0.221
