#   1 NUMBER                 Running object number                                     
#   2 MAG_AUTO               Kron-like elliptical aperture magnitude                    [mag]
#   3 X_IMAGE                Object position along x                                    [pixel]
#   4 Y_IMAGE                Object position along y                                    [pixel]
#   5 X_WORLD                Barycenter position along world x axis                     [deg]
#   6 Y_WORLD                Barycenter position along world y axis                     [deg]
#   7 A_WORLD                Profile RMS along major axis (world units)                 [deg]
#   8 B_WORLD                Profile RMS along minor axis (world units)                 [deg]
#   9 THETA_WORLD            Position angle (CCW/world-x)                               [deg]
#  10 FWHM_WORLD             FWHM assuming a gaussian core                              [deg]
#  11 ELONGATION             A_IMAGE/B_IMAGE                                           
#  12 ELLIPTICITY            1 - B_IMAGE/A_IMAGE                                       
         1 -13.2113    237.0429      4.2019   1.5995288897e+01   2.4684358457e+01     2.946975    0.2726851  62.71   0.00814463    5.423    0.816
         2 -15.5992    192.8660     58.4938   3.6908005698e+01   2.8998779138e+01     8.196598     4.241898  -5.98   0.02291656    4.734    0.789
         3 -14.3498    200.3318     65.4200   3.7600063818e+01   2.5950226607e+01     2.514262     1.297369 -20.73  0.008108837    2.492    0.599
         4 -18.0929    241.8139     73.1047   3.3100214602e+01   1.4375607527e+01     9.772848     7.412553 -18.49   0.03391549    1.401    0.286
         5  -9.6040    153.4661     15.5117   3.0278736984e+01   4.5196559865e+01    0.2903598    0.1684391  29.70  0.001092226    2.064    0.516
         6 -10.7872    118.6760      2.9176   3.2609929320e+01   5.4950017805e+01    0.7495695     0.173409  57.55  0.002485086    3.566    0.720
         7  -9.6401    115.9814     12.5227   3.7113681014e+01   5.4560180699e+01     0.309521    0.2190473  45.61  0.001202171    1.313    0.239
         8 -11.2972    120.3083      8.9425   3.4655630444e+01   5.3971564775e+01    0.4506679    0.3851103  38.68  0.001446446    1.072    0.067
         9 -10.4931    213.2955      5.4597   1.8659083850e+01   3.0573960521e+01    0.3038466    0.2397985 -81.39 0.0002710994    1.213    0.175
        10 -10.4312    182.8136      4.0842   2.1901378473e+01   3.8722315546e+01    0.3997392    0.2742533  89.55  0.001474843    1.535    0.349
        11  -9.8014    162.9016    162.7130   6.9348485358e+01   1.6710201552e+01    0.2270906      0.20351 -63.83 0.0003197443    1.204    0.169
        12  -8.6934    171.5460    250.5047   8.1110114345e+01   1.3844843032e+00    0.1151025   0.08564251  48.06  1.76336e-05    1.046    0.044
        13  -9.5731     13.8013    202.8590   1.0310612541e+02   3.1353606704e+01    0.1425988    0.1051733  88.28 0.0004064039    1.202    0.168
        14 -10.3985    193.7293    246.0711   7.6901399398e+01  -1.7101329186e+00    0.2023756      0.15997  40.34 0.0003922618    1.058    0.055
        15  -9.3989    159.9918    245.0534   8.2371191603e+01   3.9730325947e+00    0.1732721    0.1319601  49.87 0.0003343674    1.019    0.019
        16  -9.2961    161.8023    240.8100   8.1561448606e+01   4.2413190638e+00    0.1651638    0.1321342  37.70 0.0005336727    1.215    0.177
        17 -14.2206    233.0794     99.9798   4.1291577489e+01   1.2190864911e+01    0.9120075    0.3886041 -47.73  0.002178919    2.791    0.642
        18  -8.2199    162.7613    235.9767   8.0803270927e+01   4.7394347706e+00    0.1185101    0.1017524 -53.21 0.0002234719    1.498    0.333
        19  -9.1543    207.1784    161.8969   6.0380206297e+01   7.6588494902e+00    0.1961864    0.1816633  52.53 0.0004331464    1.154    0.133
        20 -12.6063      3.7798    147.7145   1.0135711000e+02   4.3031426180e+01     1.812788    0.4112903 -80.37  0.006941561    4.182    0.761
        21 -13.7688     15.3459    140.7005   9.8384971919e+01   4.3579453609e+01     1.268986    0.8691262  49.19  0.008141462    1.572    0.364
        22 -10.0828    231.9346    186.0916   6.0659976925e+01  -8.0063799995e-01    0.3129855    0.1709006  53.62  0.001489208    2.133    0.531
        23  -9.2932    159.6589    159.2048   6.9346408391e+01   1.8038988788e+01    0.2420781    0.1933018 -35.83 0.0007576448    1.432    0.302
        24  -8.6212    153.0400    158.0218   7.0513069358e+01   1.9615762050e+01    0.2170525    0.1662353  87.73 0.0005025427    1.597    0.374
        25  -8.4907    106.0970    156.2287   8.0397973417e+01   2.8786029347e+01     0.180236    0.1400616  77.59 0.0004968283    1.253    0.202
        26  -9.4934    181.3524    185.0155   6.9775643983e+01   9.0782803507e+00    0.3483364     0.158883 -44.85  0.001240853    2.505    0.601
        27 -10.4414    165.9049    151.3311   6.6457125826e+01   1.8250595831e+01    0.3117605     0.268258  86.80 0.0008999994    1.304    0.233
        28  -9.5182    160.8171    151.3101   6.7530066265e+01   1.9324387668e+01    0.2353251     0.175539  63.99  0.001166886    1.424    0.298
        29 -11.1498    133.6521    144.1804   7.2046798942e+01   2.6300521166e+01     1.274023    0.3138596 -55.44  0.003192477    5.948    0.832
        30 -11.8387    143.0353    143.2088   6.9745726915e+01   2.4627530579e+01    0.6794538    0.4345631 -54.81   0.00318826    1.634    0.388
        31 -11.7856    192.5790    194.2134   6.9260804087e+01   5.4553611312e+00     1.061237    0.5875385 -67.00  0.003676489    5.174    0.807
        32 -11.7774     67.7568    144.0098   8.7142200346e+01   3.7256232476e+01     1.037945    0.5666392  68.51  0.004398988    2.196    0.545
        33 -14.3174     55.4636    131.1305   8.8151952963e+01   4.1663239035e+01     2.370235     1.269527  30.56   0.01221204    2.387    0.581
        34 -11.8445    200.6985    175.2770   6.4279712087e+01   6.8205960878e+00    0.7533795    0.4358722  34.94  0.003563369    1.710    0.415
        35 -10.5208    149.6828    131.8145   6.5808048610e+01   2.5597334383e+01    0.3345475    0.2465763  46.45  0.001631579    1.331    0.249
        36 -12.0684     43.6964    133.6099   9.1273073733e+01   4.2438805791e+01    0.3950077    0.3517862  17.85 0.0009735635    1.585    0.369
        37  -9.7416     94.6650    121.0911   7.6710075219e+01   3.8419856288e+01    0.2475397    0.2065045  32.17 0.0006335184    1.419    0.295
        38 -10.1970    101.0009    176.0018   8.4453284332e+01   2.5519114912e+01    0.1827567    0.1546486  75.46            0    1.010    0.009
        39 -10.1761     76.6496    104.7239   7.8036345418e+01   4.4862947511e+01    0.2276448    0.2008811 -68.79 0.0002951281    1.011    0.011
        40  -8.5135    107.0000     93.9581   6.7210868215e+01   4.2296425200e+01    0.2451316   0.07847196 -48.53 0.0008014243    2.935    0.659
        41 -10.3665    126.2493     91.8422   6.1558596694e+01   3.8968495622e+01    0.2866044    0.2074468 -27.18  0.001293165    1.609    0.378
        42 -11.3696    158.4718     88.2576   5.2704388458e+01   3.2447776269e+01    0.6338338     0.379273 -44.55  0.002051387    1.676    0.403
        43  -8.3367    143.2664     89.6930   5.6697648618e+01   3.5707293455e+01    0.1514722    0.1203387 -75.48 0.0002705425    1.533    0.348
        44  -8.7001     16.9434    187.2650   1.0165189160e+02   3.3979243914e+01    0.1388497    0.1034031  79.25 0.0001766464    1.095    0.087
        45 -10.0891    154.0515     86.2432   5.3148057401e+01   3.3890170209e+01    0.4920768    0.2186887 -40.72   0.00177858    2.221    0.550
        46  -8.5095     85.4992     82.4943   7.0231266762e+01   4.8445017079e+01    0.1388388    0.1251764 -53.06 5.164229e-06    1.020    0.020
        47 -10.8054    139.4247     79.1900   5.4594086504e+01   3.8660134825e+01    0.4568183    0.3697196  38.15   0.00148693    1.290    0.225
        48 -10.2492    156.9235     79.8431   5.0621053992e+01   3.4428982192e+01    0.2350189    0.2128315   7.89 0.0004200772    1.207    0.172
        49 -10.6998    129.9880     77.9677   5.6610825692e+01   4.0997639051e+01    0.2786668    0.2026185 -48.19 0.0007813072    1.372    0.271
        50 -11.2688    151.9817     72.3103   4.9498420152e+01   3.7025658681e+01    0.5188455    0.3049186 -52.57  0.002081463    1.971    0.493
        51 -11.8672    144.2873     59.4167   4.7243708338e+01   4.1181934015e+01    0.5935684    0.3523081 -37.71 0.0008815206    1.665    0.399
        52 -11.5063    140.8646     70.2404   5.1513549094e+01   4.0037944978e+01     0.661492    0.2681621 -38.34  0.002333351    2.427    0.588
        53  -9.4560    111.1853     72.2582   5.9917098705e+01   4.6025587371e+01    0.3145869    0.1862948 -46.33 0.0009736072    1.624    0.384
        54  -8.4211     84.4846     70.5128   6.7180699341e+01   5.1126948201e+01    0.1378678    0.1242894 -45.11 0.0001716563    1.031    0.030
        55 -10.1243    106.0717     64.8209   5.9037368401e+01   4.8478133984e+01    0.6020789    0.1921476 -42.21  0.001799965    2.952    0.661
        56 -11.3283    134.0423     64.2318   5.1309566243e+01   4.2712373362e+01    0.3808536    0.3278586 -28.85  0.001056933    1.151    0.131
        57 -10.9971    134.6236     60.1796   4.9849346176e+01   4.3310223519e+01    0.3480036    0.2772544 -14.97  0.001719329    1.373    0.272
        58  -8.3248     72.5930     58.4646   6.7266558598e+01   5.5362413318e+01    0.1331154    0.1148171 -39.20 0.0001459308    1.025    0.024
        59  -9.1330     90.4475     54.6645   6.0353176261e+01   5.3262346138e+01    0.3394631    0.1244281 -39.91  0.001273612    2.556    0.609
        60  -9.8008    124.1789     61.0617   5.2826519103e+01   4.5481127899e+01     0.401762     0.183002 -33.47   0.00151027    2.293    0.564
        61  -9.3646    113.0979     50.3914   5.2221216214e+01   4.9728520537e+01    0.2346872     0.188895 -18.76  0.001235188    1.250    0.200
        62 -10.9333    124.0213     47.0758   4.8117049085e+01   4.7947861363e+01    0.3800429    0.2460329  72.03  0.001611748    2.287    0.563
        63 -11.3370    177.5134    169.9807   6.7770375778e+01   1.2404009638e+01    0.3498929    0.2526751 -59.58  0.001698842    1.683    0.406
        64 -11.1539    194.6881    170.6066   6.4522579758e+01   8.7938276687e+00    0.3860976    0.3011813 -35.19  0.001650073    1.403    0.287
        65 -10.8590    170.1650     31.3524   3.2573208126e+01   3.8934948724e+01    0.4077881    0.2730904  63.82  0.001189068    1.456    0.313
        66 -11.0043    214.8229    168.7077   6.0338605645e+01   5.0176810982e+00    0.5461844    0.4307484  88.65  0.001473121    1.999    0.500
        67 -10.0733    129.9835    228.1978   8.5517114147e+01   1.1348773349e+01    0.1925105    0.1626095 -79.11 0.0004368096    1.347    0.258
        68 -12.0542    185.1591    166.3130   6.5542531970e+01   1.1477259230e+01    0.6441133    0.4070206 -49.99  0.003108411    1.818    0.450
        69  -8.7665    190.1560     15.1523   2.4286626464e+01   3.5613156228e+01    0.2003129    0.1610057 -63.46 0.0005428109    1.298    0.230
        70  -8.2362     81.5027    220.5562   9.3098706576e+01   2.0053201424e+01    0.1141048     0.086539  67.86 0.0001497185    1.036    0.035
        71  -8.7575    153.0718    215.2877   7.9808535996e+01   9.4563638621e+00    0.1729896    0.1281072  50.16 0.0002719415    1.098    0.089
        72  -9.6804    239.4022    212.7877   6.4186754933e+01  -5.4593860074e+00    0.2018349    0.1797977  47.47 0.0008144284    1.424    0.298
        73  -9.7580    182.5286    160.0034   6.4807967514e+01   1.3136255574e+01    0.2691094    0.1920473  62.52 0.0009130333    1.566    0.362
        74 -10.2330    234.0860    211.0748   6.4790146324e+01  -4.3597431226e+00    0.3380599    0.1973655 -20.86  0.001890978    1.982    0.495
        75  -8.9940    226.1496    206.1175   6.5297465858e+01  -2.3758726597e+00    0.2308247    0.1549807  62.01  0.001227053    2.181    0.541
