#   1 NUMBER                 Running object number                                     
#   2 MAG_AUTO               Kron-like elliptical aperture magnitude                    [mag]
#   3 X_IMAGE                Object position along x                                    [pixel]
#   4 Y_IMAGE                Object position along y                                    [pixel]
#   5 X_WORLD                Barycenter position along world x axis                     [deg]
#   6 Y_WORLD                Barycenter position along world y axis                     [deg]
#   7 A_WORLD                Profile RMS along major axis (world units)                 [deg]
#   8 B_WORLD                Profile RMS along minor axis (world units)                 [deg]
#   9 THETA_WORLD            Position angle (CCW/world-x)                               [deg]
#  10 FWHM_WORLD             FWHM assuming a gaussian core                              [deg]
#  11 ELONGATION             A_IMAGE/B_IMAGE                                           
#  12 ELLIPTICITY            1 - B_IMAGE/A_IMAGE                                       
         1 -11.4720    233.2162     11.2859   3.2092546875e+01   2.6974706443e+01    0.6427553    0.5030899  54.57  0.004324106    1.700    0.412
         2 -11.3849    228.2374      6.1046   3.1405091157e+01   2.8587142290e+01    0.6000273    0.5019948  48.32   0.00416317    1.704    0.413
         3 -10.2926     59.1729      6.5208   5.9658931288e+01   6.6203522670e+01    0.2023143    0.1456479 -36.36  0.001270563    1.686    0.407
         4  -9.5223     40.7591      2.4160   6.4915506417e+01   6.9703914949e+01    0.1657401   0.08810629  32.32  0.000946406    1.653    0.395
         5  -9.1247    132.3172    238.3274   9.7617170441e+01   6.0457864434e+00    0.1269782   0.09818933  -0.88 0.0004575472    1.678    0.404
         6 -17.3260      7.5330    245.2401   1.2338056770e+02   2.1244016015e+01     14.42469      4.21792 -78.60   0.01517022    3.123    0.680
         7 -10.5282     42.1172    207.8961   1.1394340840e+02   2.5387741647e+01    0.4234571    0.2413715  66.08   0.00187415    1.681    0.405
         8  -7.7775     88.6757    209.3716   1.0347992110e+02   1.8735142953e+01    0.1499263   0.09378074  68.15 0.0007032208    1.813    0.448
         9 -10.7378    111.1479    203.6567   9.7458804643e+01   1.6451217146e+01    0.3190376    0.2063243  52.67 0.0007511167    1.526    0.345
        10  -9.1299     31.9716    203.4828   1.1582163362e+02   2.7557729024e+01    0.3403287    0.1974758 -81.39  0.001855077    1.563    0.360
        11  -8.3748     64.4780    204.9954   1.0856587530e+02   2.3204129523e+01    0.2024523     0.124023 -77.02  0.001029267    1.633    0.388
        12 -10.6493    122.4991    199.3746   9.4143289799e+01   1.5490493304e+01    0.3636517    0.2607629  89.84  0.001284552    1.834    0.455
        13  -9.3801     59.9906    197.7757   1.0881127874e+02   2.5479991782e+01    0.2111606    0.1743778 -88.05  0.000424441    1.114    0.103
        14  -9.2864    193.9714    196.2142   7.7893566640e+01   3.7411669501e+00    0.2257404    0.1534927 -81.33 0.0008863122    3.614    0.723
        15  -9.8959    114.1649    195.2318   9.5458407761e+01   1.7822688903e+01    0.2407594    0.1579866 -14.77 0.0009576485    2.871    0.652
        16 -16.0091      2.0508    221.3643   1.2324172197e+02   2.6640556756e+01     16.12785          nan -73.59   0.01378501   15.020    0.933
        17  -9.9583     72.0000    247.9958   1.1120176830e+02   1.3074992090e+01    0.2431821    0.2126924  76.99 0.0006796221    1.151    0.131
        18 -11.9005     58.1248    184.2095   1.0767346564e+02   2.8963427270e+01    0.7564778    0.6697164 -81.46  0.003258968    1.094    0.086
        19  -9.0079    149.6555    228.6880   9.2599694441e+01   5.0764663694e+00     0.134295   0.09906455   1.54 0.0007046285    1.706    0.414
        20 -11.4122    134.4522    217.2107   9.4177186832e+01   9.7500743007e+00    0.5161334    0.2127573 -42.23  0.001997407    3.054    0.673
        21  -8.1415     79.6664    183.3177   1.0214528738e+02   2.6151536374e+01    0.1527697    0.1000863  68.04 0.0007048154    1.694    0.410
        22  -9.4779     39.4532    182.3134   1.1208279035e+02   3.1710624611e+01     0.314395    0.1403982  59.30  0.001316297    2.502    0.600
        23  -9.3085     99.3808    181.0382   9.6819270558e+01   2.3588596362e+01    0.2332985    0.2037845  29.10 0.0006047661    1.241    0.194
        24  -9.7349     50.7410    181.5422   1.0919742117e+02   3.0554755110e+01    0.2570936     0.214342  49.04 0.0009894883    1.204    0.170
        25  -8.9531     46.1352    177.0726   1.0983377814e+02   3.2209524872e+01    0.2008869    0.1761504 -61.72  0.000545173    1.228    0.186
        26 -10.3506     49.5920    217.5169   1.1316156405e+02   2.2324771749e+01    0.4182947    0.2885994  16.31  0.002282603    2.085    0.520
        27  -9.0767    185.9937    173.5043   7.5133846289e+01   9.4627304131e+00    0.2190642    0.1394919  39.10  0.001034348    1.596    0.373
        28  -9.4235     49.5712    213.5245   1.1280283412e+02   2.3212675873e+01    0.1934148    0.1596951  39.56 0.0008809745    1.302    0.232
        29  -9.9654    103.1895    172.7953   9.4469235217e+01   2.4924791716e+01    0.3455708   0.09321275  42.46  0.001039944    3.496    0.714
        30 -10.6561     71.5040    170.7699   1.0242055495e+02   3.0428182831e+01    0.4582189    0.3008073 -47.78  0.001585222    1.668    0.400
        31 -10.6818     75.9401    166.0068   1.0050939313e+02   3.0964486995e+01    0.3872818    0.3231643 -26.01  0.001014289    1.517    0.341
        32  -8.8784     97.3237    169.3199   9.5388498407e+01   2.6758447956e+01    0.1480432    0.1171557 -21.79 0.0007045529    1.675    0.403
        33  -9.1007     43.9487    215.4849   1.1420809092e+02   2.3466083852e+01     0.196237    0.1484187  86.69  0.000689769    1.173    0.148
        34 -10.2929     32.2788    165.4460   1.1206863836e+02   3.6631232178e+01    0.2530523    0.1599015 -72.87  0.001096732    1.384    0.277
        35 -11.6988     83.6195    158.7177   9.7215781063e+01   3.1610542811e+01    0.6541896    0.5898638 -18.61  0.001614913    1.335    0.251
        36 -11.9258     72.3045    152.6274   9.9308438327e+01   3.4865370054e+01    0.5342318    0.4433516 -86.03 0.0008289011    1.184    0.156
        37 -12.0398     69.7816    144.2415   9.8561945223e+01   3.7355796656e+01    0.8262981    0.5267715  70.94  0.002753437    2.025    0.506
        38 -10.4423     89.3176    152.5322   9.4527884819e+01   3.2240294207e+01    0.3888824    0.2998767 -20.70 0.0006013571    1.738    0.425
        39  -9.9935    134.1216    147.0408   8.1435685519e+01   2.5326553416e+01    0.6935984    0.1929901 -55.92  0.001664157    5.314    0.812
        40  -9.4689     40.3345    147.0204   1.0754256630e+02   4.0392744893e+01    0.2059894    0.1614814 -71.80 0.0008664993    1.125    0.111
        41  -9.1591     59.8615    218.3187   1.1099298553e+02   2.0831811725e+01    0.2091217    0.1509606  83.09 0.0003799032    1.308    0.236
        42  -9.4940    103.7674    137.6617   8.7475443677e+01   3.3416189346e+01    0.4471785    0.2800095 -18.78  0.001596546    3.010    0.668
        43 -10.5284     91.5414    136.9912   9.0816504363e+01   3.5744816936e+01    0.2952913    0.2539662 -45.12 0.0004895831    1.184    0.155
        44 -11.9818     58.8474    132.0304   9.9603511871e+01   4.1961133228e+01    0.9221764    0.3788556 -71.79  0.003147345    3.106    0.678
        45  -9.6538    106.0273    130.9469   8.5343298241e+01   3.4631864491e+01    0.3640144    0.3088334 -83.50  0.001381749    1.288    0.224
        46  -9.2926     76.3763    210.8600   1.0649101359e+02   2.0214667154e+01    0.2123697     0.150085  82.80  0.001144409    1.464    0.317
        47  -9.5948    113.0223    128.7856   8.2884410077e+01   3.3815230423e+01    0.2903049    0.2242979  14.83  0.001328877    1.650    0.394
        48  -9.2834     99.5413    124.9322   8.5818469735e+01   3.7288426456e+01    0.2673846    0.2181051  12.00 0.0006818949    1.493    0.330
        49  -9.6397    119.5738    122.0245   7.9459330251e+01   3.4106906263e+01    0.3501922    0.2200249   0.99  0.001085666    3.965    0.748
        50  -8.3348    108.5812    118.1831   8.1583904438e+01   3.7189582331e+01    0.2066088    0.1431993 -40.00 0.0009170691    1.502    0.334
        51  -8.3976    231.0405    113.7300   5.4210835445e+01   1.2220925484e+01     0.180535    0.1711933 -64.11 0.0006903072    1.106    0.096
        52 -11.7836     43.0380    109.3641   1.0033419828e+02   4.9528522029e+01    0.5187172    0.3718323  15.80  0.002763981    1.639    0.390
        53  -7.9485    205.6659    110.2874   5.7493765093e+01   1.7937334984e+01    0.1455802    0.1081154 -75.37 0.0007016573    1.627    0.385
        54 -10.1140    114.8401    108.6607   7.7381663721e+01   3.8133903618e+01    0.4514776    0.1111917 -51.41  0.001129043    4.698    0.787
        55  -8.5531    155.4466     87.4979   6.1458013200e+01   3.3538541083e+01    0.1527205    0.1416866 -78.43 8.611593e-05    1.065    0.061
        56 -11.3160    106.9068    248.8938   1.0419013575e+02   7.9564025583e+00      0.41124     0.259177  41.26  0.002354293    1.320    0.242
        57 -10.5258     71.6984    244.6876   1.1096695178e+02   1.3759904940e+01    0.5311974    0.2111836  38.47  0.002382844    2.106    0.525
        58 -11.3069    185.4156     52.9716   4.6770362249e+01   3.2263629343e+01    0.3898961    0.3217392  69.63  0.000850574    1.177    0.150
        59  -8.9897     73.5905    237.7241   1.0993131107e+02   1.4887323216e+01    0.2198997    0.1117711 -61.98  0.001123278    2.125    0.529
        60 -11.9197    205.7532     35.4225   3.9838748906e+01   2.9997675736e+01    0.5754094    0.5275387  78.78  0.001319182    1.211    0.175
        61 -12.1146    197.1613     43.4117   4.2767498351e+01   3.0887890763e+01    0.7747856    0.6962596 -74.91  0.003263072    1.071    0.066
        62  -9.4844    120.0000    245.9628   1.0115332258e+02   6.5392266897e+00    0.1861086   0.07351376 -57.23 0.0008066883    2.972    0.664
        63  -9.9323     83.3375    245.3884   1.0865929777e+02   1.2016884129e+01    0.2532872    0.1851988 -83.91  0.001563841    1.474    0.321
        64 -11.0293     94.1476    236.5872   1.0549040148e+02   1.2187492639e+01    0.4816821    0.2339887 -73.17   0.00213876    2.649    0.623
