#   1 NUMBER                 Running object number                                     
#   2 MAG_AUTO               Kron-like elliptical aperture magnitude                    [mag]
#   3 X_IMAGE                Object position along x                                    [pixel]
#   4 Y_IMAGE                Object position along y                                    [pixel]
#   5 X_WORLD                Barycenter position along world x axis                     [deg]
#   6 Y_WORLD                Barycenter position along world y axis                     [deg]
#   7 A_WORLD                Profile RMS along major axis (world units)                 [deg]
#   8 B_WORLD                Profile RMS along minor axis (world units)                 [deg]
#   9 THETA_WORLD            Position angle (CCW/world-x)                               [deg]
#  10 FWHM_WORLD             FWHM assuming a gaussian core                              [deg]
#  11 ELONGATION             A_IMAGE/B_IMAGE                                           
#  12 ELLIPTICITY            1 - B_IMAGE/A_IMAGE                                       
         1 -14.5659    164.9140     53.7951   7.2521097223e+01   3.7057984625e+01     2.246341     1.523751  12.27  0.006878098    1.887    0.470
         2 -14.0198    178.1204     38.0287   6.5007380829e+01   3.5799310895e+01    0.9053934    0.8740184  82.30  0.002770222    1.070    0.065
         3 -13.3147    189.9808     14.8708   5.6090406752e+01   3.5300137640e+01     0.554799    0.4002756 -67.99  0.002042795    1.523    0.343
         4 -14.4466    197.9159      6.0657   5.2594780793e+01   3.4089914661e+01     1.318699    0.8431817  58.31  0.006160425    1.499    0.333
         5 -10.4739     70.7944      8.5935   8.0100486846e+01   6.5312048019e+01    0.1692418    0.1269517  52.59 0.0002774897    1.578    0.366
         6  99.0000     12.5357    205.9724   1.3918189139e+02   3.0709999585e+01    0.4052615    0.1353417  34.65  0.002276782    2.513    0.602
         7 -13.0754    247.8758    246.3049   9.9620893865e+01  -6.0889654793e+00    0.5321909    0.3382773  -8.25  0.003905295    1.471    0.320
         8 -17.6132     61.8797    238.3289   1.3193392270e+02   2.0212521581e+01     7.500918     6.188858  78.04   0.05575464    1.240    0.194
         9 -12.3613    153.1602    194.0337   1.0904642949e+02   1.4616918452e+01    0.3345966    0.2269442  52.93 0.0009532023    1.606    0.377
        10 -10.6013    167.9828    176.3625   1.0294203489e+02   1.4958538734e+01     0.239858    0.1939304 -62.39 0.0005797067    1.724    0.420
        11 -10.9245      1.3705    177.2762   1.4013328942e+02   3.7000647882e+01    0.1044944   0.08026835  83.29 0.0005162567    1.094    0.086
        12 -11.1642     73.3451    174.9534   1.2417803417e+02   3.0327150105e+01    0.2511603    0.1762386 -88.73 0.0007261562    1.503    0.335
        13 -11.0836    201.8041    169.2271   9.4674286809e+01   9.9693856742e+00     0.379223    0.2737812 -53.54  0.001588853    2.112    0.527
        14 -11.2822    204.4133    165.6613   9.3455039101e+01   1.0025415030e+01    0.6429554    0.3400091 -37.32  0.003060773    2.038    0.509
        15 -12.1076    194.2875    167.4687   9.5813734775e+01   1.1601279919e+01    0.3594795    0.3284761 -21.73 0.0007923563    1.257    0.205
        16 -11.0375    190.4744    160.9395   9.5273156472e+01   1.3329560430e+01    0.3077631    0.2867855 -16.44  0.001018402    1.215    0.177
        17 -11.5301    189.6804    155.4597   9.4304022577e+01   1.4358888003e+01    0.4333222    0.3588876  25.26  0.001383171    1.072    0.067
        18 -10.3860    162.9661    168.6087   1.0259397374e+02   1.7176726544e+01    0.3403865    0.1966935  58.41 0.0009420743    2.561    0.610
        19 -11.9889    192.8028    194.4931   1.0110439407e+02   7.8782334508e+00    0.8941697    0.5196644 -62.24  0.003083367    6.190    0.838
        20 -10.6971    207.5159    193.9599   9.8201486818e+01   5.5081531459e+00    0.1731071    0.1192234 -25.90  0.000473954    1.545    0.353
        21 -11.6592    113.7736    160.9704   1.1259231066e+02   2.7276962641e+01    0.3348378    0.2529489  83.46  0.001264501    1.690    0.408
        22 -11.3051    120.3770    157.6894   1.1043089648e+02   2.6836021216e+01    0.3534218    0.1865337 -46.02 0.0008145029    2.073    0.518
        23 -10.5419    130.3703    157.8395   1.0804875591e+02   2.5070894140e+01     0.242963    0.1755353  49.30  0.000611045    1.360    0.265
        24 -11.1770    165.2961    153.4201   9.9098938337e+01   1.9407715300e+01    0.3405901    0.2286462  57.69  0.001593699    1.884    0.469
        25 -11.4046    152.2482    151.8013   1.0172949385e+02   2.2206947731e+01    0.4108646    0.2865504  88.39  0.001694792    2.909    0.656
        26 -12.4321    134.0009    145.9379   1.0489438352e+02   2.6780506900e+01     1.221823    0.3313577 -54.29   0.00315403    6.018    0.834
        27 -10.6346    174.6780    148.8076   9.6067363014e+01   1.8392223915e+01    0.2737529    0.2238917 -71.04 0.0007916204    1.811    0.448
        28 -19.0758     38.9053     99.8725   1.2341612891e+02   5.1088182033e+01     15.54367     1.027963 -66.51    0.0276316   13.278    0.925
        29 -11.9901    144.4847    146.4217   1.0245622578e+02   2.4713420611e+01    0.3747033    0.2837656  69.24  0.001831995    1.778    0.437
        30 -12.9771    101.1434    138.1019   1.1178905484e+02   3.4175417382e+01    0.3263821    0.2841354 -33.59 0.0006229195    1.266    0.210
        31 -11.5688    134.9163    120.3126   9.9043018208e+01   3.1826756595e+01    0.3872164    0.2423452 -45.33  0.001266145    1.652    0.395
        32 -11.6367    136.0000    129.0101   1.0078891373e+02   2.9829294671e+01    0.6022354    0.1593353 -46.12  0.001779328    3.942    0.746
        33 -12.2535    106.0058    130.8077   1.0906791511e+02   3.4966381326e+01    0.3952452    0.3435466 -74.16  0.001213676    1.242    0.195
        34 -11.3547    105.9694    125.2263   1.0792554900e+02   3.6199924894e+01    0.2966848    0.2502338 -27.37 0.0006791469    1.312    0.238
        35 -11.4140    117.6945    129.3156   1.0561540649e+02   3.3232981642e+01    0.3251798    0.2599386 -29.46 0.0007398133    1.389    0.280
        36 -11.1792    160.8285    127.9995   9.4508494220e+01   2.4980163411e+01    0.4098085    0.3153326 -81.28  0.001865912    2.081    0.519
        37 -10.8095    121.2934    123.5991   1.0339667268e+02   3.3789560967e+01    0.2533588    0.1779461 -26.48 0.0006491589    1.725    0.420
        38 -10.4133    112.4103    118.6170   1.0468792679e+02   3.6509095483e+01    0.2494462    0.2174177  44.11 0.0006266036    1.142    0.125
        39 -11.3058    167.9691    112.9422   8.9147030762e+01   2.6248531625e+01    0.3922141    0.3153128 -82.69  0.001413409    1.853    0.460
        40 -11.0297    134.6826    106.3064   9.5592934828e+01   3.4747668918e+01    0.5765976    0.1396077 -45.08  0.001556439    4.294    0.767
        41 -10.8585    205.2957    110.2052   8.0707784323e+01   1.8483330901e+01    0.3544716    0.2208209  36.08   0.00107803    1.621    0.383
        42 -12.1539     82.3283    106.4906   1.1078567624e+02   4.4270586174e+01    0.4791425    0.3256406  76.26   0.00216765    2.167    0.539
        43 -12.0432    157.9430    200.6700   1.0907878325e+02   1.2768977857e+01    0.4118111    0.2828195 -82.34  0.001963235    3.162    0.684
        44  -9.8179     97.8653     86.6551   1.0089730489e+02   4.6163268536e+01    0.2139755     0.132961  49.28 0.0009364655    1.806    0.446
        45 -10.4899    149.9765     80.8095   8.4425305577e+01   3.6279263002e+01    0.2742171    0.2226707 -29.94 0.0009485824    1.234    0.190
        46 -10.6290     84.0088     76.9215   1.0266279462e+02   5.0683844774e+01    0.2142294    0.2035242 -23.24 0.0003393641    1.026    0.025
        47 -11.0340    176.5502     74.7120   7.6642142478e+01   3.0896834394e+01     0.320829    0.2592589 -84.44 0.0002081681    1.647    0.393
        48 -12.0137    152.3471    185.1959   1.0780529590e+02   1.6219915473e+01    0.3074961    0.2479578 -71.56  0.001776679    1.732    0.423
        49 -11.9991    158.0050    235.1577   1.1380335772e+02   7.7857550516e+00    0.3931077    0.2032943  35.26  0.001619134    1.485    0.326
        50 -10.3576     13.5166     59.9637   1.2564197142e+02   6.2251546877e+01     0.182663    0.1625038  64.09 0.0004326627    1.350    0.259
        51 -13.5594    182.5533     31.0173   6.2088909081e+01   3.5495007958e+01    0.6790404    0.5151908  44.85  0.001522501    1.312    0.238
        52 -10.6886    113.5775     22.0998   7.2715145305e+01   5.4316737222e+01    0.3085965     0.213014  68.58 0.0007723501    1.733    0.423
        53 -11.3776    168.0474    233.2457   1.1168913737e+02   6.5458589792e+00    0.3007347    0.1752826  48.20  0.001451113    1.741    0.426
        54 -11.7684     28.6243    184.7508   1.3491818039e+02   3.3278024512e+01    0.1569556    0.1383776  70.42 0.0004812787    1.154    0.134
