#   1 NUMBER                 Running object number                                     
#   2 MAG_AUTO               Kron-like elliptical aperture magnitude                    [mag]
#   3 X_IMAGE                Object position along x                                    [pixel]
#   4 Y_IMAGE                Object position along y                                    [pixel]
#   5 X_WORLD                Barycenter position along world x axis                     [deg]
#   6 Y_WORLD                Barycenter position along world y axis                     [deg]
#   7 A_WORLD                Profile RMS along major axis (world units)                 [deg]
#   8 B_WORLD                Profile RMS along minor axis (world units)                 [deg]
#   9 THETA_WORLD            Position angle (CCW/world-x)                               [deg]
#  10 FWHM_WORLD             FWHM assuming a gaussian core                              [deg]
#  11 ELONGATION             A_IMAGE/B_IMAGE                                           
#  12 ELLIPTICITY            1 - B_IMAGE/A_IMAGE                                       
         1 -13.6892    188.3451     27.9596   6.8860921288e+01   3.4577290619e+01      2.52313     1.559849   9.81  0.008968797    2.016    0.504
         2 -13.7066    197.5953     14.1018   6.3126616857e+01   3.3630431386e+01     1.871815     1.249031  33.49  0.008901021    1.628    0.386
         3  -9.8789    164.8518     12.0896   6.6958109320e+01   4.2483099913e+01    0.2252537    0.1968977 -53.40 0.0004656955    1.257    0.204
         4  -9.9296      2.4227     10.2945   1.2298483809e+02   7.2516338552e+01    0.2394602   0.07326999 -56.22  0.001147083    2.173    0.540
         5  -9.1518    233.8302      9.2980   5.7952362978e+01   2.4966654737e+01    0.3055675    0.1856206 -13.46  0.001120421    1.682    0.405
         6 -10.5386      8.8885      9.8715   1.1917107690e+02   7.2235619853e+01    0.1943052    0.1217849 -38.26  0.001250525    1.261    0.207
         7 -10.1890      3.6716      2.9124   1.1932630646e+02   7.3900333840e+01    0.1931925    0.1682615   5.11  0.001491538    1.423    0.297
         8 -13.2956     57.9594    215.1355   1.3629087824e+02   2.5525139671e+01    0.9033355    0.5638298  72.08  0.003120503    1.410    0.291
         9 -12.9403    173.5162    248.6272   1.2005965946e+02   5.8409043970e+00     1.727908    0.2703755  38.81  0.005837071    5.528    0.819
        10 -12.1929    156.1543    245.9152   1.2254255861e+02   8.5580606045e+00    0.6316995    0.3476025  35.62  0.004281032    1.430    0.301
        11  -9.9251    121.5199    248.6004   1.2835090921e+02   1.2922245883e+01    0.1956666    0.1673698  63.97  0.000891834    1.247    0.198
        12  -9.3766     86.4641    250.5124   1.3401231005e+02   1.7059014876e+01    0.1857912   0.07137951  40.80 0.0005766927    1.951    0.487
        13 -13.5696     81.6500    165.3192   1.2727300071e+02   3.1448143306e+01     3.876661    0.6950638  39.15  0.007307351    4.459    0.776
        14 -13.7014     67.1618    143.8455   1.2784719611e+02   3.7599248447e+01     3.892772     1.944778  59.43  0.006588197    2.267    0.559
        15 -11.4533     17.4869    187.7771   1.4178455247e+02   3.4199655645e+01    0.4979775    0.2121426  64.33  0.003089365    1.981    0.495
        16 -10.0728     11.9632    186.9924   1.4273331364e+02   3.4810144027e+01    0.2152375    0.1586602  28.29  0.001331854    1.773    0.436
        17 -11.2724     78.2365    186.2039   1.3023229803e+02   2.8018524984e+01     0.328291    0.2398111 -47.84  0.001590222    1.806    0.446
        18 -11.0348     81.9628    180.3468   1.2889778665e+02   2.8595583518e+01    0.2265362    0.2067404 -64.27 0.0006673009    1.312    0.238
        19  -8.4764     89.7898    184.5725   1.2779479032e+02   2.6803982523e+01    0.1604293   0.08839213  50.81 0.0006441128    1.584    0.369
        20  -9.1782      4.7525    183.5810   1.4386668829e+02   3.6002470243e+01    0.2116881    0.0956478  53.97 0.0008123912    1.718    0.418
        21  -9.9013     89.4795    176.0968   1.2690654839e+02   2.8374020302e+01    0.3328857    0.1729128  59.13  0.001045135    2.032    0.508
        22 -13.6437     65.9417    204.4589   1.3412920796e+02   2.6361128206e+01     1.209737    0.8514271  85.37  0.006622086    1.348    0.258
        23  -9.3737     49.3545    174.9182   1.3490946989e+02   3.3472646937e+01    0.1850528    0.1531174  82.82 0.0007160557    1.092    0.084
        24  -9.3313    137.4945    172.4995   1.1658797576e+02   2.1743202953e+01    0.1253936    0.1107624  43.21 0.0008106305    1.014    0.014
        25 -10.3680      6.5151    168.8736   1.4288295743e+02   3.8554805101e+01    0.3043959    0.1355138  68.56  0.001887995    1.903    0.475
        26  -8.8117      2.0116    169.2385   1.4375206386e+02   3.8827875079e+01    0.1362849    0.1003621  65.26  0.000430128    1.127    0.113
        27  -9.8145    230.4179    167.7341   9.8239444361e+01   6.1344482149e+00    0.2226875    0.1126069 -32.86  0.001127426    2.109    0.526
        28 -14.0150      5.0158    231.2517   1.4549047360e+02   2.8167100444e+01    0.6553296    0.4704678  77.24  0.005426941    1.195    0.163
        29  -8.8003    110.1161    208.1095   1.2645371758e+02   2.0105290821e+01    0.1626425    0.1392764  30.70 0.0005672472    1.319    0.242
        30 -10.5792     22.9428    156.0071   1.3884883170e+02   3.9696993629e+01     0.317811    0.1556684 -69.40  0.001945793    1.817    0.450
        31  -8.8735      3.2328    154.8332   1.4282508963e+02   4.1483747794e+01    0.2022512   0.04397596  35.04 0.0009902569    3.565    0.720
        32 -14.4742     10.1081    207.6596   1.4391060354e+02   3.1436839283e+01     2.625598     1.817085 -51.77   0.01536502    2.298    0.565
        33 -11.2185     32.3946    147.7059   1.3617165708e+02   4.0524959900e+01    0.5572528    0.2277964  51.44  0.002961444    2.293    0.564
        34  -9.9574    106.5758    144.9067   1.1884793091e+02   3.1858146432e+01    0.4797352    0.2865872 -36.06  0.002306577    2.311    0.567
        35 -11.5226     94.7962    145.6536   1.2168171482e+02   3.3499844029e+01    0.2417113    0.2282863  28.34 0.0005342697    1.219    0.180
        36  -9.2762     14.2344    147.3963   1.4010030038e+02   4.2133158070e+01    0.1446467   0.08203463  47.82 0.0009535439    1.644    0.392
        37  -9.0488    132.5965    140.5109   1.1212671358e+02   2.8342904442e+01    0.4691305    0.1281035 -55.06  0.001261313    6.075    0.835
        38  -8.4624    186.0988    139.9095   1.0064123317e+02   1.8240972988e+01    0.1817044    0.1468982  12.15  0.001004563    1.228    0.186
        39  -8.6514    120.9966    148.1713   1.1612845194e+02   2.8883125194e+01    0.1783102    0.1626235  18.94            0    1.218    0.179
        40  -9.3801    114.1370    133.7876   1.1512090310e+02   3.2857890040e+01    0.3132819    0.2485417  18.06 0.0007339175    1.544    0.352
        41  -9.3498    118.3454    133.0238   1.1397932607e+02   3.2297904707e+01    0.2210244    0.1810447  31.33 0.0004234881    1.287    0.223
        42 -10.3686    232.1756    132.8614   9.0652214639e+01   1.0186466734e+01    0.2375544    0.1986505  24.43 0.0003590004    1.124    0.110
        43 -15.4815     59.7324    237.0395   1.3735414512e+02   2.1990658145e+01     4.928766     1.337148  34.61   0.02108382    4.032    0.752
        44 -10.1213    101.9959    130.4569   1.1742609634e+02   3.5516965828e+01    0.2602728    0.2250405 -25.16 0.0008019688    1.400    0.286
        45 -10.2714     30.6760    128.2439   1.3475146569e+02   4.4759550867e+01    0.3170552    0.1665747  41.42 0.0009351798    1.925    0.480
        46  -9.3221    119.5113    126.5069   1.1241282040e+02   3.3405339333e+01    0.2941338    0.2046195 -12.47 0.0008963919    2.340    0.573
        47  -9.0398    135.2671    125.4666   1.0845349202e+02   3.0745825016e+01    0.3615037     0.120462 -51.37  0.001198066    3.517    0.716
        48  -9.1376    109.9103    121.9432   1.1383646831e+02   3.5992038951e+01    0.1945426    0.1882005  59.60 0.0004308581    1.037    0.036
        49 -10.4921      9.2478    195.3656   1.4356950658e+02   3.3574992572e+01    0.3701862    0.1633321  41.68  0.001983225    1.906    0.475
        50  -9.0686    168.3427    113.7027   9.8262051825e+01   2.6270489982e+01    0.2953181    0.2406658 -82.63  0.001005064    1.753    0.429
        51 -10.4760     12.3461    193.2962   1.4294843687e+02   3.3672227827e+01    0.2422171    0.1668005  81.26 0.0005383168    1.143    0.125
        52  -8.6715     16.1493    111.8249   1.3676397110e+02   4.9479515603e+01    0.1634111    0.1249299  81.39 0.0003106016    1.144    0.126
        53  -9.7195      9.5192    107.4996   1.3808734302e+02   5.0874607703e+01    0.1919658    0.1129137  23.30  0.001207052    2.153    0.536
        54  -9.8099     15.0971    105.2511   1.3637773226e+02   5.0996802408e+01     0.302999    0.1762654  29.10   0.00165602    2.044    0.511
        55  -9.4673      2.1404    104.1554   1.3973932506e+02   5.2049729073e+01    0.1662792    0.1395852  -4.27  0.001264058    1.689    0.408
        56  -8.9355    250.0376    114.0659   8.3468183949e+01   9.1324072439e+00    0.1984698    0.1667864   0.31  0.001192062    1.018    0.018
        57  -9.9188     57.8951    189.5315   1.3443947401e+02   2.9856281695e+01    0.2810194    0.1891086 -53.25  0.001217598    1.920    0.479
        58  -8.1537    153.3257     77.7044   9.1778151760e+01   3.6017299915e+01     0.150311    0.1231172 -75.38 0.0002994121    1.625    0.385
        59  -7.9141    150.3076     72.7414   9.0956798549e+01   3.7589693177e+01    0.1444271    0.1225613 -78.46            0    1.521    0.343
        60  -9.1290      3.3195     72.3468   1.3608130307e+02   5.9023038119e+01    0.1222788   0.06386919 -50.87 0.0007049048    1.731    0.422
        61  -8.3890    187.8281     70.1427   8.2282365083e+01   2.9028049922e+01    0.1990664    0.1649204  14.92 0.0002649171    1.233    0.189
        62  -9.5951    243.1712     57.9323   7.0239554747e+01   1.7544687946e+01    0.2204074    0.1944792  33.90 0.0002575834    1.187    0.157
        63  -8.3018    129.0568     57.4408   9.1184473042e+01   4.5138288305e+01    0.2093247    0.1486971  47.60 0.0001200879    1.454    0.312
        64  -8.9538     80.1725     52.8523   1.0426934400e+02   5.5550233280e+01    0.3045689    0.1923097  54.91  0.001423972    2.156    0.536
        65 -11.9899    179.2135     35.3890   7.2773069751e+01   3.6068619455e+01    0.9514073     0.575672  50.67  0.001195193    1.612    0.380
        66  -9.4652     97.1417    248.8918   1.3223279428e+02   1.5981483741e+01    0.1543005   0.09868787  57.91 0.0006942821    1.272    0.214
        67 -10.1046    134.6552    249.8159   1.2636752634e+02   1.1036595017e+01    0.3320535    0.1437266  51.19  0.001989847    2.029    0.507
        68 -15.8577     17.5452    242.1463   1.4399615346e+02   2.5471156521e+01     3.341378     1.427155 -72.58   0.01282861    2.495    0.599
        69 -10.3319    139.1277     34.0113   8.0144453880e+01   4.6494488075e+01    0.2441788    0.2188469   5.17   0.00129412    1.061    0.057
        70  -8.0773    139.2623    241.6520   1.2484684219e+02   1.1400077519e+01   0.09868655   0.06727359  62.18 0.0005552419    1.606    0.377
        71 -10.0258    174.5382    203.1046   1.1411960951e+02   1.1070678083e+01    0.2041961    0.1614873  38.01  0.000344134    1.067    0.063
        72 -10.0214    192.1137    193.9563   1.0958622584e+02   9.3952583960e+00    0.6323776    0.3232111 -57.53  0.002362994    5.742    0.826
        73 -11.2238    143.2128    249.7768   1.2500139870e+02   9.8895309413e+00    0.4877254     0.145402  41.76  0.002525071    2.395    0.582
