#   1 NUMBER                 Running object number                                     
#   2 MAG_AUTO               Kron-like elliptical aperture magnitude                    [mag]
#   3 X_IMAGE                Object position along x                                    [pixel]
#   4 Y_IMAGE                Object position along y                                    [pixel]
#   5 X_WORLD                Barycenter position along world x axis                     [deg]
#   6 Y_WORLD                Barycenter position along world y axis                     [deg]
#   7 A_WORLD                Profile RMS along major axis (world units)                 [deg]
#   8 B_WORLD                Profile RMS along minor axis (world units)                 [deg]
#   9 THETA_WORLD            Position angle (CCW/world-x)                               [deg]
#  10 FWHM_WORLD             FWHM assuming a gaussian core                              [deg]
#  11 ELONGATION             A_IMAGE/B_IMAGE                                           
#  12 ELLIPTICITY            1 - B_IMAGE/A_IMAGE                                       
         1 -14.3660    215.1459      6.0992   4.1449978980e+01   3.0030641497e+01     2.063838     1.364241  62.29  0.006075145    1.548    0.354
         2 -15.0123    190.9128     35.5589   5.2837402441e+01   3.2906633944e+01     2.861585     1.776121  13.99   0.01157333    2.436    0.589
         3 -12.6261     45.0769      5.2801   7.7211381390e+01   7.0448808939e+01    0.7406368    0.3778336   9.59  0.002984792    3.513    0.715
         4 -11.9575     58.7120      3.5891   7.0279135954e+01   6.8411185575e+01    0.4397943    0.1697145  34.28  0.001776584    3.005    0.667
         5  -9.7194    168.9975    235.0926   1.0278168652e+02   4.6563669781e+00    0.1658648    0.1365931  34.59 0.0004789195    1.057    0.054
         6 -12.2855    248.8308    248.5440   9.1456623857e+01  -8.2665267263e+00    0.5332675    0.2538164  32.04  0.003437723    1.591    0.371
         7 -16.7350     71.3090    146.2822   1.1091445697e+02   3.6523015038e+01     9.724047     4.870972  74.90   0.02178441    3.219    0.689
         8 -10.1297     31.9809    211.4869   1.2560048685e+02   2.7582227224e+01    0.1353516    0.0788046  54.26 0.0004501965    1.335    0.251
         9 -11.9963     71.4875    207.5954   1.1790175708e+02   2.3605062055e+01    0.4787658      0.29283  27.79  0.002726936    2.159    0.537
        10 -11.8897    194.0778    196.3786   9.2444171475e+01   5.9202925464e+00     1.138813    0.6222943 -60.69  0.004304889    4.805    0.792
        11 -13.2853     59.2480    201.8181   1.1978410475e+02   2.6271504084e+01    0.5081158    0.2947903 -70.84  0.002699832    1.725    0.420
        12  -9.8228     35.4113    206.2437   1.2465677234e+02   2.8198079554e+01    0.1041613   0.07526113  58.27 0.0001863892    1.147    0.129
        13 -11.6990     96.7250    200.8181   1.1223073016e+02   2.1344575051e+01    0.4293695    0.3111725 -31.63  0.001309066    2.294    0.564
        14  -9.8489     87.5295    202.9274   1.1430061700e+02   2.2284015520e+01    0.2048515    0.1603941  29.87 0.0008188236    1.550    0.355
        15 -12.1897    152.7691    198.2770   1.0065715882e+02   1.2750650607e+01    0.4490868    0.2474865 -52.38  0.002297449    2.167    0.539
        16 -12.3021     35.4478    199.5724   1.2422248076e+02   2.9477151706e+01     0.183409    0.1491418  68.89 0.0005260673    1.147    0.128
        17 -10.5163    159.8267    196.7855   9.9039815296e+01   1.1782662932e+01    0.2043364    0.1860766  88.60 0.0004551548    1.322    0.243
        18 -10.4956     80.1047    194.5379   1.1491891904e+02   2.4941488628e+01    0.3779408    0.1828752  52.30  0.001951365    1.819    0.450
        19 -10.5515    207.4965    193.9058   8.9568816760e+01   3.9798937553e+00    0.1788356    0.1206602 -30.74  0.001031614    1.586    0.369
        20 -11.0454     97.2984    192.8823   1.1118729678e+02   2.2770320808e+01    0.3254888     0.263303 -15.75  0.001607946    2.024    0.506
        21 -17.8616     39.2895    246.3798   1.2620959819e+02   2.0744935506e+01     7.778459     2.169816  32.48   0.02696261    5.539    0.819
        22  -8.7797     44.0725    211.3548   1.2338150185e+02   2.6271693353e+01    0.2681926    0.1905695 -80.83  0.001688119    1.381    0.276
        23 -11.4672     99.3753    180.9201   1.0923021282e+02   2.4820749899e+01    0.2563227    0.2328892  51.69 0.0005749787    1.156    0.135
        24 -12.6684    147.1872    184.5349   9.9621754080e+01   1.6093664406e+01    0.6323299    0.4104916  86.80  0.002394208    2.895    0.655
        25 -12.3097    142.0578    172.4664   9.8674290458e+01   1.9244522471e+01    0.6199014    0.5550836  59.24  0.002518075    1.083    0.076
        26 -11.1059    153.9120    185.4538   9.8395768847e+01   1.4735950046e+01    0.2747333    0.2007325 -64.99  0.001329784    1.735    0.424
        27 -10.7440    204.3996    176.4583   8.6914795156e+01   7.0329139718e+00    0.3974628    0.2426494 -43.18    0.0015941    1.884    0.469
        28  -9.1878    198.4735    177.4715   8.8212301031e+01   7.9539056578e+00    0.1327959    0.1172111  19.62 0.0005380356    1.021    0.020
        29 -12.0949     39.6170    212.4735   1.2427155402e+02   2.6566470980e+01    0.1884674     0.155311  87.46 0.0009727222    1.259    0.206
        30  -9.4888      2.6039    170.0770   1.2896864179e+02   3.8568893883e+01    0.1948839     0.104575  66.70 0.0009501154    1.492    0.330
        31 -12.3949    204.1475    199.2555   9.1102566696e+01   3.8103166330e+00    0.5861759    0.2523267  31.78  0.002621716    2.359    0.576
        32 -11.0410    230.1995    166.6850   8.0378870245e+01   3.8301674956e+00    0.3078997    0.1618835 -44.90  0.001416924    2.448    0.592
        33  -9.8914    162.3264    167.4853   9.3476153433e+01   1.6391536994e+01    0.2269762    0.1852189  64.14 0.0003293542    1.385    0.278
        34  -9.9499     72.1167    231.0114   1.1970954797e+02   1.9361539096e+01     0.160227    0.1037764  62.47 0.0004735762    1.232    0.188
        35  -9.8606    236.6758    158.3363   7.7561792584e+01   3.8486980895e+00    0.1214509    0.1054218 -60.88  0.000705113    1.716    0.417
        36 -12.5395     96.5158    153.1136   1.0577532506e+02   3.1186242461e+01    0.5947931    0.4800558 -22.83  0.002305934    1.776    0.437
        37 -10.4239    188.8762    154.2982   8.5409197238e+01   1.3542321131e+01    0.2759597    0.1822653  43.00  0.001363709    1.458    0.314
        38 -10.2954    113.4229    151.4389   1.0142925700e+02   2.8700036564e+01     0.319073    0.1999705  78.07  0.001098939    2.362    0.577
        39 -11.6624    133.9889    145.7990   9.5483940590e+01   2.6107795475e+01     1.206127    0.3140309 -54.91  0.003079333    5.675    0.824
        40 -10.5637    174.4042    148.8800   8.7187409275e+01   1.7416604957e+01    0.2913532    0.2559388  77.83 0.0008872683    1.383    0.277
        41 -11.1038    144.1376    147.1323   9.3416627060e+01   2.3851361627e+01    0.4605062    0.2354813 -61.50  0.001728078    2.784    0.641
        42 -12.7924     50.2088    208.3962   1.2203169577e+02   2.6112947031e+01      0.39601     0.216291  55.40  0.001289865    1.461    0.316
        43 -11.7136    107.9825    139.1734   1.0046491044e+02   3.2370912098e+01    0.5022922    0.3969055 -37.14   0.00263419    1.485    0.326
        44 -12.4205     96.0237    138.7059   1.0339973503e+02   3.4519798936e+01    0.2803757    0.2633686  69.67 0.0004191737    1.079    0.073
        45 -11.3140    105.9535    130.7687   9.9302510628e+01   3.4635419216e+01    0.4086884     0.315296 -70.58   0.00122958    1.318    0.241
        46 -11.1125    102.6317    125.5931   9.9091441594e+01   3.6411670265e+01    0.2685398     0.235648 -24.11 0.0006247062    1.382    0.276
        47 -11.0677    114.9958    129.7771   9.6773024897e+01   3.3212466956e+01    0.3283153    0.2861552  -6.39 0.0007612392    1.455    0.313
        48 -11.0423    135.5770    126.9605   9.1013673818e+01   2.9800286295e+01     0.718729    0.1463617 -49.57  0.001739084    5.465    0.817
        49 -10.3845    160.8289    128.2114   8.5424642322e+01   2.4221393253e+01    0.3805553    0.2179182 -48.03   0.00152183    1.818    0.450
        50 -10.7844    120.6130    123.0528   9.3842481885e+01   3.3647934699e+01    0.4675195    0.2967272 -15.87    0.0016756    3.272    0.694
        51  -9.6583    152.8292    120.0390   8.5247989689e+01   2.7604486951e+01    0.2390592    0.2071589 -78.87  0.001204101    1.331    0.248
        52 -10.0540    110.1040    118.9288   9.5635382226e+01   3.6586413974e+01    0.2160301    0.2029534 -73.14 0.0003346252    1.012    0.012
        53 -10.2033    167.9622    112.7600   7.9988761243e+01   2.5685270973e+01    0.3742884    0.2661687 -75.44   0.00156606    2.121    0.529
        54 -10.5299    135.0000    112.0956   8.7526040498e+01   3.3120733726e+01    0.4195605   0.08609165 -45.17  0.001034935    4.787    0.791
        55 -11.5415    118.8078    110.2608   9.1229727844e+01   3.6866582794e+01    0.5985636    0.4140956  62.43  0.002705431    1.705    0.414
        56 -10.2787    205.4836    110.1850   7.1842353842e+01   1.7629784584e+01    0.3129739    0.2097978  39.74 0.0009057901    1.567    0.362
        57  -9.6690    134.5762    105.7777   8.5977192023e+01   3.4568166103e+01    0.3011764    0.1476915 -40.81  0.001133273    2.052    0.513
        58 -19.2186     13.5300    103.0827   1.2087472450e+02   5.2877767528e+01     17.26621     1.210858 -73.24   0.03096556   14.040    0.929
        59 -10.2081    186.3594     86.3165   6.8939949514e+01   2.6237002326e+01    0.2992482    0.2712872 -55.24  0.001002066    1.146    0.127
        60 -10.1033     70.0849     72.0984   9.5468062332e+01   5.4218438039e+01     0.204387    0.1898562 -59.75 0.0004353345    1.088    0.081
        61 -12.6609    163.3253     62.7641   6.6311429024e+01   3.6065218393e+01     1.072002    0.7177294 -26.12  0.001254727    1.539    0.350
        62  -8.4624     58.5662    227.6263   1.2186319950e+02   2.1634907035e+01     0.111097   0.07750405  61.65 0.0004786298    1.065    0.061
        63 -13.4599    176.1270     49.9459   5.9730211438e+01   3.4781117837e+01    0.9383359     0.803749  29.01 0.0008407457    1.275    0.216
        64  -8.9960     73.4665    218.5596   1.1847316296e+02   2.1343074596e+01    0.1156107   0.08766156  62.45 0.0002097924    1.014    0.014
        65 -11.8991     57.8537    214.1490   1.2102549961e+02   2.4122884605e+01    0.3636551    0.1826973  67.69  0.002077863    1.880    0.468
