#   1 NUMBER                 Running object number                                     
#   2 MAG_AUTO               Kron-like elliptical aperture magnitude                    [mag]
#   3 X_IMAGE                Object position along x                                    [pixel]
#   4 Y_IMAGE                Object position along y                                    [pixel]
#   5 X_WORLD                Barycenter position along world x axis                     [deg]
#   6 Y_WORLD                Barycenter position along world y axis                     [deg]
#   7 A_WORLD                Profile RMS along major axis (world units)                 [deg]
#   8 B_WORLD                Profile RMS along minor axis (world units)                 [deg]
#   9 THETA_WORLD            Position angle (CCW/world-x)                               [deg]
#  10 FWHM_WORLD             FWHM assuming a gaussian core                              [deg]
#  11 ELONGATION             A_IMAGE/B_IMAGE                                           
#  12 ELLIPTICITY            1 - B_IMAGE/A_IMAGE                                       
         1 -13.8385      6.6057     13.7346   1.3162266744e+02   7.3393949144e+01     2.530783    0.7633407 -55.31   0.01116533    2.251    0.556
         2 -13.6137    188.4150     27.0253   7.4374760359e+01   3.4714727857e+01     1.280567     1.196412  68.38  0.005813516    1.134    0.118
         3 -14.0002    200.5749      9.3878   6.7491510239e+01   3.3467001132e+01     1.803031     1.113592  40.17  0.008810311    1.809    0.447
         4  -9.8460     81.8913    249.0878   1.4189380801e+02   1.6678019169e+01    0.1603834    0.1001081  52.08 0.0007883439    1.323    0.244
         5 -10.7501    248.8795    249.0741   1.1409423522e+02  -3.2557843638e+00     0.229572    0.1437096   2.87  0.001833829    1.239    0.193
         6 -10.9461    139.0884    250.0756   1.3208580353e+02   9.8851147064e+00    0.2381357    0.1340152  37.53  0.001484292    1.312    0.238
         7 -10.2471     98.3595    249.7225   1.3909851990e+02   1.4756950387e+01    0.1834122    0.1210931  48.84  0.001411668    1.252    0.201
         8 -10.4573     67.1016    250.4098   1.4449938235e+02   1.8066554433e+01    0.2038922    0.1592326  51.84 0.0009070127    1.091    0.084
         9  -8.8365     63.6626    250.7385   1.4509884118e+02   1.8374591711e+01    0.1021101   0.06979142  48.77  0.000425744    1.070    0.065
        10 -10.5247     46.4932    248.6283   1.4787420572e+02   2.0376631793e+01    0.2341146    0.1239413  62.04  0.001057208    1.651    0.394
        11  -9.3459     29.5005    242.4958   1.5045605965e+02   2.2850385769e+01    0.1966486    0.1183475  54.92  0.001040118    1.211    0.174
        12 -10.8647     29.1836    249.3481   1.5075514767e+02   2.1875247794e+01    0.2580354    0.2058782 -75.75   0.00135511    1.590    0.371
        13 -11.7834     35.2410    244.9149   1.4959231841e+02   2.1972520082e+01    0.4396169    0.3493661 -38.70  0.003730044    2.074    0.518
        14 -15.1551     18.3801    169.4013   1.4933781872e+02   3.6594890273e+01     6.504305     1.786573  86.50    0.0229428    5.275    0.810
        15  -9.6918     76.8968    245.3181   1.4251065996e+02   1.7744921399e+01    0.1672419   0.08657575  47.80 0.0008248173    1.483    0.326
        16 -10.0406     66.9516    243.3766   1.4411671618e+02   1.9079868530e+01    0.1775565    0.1105234  68.17   0.00079732    1.624    0.384
        17 -12.6805     45.0316    234.3786   1.4745283521e+02   2.2632099307e+01    0.2739027    0.2297607  63.77 0.0007344837    1.169    0.145
        18 -10.9659     19.7306    237.8278   1.5192419587e+02   2.4407171744e+01     0.289623   0.07460338  56.22  0.001569413    2.915    0.657
        19  -9.9531     94.9647    241.3177   1.3905215572e+02   1.6291915523e+01    0.1540885     0.149133 -59.99 0.0005364707    1.370    0.270
        20 -10.2398    183.9222    238.0661   1.2303481093e+02   5.6238010452e+00    0.1784834    0.1054844  11.52  0.001144345    1.759    0.431
        21 -10.3246     34.9321    229.2820   1.4899078464e+02   2.4380918499e+01    0.2521913    0.1943763  63.88  0.001307194    1.105    0.095
        22 -14.6399      4.2465    237.3960   1.5446490043e+02   2.5742432839e+01     5.096816    0.5628861 -72.75     0.021422    7.085    0.859
        23  -9.3951    177.1104    227.0693   1.2281365963e+02   7.7653536773e+00    0.1575479    0.1270638  35.83 0.0006225501    1.309    0.236
        24 -10.7741    173.0773    221.6207   1.2281629319e+02   8.9667064955e+00    0.3268726    0.2421706  49.42   0.00224295    1.680    0.405
        25  -9.5106     27.5814    221.6403   1.4997109201e+02   2.6275509245e+01    0.1771577   0.09074528  39.32 0.0006620596    1.533    0.348
        26 -13.8731     10.6216    207.0603   1.5251105128e+02   3.0164347208e+01     1.441702    0.7321897  80.46  0.004238226    1.755    0.430
        27 -13.9551     51.0329    225.1040   1.4589061926e+02   2.3493334682e+01    0.8898348    0.6282474  63.29  0.005115791    1.212    0.175
        28  -8.7992    152.5013    212.9618   1.2547618087e+02   1.2931841796e+01    0.1369696    0.1141927 -36.70 0.0003695982    1.456    0.313
        29 -12.0206     29.1566    204.3924   1.4890390993e+02   2.9062515086e+01    0.4541739    0.1554029  38.86  0.001458039    2.169    0.539
        30  -9.6726    191.9707    193.0071   1.1512894747e+02   9.9086316188e+00    0.2781821    0.1983203 -64.72  0.001425228    3.346    0.701
        31 -11.6753     74.1418    191.5017   1.3886381573e+02   2.6742956529e+01    0.2228208    0.2201351 -33.68 0.0005165627    1.253    0.202
        32 -11.4335     69.0690    199.3621   1.4061494633e+02   2.5912412589e+01    0.2910347    0.2107325 -40.16  0.001368443    1.910    0.477
        33  -9.0823    106.3528    182.0140   1.3085645250e+02   2.4351192795e+01    0.1529043    0.1425244  59.97 0.0006007436    1.097    0.088
        34 -10.9493     82.9689    178.7549   1.3564070413e+02   2.8051791872e+01    0.2081759    0.2031429  81.03 0.0004093387    1.141    0.124
        35 -13.1985     70.5364    176.6029   1.3820197825e+02   2.9982127253e+01     0.437426    0.2612346 -41.80  0.001901878    2.282    0.562
        36  -8.5452    172.8388    174.6287   1.1567276861e+02   1.5457832288e+01    0.1702108      0.10757  43.15 0.0001616959    1.581    0.367
        37 -11.9609     90.0018    169.2926   1.3291269438e+02   2.8973595777e+01    0.6596394    0.4823287  43.02  0.004033368    1.238    0.192
        38 -10.1726    194.8002    158.5980   1.0837994405e+02   1.4208090412e+01    0.3193429    0.2407619 -57.66  0.001714258    2.205    0.546
        39 -12.6166     67.1392    144.1291   1.3527015431e+02   3.7135281340e+01    0.8619301    0.5250624  71.57  0.004356471    1.983    0.496
        40 -11.7456     56.4402    127.4872   1.3591888298e+02   4.2138524215e+01     1.497801    0.5454815 -82.99   0.00378905    7.500    0.867
        41 -12.0207     90.1964    152.1985   1.3052915004e+02   3.2406351889e+01    0.2602273    0.2324461 -28.01 0.0005565946    1.292    0.226
        42  -9.8248    101.3235    152.6648   1.2785540515e+02   3.0720315906e+01    0.2350091    0.2222468  -8.52 0.0007213952    1.159    0.137
        43  -9.0178    104.0081    148.2726   1.2648513964e+02   3.1219598962e+01    0.2313781    0.1616871 -36.26    0.0012208    1.669    0.401
        44  -8.4599    191.9872    144.0331   1.0592363872e+02   1.6865874132e+01    0.1619035    0.1375003  -0.71 0.0003690642    1.038    0.037
        45 -12.1703     30.6537    139.8304   1.4433866346e+02   4.1869189199e+01    0.3921076    0.2419644  42.63  0.002334645    1.559    0.359
        46  -9.8404    169.6640    133.4034   1.0814457206e+02   2.2693610559e+01    0.2350956    0.2268575  45.39  0.001404824    1.254    0.202
        47  -9.6549    111.4786    137.3960   1.2268585973e+02   3.2302638792e+01    0.3017786    0.2076072 -18.60   0.00113557    2.049    0.512
        48  -9.0021     88.8819    138.1029   1.2866942090e+02   3.5594465749e+01    0.1981058    0.1630754  63.46 0.0005110307    1.263    0.208
        49 -10.6623     99.1676    135.0162   1.2542898690e+02   3.4743129695e+01    0.2810394    0.2308818 -33.12 0.0004505354    1.347    0.258
        50 -10.5086    175.1423    138.5874   1.0813388514e+02   2.0798801386e+01    0.5004494    0.3566774  81.18  0.002076523    3.315    0.698
        51  -8.8840    108.2326    124.2173   1.2093087318e+02   3.5622208625e+01    0.1890928    0.1774967  -9.35 0.0003648628    1.108    0.097
        52  -9.6929    151.5561    117.6704   1.0852549649e+02   2.9007659171e+01    0.5018396    0.3275995  80.97  0.001688415    4.238    0.764
        53 -10.5308    168.0125    113.1332   1.0369585504e+02   2.6537318125e+01    0.3401454    0.2875461 -76.47  0.001181495    1.714    0.416
        54  -8.9313    203.1870    111.6157   9.6322129535e+01   1.9681836317e+01    0.1955535    0.1217771  32.94 0.0005294864    1.636    0.389
        55  -9.7253     41.5939    109.1953   1.3773825665e+02   4.8007022495e+01    0.1965306    0.1003736 -58.16 0.0009518176    1.740    0.425
        56 -14.4054     56.8065    212.0093   1.4400220636e+02   2.5054457764e+01     8.203657   0.09372602  43.34   0.02822302    5.360    0.813
        57  -9.8744    127.7179    100.5027   1.1009759717e+02   3.7090148273e+01    0.4819247    0.2972786  67.14  0.001708685    2.890    0.654
        58  -9.4430     29.8055     91.0125   1.3893101485e+02   5.3466928174e+01    0.2333118    0.1735872  46.94 0.0008267814    1.472    0.321
        59  -9.3416    155.2913     75.3369   9.5959458176e+01   3.5950286348e+01    0.1595964    0.1160909   7.24 0.0005214259    1.641    0.391
        60  -9.7541     22.2594     68.0966   1.3791501680e+02   5.9659774161e+01    0.2086655    0.1828115  41.81 0.0004776088    1.338    0.253
        61 -11.9719      2.5536     48.8027   1.4307985847e+02   6.5415073557e+01     0.846548   0.08485645 -70.51  0.002468057    5.063    0.802
        62 -10.3757    198.1759    245.0338   1.2152042040e+02   3.0989580934e+00    0.1326131    0.1221161  57.09  0.001086293    1.957    0.489
        63  -9.3211     14.3026     55.6677   1.3894002874e+02   6.3197865327e+01    0.1259895   0.08908661  73.42 0.0003915081    1.655    0.396
        64 -10.5427     83.3192    244.0716   1.4130757499e+02   1.7218944324e+01     0.344877    0.1228667  50.83  0.001871161    2.573    0.611
