#   1 NUMBER                 Running object number                                     
#   2 MAG_AUTO               Kron-like elliptical aperture magnitude                    [mag]
#   3 X_IMAGE                Object position along x                                    [pixel]
#   4 Y_IMAGE                Object position along y                                    [pixel]
#   5 X_WORLD                Barycenter position along world x axis                     [deg]
#   6 Y_WORLD                Barycenter position along world y axis                     [deg]
#   7 A_WORLD                Profile RMS along major axis (world units)                 [deg]
#   8 B_WORLD                Profile RMS along minor axis (world units)                 [deg]
#   9 THETA_WORLD            Position angle (CCW/world-x)                               [deg]
#  10 FWHM_WORLD             FWHM assuming a gaussian core                              [deg]
#  11 ELONGATION             A_IMAGE/B_IMAGE                                           
#  12 ELLIPTICITY            1 - B_IMAGE/A_IMAGE                                       
         1 -10.4209     57.8123     40.6602   6.4414178438e+01   6.2996161064e+01    0.4110789    0.1514107 -48.13  0.001537214    3.122    0.680
         2 -10.4931     68.9986     39.7381   5.9514064560e+01   6.1144625839e+01     0.373976    0.1643782 -46.46  0.001522437    2.582    0.613
         3 -10.1924     40.8559     13.9406   5.9750428183e+01   6.9961454750e+01    0.1868738    0.1439874   7.52 0.0003017517    1.224    0.183
         4 -11.1092    162.2874    225.0222   7.8064931378e+01   5.1125867720e+00    0.3598745     0.235542  16.84  0.001606554    1.562    0.360
         5 -10.2731     60.9905    223.4983   9.9973752034e+01   1.9695029647e+01     0.201186   0.06769759  49.37 0.0008105151    2.677    0.626
         6 -10.8767    126.1349    220.6152   8.5099206251e+01   1.1228148712e+01     0.198945    0.1787987  79.91 0.0006527007    1.294    0.227
         7 -10.1327     74.9853    219.4914   9.6453765817e+01   1.8728627663e+01    0.1961984   0.07744583  50.65 0.0008096487    2.468    0.595
         8 -10.2342     99.3214    225.0592   9.1579129088e+01   1.4264072050e+01    0.2131813    0.1637099  27.04 0.0005797959    1.280    0.219
         9 -10.0991    185.8309    213.9933   7.1666737158e+01   3.5175425259e+00    0.1811592     0.151355 -77.95  0.001076494    1.968    0.492
        10 -10.3485     99.9789    206.4990   8.9181938737e+01   1.7949316441e+01    0.2074501   0.09016786  51.67 0.0008103009    2.582    0.613
        11 -10.0247     57.3221    205.6670   9.9209248246e+01   2.3985469344e+01    0.1428706   0.08265001  61.62 0.0005513096    1.703    0.413
        12 -11.0988    185.8789    203.5931   6.9938652574e+01   5.2257260973e+00    0.2416295    0.1739118 -57.87  0.001331669    1.903    0.474
        13 -11.6557    164.7238    201.8437   7.3940046427e+01   8.7851294559e+00    0.3701386    0.1887367 -57.89  0.001583422    2.796    0.642
        14 -10.8411    177.4971    197.5057   7.0571116733e+01   7.5592917686e+00    0.2243936    0.1266942 -55.59  0.001035728    2.359    0.576
        15 -11.0243    125.2898    197.7752   8.2020643495e+01   1.5871827717e+01    0.2578604    0.1941862  33.75  0.001400774    1.234    0.190
        16 -11.0206    113.4807    197.9930   8.4825389596e+01   1.7694703306e+01    0.3207978    0.1429789  49.94  0.001264117    2.484    0.597
        17 -10.7100    172.7645    195.5771   7.1205621149e+01   8.6497543321e+00    0.1847668    0.1189024  44.35  0.000945124    1.639    0.390
        18 -10.3988     66.9980    194.7280   9.5736628194e+01   2.5217693171e+01    0.2951007    0.1512161  76.12   0.00118706    2.771    0.639
        19 -11.0246     88.8375    198.4097   9.0808651490e+01   2.1338449482e+01    0.3229261    0.1862362 -86.91  0.001416243    2.411    0.585
        20 -10.6254     78.4212    193.1393   9.2710900995e+01   2.4018833118e+01    0.2793877    0.1465343  60.82  0.001187881    2.262    0.558
        21 -10.4280     43.8177    193.2190   1.0132395279e+02   2.8444337676e+01      0.24339    0.1001039  61.25 0.0009519102    2.827    0.646
        22 -10.4418    139.0135    189.3234   7.7491528510e+01   1.5373106648e+01    0.2719589    0.1818054 -86.55  0.001166492    2.647    0.622
        23 -11.1594     87.4663    189.1349   8.9932353458e+01   2.3629569818e+01    0.3024418    0.1557856  49.45  0.001254259    1.912    0.477
        24 -10.0568    129.6461    188.3230   7.9502451504e+01   1.7135559694e+01    0.1467721    0.1061088  66.67 0.0001824104    1.759    0.432
        25 -13.0956     95.4621    185.0295   8.7344334591e+01   2.3363172157e+01    0.8179685    0.4634563  64.93  0.003400226    2.394    0.582
        26 -11.2254    120.7448    185.7080   8.1197231242e+01   1.9166165105e+01    0.3711169    0.2011785 -65.23  0.001570525    2.306    0.566
        27 -11.4217    110.4459    185.4701   8.3672016169e+01   2.0898679609e+01    0.3592503    0.3172188  74.26  0.001076437    1.186    0.157
        28 -10.8532     55.3187    186.7527   9.7801719766e+01   2.8585882518e+01    0.3523496    0.1364523  62.08  0.001149015    3.977    0.749
        29 -10.0315     34.6640    187.3332   1.0308135812e+02   3.0845417308e+01     0.145488   0.08006936  61.69 0.0007052118    1.739    0.425
        30  -9.8401    165.6581    186.3365   7.1068309077e+01   1.1518751549e+01     0.135332    0.1095525  75.14 -8.954323e-06    1.763    0.433
        31 -10.8960     75.3831    184.1130   9.2342137649e+01   2.6543640227e+01    0.3047625    0.1531459  49.45  0.001327211    1.942    0.485
        32 -10.1149     66.3355    184.6598   9.4740269008e+01   2.7657841387e+01    0.1518934   0.09232448  63.83   0.00070511    1.756    0.431
        33  -9.9061    174.3743    183.1844   6.8665224846e+01   1.0664066106e+01    0.1898218    0.1268618 -54.16 0.0008653151    1.750    0.428
        34  -9.6980    197.6641    182.3387   6.3888772992e+01   7.0357893037e+00    0.1236071    0.1071931 -88.48 0.0007051392    1.753    0.430
        35 -10.1954     44.4094    182.1983   1.0013145236e+02   3.0985272758e+01    0.1928137    0.1159572  88.82 0.0009505509    1.692    0.409
        36 -10.2971    244.2136    180.9756   5.5630309615e+01   4.4777163775e-01    0.1645677   0.08197246 -36.10 0.0008743345    1.719    0.418
        37 -10.0821    148.6286    180.3219   7.3730194282e+01   1.5588543654e+01    0.1454181    0.1101757  70.72   0.00024268    1.805    0.446
        38 -12.2822     79.0190    176.2860   9.0341176903e+01   2.7884817710e+01    0.4854734    0.2458784  52.98  0.002034054    2.106    0.525
        39 -10.6590     60.0234    176.8292   9.5449570499e+01   3.0371320915e+01    0.2497394    0.1286795  56.22  0.001080019    2.047    0.512
        40 -10.8038    106.2429    175.1202   8.3072116811e+01   2.3927666598e+01    0.3020498    0.1700897  57.51  0.001246125    2.164    0.538
        41 -10.5293    135.1782    171.7701   7.5307966163e+01   1.9732620357e+01    0.2429263    0.1556931  74.65 0.0009465005    2.781    0.640
        42 -11.8650    122.3109    169.4003   7.8023203185e+01   2.2512498879e+01    0.4802458     0.319954  72.61  0.002064444    2.199    0.545
        43 -10.1189     44.6763    171.3482   9.8933986609e+01   3.3600128677e+01     0.150793   0.08897825  64.53  0.000704936    1.746    0.427
        44 -10.0244    176.6255    169.8698   6.5682157635e+01   1.2796554722e+01    0.2014751    0.1278723 -53.07 0.0009565877    1.774    0.436
        45  -9.8637    206.3891    169.2173   5.9778892969e+01   7.9056822588e+00    0.1879041    0.1161578 -47.44 0.0009509724    1.702    0.412
        46 -10.9740     55.6352    169.3498   9.5720405908e+01   3.2769516016e+01    0.2340644    0.1463158  65.13 0.0008859842    1.686    0.407
        47  -9.8888    112.3312    167.6525   8.0239928474e+01   2.4634182485e+01    0.1559243    0.1114233  71.85 0.0007049284    1.764    0.433
        48 -11.2420    139.7666    165.0712   7.2950190061e+01   2.0366234571e+01    0.4150648    0.2745775  71.65   0.00172584    2.413    0.586
        49 -11.2479     99.5829    165.9966   8.3285493837e+01   2.7161204464e+01    0.4993482    0.1977885  49.72  0.001706755    2.933    0.659
        50 -11.8515     80.3732    163.7651   8.8125855253e+01   3.0729313106e+01    0.5891612    0.3157792  75.77  0.002070736    3.253    0.693
        51  -9.9558     38.3063    164.6422   9.9953006831e+01   3.5983319029e+01    0.1493059   0.08881891  65.94 0.0005237443    1.725    0.420
        52 -10.2629    213.7058    163.3486   5.7330975675e+01   7.7291508200e+00    0.1247689    0.1022137 -65.86 0.0007031493    1.674    0.403
        53 -10.5430     69.8866    162.7815   9.0889992946e+01   3.2500081604e+01     0.289827     0.175839  78.55  0.001243573    2.100    0.524
        54  -9.7129     47.3278    163.6640   9.7329420694e+01   3.5204009444e+01    0.1518207    0.0923922  64.76 0.0007051852    1.725    0.420
        55 -10.2760    205.4899    161.0233   5.8332518877e+01   9.4791914316e+00    0.2117547    0.1214172 -40.23  0.001038844    1.612    0.379
        56  -9.9038    152.5109    160.9934   6.9170832448e+01   1.8908366865e+01    0.1951769    0.1303048 -74.78 0.0008076999    2.375    0.579
        57 -11.6895     93.4533    160.2119   8.3949833349e+01   2.9554664466e+01    0.4381061    0.2848154  64.79  0.001783167    1.857    0.461
        58 -10.5587     62.1679    160.1993   9.2693845459e+01   3.4206559844e+01    0.2115171    0.1567984  69.47 0.0008878435    1.375    0.273
        59 -10.2379    128.9875    159.1727   7.4435327028e+01   2.3630182832e+01    0.2527336    0.1657036  63.75 0.0009572562    2.015    0.504
        60 -11.1796    106.3743    158.2571   8.0107984119e+01   2.7863357711e+01    0.4343985    0.2548877  58.87  0.001777305    2.116    0.527
        61 -10.0806    197.2320    157.2320   5.9092638241e+01   1.1563873615e+01    0.2211386    0.1023475 -50.31 0.0008885336    2.461    0.594
        62  -9.9189    167.6811    157.3309   6.5060866629e+01   1.6860411425e+01    0.1422917    0.1158396  89.60 0.0007048041    1.690    0.408
        63  -9.6381    158.3096    156.6327   6.6974162574e+01   1.8743594907e+01    0.1477564    0.1168194 -89.74  0.000703711    1.759    0.431
        64 -11.0946    120.0092    155.4853   7.5995429512e+01   2.6105074238e+01    0.2961444    0.2173572 -77.07  0.001378014    1.669    0.401
        65 -11.3013     49.7193    154.4810   9.5493258121e+01   3.7240945820e+01    0.4746996    0.2251412  67.89  0.001725879    3.059    0.673
        66 -11.3399     82.0158    154.4708   8.6159672789e+01   3.2781841123e+01    0.4419637    0.2579899  58.46  0.001866331    1.998    0.500
        67 -10.8551    134.1863    153.3174   7.1975427723e+01   2.3985895399e+01    0.3856908    0.2408711  70.97  0.001462157    2.730    0.634
        68 -11.7050     68.5156    153.4334   8.9869170042e+01   3.5041144585e+01    0.4237462    0.2485172  44.66  0.001717435    1.671    0.402
        69 -10.9685     91.4894    151.4722   8.2952459270e+01   3.2016319296e+01     0.270095     0.145481 -72.95  0.001031367    2.370    0.578
        70 -10.3657     98.8244    150.8434   8.0784315599e+01   3.0943953199e+01     0.215878    0.1757984  76.00 0.0008749715    1.348    0.258
        71 -10.9003    189.7316    149.0471   5.8829779105e+01   1.4414201738e+01    0.4214108    0.1763683 -45.70  0.001664358    2.329    0.571
        72  -9.8293    200.3107    147.9804   5.6616307712e+01   1.2702964834e+01    0.2230616     0.100619 -57.13 0.0007042318    4.217    0.763
        73 -10.8498     39.5514    147.3935   9.7581662296e+01   4.0224864376e+01    0.4168491     0.188948  62.71  0.001561371    2.914    0.657
        74 -12.2700    107.9868    145.3332   7.7179547293e+01   3.0674514081e+01    0.6956044    0.4141323  69.84  0.002557543    2.760    0.638
        75 -10.7167     78.2598    146.6194   8.5892603535e+01   3.5328929622e+01     0.275845    0.1815207 -78.05 0.0009789624    1.692    0.409
        76 -11.7102     56.2056    145.1513   9.2241263396e+01   3.8819695698e+01    0.6133179    0.3300502  74.26  0.002363569    2.670    0.625
        77 -11.2783    149.8027    145.2186   6.6514223936e+01   2.2779562235e+01    0.4859845     0.319046  76.13   0.00189932    2.680    0.627
        78 -11.8444    125.4150    142.7688   7.1993122658e+01   2.8044799338e+01    0.5242277    0.3391123  85.56  0.001951556    2.809    0.644
        79 -11.4050     88.1782    143.3070   8.2385216988e+01   3.4585931363e+01    0.3920024    0.2632214 -88.44  0.001583681    1.926    0.481
        80 -11.1016     68.9020    138.7526   8.7314328652e+01   3.8724068253e+01    0.5294421    0.2643187  89.72  0.001603717    4.187    0.761
        81 -10.3877     81.4858    139.0218   8.3546930962e+01   3.6742527738e+01    0.2343372    0.1445052 -62.36 0.0009389089    1.600    0.375
        82 -11.0513     22.6650    136.4628   1.0143624849e+02   4.4699105422e+01    0.6041736    0.2493722  84.21  0.002135525    3.374    0.704
        83 -11.3769     38.8374    134.9020   9.6129642806e+01   4.3525317249e+01    0.4194881    0.1814543 -77.42  0.001622046    2.459    0.593
        84 -10.7978    113.3500    133.2880   7.3153137656e+01   3.2564428459e+01    0.3506011    0.2189049  70.07   0.00133024    2.483    0.597
        85 -12.3139     83.6676    130.4493   8.1191356840e+01   3.8547732879e+01    0.7745995    0.3789867 -68.24  0.002839844    2.483    0.597
        86 -10.2652    143.6542    131.6746   6.4948407293e+01   2.6944301234e+01    0.3144484    0.2261365  89.26  0.001340187    2.083    0.520
        87 -11.1801    132.2615    131.1163   6.7643750509e+01   2.9368740638e+01    0.4644525    0.2745852 -69.65  0.001723789    2.570    0.611
        88 -10.3459    153.2764    129.2662   6.2125050261e+01   2.5499204252e+01    0.3089476    0.1790578 -64.44  0.001165967    2.488    0.598
        89 -11.9940     99.0259    127.3475   7.5910862955e+01   3.6657518883e+01    0.6330471    0.3977846 -80.65   0.00246785    2.362    0.577
        90 -10.7654     73.3142    129.0895   8.4135459630e+01   4.0533901990e+01    0.4017809    0.2439068  85.26  0.001560534    2.495    0.599
        91 -10.0534    168.6907    129.3623   5.8750071994e+01   2.2329609570e+01    0.1524131    0.1163537 -78.44 0.0007040128    1.745    0.427
        92 -11.0734     12.3897    127.9403   1.0375754054e+02   4.7708733358e+01    0.4790647    0.1935926 -89.81  0.001859079    2.780    0.640
        93 -11.2845    118.5356    125.4944   6.9952510186e+01   3.3394627990e+01    0.5092848    0.3108413  71.03  0.001844648    2.764    0.638
        94 -11.7651     59.2230    123.0344   8.7518785608e+01   4.4118600236e+01    0.7641317    0.3920124 -89.70  0.002519578    3.599    0.722
        95 -12.0347     43.2046    120.6869   9.2484187553e+01   4.6723800253e+01     1.043838    0.4589565 -87.64  0.003199131    4.253    0.765
        96  -9.6900    180.3101    124.6630   5.5294287760e+01   2.0904161532e+01    0.1478173    0.1132309 -75.09 0.0005200332    1.683    0.406
        97 -11.6075     27.8515    120.8928   9.7752817003e+01   4.8248686914e+01    0.8107752    0.3431379  72.61  0.002467188    4.751    0.790
        98  -9.8721    158.6592    121.3430   5.9035259288e+01   2.6042948774e+01    0.1573455    0.1190513 -83.68 0.0007048384    1.778    0.438
        99 -10.8283    142.1976    119.4200   6.2387131158e+01   2.9916280149e+01    0.3857727    0.2645742 -74.31  0.001615288    2.044    0.511
       100 -10.7251     71.1833    119.6485   8.2893918414e+01   4.3255374792e+01     0.327392    0.2289962  82.75  0.001469548    1.829    0.453
       101 -10.8291    131.1945    118.6505   6.4947635918e+01   3.2388570887e+01    0.3659703     0.234713 -76.47  0.001387079    2.501    0.600
       102 -11.2324      2.4859    114.4452   1.0563039025e+02   5.1782306544e+01    0.6841759    0.2279124 -86.42  0.002476756    3.277    0.695
       103 -11.2544    109.1738    113.6895   6.9719437834e+01   3.8001058137e+01    0.5681499    0.3087095 -68.14  0.001979069    2.806    0.644
       104 -11.5232     79.0214    111.6885   7.8546570598e+01   4.3997388602e+01     0.663321    0.3781456 -81.11  0.002338692    3.010    0.668
       105 -11.5561     92.4984    111.2675   7.4126196653e+01   4.1749685876e+01    0.7328603    0.3481368 -62.26  0.002608937    2.543    0.607
       106 -10.3996    122.6401    112.3650   6.5627551207e+01   3.5575405735e+01    0.2436755    0.1888503  87.85  0.001108406    1.646    0.393
       107 -11.3785     66.5446    109.7778   8.2300388783e+01   4.6442721989e+01    0.4728785     0.261199 -72.67  0.001879818    2.229    0.551
       108 -11.1771     14.1762    109.0074   1.0088907313e+02   5.2413908323e+01    0.5270814    0.2600987 -74.75  0.002459989    1.795    0.443
       109 -10.3548    140.0725    104.8551   5.9211059508e+01   3.3488146146e+01    0.3395026     0.231666 -85.48  0.001358334    2.304    0.566
       110 -12.2308     44.8682    101.1202   8.8186213153e+01   5.1529753419e+01    0.9019033    0.4897114  82.29  0.003210037    3.441    0.709
       111 -10.1608     43.4071     92.7868   8.6922359851e+01   5.3777642730e+01    0.2930191    0.1836552 -60.75  0.001123582    1.469    0.319
       112 -12.6035     21.9999     99.1814   9.6501508808e+01   5.4307273572e+01      1.11403    0.4883715 -85.71  0.004141441    3.107    0.678
       113 -10.4556    150.4771    103.0238   5.6287725137e+01   3.1576068259e+01     0.240433    0.1459154 -45.00  0.001033115    1.601    0.376
       114 -11.6514      6.7060    100.8010   1.0254330751e+02   5.4975057747e+01    0.5834175    0.1369768 -68.13  0.002089194    3.084    0.676
       115 -10.6939    128.7856    101.9661   6.1279987807e+01   3.6562668111e+01    0.2612625    0.1798348 -74.07  0.001084951    1.995    0.499
       116 -11.4025    108.9842     97.8209   6.5608553204e+01   4.1666822044e+01    0.7336589    0.4714321 -77.65  0.002795352    2.547    0.607
       117 -10.7471     81.9885     99.0517   7.4423586769e+01   4.6556448777e+01    0.4706978    0.2602868 -67.29  0.001803908    2.360    0.576
       118 -10.6341     94.9788     96.5182   6.9507566006e+01   4.4755823523e+01    0.3036094    0.2174744 -67.75  0.001077847    1.623    0.384
       119 -11.8583     63.4922     93.8621   7.9569311503e+01   5.0818921313e+01    0.8998514    0.3927853 -63.07  0.003278848    2.616    0.618
       120 -10.1657    138.9925     91.9894   5.6001134833e+01   3.6381039466e+01    0.2553019    0.1887454 -81.24   0.00111807    1.763    0.433
       121  -9.9717     57.9899     92.0077   8.1141475599e+01   5.2071954496e+01    0.2156656    0.1687957  70.59  0.001086351    1.559    0.359
       122 -12.8517      5.5221     88.4069   1.0128212510e+02   5.8125725746e+01     1.101371    0.1556364 -59.41  0.003685944    3.640    0.725
       123 -11.5401    124.4270     90.2609   5.9183109376e+01   3.9992186829e+01    0.4436786    0.2483038 -57.45   0.00173435    2.125    0.529
       124 -11.3822     34.7121     86.9244   8.9065232037e+01   5.6180882023e+01    0.8501599    0.2465265 -60.96   0.00298727    2.946    0.661
       125 -11.1657     86.3651     85.4659   6.9171919297e+01   4.8893241589e+01    0.5357487     0.283661 -61.27  0.002043526    2.398    0.583
       126 -11.8010     48.1372     82.4325   8.2512474451e+01   5.5700736723e+01    0.7258222    0.3684461 -65.25  0.003041883    2.158    0.537
       127 -11.4194    104.5532     82.3223   6.2444655383e+01   4.5945313943e+01    0.4869544    0.3057792 -65.21  0.001990345    2.142    0.533
       128 -10.5562     74.4461     79.6762   7.1605750006e+01   5.2338628482e+01    0.4092853    0.1452084 -56.23  0.001295328    3.407    0.707
       129 -12.2697     25.3546     76.0247   9.0538493593e+01   5.9715241722e+01     1.097342    0.2923785 -50.51  0.003965759    2.982    0.665
       130 -10.0241    119.6597     80.3460   5.7549437349e+01   4.3070448514e+01    0.1602446    0.1195913 -83.63 0.0007047104    1.785    0.440
       131 -10.4902    128.0056     75.2840   5.3852786653e+01   4.2162069522e+01    0.3224657    0.1795555 -62.66  0.001178402    2.659    0.624
       132 -11.5735     62.6435     70.2976   7.3167532216e+01   5.6369053883e+01     1.091419    0.1597652 -46.53  0.002580221    6.306    0.841
       133 -11.3137     82.0957     70.8845   6.6118213064e+01   5.2836765625e+01     0.659355    0.2533387 -50.74  0.002316638    2.799    0.643
       134 -10.4802     42.5231     71.2461   8.1792033163e+01   5.9008269237e+01    0.3439757    0.1204698 -54.75  0.001300114    2.554    0.608
       135  -9.5726    105.9955     71.5049   5.8643768678e+01   4.7829203446e+01    0.2093522    0.1318347  72.88 0.0008095772    2.463    0.594
       136 -10.7824     94.8101     69.6654   6.1470952084e+01   5.0562398660e+01    0.5018796    0.2043029 -52.38  0.001705138    3.013    0.668
       137 -11.5014     51.1333     67.3403   7.6938235833e+01   5.8745522824e+01    0.7524331    0.2464942 -58.19  0.002445572    3.679    0.728
       138 -10.6855      5.7451     69.8888   9.8068390214e+01   6.2584790437e+01    0.3301324     0.112726 -62.80   0.00141915    2.252    0.556
       139 -11.4882     17.5079     63.9660   9.1246254994e+01   6.3188536119e+01    0.4866122    0.1070789 -54.10  0.001757522    3.109    0.678
       140 -10.0684    121.4069     65.2256   5.2391441305e+01   4.5544019219e+01    0.2185054    0.1349929 -50.60 0.0009550888    1.726    0.421
       141 -11.1337     37.1669     62.3413   8.1544965129e+01   6.1645225035e+01    0.4551192    0.1830291 -54.16  0.001897033    2.249    0.555
       142 -10.1775    110.1702     63.1822   5.4729469271e+01   4.8477117774e+01    0.2101276    0.1778993 -78.60  0.001062808    1.360    0.265
       143 -10.0345    100.2518     58.3296   5.5953032127e+01   5.1549888679e+01    0.5531493    0.1008809 -44.26  0.001334195    5.969    0.832
       144 -11.1168     73.2042     56.7198   6.4469564799e+01   5.7326800605e+01    0.7101493    0.2054593 -43.68  0.002322074    3.452    0.710
       145 -10.6615     25.0436     57.5678   8.5865360707e+01   6.3979649639e+01    0.3720997    0.1481239 -51.18  0.001633777    2.106    0.525
       146 -11.9142      7.3237     56.1847   9.4373203265e+01   6.5655616168e+01    0.3892619    0.2045957 -75.19  0.001921049    2.074    0.518
       147 -11.4433      8.4004     50.4088   9.2357273860e+01   6.6871979168e+01    0.4320166     0.162942 -55.39  0.002001408    2.068    0.516
       148 -10.6216     44.0000     54.0245   7.5677958707e+01   6.2557392280e+01    0.3145286    0.1864554 -54.61  0.001545951    1.731    0.422
       149 -10.9861     45.1980     49.3393   7.3440707664e+01   6.3337127499e+01    0.3078153     0.220487 -27.49 0.0004718418    1.404    0.288
       150 -10.7854     53.7584     51.2711   7.0317689109e+01   6.1692789151e+01    0.6310482    0.1734177 -51.30    0.0019688    4.216    0.763
       151  -9.8112    105.6737     52.3569   5.2290469211e+01   5.1381947793e+01    0.1505298    0.1129759 -77.15 0.0007044904    1.776    0.437
       152 -10.5443     20.1709     50.4735   8.6189587650e+01   6.5966150979e+01    0.3628877    0.1636806 -57.92  0.001701373    2.014    0.504
       153 -10.8524     92.1703     48.5870   5.4936618694e+01   5.4987924887e+01    0.4970261     0.185549 -43.00  0.001819943    2.804    0.643
       154 -11.0578     30.8084     49.0282   8.0279824159e+01   6.5210924689e+01    0.5214695    0.1804895 -58.91  0.001933921    3.306    0.697
       155 -10.6325     82.0075     44.1120   5.6560675030e+01   5.7861737543e+01    0.5846901    0.2289788 -27.61   0.00184851    4.185    0.761
       156 -10.4637     62.6879     49.4744   6.5879883779e+01   6.0572457729e+01    0.5138999    0.1765991 -36.92  0.001750781    3.442    0.709
       157 -10.8906     16.8388     42.2289   8.5324810665e+01   6.7987637436e+01    0.4641503    0.1044627 -50.70  0.001731521    3.225    0.690
       158 -10.2988     85.3233    227.6430   9.4960610100e+01   1.5687520529e+01     0.137731   0.08249531  60.80 0.0007045188    1.768    0.435
       159  -9.6208    113.8266     41.4129   4.6260370992e+01   5.1219859496e+01    0.1944631     0.122531  45.69 0.0002724171    1.570    0.363
       160 -10.6653    192.1987    225.9876   7.2341088658e+01   7.5302279700e-01     0.213157    0.1536454  22.13 0.0008015641    1.214    0.177
       161  -9.8900     95.3318     37.6569   4.9831542667e+01   5.6018671550e+01    0.1421787    0.1089087 -76.34 0.0007050827    1.754    0.430
       162 -11.0450     27.3023     31.0500   7.5236995662e+01   6.9108557136e+01    0.7004967    0.1410949 -42.70  0.002238268    4.658    0.785
       163 -10.5806     60.7618     30.1374   5.8662989944e+01   6.4199919209e+01    0.3635827    0.1528414 -28.08  0.001409536    3.064    0.674
       164 -11.4403      5.0505     39.3585   9.1090249603e+01   6.9446187156e+01    0.5239652    0.1664838 -64.66  0.002129076    3.112    0.679
       165 -10.5035     36.7808     38.7064   7.3398767509e+01   6.6522804780e+01    0.3780726    0.1291803 -42.96  0.001509291    2.754    0.637
       166 -10.7805     13.0000     28.1220   8.2391760544e+01   7.1107543205e+01    0.4601366    0.0615878 -55.70   0.00125302    6.940    0.856
       167 -10.5783      3.5515     25.1763   8.7231397295e+01   7.2391329682e+01    0.2944324   0.08983912 -55.23  0.001304344    2.662    0.624
       168  -9.4078     41.2465     21.3136   6.3327569330e+01   6.8837565061e+01    0.1233483   0.08731849  -4.60            0    1.514    0.340
       169 -10.3199     49.5134     16.9647   5.7226473396e+01   6.8100308742e+01    0.1812427    0.1026642  -7.77 0.0008101356    2.620    0.618
