#   1 NUMBER                 Running object number                                     
#   2 MAG_AUTO               Kron-like elliptical aperture magnitude                    [mag]
#   3 X_IMAGE                Object position along x                                    [pixel]
#   4 Y_IMAGE                Object position along y                                    [pixel]
#   5 X_WORLD                Barycenter position along world x axis                     [deg]
#   6 Y_WORLD                Barycenter position along world y axis                     [deg]
#   7 A_WORLD                Profile RMS along major axis (world units)                 [deg]
#   8 B_WORLD                Profile RMS along minor axis (world units)                 [deg]
#   9 THETA_WORLD            Position angle (CCW/world-x)                               [deg]
#  10 FWHM_WORLD             FWHM assuming a gaussian core                              [deg]
#  11 ELONGATION             A_IMAGE/B_IMAGE                                           
#  12 ELLIPTICITY            1 - B_IMAGE/A_IMAGE                                       
         1 -12.0947     42.6512     20.6165   8.5940513267e+01   6.7209212033e+01    0.6395582    0.3373734  22.96  0.002631254    2.087    0.521
         2 -11.9636    216.4972     14.1555   4.2843512278e+01   2.9128172945e+01    0.4227547    0.3808204  -3.59  0.001532555    1.378    0.274
         3 -10.9011     65.0517     10.9438   7.2145475678e+01   6.5221224620e+01    0.1933122    0.1582584   6.91 0.0004881111    1.016    0.016
         4 -12.1907     43.8598      9.4924   8.0097071043e+01   6.8667467254e+01    0.3349545    0.2976363 -41.04  0.002330289    1.590    0.371
         5 -13.4557    186.0760      6.6618   4.4104238537e+01   3.7579182186e+01    0.8936889     0.542056 -74.70  0.004261251    1.840    0.457
         6 -11.5468     57.7980      8.1492   7.3556198953e+01   6.6762312568e+01    0.3782654    0.2690624  20.84  0.001623555    1.272    0.214
         7 -10.2590    109.4863      8.5123   5.7665155681e+01   5.6527458847e+01    0.1336031    0.1207218  34.95 7.167438e-05    1.041    0.040
         8 -10.4884     52.4953      4.4963   7.3838841435e+01   6.8036438258e+01    0.1233261   0.09767482   2.96 0.0008106449    1.011    0.011
         9 -11.5397    165.2673      1.9668   4.5287045009e+01   4.3363400889e+01    0.2955988    0.2062898  53.24  0.001580978    1.339    0.253
        10 -10.9202    148.8721    222.3752   1.0401790948e+02   8.1336447920e+00    0.2741014    0.1514356 -56.29  0.001416368    2.259    0.557
        11 -11.4950    227.1837    222.0740   8.9294430060e+01  -4.9062286625e+00    0.2164772    0.1563207  57.37  0.001246574    2.135    0.532
        12 -11.3055    239.9620    215.9823   8.6017572030e+01  -6.1291267492e+00    0.3055016    0.1328742 -43.58   0.00138467    3.287    0.696
        13 -11.5635    223.2306    213.6259   8.8555523612e+01  -3.1776723739e+00    0.3094516    0.1861496  20.56  0.001677988    1.666    0.400
        14 -10.6092    232.6577    211.2999   8.6469554258e+01  -4.3901450930e+00    0.1092615   0.09855249  60.02 0.0007036459    1.672    0.402
        15 -10.6139    115.9902    209.5071   1.0884018336e+02   1.5917717162e+01    0.2646006    0.1563626 -83.34  0.001265718    2.419    0.587
        16  -9.8922    185.6629    204.3424   9.4007614049e+01   4.6326263355e+00    0.1293841    0.1028581  72.31 0.0007049979    1.766    0.434
        17 -10.5450     48.9533    202.1122   1.2153293909e+02   2.7023100013e+01    0.2867179    0.1429074 -88.80  0.001397589    2.021    0.505
        18 -10.5495    149.4777    198.9687   1.0042058691e+02   1.2100786780e+01    0.1805988    0.1182476 -82.37 0.0008100388    2.553    0.608
        19 -10.6357    112.3842    197.5892   1.0800363021e+02   1.8820588651e+01    0.2480853    0.1189818 -75.07 0.0009510797    3.412    0.707
        20 -12.2764    159.7078    191.8209   9.7110098497e+01   1.1532956539e+01    0.6703656    0.4776857  83.84  0.003079795    2.184    0.542
        21 -10.4748     41.5588    201.2631   1.2290527153e+02   2.8067969866e+01     0.252167   0.09340722 -69.62   0.00113891    2.445    0.591
        22 -10.4117     34.2513    187.2466   1.2323059517e+02   3.1793456685e+01    0.1915492   0.08081384 -88.42 0.0008954813    2.451    0.592
        23 -10.5579    183.2480    183.0494   9.0661966641e+01   8.6501366623e+00     0.335666    0.1931061 -38.06  0.001575897    1.893    0.472
        24  -9.9166    215.0000    193.0592   8.6351454764e+01   1.1423606548e+00    0.2033069    0.0734409 -37.58 0.0006705413    2.927    0.658
        25 -10.1564    191.8394    178.0299   8.7955113225e+01   7.8719510638e+00    0.2181983    0.1680351 -73.87  0.001082502    1.993    0.498
        26 -10.4220     34.3322    173.6572   1.2204623474e+02   3.4713890138e+01    0.1320934   0.07206994  69.52 0.0004194996    1.754    0.430
        27 -10.1054    176.0000    171.9884   9.0022924338e+01   1.2064071945e+01    0.2298746   0.08243102 -43.63 0.0008066761    2.972    0.664
        28 -11.1645     55.5779    167.9666   1.1674320812e+02   3.3549055695e+01    0.4090628     0.213847 -89.50  0.001941985    2.127    0.530
        29 -10.9607    121.1517    168.7498   1.0160334690e+02   2.3297837033e+01    0.2756971    0.1648608 -71.23  0.000949052    2.104    0.525
        30 -10.3097    167.4289    168.2348   9.1105184319e+01   1.4485956847e+01    0.2001471     0.140037 -57.88  0.000952139    1.693    0.409
        31 -11.0330     22.4900    159.4861   1.2336845228e+02   3.9025362910e+01    0.2480389     0.167882  74.20 0.0008049164    1.289    0.224
        32 -11.6805    106.1487    157.8150   1.0325082479e+02   2.8369872263e+01    0.5766443    0.3591284  79.57  0.002456665    2.308    0.567
        33 -10.9310    167.5144    157.5130   8.8892750681e+01   1.6568814762e+01    0.3257913    0.2419076  69.42  0.001328125    1.714    0.416
        34 -10.6854    218.5528    156.3323   7.8246350962e+01   6.3485594511e+00    0.2734343    0.1307666 -40.69   0.00114337    2.114    0.527
        35 -10.2477    118.3806    156.7881   1.0010919037e+02   2.6424844844e+01    0.2112912     0.191031  43.42  0.001178207    1.136    0.120
        36  -9.8536     23.4755    153.5195   1.2259417532e+02   4.0276501367e+01    0.1223406   0.09473839  88.54  4.74283e-05    1.024    0.024
        37 -11.2942    241.9882    150.9849   7.2902059824e+01   2.7176656760e+00     0.222769    0.1586469  76.32  0.001024857    2.643    0.622
        38 -10.6924    189.7716    150.3014   8.2580582219e+01   1.3305668770e+01     0.357128    0.1978087 -54.58  0.001413703    2.375    0.579
        39 -11.4333    107.6802    145.8419   1.0067286685e+02   3.0833709730e+01    0.6078725       0.3159  71.81  0.001787185    4.750    0.789
        40 -10.4136     55.7261    145.9740   1.1390331433e+02   3.8600090163e+01    0.2441732    0.1069871  63.59 0.0008920103    3.512    0.715
        41 -10.6300    148.3828    144.6118   9.0464946103e+01   2.3203907849e+01    0.2949407    0.1355894 -59.87  0.000953534    3.255    0.693
        42 -10.3059    181.9521    141.9839   8.2341539566e+01   1.6565762485e+01    0.2416478      0.19172 -84.16   0.00113196    1.743    0.426
        43 -10.3876     82.8643    131.7491   1.0444899651e+02   3.8251600609e+01    0.2833195    0.1784279 -89.10  0.001241723    2.120    0.528
        44 -12.0063     99.5688    128.7844   9.9346584511e+01   3.6225694914e+01     0.740786    0.4392383  79.65  0.002675908    3.171    0.685
        45 -11.4852     14.7616    121.6353   1.2141951108e+02   4.8310636299e+01    0.4133612    0.2791021 -39.40  0.002542596    1.795    0.443
        46 -10.6366     58.5983    123.8101   1.0968016789e+02   4.3509714798e+01    0.1998183    0.1173378 -76.04 0.0007180981    1.733    0.423
        47 -11.0737     43.0999    122.6967   1.1382508410e+02   4.5545310275e+01    0.4913469    0.2026225 -82.50  0.001725163    3.705    0.730
        48 -11.2740     27.0718    120.7423   1.1797635549e+02   4.7536266957e+01    0.6766819    0.2715561  86.44  0.002171283    5.073    0.803
        49 -11.7467    193.3879    118.4968   7.4305568572e+01   1.8530235905e+01     0.559729    0.4602715 -89.69  0.002028914    1.554    0.357
        50 -11.2912    140.6699    117.1720   8.5870225457e+01   3.0787828288e+01    0.5094719    0.2642038 -50.46  0.001964279    1.994    0.498
        51 -10.5490    108.2363    112.5068   9.3261312171e+01   3.8446922524e+01    0.5059832    0.1775439 -59.08  0.001397684    4.277    0.766
        52 -10.7805     78.6268    112.5452   1.0172787660e+02   4.3457087396e+01    0.4144163    0.2338051 -86.63  0.001469955    3.420    0.708
        53 -10.5206     91.7703    111.2809   9.7625845846e+01   4.1663889740e+01    0.4230091    0.1718407 -59.73  0.001482789    2.725    0.633
        54 -11.8296     14.8871    110.0701   1.1997172256e+02   5.0977183423e+01    0.6374443    0.3222287  88.02  0.003177142    2.170    0.539
        55 -10.9304    174.2754    110.9953   7.6388411578e+01   2.4424110447e+01    0.3702647    0.2736292 -48.61    0.0010599    1.386    0.279
        56 -11.9579    159.4796    110.2619   7.9531631429e+01   2.8023260278e+01    0.6526672     0.319213 -51.56   0.00234091    2.334    0.571
        57 -12.3702    140.8295    103.3490   8.2194503496e+01   3.3724029471e+01    0.6936887    0.4125347 -50.30  0.002853101    1.740    0.425
        58 -12.0400     44.1348    100.5844   1.0968944992e+02   5.0672194056e+01    0.6609778    0.3621438 -87.82  0.002851261    2.662    0.624
        59 -11.9680    150.1822    102.6037   7.9678514628e+01   3.1752830395e+01    0.3910801    0.2542566 -61.40  0.001586554    1.938    0.484
        60 -12.0129    127.5450    100.3119   8.4806138414e+01   3.7285845684e+01    0.5721592    0.2616205 -55.17   0.00194526    2.700    0.630
        61 -12.8191    108.9199     99.0076   8.9590331612e+01   4.1373230939e+01     1.100317    0.6287749  68.39  0.003731829    3.432    0.709
        62 -11.0045     82.2898    100.8898   9.7939180422e+01   4.5625959596e+01    0.2444457    0.2145129  24.38 0.0004213103    1.280    0.219
        63  -9.5749    170.6989     95.3122   7.2934407188e+01   2.8346416074e+01     0.158192    0.1564487 -25.42 0.0008235517    1.010    0.009
        64 -12.4641    170.4160     90.8779   7.1752859573e+01   2.9263675055e+01    0.4116763    0.3312583  63.18 0.0008689295    1.316    0.240
        65 -10.4783     20.5131    100.5160   1.1696787139e+02   5.2784502309e+01    0.1243776   0.09966762 -72.80 3.779733e-05    1.039    0.038
        66 -10.9702     60.3800     89.9590   1.0217652597e+02   5.1271365317e+01    0.2264548    0.1855627  59.00 0.0003312874    1.442    0.307
        67 -10.8703     34.1493     87.5733   1.1032266849e+02   5.4662136909e+01    0.5562639    0.1491005 -64.95  0.001943217    3.449    0.710
        68 -11.8196     42.3605     88.0608   1.0769152270e+02   5.3765754720e+01    0.4028883    0.2439464 -20.08  0.001660051    2.380    0.580
        69 -11.0919     45.9880     82.4815   1.0520027357e+02   5.4662064888e+01    0.3946624    0.2451395  84.93   0.00177218    2.732    0.634
        70 -11.2628     87.4545     87.4892   9.2837489364e+01   4.7828294333e+01    0.3329045    0.2111949  53.87  0.001514301    1.934    0.483
        71 -11.0024    104.3262     83.1158   8.6412207759e+01   4.5722924088e+01    0.4013611    0.2526823 -70.08  0.001568654    2.558    0.609
        72 -10.4041    140.4440     82.7515   7.6372400357e+01   3.8033103821e+01    0.3082119    0.1467434 -44.46  0.001133916    2.114    0.527
        73 -10.8334     23.8813     80.0164   1.1227613970e+02   5.7231610511e+01    0.3000858    0.1509977 -87.80  0.001255139    3.206    0.688
        74 -10.0492    153.2419     78.0706   7.1860099845e+01   3.5877360817e+01    0.2280552    0.2031026  15.22 0.0006755387    1.227    0.185
        75  -9.6240      2.0190     77.4887   1.1930081831e+02   5.9145355961e+01    0.1539751   0.07365659 -33.35 0.0008082365    2.389    0.581
        76 -11.0075     62.4838     72.2985   9.6781982912e+01   5.4935997666e+01    0.5222048    0.1281713 -53.86  0.001607958    3.950    0.747
        77 -10.9138     82.5619     73.6980   9.0370024753e+01   5.1627734076e+01    0.3088827    0.2148023  77.30  0.001332749    2.591    0.614
        78 -10.5905    116.3993     73.2093   7.9824251737e+01   4.5292441651e+01    0.2223457    0.1380839 -50.64 0.0009506912    1.732    0.423
        79 -11.9319    223.6015     70.5886   5.6599628401e+01   1.9746399168e+01    0.2963794    0.2777987  80.62  0.000559476    1.106    0.096
        80 -10.6534     51.9618     70.9829   1.0014600744e+02   5.6546293413e+01    0.2070011    0.1810983 -48.70 0.0007150279    1.060    0.056
        81 -10.4736    195.3355     67.8647   6.0359700112e+01   2.7109190095e+01    0.2710423    0.2123004  76.22  0.001183606    1.376    0.273
        82 -10.7904     39.7967     52.7230   9.9368979386e+01   6.1723802725e+01    0.3427049    0.1247974 -44.78 0.0007899762    2.256    0.557
        83 -12.2034     20.8131     51.3948   1.0670761583e+02   6.3667269038e+01    0.5543134    0.2210729 -53.27  0.002758414    1.876    0.467
        84 -13.6922     30.2394     59.7303   1.0520159166e+02   6.1173393310e+01     1.011543    0.6078436  26.87  0.002860159    1.955    0.488
        85 -11.6984     19.5491     59.2678   1.0926483757e+02   6.2105200321e+01    0.3249052    0.1754092 -44.72  0.001229348    1.511    0.338
        86 -11.3072      7.6302     56.0967   1.1321481093e+02   6.3513493007e+01    0.3911093    0.1786175 -67.95  0.002050496    1.924    0.480
        87 -10.0123     88.3043     57.6846   8.3207894197e+01   5.3834972243e+01    0.1349241    0.1142665 -78.31 0.0004058128    1.622    0.383
        88 -12.4709    231.4292     60.6441   5.2974690294e+01   1.9416403557e+01    0.5802537    0.3387498  77.68  0.002588668    2.077    0.519
        89 -11.7201    148.9331     52.2065   6.4652037898e+01   4.1415581259e+01    0.2984096    0.2763116  60.21 0.0004098068    1.075    0.070
        90 -10.6127    156.9028     44.9827   6.0600538960e+01   4.0498601613e+01    0.2551399    0.2074019  58.48 0.0004702304    1.190    0.159
        91 -11.0988     10.4791     44.0056   1.0904226343e+02   6.5859641635e+01    0.2370302    0.1637023  22.08 0.0009788102    1.772    0.436
        92 -10.9488      5.8185     43.2150   1.1084926287e+02   6.6278315294e+01    0.3514427    0.2082372 -89.42  0.001839946    2.798    0.643
        93 -11.6088     70.8809     42.4306   8.3649421933e+01   5.9576087945e+01    0.4926971    0.2965927  55.59  0.002266882    2.557    0.609
        94 -12.1667     40.9840     38.1243   9.3873618388e+01   6.4422917257e+01    0.4862135    0.3046392  12.84  0.001762553    1.826    0.452
        95 -11.6090    140.0552     37.8453   6.1743572163e+01   4.5759049846e+01    0.3258443    0.2639376  42.48 0.0009225962    1.192    0.161
        96 -11.7019    120.2228     34.3163   6.5160147250e+01   5.1013534654e+01    0.3148636    0.2819463  72.21 0.0006523094    1.264    0.209
        97 -10.0611     50.1179     34.5941   8.8664090920e+01   6.3952846127e+01    0.2611351    0.1191783  33.11  0.001245157    2.369    0.578
        98 -10.3456     73.2250     32.2630   7.8709673144e+01   6.0868050960e+01     0.247688    0.1701598  64.85  0.001187985    2.545    0.607
        99 -10.0797    106.6961     29.8941   6.7048585486e+01   5.4667471711e+01    0.1966196    0.1707397 -10.30  0.001122502    1.128    0.114
       100 -10.5179    101.7307     28.5679   6.7923247877e+01   5.5918260014e+01    0.4377741    0.1586645 -36.54  0.001661235    2.780    0.640
       101 -11.7008    219.9618    248.5579   9.4740073819e+01  -6.9751207188e+00    0.3133298      0.17414  51.50  0.001694161    2.455    0.593
       102 -10.1875     50.8396     22.1282   8.3068506819e+01   6.5891901115e+01    0.1718092    0.1512408 -14.78 0.0002912293    1.173    0.148
       103 -10.9628    239.6708     20.7743   4.2263591498e+01   2.2829997654e+01    0.2375649    0.1984439  84.00 0.0006322896    1.170    0.146
       104 -11.9940    202.1270     20.7492   4.6159337412e+01   3.1968732581e+01    0.3825868    0.1996471 -70.97  0.001550251    2.477    0.596
       105 -12.1102     21.8514    238.7731   1.2875271968e+02   2.3126091166e+01    0.4509096    0.1672247  69.92  0.002439483    2.483    0.597
       106  -9.8497     88.3570     17.6881   6.7341155547e+01   6.0076457585e+01    0.1254046    0.1064688 -69.89 0.0005434446    1.738    0.425
       107  -9.7463      2.6677    240.3156   1.3183955434e+02   2.4784658268e+01    0.1098496   0.04697019  64.23 0.0005067477    1.685    0.407
       108 -10.6129     12.9680    227.5200   1.2965715846e+02   2.6056114481e+01    0.1974966    0.1022239  76.23 0.0005943935    1.503    0.335
       109 -10.1379    104.3234    225.4539   1.1303765213e+02   1.4832458344e+01    0.1909073    0.1104235 -65.00  0.001072758    1.955    0.489
       110 -10.1453      6.0630    226.4971   1.3074088088e+02   2.6914689921e+01    0.1427471   0.08000844  47.73  0.000623193    1.545    0.353
       111 -10.7875     95.7057    224.9980   1.1463665041e+02   1.6217002135e+01    0.2709287    0.1091207  57.76  0.001177113    2.701    0.630
       112 -10.5461    174.1097    222.3655   9.9141819317e+01   3.8345347423e+00     0.274312    0.1432533 -52.83  0.001347162    2.570    0.611
