#   1 NUMBER                 Running object number                                     
#   2 MAG_AUTO               Kron-like elliptical aperture magnitude                    [mag]
#   3 X_IMAGE                Object position along x                                    [pixel]
#   4 Y_IMAGE                Object position along y                                    [pixel]
#   5 X_WORLD                Barycenter position along world x axis                     [deg]
#   6 Y_WORLD                Barycenter position along world y axis                     [deg]
#   7 A_WORLD                Profile RMS along major axis (world units)                 [deg]
#   8 B_WORLD                Profile RMS along minor axis (world units)                 [deg]
#   9 THETA_WORLD            Position angle (CCW/world-x)                               [deg]
#  10 FWHM_WORLD             FWHM assuming a gaussian core                              [deg]
#  11 ELONGATION             A_IMAGE/B_IMAGE                                           
#  12 ELLIPTICITY            1 - B_IMAGE/A_IMAGE                                       
         1 -13.7794    199.1971      2.6863   6.6065952057e+01   3.4492036827e+01     1.815572    0.8027309  61.04  0.002697379    2.033    0.508
         2 -14.2307    187.7823     18.3243   7.2103473410e+01   3.5897319507e+01     2.591246     1.253719  -9.85  0.008952216    2.846    0.649
         3 -13.2384    193.2157      9.7860   6.8823158892e+01   3.5363121369e+01    0.8256211     0.699492 -86.67  0.001053612    1.157    0.136
         4 -11.8585     41.6246     16.3611   1.0878342082e+02   6.7542181026e+01    0.3652171    0.2064953 -31.66  0.002101465    1.473    0.321
         5 -14.2647    179.6689     25.1957   7.5417268613e+01   3.7255093892e+01     1.840218     1.153512  16.81  0.005468337    2.183    0.542
         6 -10.2080    229.4819    206.7776   1.1187292388e+02  -1.6248858210e+00    0.2039601    0.1893006  76.03 0.0006640723    1.642    0.391
         7 -11.3295    247.6759    249.6716   1.1578294330e+02  -8.9550795096e+00     0.495947    0.1548951  36.44  0.002469497    2.471    0.595
         8 -11.6707    163.3022    249.8293   1.2943049885e+02   3.9178238597e+00    0.4353152     0.180661  53.51  0.002162909    2.457    0.593
         9 -11.8697    139.5232    247.7795   1.3313717029e+02   7.8850187848e+00    0.4192453    0.2409963 -59.89  0.002657779    2.288    0.563
        10 -19.3727      9.3166    130.3265   1.4629132023e+02   4.6821779602e+01     16.88042     1.366289 -73.86   0.03561187   12.342    0.919
        11 -11.1284    192.9878    194.5574   1.1620487228e+02   6.4712271386e+00    0.8676854    0.4424164 -61.99  0.002721965    6.454    0.845
        12 -12.0908     80.1606    191.9528   1.3769990768e+02   2.6132221987e+01    0.3804161     0.235152 -51.66  0.001615905    2.009    0.502
        13 -11.9321     83.6783    185.6617   1.3628793757e+02   2.6861875588e+01    0.2692558    0.2229789 -54.52   0.00102629    1.485    0.326
        14  -8.9523    181.5425    192.4077   1.1796789358e+02   8.9123118475e+00    0.1314341    0.1123386  36.39  7.09153e-05    1.022    0.021
        15  -9.0772    120.2333    189.3548   1.2945352798e+02   2.0440948996e+01    0.1129771   0.09952314 -23.86 0.0005032924    1.573    0.364
        16 -10.3320    185.8751    238.1591   1.2418002557e+02   1.7735323881e+00    0.1709704    0.1334142  48.85 0.0003873188    1.212    0.175
        17 -10.2259    220.9660    178.0302   1.0805418825e+02   3.6695206416e+00     0.163273    0.1414306  17.64 0.0006681877    1.007    0.007
        18 -11.5845     90.8654    174.1025   1.3335396197e+02   2.8122939804e+01    0.2429801    0.2086612  87.45 0.0003753226    1.058    0.055
        19 -13.5829     53.6604    149.3277   1.3822806631e+02   3.8421735004e+01      1.58575    0.4004691 -52.73  0.004593319    4.406    0.773
        20 -13.4881     79.4389    170.7520   1.3532011934e+02   3.0484492796e+01    0.5886408    0.3558941 -37.82  0.001559547    2.861    0.650
        21 -13.5688     57.9387    129.6166   1.3443827757e+02   4.2281904217e+01     2.018323    0.6852492 -74.13  0.006346734    4.725    0.788
        22 -10.2906     63.7590    155.6075   1.3676352382e+02   3.5813388450e+01    0.2514423    0.1552658  68.17  0.001216648    1.668    0.400
        23 -10.5007    106.5230    148.5486   1.2592149299e+02   3.0974426497e+01    0.3007194    0.2772534  74.16 0.0009754526    1.046    0.044
        24 -10.0727    108.5065    145.0034   1.2481948042e+02   3.1395898249e+01    0.3264919    0.2196038 -40.71 0.0009360889    1.760    0.432
        25 -12.4256     95.9164    148.6464   1.2839155415e+02   3.2699433227e+01    0.2667549    0.2504725  48.91 0.0006998319    1.200    0.167
        26 -10.2575    134.1201    146.3139   1.1918801026e+02   2.6430701226e+01    0.7579805    0.1251359 -51.52  0.001672337    7.641    0.869
        27 -10.8284    144.1213    242.6303   1.3180247275e+02   7.8807474415e+00    0.1712712    0.1387326  68.50 0.0004489263    1.271    0.213
        28 -10.3217    114.9460    135.1075   1.2137878418e+02   3.2391051734e+01    0.3144944    0.2312573 -35.36 0.0008635803    1.627    0.385
        29 -11.1297    103.3754    131.9450   1.2354543632e+02   3.5117887578e+01    0.3672216    0.2856788  16.70  0.001116529    1.775    0.437
        30 -10.2467     35.6036    166.4913   1.4399277841e+02   3.6768151606e+01    0.3180051    0.1048552  34.87  0.001488904    3.250    0.692
        31  -9.7932    160.8592    127.7288   1.0911274482e+02   2.4674883277e+01    0.4029957    0.1636311 -50.95    0.0013581    2.942    0.660
        32  -9.8087    136.0000    128.5131   1.1495631631e+02   2.9752602934e+01    0.3205708   0.08284858 -46.90  0.000927485    3.876    0.742
        33 -14.2270     68.0028    144.4019   1.3424125583e+02   3.7707867079e+01     5.047507     1.636559  54.54   0.01662052    4.715    0.788
        34 -10.3487    119.8714    127.2967   1.1854019903e+02   3.3165941046e+01    0.2741318    0.1869889 -25.17 0.0009584817    2.128    0.530
        35  -9.9509    110.5144    122.7036   1.1984126631e+02   3.5893065931e+01    0.2246459    0.2095967  47.02 0.0002898684    1.135    0.119
        36  -9.8403     67.0508    115.7135   1.2969553317e+02   4.4273904927e+01    0.1782612    0.1646529 -80.25 0.0005354308    1.080    0.074
        37 -10.6337     43.5906    114.8026   1.3579757853e+02   4.7242031648e+01    0.2017119    0.1757685  47.77 0.0005238085    1.329    0.248
        38 -10.3325    168.4464    113.1547   1.0384604706e+02   2.5811954765e+01    0.3775839    0.2776619 -72.62  0.001216433    1.862    0.463
        39  -9.6464    205.0298    110.5347   9.5798237410e+01   1.7793419253e+01    0.4119644     0.191846  35.91  0.001440855    2.767    0.639
        40 -16.3100     60.3321    209.2007   1.4305495394e+02   2.5515849432e+01     7.184752     2.674741  54.14   0.03690625    2.312    0.567
        41 -13.2284     95.8654    166.3125   1.3118898091e+02   2.8958004667e+01     2.108776    0.7546133  52.99  0.005360168    3.165    0.684
        42 -11.0496     65.1892    104.9869   1.2809286370e+02   4.6945698849e+01    0.2692031    0.2100574  13.79  0.001540477    1.713    0.416
        43  -8.7440    184.5036     77.4729   9.0669283566e+01   2.8426937368e+01    0.1548149    0.1490907   8.49 3.215798e-05    1.049    0.047
        44 -12.0114    202.4141    249.1248   1.2291393851e+02  -2.1279221775e+00    0.4118725    0.1517353  44.42  0.002099566    2.130    0.530
        45  -9.9550    230.3474    248.3120   1.1830421270e+02  -6.3014602524e+00      0.11635   0.06621404  20.28 0.0007046086    1.714    0.416
        46  -8.9314    174.6802    212.3210   1.2244839588e+02   7.1392990032e+00    0.1212296   0.09134415  69.13 0.0007043883    1.669    0.401
        47 -12.1071    124.9067    243.3423   1.3510511471e+02   1.0743636100e+01    0.5099612    0.2771701  67.15  0.002870067    2.218    0.549
