#   1 NUMBER                 Running object number                                     
#   2 MAG_AUTO               Kron-like elliptical aperture magnitude                    [mag]
#   3 X_IMAGE                Object position along x                                    [pixel]
#   4 Y_IMAGE                Object position along y                                    [pixel]
#   5 X_WORLD                Barycenter position along world x axis                     [deg]
#   6 Y_WORLD                Barycenter position along world y axis                     [deg]
#   7 A_WORLD                Profile RMS along major axis (world units)                 [deg]
#   8 B_WORLD                Profile RMS along minor axis (world units)                 [deg]
#   9 THETA_WORLD            Position angle (CCW/world-x)                               [deg]
#  10 FWHM_WORLD             FWHM assuming a gaussian core                              [deg]
#  11 ELONGATION             A_IMAGE/B_IMAGE                                           
#  12 ELLIPTICITY            1 - B_IMAGE/A_IMAGE                                       
         1 -13.2846     33.7789     17.5021   2.5558297932e+02  -5.3963661488e+01    0.1107664   0.08903603 -64.33  0.004644285    1.227    0.185
         2 -14.4493      3.0293     43.9845   2.5660045512e+02  -5.2653101271e+01    0.1887863   0.08769415   0.85  0.005479742    2.627    0.619
         3 -14.3253      7.1642     23.9143   2.5552757109e+02  -5.2989450652e+01     0.197295    0.1387018 -76.62  0.007559456    1.437    0.304
         4 -13.1302     19.7362     13.5575   2.5512958836e+02  -5.3517861346e+01    0.1913897   0.07813112 -78.67   0.00560719    2.590    0.614
         5 -11.0519     28.0651      8.7114   2.5497803489e+02  -5.3848982169e+01   0.03438822   0.02468561  30.10 0.0007670718    1.363    0.266
         6 -12.4781    114.1176      2.0634   2.5601503497e+02  -5.6877363855e+01    0.0596342   0.03262095 -72.17 0.0003947963    1.801    0.445
         7 -14.1405    106.1540      3.8700   2.5598646337e+02  -5.6585512345e+01    0.2470918   0.07829877 -76.13  0.006350559    3.305    0.697
         8 -12.8605     74.7458      2.7014   2.5537384062e+02  -5.5513395383e+01   0.09813572    0.0802414 -76.79  0.002327369    1.227    0.185
         9 -14.7448     69.8241     15.9259   2.5609179101e+02  -5.5218216010e+01    0.2605743    0.1263932  65.16  0.007726584    2.685    0.628
        10 -14.4383     85.7482     11.5345   2.5610123991e+02  -5.5808720056e+01    0.1673814    0.1213824  76.64  0.005725889    1.505    0.336
        11 -12.9305     83.8757      3.4623   2.5557416222e+02  -5.5821201714e+01   0.09411868   0.05826577  64.87   0.00334257    1.833    0.455
        12 -12.6138     51.1251     20.4010   2.5604066872e+02  -5.4532034445e+01   0.07875143   0.05734924  88.15  0.003098034    1.463    0.317
        13 -10.5956    175.4398     13.7674   2.5795707330e+02  -5.8866604370e+01   0.03554905   0.01826829   9.82  0.001144274    2.093    0.522
        14 -11.6120    115.3982     12.2343   2.5667818496e+02  -5.6822142307e+01   0.03226006   0.02369515  -1.11 0.0007742138    1.442    0.306
        15 -10.7390    242.2551     10.2764   2.5920258320e+02  -6.1180805953e+01   0.02930521   0.01516497  -1.26 0.0008171969    2.395    0.583
        16 -10.4996    185.4901      9.9876   2.5791623164e+02  -5.9250117602e+01   0.02701913   0.01403343 -20.07 0.0008099248    2.490    0.598
        17 -10.5731    150.9315      8.9873   2.5714804674e+02  -5.8075885894e+01   0.03149018   0.01974384 -36.66  0.001126346    1.699    0.411
        18 -12.4773    137.6960      5.4333   2.5666357012e+02  -5.7656565642e+01   0.05922059   0.04269489 -89.31  0.001302124    1.474    0.322
        19  -9.9240     44.7326      1.9795   2.5484342093e+02  -5.4484703063e+01    0.0212378   0.01574313  16.35 0.0002688924    1.344    0.256
        20 -12.8177    203.9724    121.6964   2.6563539319e+02  -5.8477375158e+01   0.06515006   0.04405957  33.17  0.002493377    1.450    0.310
        21 -11.3732      2.5067    115.5081   2.6056361497e+02  -5.1854429869e+01   0.01786845   0.01777668   9.98 0.0001568364    1.007    0.007
        22 -11.4508    161.4960    105.0073   2.6347202090e+02  -5.7305028324e+01    0.0288129   0.01800964  20.94  0.000879681    1.608    0.378
        23 -12.7585    246.7664    152.0668   2.6881782346e+02  -5.9403999051e+01   0.06650572   0.04683071 -42.79  0.002577714    1.468    0.319
        24 -10.7802    176.3354    101.3275   2.6361940704e+02  -5.7847624409e+01   0.01988773    0.0132141  58.35 0.0007051797    1.722    0.419
        25 -12.2792    224.5459     89.1156   2.6411336143e+02  -5.9611332966e+01   0.04249288   0.02490492  14.86    0.0014739    1.826    0.452
        26 -12.7847      5.7861     84.2249   2.5890333310e+02  -5.2323212074e+01   0.04218266   0.03129077  87.97  0.001665314    1.467    0.318
        27 -13.7217     26.3272     79.9194   2.5904401806e+02  -5.3065670059e+01   0.09807472   0.02743206 -50.92  0.002486154    3.331    0.700
        28 -11.3406    138.0000     79.0117   2.6130578241e+02  -5.6850734120e+01   0.03037382   0.01036859  19.95 0.0008011212    2.933    0.659
        29 -10.9335     85.3482     73.6682   2.5984229957e+02  -5.5135439216e+01   0.02041649   0.01266486 -35.00 0.0007048845    1.768    0.434
        30 -13.7921      8.5310     63.5175   2.5779517521e+02  -5.2640048306e+01    0.0670433   0.04764599  23.82  0.002643635    1.379    0.275
        31 -12.6636     25.0116     64.2146   2.5812869133e+02  -5.3192648627e+01    0.0340533   0.02728932  16.41  0.001409901    1.247    0.198
        32 -10.9248    166.0172     62.3496   2.6090555350e+02  -5.7997801649e+01   0.02558285   0.02244207 -68.99 0.0003235754    1.138    0.122
        33 -13.2149     54.9182     59.5911   2.5841456566e+02  -5.4259621437e+01   0.06549964   0.04283725  35.59  0.002470847    1.501    0.334
        34 -10.5214     43.5190     62.5002   2.5837009224e+02  -5.3840298387e+01   0.01791469   0.01782787 -16.95 -1.582202e-05    1.001    0.001
        35 -12.7132     29.5486     61.1993   2.5803879312e+02  -5.3379118598e+01   0.03894293   0.02705986 -38.46  0.001307548    1.500    0.333
        36 -12.3857     40.0735     53.5333   2.5778821606e+02  -5.3818769601e+01   0.03762329    0.0254996 -13.92  0.001395866    1.658    0.397
        37 -11.7094     68.4372     54.2835   2.5835867198e+02  -5.4777483599e+01    0.0353819   0.01961455 -48.17  0.001211267    1.801    0.445
        38 -12.0448    195.8080     52.7408   2.6098585546e+02  -5.9118501355e+01   0.03078097   0.03042193 -31.59 0.0008185501    1.006    0.006
        39 -11.4953    232.1833    209.0851   2.7182067191e+02  -5.7996337874e+01   0.03547807   0.02655814  -2.85  0.001370977    1.615    0.381
        40 -12.3732    234.5575    199.9980   2.7136046073e+02  -5.8226552821e+01   0.07012998   0.02766033 -57.65  0.002083439    2.409    0.585
        41 -12.5986    226.6701    194.9712   2.7080597766e+02  -5.8063732802e+01   0.09933177    0.0603526  49.57  0.003521745    1.817    0.450
        42 -11.4998    250.4486    185.7804   2.7102615515e+02  -5.8966915225e+01   0.06744555   0.02727438  23.20  0.001894732    2.829    0.646
        43 -11.6827    245.3692    182.1215   2.7063610939e+02  -5.8868686367e+01   0.05711641   0.03680021  13.11  0.002054616    1.807    0.447
        44 -13.6693     41.6540     47.1727   2.5744766607e+02  -5.3939199303e+01   0.06586345   0.04188731 -89.37  0.002386689    1.741    0.426
        45 -12.9950     40.5013     43.0195   2.5718567758e+02  -5.3942646503e+01    0.0431387   0.03441112  -3.84   0.00134926    1.313    0.238
        46 -13.8427     55.6581     45.1460   2.5758154820e+02  -5.4438540148e+01   0.07983417   0.04621928  81.09  0.002677191    2.092    0.522
        47 -12.2019    195.7546     41.8346   2.6026477398e+02  -5.9246226211e+01   0.06557193   0.03198267  61.31   0.00180187    2.818    0.645
        48 -11.2175    157.3931     43.1834   2.5948690558e+02  -5.7929664042e+01   0.03275381    0.0250942 -77.78 0.0006397377    1.336    0.252
        49 -13.0205     51.1222     39.3960   2.5716180515e+02  -5.4342891117e+01   0.05985145   0.03696695  41.38  0.001522049    1.625    0.385
        50 -13.5578     57.3770     35.7054   2.5705543856e+02  -5.4594608158e+01   0.07099046   0.04560529  57.65  0.002589984    1.714    0.416
        51 -11.1736    207.9759     44.0301   2.6070076344e+02  -5.9633241890e+01   0.02558665   0.02490045 -46.92 0.0004072075    1.021    0.020
        52 -11.6962    215.7797     38.1648   2.6049457709e+02  -5.9966098988e+01   0.05834088   0.02891919 -77.03  0.001588797    2.199    0.545
        53 -10.8161    173.5530     37.9094   2.5950144048e+02  -5.8538584955e+01   0.02820488   0.01753162  21.96  0.001019547    1.584    0.369
        54 -10.1708    159.6011     36.2314   2.5908812656e+02  -5.8082824790e+01   0.02511655   0.01604022  32.96 0.0005958385    1.528    0.346
        55 -10.4624    175.6451     33.1508   2.5923694908e+02  -5.8663258237e+01   0.02612635    0.0218176 -51.31 0.0006118579    1.184    0.156
        56 -13.9422     30.7429     30.0321   2.5626316277e+02  -5.3738820757e+01   0.09322122   0.04649323 -57.22  0.003118771    1.899    0.473
        57 -12.0594    248.7742    180.3938   2.7064184024e+02  -5.9004958004e+01   0.04518235   0.03425897 -73.13  0.001807864    1.407    0.289
        58 -12.3197    248.3224    170.9847   2.7004803052e+02  -5.9147066267e+01   0.07703037   0.04220479   7.61  0.002361024    2.606    0.616
        59 -10.9467    214.3032    174.4781   2.6918970353e+02  -5.8008046080e+01   0.03269773   0.01654149  26.11 0.0008656518    1.992    0.498
        60 -13.0298    241.2544    160.0127   2.6914131930e+02  -5.9100890121e+01    0.0898121   0.06094765  18.53  0.003403704    1.562    0.360
        61 -14.1776    239.2995    130.8749   2.6724274990e+02  -5.9492992811e+01    0.2572793   0.09528847 -40.28  0.006410876    3.688    0.729
        62 -12.9391    246.8347    146.3175   2.6845697834e+02  -5.9497176395e+01   0.08631478   0.07279992  75.02  0.003650289    1.310    0.237
        63 -14.1108    197.7758    136.8030   2.6640233760e+02  -5.8054730990e+01    0.1269656   0.04659735  33.68  0.003688437    2.505    0.601
        64 -12.3956    212.7860    144.8892   2.6733494248e+02  -5.8421692708e+01   0.07085607    0.0404977  11.10  0.002360563    2.092    0.522
        65 -13.9047    200.9120    144.3292   2.6695542759e+02  -5.8044894559e+01    0.1100024    0.0668738  44.10  0.003956046    1.701    0.412
        66 -13.3088     47.4013    141.6301   2.6293215370e+02  -5.3027739993e+01   0.06223852   0.03725007 -75.78  0.002198692    1.794    0.442
        67 -13.0331    230.9288    135.4227   2.6728026698e+02  -5.9153024301e+01    0.1074238   0.05664542 -86.59  0.003148091    2.867    0.651
        68 -12.3664      3.5659    139.5698   2.6188897671e+02  -5.1597559465e+01   0.05490228   0.04385106   9.06  0.002279131    1.287    0.223
        69 -12.1596     21.1799    133.1718   2.6190503396e+02  -5.2263371137e+01   0.02715503   0.02110106 -32.18  0.001054464    1.354    0.261
        70 -10.1400    241.5331     22.4362   2.6003851118e+02  -6.1019061462e+01   0.01789445   0.01768821 -44.90 0.0001285521    1.006    0.006
