#   1 NUMBER                 Running object number                                     
#   2 MAG_AUTO               Kron-like elliptical aperture magnitude                    [mag]
#   3 X_IMAGE                Object position along x                                    [pixel]
#   4 Y_IMAGE                Object position along y                                    [pixel]
#   5 X_WORLD                Barycenter position along world x axis                     [deg]
#   6 Y_WORLD                Barycenter position along world y axis                     [deg]
#   7 A_WORLD                Profile RMS along major axis (world units)                 [deg]
#   8 B_WORLD                Profile RMS along minor axis (world units)                 [deg]
#   9 THETA_WORLD            Position angle (CCW/world-x)                               [deg]
#  10 FWHM_WORLD             FWHM assuming a gaussian core                              [deg]
#  11 ELONGATION             A_IMAGE/B_IMAGE                                           
#  12 ELLIPTICITY            1 - B_IMAGE/A_IMAGE                                       
         1 -12.0364      2.1245     44.5247   1.4491638006e+02   6.8608475731e+01     1.413007    0.1484772 -75.58  0.003738617    6.629    0.849
         2 -13.4860      3.0189     11.8867   1.3673390106e+02   7.6060513057e+01      2.27555    0.9248569 -56.77    0.0116307    1.844    0.458
         3 -13.6434    204.3852      8.8672   6.6428186839e+01   3.1702415943e+01     1.653452     1.095306  44.85  0.008308759    1.752    0.429
         4 -13.1916    190.3105     28.3473   7.3676249617e+01   3.3333984565e+01     1.301016     1.250264  67.44  0.006217657    1.083    0.076
         5 -10.3915    138.6108    249.2026   1.3030565518e+02   9.8085603088e+00    0.1902356    0.1286446 -24.26  0.001290951    2.315    0.568
         6 -10.3361    126.0260    250.0958   1.3267622973e+02   1.1395169338e+01     0.315074   0.08113099  43.54  0.001404107    2.810    0.644
         7 -10.0173     98.5087    249.4725   1.3767744549e+02   1.5091838308e+01    0.1961466    0.1344648  43.16  0.001460678    1.004    0.004
         8 -10.7614    102.2518    247.6134   1.3684253463e+02   1.4866136757e+01    0.2355454    0.1786373  44.77 0.0009553819    1.095    0.087
         9  -9.2639     67.6800    250.5755   1.4341523342e+02   1.8718354091e+01    0.1496024    0.0649306  43.69 0.0005270376    1.508    0.337
        10 -11.7279     31.1946    247.7498   1.4988282927e+02   2.3121740888e+01    0.7059838    0.5070158   5.44  0.004995931    2.560    0.609
        11 -13.8377      7.3628    208.9328   1.5321692852e+02   3.1798798264e+01     1.792137    0.7072688 -77.63  0.008673107    2.614    0.617
        12 -15.0739     13.2386    158.2180   1.5016713304e+02   4.1257167449e+01     6.740516     2.336804  77.65   0.02989274    2.888    0.654
        13  -9.3687     47.1103    249.1452   1.4708029571e+02   2.1246441627e+01    0.1719498   0.07547513  55.00 0.0006374035    1.680    0.405
        14  -9.5370    238.3203    248.3343   1.1341549689e+02  -3.2240567459e+00    0.1070336     0.055498  13.78 0.0007049529    1.702    0.412
        15  -8.2494     21.2831    238.6594   1.5138148602e+02   2.5510861937e+01    0.1095847   0.04660673  56.29 0.0007013451    1.632    0.387
        16 -12.5216     41.5569    234.0206   1.4744771511e+02   2.4192840798e+01    0.2508298    0.2335734  81.35 0.0008077041    1.458    0.314
        17 -13.8541     47.9309    226.8437   1.4587835906e+02   2.4669796194e+01    0.9597348    0.6132585  66.58   0.00542497    1.354    0.262
        18 -11.4988     12.8791    241.1301   1.5295625013e+02   2.5911882621e+01    0.5667428    0.1094515  56.52  0.002840711    3.076    0.675
        19  -9.9707     35.1113    225.3067   1.4830919586e+02   2.6305561106e+01    0.1535809   0.09841659  48.41 0.0004475388    1.103    0.093
        20 -11.0958      7.0373    249.4711   1.5414802848e+02   2.5157099382e+01    0.4398774    0.1619578  28.95  0.002608903    2.599    0.615
        21 -10.5790    173.3542    222.0218   1.2081903939e+02   8.2221857450e+00     0.354435    0.2614997  61.79  0.002261953    2.050    0.512
        22 -10.8253      2.3310    248.7207   1.5493755606e+02   2.5685446172e+01    0.3844733    0.2033165 -85.16  0.002951838    2.059    0.514
        23 -13.2305      3.5503    176.0252   1.5314324386e+02   3.8342776126e+01     2.082076    0.5478687 -85.69   0.00917618    3.505    0.715
        24  -8.7812    152.4998    212.9817   1.2359756147e+02   1.2571821053e+01    0.1370848    0.1224101 -40.70 0.0004049762    1.459    0.315
        25  -9.7596     32.0890    206.7121   1.4809901039e+02   2.9865383945e+01      0.31273   0.09789746  49.31  0.001235979    2.181    0.542
        26 -12.1730     23.8206    201.8443   1.4961928913e+02   3.1581083967e+01    0.4232823    0.1558391  49.55  0.002349562    1.887    0.470
        27 -10.7355     17.1384    199.7963   1.5094547937e+02   3.2590862696e+01    0.2005015    0.1206433  56.06 0.0006316412    1.205    0.170
        28 -11.3156     66.3955    199.2833   1.4025866122e+02   2.7313374736e+01    0.2842149    0.2289844 -46.53 0.0009352708    1.756    0.430
        29  -9.9493    192.4847    194.1676   1.1321176233e+02   8.7832732721e+00    0.6054956    0.3326716 -60.05  0.002045212    7.314    0.863
        30  -8.9213     51.6766    197.5236   1.4337653738e+02   2.9425922240e+01     0.186743    0.1050505  67.74 0.0004213881    1.654    0.395
        31 -11.5950     71.9332    191.2957   1.3834087730e+02   2.8096388513e+01     0.230476    0.2239593  88.73 0.0004422493    1.316    0.240
        32 -14.2783     56.5817    213.7051   1.4338499801e+02   2.5916968234e+01     7.337654          nan  40.52   0.01852524    8.402    0.881
        33  -9.0342    104.2305    180.2379   1.2966750404e+02   2.5547169385e+01    0.1705797    0.1259539  58.59 0.0003152349    1.277    0.217
        34 -13.1201     68.5145    176.3763   1.3774114928e+02   3.1473961587e+01    0.4518945    0.2855847 -43.15  0.001845244    2.327    0.570
        35 -10.7314     81.2529    178.4811   1.3489075123e+02   2.9311256622e+01    0.2197791    0.1948125  53.64 0.0003781825    1.111    0.100
        36  -8.5941    171.5555    173.5015   1.1380319715e+02   1.5228678446e+01    0.1322675    0.1118446  30.13 0.0001327994    1.026    0.025
        37 -11.7162     88.4195    168.9772   1.3203368410e+02   3.0172710434e+01    0.6487075    0.4937835  41.66  0.003857442    1.160    0.138
        38  -9.1214    250.5371    171.5230   9.9524609643e+01   2.3972426848e+00    0.1172592   0.09038661   6.67 3.874442e-05    1.011    0.011
        39 -10.4079    191.7442    155.2605   1.0641742462e+02   1.4302691479e+01    0.4546951    0.3287115 -83.01  0.002016543    3.254    0.693
        40 -10.7475    198.0306    245.2832   1.1946336274e+02   2.1641028316e+00    0.1612747    0.1536675   3.14  0.001250208    1.607    0.378
        41  -9.8355    100.2055    152.5737   1.2674435648e+02   3.1701569530e+01    0.2662948    0.2453652 -86.06 0.0007491208    1.156    0.135
        42  -8.9016    102.9563    148.1161   1.2531322599e+02   3.2176678302e+01    0.2672979    0.1772288 -38.75  0.001090735    1.967    0.492
        43 -11.8606     88.8749    152.1465   1.2964450445e+02   3.3616416251e+01     0.261104    0.2509869   5.66 0.0005372867    1.270    0.213
        44 -12.5065     67.0704    144.1204   1.3447316265e+02   3.8585314188e+01    0.8473407    0.4996262  67.00  0.004135639    1.834    0.455
        45 -11.5755     57.8746    132.2617   1.3557493075e+02   4.2526188386e+01    0.6754137    0.2762925 -80.13  0.002548943    3.129    0.680
        46  -9.0954    181.2821    144.1569   1.0622670433e+02   1.8011036589e+01    0.2389963    0.1763758  68.69  0.000632607    1.955    0.488
        47  -9.7804     82.8515    243.4069   1.4015985584e+02   1.7935068591e+01    0.3078119    0.1197645  55.15  0.001630879    2.433    0.589
        48  -9.6707    110.6831    137.6486   1.2143353179e+02   3.3033552422e+01    0.3665881    0.2461757 -26.00  0.001354009    2.301    0.565
        49  -9.9909     81.3802    248.5259   1.4077513872e+02   1.7373565067e+01    0.2326542    0.1285122  57.08  0.001247339    1.576    0.365
        50  -9.3087    165.8494    129.9208   1.0638758236e+02   2.3536240445e+01    0.2568108    0.1878826  74.82 0.0009309453    1.997    0.499
        51 -10.4333     98.3292    134.8927   1.2428284150e+02   3.5820030143e+01    0.2533044     0.231445 -24.14 0.0004281683    1.334    0.250
        52  -8.4878    160.2829    124.6679   1.0642480017e+02   2.5650997219e+01     0.142002    0.1174462 -87.35 0.0002834547    1.613    0.380
        53  -9.4426    107.7609    124.1706   1.1957928558e+02   3.6481238599e+01    0.2040236    0.1826109  65.15 0.0003348876    1.081    0.075
        54  -9.5364     69.8963    124.0277   1.3071888715e+02   4.2828522869e+01    0.2036985    0.1823386  68.41 0.0003046354    1.010    0.010
        55  -8.7374    155.0008    120.5144   1.0665832417e+02   2.7548515850e+01    0.2149067    0.1287458  67.50 0.0008103554    2.604    0.616
        56  -8.6645    184.6166    147.8609   1.0632334735e+02   1.6776939730e+01    0.1742273    0.1275848 -47.95 0.0004290071    1.669    0.401
        57  -8.6701     73.8451    242.5952   1.4180090222e+02   1.9161673982e+01    0.1603474   0.06480991  44.40 0.0004374964    1.660    0.398
        58 -10.3399    168.0654    113.2135   1.0198576705e+02   2.5998453302e+01    0.3278854    0.2831866 -85.72 0.0008180265    1.454    0.312
        59  -9.2995    203.3299    111.3650   9.4664863238e+01   1.8578457264e+01    0.2223268    0.1551836  14.34 0.0007448585    1.694    0.410
        60 -10.1224     33.4472     92.5352   1.3814239264e+02   5.4872504600e+01     0.407701    0.1862389  43.28  0.001854187    2.185    0.542
        61  -9.0174    155.6879     75.6797   9.4431768320e+01   3.5585883166e+01    0.1600642    0.1209563  19.05 0.0003331598    1.649    0.394
        62 -10.1391     16.6461     66.2397   1.4104529731e+02   6.2669834998e+01    0.2363851    0.1715063  57.78  0.000819855    1.473    0.321
        63 -10.8480      5.7740     62.6287   1.4556303184e+02   6.4126284091e+01    0.2514928    0.1743276  55.22 0.0007633739    1.538    0.350
        64 -11.1662      2.0757     61.6313   1.4717010182e+02   6.4515308757e+01    0.6521548    0.1605964 -80.75  0.002343123    3.571    0.720
        65  -8.3286     32.3011     61.6986   1.3284402863e+02   6.2556409050e+01    0.1319099   0.09577642  68.79 0.0002430159    1.586    0.370
        66  -9.0797     23.9830     58.8254   1.3620261319e+02   6.3962677728e+01    0.2396929    0.1577376  45.59  0.001270136    1.683    0.406
        67 -10.6501     12.9400     55.2853   1.4099689086e+02   6.5551171431e+01    0.2301889     0.158411  45.24 0.0009019203    1.618    0.382
        68 -11.5326      9.2404     53.9915   1.4264905011e+02   6.6054748131e+01    0.2977308    0.2160368 -82.38   0.00109881    1.236    0.191
        69  -9.8616    248.9958    249.5135   1.1197013598e+02  -4.5761079148e+00    0.1545745    0.0695795  32.01            0    1.617    0.381
        70 -11.4583      4.6831    241.0626   1.5440188298e+02   2.6658894443e+01    0.4288413    0.2242183  36.36  0.001686172    1.530    0.346
        71 -10.6832    141.8114    249.6179   1.2976824590e+02   9.3227878949e+00    0.2856238   0.07336266  39.13  0.001297756    2.634    0.620
