#   1 NUMBER                 Running object number                                     
#   2 MAG_AUTO               Kron-like elliptical aperture magnitude                    [mag]
#   3 X_IMAGE                Object position along x                                    [pixel]
#   4 Y_IMAGE                Object position along y                                    [pixel]
#   5 X_WORLD                Barycenter position along world x axis                     [deg]
#   6 Y_WORLD                Barycenter position along world y axis                     [deg]
#   7 A_WORLD                Profile RMS along major axis (world units)                 [deg]
#   8 B_WORLD                Profile RMS along minor axis (world units)                 [deg]
#   9 THETA_WORLD            Position angle (CCW/world-x)                               [deg]
#  10 FWHM_WORLD             FWHM assuming a gaussian core                              [deg]
#  11 ELONGATION             A_IMAGE/B_IMAGE                                           
#  12 ELLIPTICITY            1 - B_IMAGE/A_IMAGE                                       
         1 -13.6012    200.2355     13.3461   6.4108402096e+01   3.3678674218e+01     1.458501     1.060185  44.62  0.008319121    1.606    0.377
         2 -13.6809    189.8574     27.9921   6.9125639835e+01   3.4525829853e+01        2.255     1.601703  12.73   0.01002746    2.152    0.535
         3  -9.1044    232.3295     12.8829   6.0688596286e+01   2.6195031245e+01    0.2753543     0.188898 -34.79  0.001618242    1.610    0.379
         4 -10.3516    164.8860     12.1518   6.8422250020e+01   4.2371761776e+01    0.2856238    0.1968721 -16.59  0.001134321    1.780    0.438
         5 -11.6648     12.3502      3.3167   1.0832819365e+02   7.0990225677e+01    0.5462135    0.2561574  15.87   0.00333251    2.221    0.550
         6 -10.3497    137.8189     36.7182   8.0720778479e+01   4.6074376639e+01    0.2302449     0.215116  32.88 0.0002639605    1.045    0.043
         7 -14.1072    142.8916    248.0226   1.2772078721e+02   3.4721037287e+00     8.030197     2.857363  51.84   0.03226333    2.851    0.649
         8 -13.3666     10.6664    206.8120   1.4808078560e+02   3.0235034402e+01    0.8056957    0.6951789  52.97  0.002921729    1.468    0.319
         9 -14.2117     38.6256    242.6174   1.4584109295e+02   2.0060749969e+01     2.062212     1.146264  66.02   0.01320208    1.442    0.307
        10  -8.5310    166.8229    211.4413   1.1752734784e+02   5.6447346153e+00    0.2857911    0.1597174 -64.15  0.001195171    2.707    0.631
        11  -8.3510     92.5439    207.7217   1.3236717696e+02   1.9583457264e+01     0.173448    0.1163519 -83.21  0.000657076    1.529    0.346
        12 -10.0112    171.0812    206.0768   1.1572290649e+02   5.8375491668e+00    0.2088266    0.1930658  40.60  0.001236123    1.010    0.010
        13 -14.6794      9.4647    188.9654   1.4697811260e+02   3.4090522211e+01     6.681011     1.314677 -74.04   0.01403469    4.101    0.756
        14  -9.9654    192.7973    195.2625   1.0928121011e+02   3.6627943066e+00    0.8978124    0.4306533 -63.06  0.002356223    6.837    0.854
        15  -9.5838     55.8797    189.1305   1.3770436438e+02   2.8962885464e+01    0.2884912    0.2250345 -63.03  0.001224249    1.334    0.250
        16 -11.2947     76.6342    186.2704   1.3289210259e+02   2.6739654483e+01    0.4480677    0.3181177 -59.97  0.002512246    1.401    0.286
        17 -11.0535     80.5018    180.4902   1.3122380420e+02   2.7479914815e+01    0.2955557    0.2440988 -55.75 0.0007603303    1.318    0.241
        18  -8.3952    202.3021    184.6738   1.0527506270e+02   3.7544168793e+00    0.1382319    0.1155185 -88.29 0.0002555145    1.640    0.390
        19 -10.0799    129.3343    174.5984   1.1907866845e+02   2.0424208782e+01    0.4267857    0.2895451  29.99   0.00196711    1.769    0.435
        20 -15.1821     17.5685    234.5663   1.4874873332e+02   2.4006989483e+01     8.911819     0.881048 -67.18   0.03160731    5.818    0.828
        21  -8.7737     47.2867    173.4547   1.3768265733e+02   3.3581009071e+01    0.2677302    0.1155149  38.53 0.0009154101    2.442    0.590
        22  -9.4274     42.6732    172.2048   1.3854689322e+02   3.4405451153e+01     0.236603    0.1827718  32.27  0.001318329    1.630    0.387
        23  -9.6303    228.0203    172.0059   9.7672362380e+01   1.0427376011e+00    0.2124736    0.1784614 -80.08 0.0009167275    1.674    0.403
        24 -13.3075     63.8392    204.8139   1.3785182197e+02   2.4456593776e+01     2.335743      1.31542  71.05   0.01178582    1.840    0.456
        25  -8.7323    117.9149    150.6380   1.1708898376e+02   2.8086810453e+01    0.2199991    0.1947478 -47.96 0.0003213063    1.163    0.141
        26 -12.3525     90.4433    166.6448   1.2676714813e+02   2.9142470057e+01     1.297122    0.9472033 -31.38  0.003481632    1.932    0.482
        27  -9.3120    105.1935    146.5907   1.1942995399e+02   3.1369725840e+01    0.3064545    0.2567582  53.75 0.0008803688    1.221    0.181
        28  -9.4328    106.6824    143.6413   1.1844562356e+02   3.1797276863e+01    0.3662353    0.2465142 -33.68  0.001643096    1.868    0.465
        29 -11.5808     94.0199    145.7437   1.2209175213e+02   3.3490077688e+01    0.2846317    0.2713515 -32.48 0.0004923568    1.201    0.167
        30  -8.5935    133.4096    143.6281   1.1177104212e+02   2.6656521014e+01    0.3123007    0.1385842 -61.95 0.0009595024    3.374    0.704
        31  -8.4969    183.1191    143.1204   1.0021764261e+02   1.6002640969e+01    0.2175556     0.203236   1.61 0.0002674266    1.152    0.132
        32 -10.4827     90.0027    245.9271   1.3723198985e+02   1.2404257510e+01    0.3955684     0.225567  86.75  0.001156691    2.064    0.516
        33 -10.2219    229.3696    136.2632   8.9572736965e+01   7.2656945041e+00    0.2381014    0.2335881 -60.69 0.0002865545    1.080    0.074
        34  -9.9762    114.5731    134.3211   1.1440361083e+02   3.2517781978e+01     0.386214    0.3397141  69.05  0.002038788    1.189    0.159
        35 -10.0112    101.4698    130.5994   1.1698827755e+02   3.5782420660e+01    0.2721095    0.2312821 -29.66 0.0002039022    1.327    0.246
        36  -9.3676    119.3148    126.6980   1.1141068754e+02   3.3358534414e+01    0.3747185    0.2430356 -18.78  0.001336084    2.629    0.620
        37  -8.1779    159.6479    127.3097   1.0164189534e+02   2.4635309017e+01    0.1638663    0.1250803 -89.48 0.0007044137    1.719    0.418
        38  -8.9838    109.4049    122.0500   1.1290430185e+02   3.6319502798e+01    0.2200954    0.2017107  23.00 0.0004180438    1.207    0.171
        39  -9.1674    247.6326    117.9630   8.2387388322e+01   6.7866678075e+00    0.2139182    0.2043673  62.84 0.0004628155    1.159    0.137
        40  -8.8818    167.7802    113.3734   9.6268208661e+01   2.5709802115e+01    0.3385536    0.2521448 -82.34  0.001467907    1.794    0.442
        41  -9.9211     61.2694    113.9987   1.2446288876e+02   4.5753717629e+01     0.199256    0.1581955 -56.10 0.0005073349    1.094    0.086
        42 -10.4529     19.1127    112.8308   1.3618445562e+02   5.0272714097e+01    0.1965691    0.1766333  22.60 0.0007134356    1.414    0.293
        43  -9.8361     13.3529    111.1610   1.3751090957e+02   5.1067330744e+01    0.1852424     0.166926  59.12 0.0003469737    1.345    0.256
        44 -10.1779     52.8412    102.8122   1.2451308584e+02   4.9305646449e+01    0.2769023    0.1743595 -30.92  0.001034276    1.835    0.455
        45  -8.9780     80.9721    249.9893   1.3922819237e+02   1.3004866064e+01    0.1960799    0.1120538  68.74 0.0008384811    1.636    0.389
        46  -8.2378    185.7926     73.2459   8.1871766174e+01   2.8944097014e+01    0.1878178    0.1690066  29.05 0.0002311294    1.265    0.209
        47 -12.6500     55.3290    215.1001   1.4057727948e+02   2.3417251800e+01    0.9267866    0.5988051 -73.80  0.003704286    1.411    0.291
        48  -9.6450    241.2561     61.6875   7.0525685367e+01   1.7572796163e+01    0.2205829     0.209594 -78.82 0.0002717362    1.150    0.130
        49  -8.5334    126.9528     59.8728   9.0643481837e+01   4.5186370988e+01     0.205039    0.1774156  18.31            0    1.189    0.159
        50 -10.2737     96.3981    246.9692   1.3618571160e+02   1.1236774346e+01     0.436514    0.2245498  81.50  0.001994964    2.908    0.656
        51 -11.2780    181.3229     34.7716   7.2186662569e+01   3.5786492990e+01    0.6103606    0.4433265  55.90  0.001048926    1.302    0.232
        52 -12.7978     76.5765    165.5111   1.2986842929e+02   3.1540842140e+01    0.7514966    0.5038807 -52.67  0.001851045    1.504    0.335
        53 -14.0903     68.2106    145.1137   1.2855236302e+02   3.7549344331e+01     6.814289     3.060948  62.26   0.01722042    4.342    0.770
        54 -12.7187     48.9282    231.6274   1.4323411304e+02   2.0896059626e+01     1.657262    0.6065424  32.68  0.003514423    4.216    0.763
        55 -10.3388     71.4610    237.4944   1.3974367930e+02   1.6713480153e+01    0.3748975     0.211192  85.94   0.00172501    1.863    0.463
