#   1 NUMBER                 Running object number                                     
#   2 MAG_AUTO               Kron-like elliptical aperture magnitude                    [mag]
#   3 X_IMAGE                Object position along x                                    [pixel]
#   4 Y_IMAGE                Object position along y                                    [pixel]
#   5 X_WORLD                Barycenter position along world x axis                     [deg]
#   6 Y_WORLD                Barycenter position along world y axis                     [deg]
#   7 A_WORLD                Profile RMS along major axis (world units)                 [deg]
#   8 B_WORLD                Profile RMS along minor axis (world units)                 [deg]
#   9 THETA_WORLD            Position angle (CCW/world-x)                               [deg]
#  10 FWHM_WORLD             FWHM assuming a gaussian core                              [deg]
#  11 ELONGATION             A_IMAGE/B_IMAGE                                           
#  12 ELLIPTICITY            1 - B_IMAGE/A_IMAGE                                       
         1 -12.9022    210.1381      9.1364   5.8746376098e+01   3.2024720143e+01    0.9765245    0.7572978  71.98  0.002877922    1.213    0.176
         2 -13.5832    200.2876     22.1558   6.2750740371e+01   3.2862591665e+01     2.607771     1.620135  15.79   0.01109678    3.711    0.731
         3 -11.0297    188.9869     14.9905   6.2369918724e+01   3.6338863083e+01     0.379569    0.2848789  47.46  0.001790001    1.516    0.340
         4  -8.7208    165.0113     11.9939   6.4691903705e+01   4.2351455513e+01    0.1558804    0.1345097  75.84 0.0003923451    1.022    0.022
         5  -9.4440    172.9118     10.1515   6.3150321832e+01   4.0653194525e+01    0.1969778    0.1516595 -82.06 0.0004893796    1.254    0.202
         6 -10.7604      3.2231      3.7025   1.0861022825e+02   7.2187419421e+01    0.3135216    0.1970969 -31.35  0.002356973    1.364    0.267
         7 -12.5640    188.0755     33.0628   6.6952202545e+01   3.4458834746e+01    0.9407762    0.6796529  62.98  0.001980918    1.278    0.218
         8 -12.1944    153.1402    246.4463   1.2156049769e+02   1.1890959488e+00    0.8174639    0.5032651  44.55  0.004423848    1.390    0.281
         9 -12.4720    179.8579    246.6176   1.1632007449e+02  -3.3690851660e+00    0.9343961    0.3921027  38.66  0.004214753    2.067    0.516
        10 -10.9546    143.4156    249.8244   1.2394961075e+02   2.2544938073e+00    0.6366981    0.2073991  41.10  0.002536262    2.596    0.615
        11 -10.2119    134.3976    249.3817   1.2566303497e+02   3.8505655418e+00    0.2935075    0.2159674  73.23  0.001702767    1.538    0.350
        12  -9.0585     71.4906    250.7396   1.3784698030e+02   1.3510366559e+01     0.221368   0.09010541  41.40  0.001065594    2.192    0.544
        13  -9.0617     62.6539    250.5066   1.3943554445e+02   1.4800318471e+01    0.2442176    0.1037198  52.59 0.0007500523    1.944    0.486
        14  -9.7593     63.3246    247.0332   1.3900882591e+02   1.5383458658e+01    0.2482331    0.1578702  81.72  0.001497805    1.447    0.309
        15 -13.3654     52.9137    235.5248   1.3991628863e+02   1.9107611775e+01     2.848257      1.85938  29.20   0.01025044    2.124    0.529
        16 -12.7170     29.3979    206.1812   1.4185661960e+02   2.8275445599e+01     1.779912    0.5353138  54.55  0.007075137    3.490    0.713
        17 -14.7205     55.9695    206.2589   1.3643287319e+02   2.5003005555e+01     7.689108     1.719731  49.09   0.01948419    4.396    0.773
        18  -8.1021    166.4791    211.4550   1.1325721555e+02   5.2444754958e+00    0.2852548    0.1288584 -64.43 0.0008082726    5.450    0.817
        19  -9.7446    191.8640    193.9644   1.0466287528e+02   3.8272658144e+00    0.4549251    0.2365039 -63.78  0.001483745    4.117    0.757
        20 -11.9441    247.0663    236.8294   1.0205055415e+02  -1.2439471727e+01    0.2379061    0.2035018  -0.79 0.0003958658    1.123    0.110
        21 -11.1497     71.3318    186.8147   1.3065021769e+02   2.7358873214e+01    0.4232976    0.2818363 -48.74  0.001336362    1.719    0.418
        22 -11.0281     75.6894    180.6893   1.2875472023e+02   2.8173459397e+01     0.329165    0.2825809 -48.34 0.0008801371    1.351    0.260
        23  -8.6292    200.4932    182.1128   1.0051266517e+02   4.4569400832e+00    0.2341383     0.208195  68.70  0.001239344    1.325    0.245
        24 -10.6113     84.0949    170.0440   1.2504620133e+02   2.9448158409e+01    0.2966189    0.2531887 -67.49  0.000367623    1.109    0.098
        25 -12.5314     71.9907    166.4381   1.2746132874e+02   3.2160493086e+01    0.5460533    0.3193373 -48.47  0.001505837    1.814    0.449
        26 -12.4733     87.8527    162.8979   1.2287541822e+02   3.0584965187e+01     2.597925     1.035859  55.03  0.003799422    3.634    0.725
        27 -13.1465     67.9086    145.5532   1.2496280478e+02   3.7844357958e+01     3.081609     1.477482 -85.78  0.007966792    5.564    0.820
        28  -9.8061    227.8332    171.0434   9.2906065389e+01   1.3348889782e+00     0.377989    0.2148592 -59.69  0.001512039    2.738    0.635
        29 -10.1250     34.8413    171.9162   1.3718296004e+02   3.5543901205e+01    0.2695356      0.17325  43.06  0.001130349    1.666    0.400
        30 -10.5349     34.9409    163.5145   1.3613378244e+02   3.7528966807e+01    0.4673811     0.278933  -2.50  0.002031813    3.698    0.730
        31  -9.2382    250.5777    158.1909   8.6245709177e+01  -4.7495095823e-01     0.293624     0.114003 -44.48  0.001161186    2.392    0.582
        32  -8.8655    107.9498    157.9484   1.1682905362e+02   2.8323488806e+01    0.2156308    0.1990649 -81.05            0    1.022    0.022
        33  -8.1254    173.7726    152.6075   9.9817558384e+01   1.6079858127e+01    0.1949884    0.1476338  57.33 0.0001495871    1.406    0.289
        34 -10.9477     38.0677    151.2865   1.3372316298e+02   4.0123864769e+01    0.5178446    0.1716036  44.38  0.002050217    3.288    0.696
        35  -8.2638     98.5218    151.5256   1.1797804784e+02   3.1562710046e+01    0.1515257    0.1379133 -86.04 -1.360814e-05    1.056    0.053
        36 -11.1013     53.5984    147.8356   1.2916783197e+02   3.9172139499e+01    0.5076693    0.2559405 -58.93  0.002364079    1.703    0.413
        37 -10.3006    220.3041    147.2628   8.9169849364e+01   7.2960395676e+00    0.2401945    0.2250484 -68.23 0.0002798742    1.137    0.120
        38  -9.2390    102.5160    146.5333   1.1590734809e+02   3.2067724294e+01    0.2905673    0.2758341 -63.90 0.0008782483    1.051    0.049
        39  -9.5480    105.7290    142.9352   1.1429263510e+02   3.2353906908e+01    0.3438837    0.2718207 -15.85 0.0007989552    1.708    0.414
        40 -11.4081     91.1955    145.9211   1.1878621900e+02   3.4177152945e+01    0.2905829    0.2604083 -43.93 0.0004299154    1.177    0.150
        41 -10.6506     47.4506    146.3213   1.3054536802e+02   4.0275841738e+01    0.2789681    0.2210295 -76.35  0.001637599    1.110    0.099
        42 -10.1417     69.1455    134.9577   1.2262176808e+02   4.0246059582e+01    0.2452219     0.212183  41.87  0.001396489    1.271    0.213
        43  -8.9134    112.1082    134.1148   1.1062225316e+02   3.3264800411e+01    0.2356755    0.2085883 -18.16  0.000799554    1.313    0.238
        44  -8.4683     76.5205    134.4785   1.2046595098e+02   3.9286945698e+01    0.1446039    0.1312814 -66.15 0.0008099402    1.004    0.004
        45 -11.1912     33.5339    133.3338   1.3222656398e+02   4.4880868697e+01    0.3622028    0.2401085  10.83  0.001970852    2.103    0.524
        46  -9.9891     99.6648    130.7452   1.1322226973e+02   3.6370850135e+01    0.2794297    0.2410228 -18.72 0.0007359128    1.364    0.267
        47 -11.1141     43.5253    127.4698   1.2844598753e+02   4.5243083158e+01    0.3119969    0.2649907 -72.56  0.001435117    1.075    0.070
        48  -9.0871    239.0143    129.0226   8.1903614862e+01   6.9668926039e+00    0.2069345    0.1888268 -42.35 0.0003082908    1.034    0.033
        49  -9.9649     15.0051    124.0050   1.3590770412e+02   4.8667823759e+01    0.2460319    0.1888355  -3.64  0.001577565    1.733    0.423
        50  -8.8647    108.4502    122.0161   1.0873372013e+02   3.6797091399e+01    0.2052048    0.2016772  50.67 0.0002012589    1.061    0.057
        51 -13.3831     10.9905    206.9798   1.4548997152e+02   3.0031356561e+01    0.7684731    0.5809677  50.34  0.002462565    1.417    0.294
        52  -8.8070    103.3498    237.7073   1.3035010041e+02   1.1192893954e+01    0.2194019    0.1644733  72.12 0.0005498446    1.259    0.206
        53  -9.8517    167.6656    113.0398   9.1623484236e+01   2.5943086172e+01    0.3889183    0.2965719 -73.74 0.0008924209    1.567    0.362
        54  -8.9512     19.9856    111.9847   1.3258242233e+02   5.1042956315e+01     0.148474    0.1266412 -58.89 0.0004923825    1.064    0.060
        55  -8.7549     45.1504    173.8932   1.3502510668e+02   3.3902469441e+01    0.2096987    0.1536684  79.25 0.0006417205    1.286    0.222
        56  -9.8370     41.0285    108.4867   1.2554079765e+02   4.9935383611e+01    0.2178501    0.1548889 -58.07  0.001110937    1.197    0.164
        57  -9.2839      2.4807    104.4503   1.3656114283e+02   5.3915632498e+01    0.1194902   0.09139765 -60.93  8.41965e-05    1.013    0.013
        58  -9.3563     52.6267    102.8065   1.2067360663e+02   4.9929639647e+01    0.1949765    0.1179702 -64.95 0.0006421789    1.704    0.413
        59  -9.6928    244.3638     92.3584   7.3064838025e+01   1.2415905102e+01    0.2837636    0.1744277  71.90  0.001381216    1.900    0.474
        60  -8.5637    179.0840     83.1960   8.1470349334e+01   2.9004921881e+01     0.205022    0.1978527  36.84 0.0003532982    1.152    0.132
        61  -9.8613      2.9158     74.7952   1.3109015779e+02   6.0204142541e+01    0.2088235    0.1400426  88.88  0.001249296    2.106    0.525
        62 -10.1174    234.7712     73.5834   7.0222645908e+01   1.7610352909e+01    0.2632068    0.2258111  70.35 0.0007260231    1.232    0.188
        63  -8.9870    238.9653     69.6964   6.8830922884e+01   1.7318515442e+01    0.1910609    0.1628964 -82.57 0.0005233487    1.089    0.081
        64  -7.9638    120.8600     67.5896   9.0068577372e+01   4.5372924834e+01    0.1762071    0.1359787  61.61 0.0002733109    1.418    0.295
        65  -8.6385    236.3443     62.3273   6.7546933226e+01   1.9047519149e+01     0.126036    0.1070542  26.44 0.0007050717    1.745    0.427
        66  -9.9118    121.4076    248.3723   1.2808309326e+02   6.1984520943e+00    0.2655286    0.2184779  87.15 0.0009750681    1.285    0.222
        67 -11.1499    164.9784    249.9003   1.1972547337e+02  -1.4011949712e+00    0.6749865    0.2078938  36.40  0.002464842    3.195    0.687
        68  -8.5219    150.3008     48.3060   7.7431711311e+01   4.1593206064e+01    0.1413673    0.1049326  29.19 0.0002015342    1.595    0.373
        69  -8.8055     66.6197     47.9814   9.9885152941e+01   5.8695859406e+01    0.2178859    0.1699987  50.31 0.0007472986    1.650    0.394
        70  -8.9149     60.7394     45.6963   1.0113880362e+02   5.9930317653e+01    0.2557392    0.1532633  43.85  0.001221485    1.930    0.482
        71 -10.4205    132.8787     44.8480   8.0058645084e+01   4.6158241625e+01    0.2254739    0.2081104  37.99  0.001345712    1.050    0.048
        72 -15.5081      4.7764    238.9026   1.4864094214e+02   2.4054697155e+01     8.470794     1.257507 -71.17   0.03264086    4.668    0.786
        73  -9.5386    228.0254     25.1084   6.0441423053e+01   2.6110918072e+01    0.3185015    0.1767554 -38.21  0.001114015    1.841    0.457
        74  -9.7325     73.5664    246.7320   1.3708707061e+02   1.3988418334e+01    0.2115671    0.1122562  59.53 0.0006382196    1.664    0.399
        75 -10.0791    159.8223    215.2135   1.1531703786e+02   5.7499813260e+00    0.2245481    0.2185342  40.73 0.0002694141    1.061    0.057
        76  -9.5649     89.0111    244.3409   1.3391683644e+02   1.2150410950e+01    0.2349878    0.1849769 -89.51 0.0007969393    1.226    0.184
        77 -12.8980     47.7097    217.1413   1.3922994884e+02   2.3672058758e+01    0.9833623    0.7049052   8.17  0.001137327    2.782    0.641
