#   1 NUMBER                 Running object number                                     
#   2 MAG_AUTO               Kron-like elliptical aperture magnitude                    [mag]
#   3 X_IMAGE                Object position along x                                    [pixel]
#   4 Y_IMAGE                Object position along y                                    [pixel]
#   5 X_WORLD                Barycenter position along world x axis                     [deg]
#   6 Y_WORLD                Barycenter position along world y axis                     [deg]
#   7 A_WORLD                Profile RMS along major axis (world units)                 [deg]
#   8 B_WORLD                Profile RMS along minor axis (world units)                 [deg]
#   9 THETA_WORLD            Position angle (CCW/world-x)                               [deg]
#  10 FWHM_WORLD             FWHM assuming a gaussian core                              [deg]
#  11 ELONGATION             A_IMAGE/B_IMAGE                                           
#  12 ELLIPTICITY            1 - B_IMAGE/A_IMAGE                                       
         1 -16.3476    194.9711    127.9830   8.6063689015e+01   1.6527582899e+01     17.62315     9.959854 -34.09   0.07391427    1.822    0.451
         2 -15.0811    219.3560     35.3598   5.9648915854e+01   2.6193859807e+01     1.841194    0.9440825 -28.64  0.007759445    2.225    0.551
         3 -14.4979    231.9335     28.8361   5.6953038713e+01   2.4166773216e+01    0.9422766    0.5602835 -46.97  0.003490676    1.474    0.322
         4 -14.9392    241.7883     20.5751   5.4362653894e+01   2.3020741414e+01    0.8389897    0.5659618 -47.82  0.003427886    1.301    0.232
         5 -13.6301    123.6316    105.9693   9.7185979520e+01   3.7354253792e+01     1.665187     1.381169  40.33  0.008131186    1.212    0.175
         6 -14.1952    237.1470      4.2769   5.1316455174e+01   2.5851443762e+01     0.585831    0.4395424 -89.46  0.001680578    1.167    0.143
         7 -17.0213    246.6080     35.2671   5.7049745519e+01   2.0180949033e+01     2.332735     1.810719 -11.13   0.01368865    1.938    0.484
         8 -15.0210    248.6345     14.6683   5.2653689890e+01   2.2265477954e+01     1.056775    0.3325076 -55.91  0.004337124    2.956    0.662
         9 -14.5324    216.2293     71.5219   6.8665285400e+01   2.1727053102e+01     3.450264    0.9352745 -48.90    0.0100841    4.323    0.769
        10 -14.3436    215.9512     22.5837   5.7011242898e+01   2.8560984061e+01     1.855576     1.003785  40.82  0.008228143    3.033    0.670
        11 -10.8871    159.9548     25.2017   6.4483755927e+01   4.2076833341e+01    0.6678436    0.4228538  89.79  0.001471136    1.728    0.421
        12 -10.0994     92.1193     21.6064   7.7622165487e+01   5.8909625060e+01     0.284095    0.1899385 -27.05 0.0007921903    1.616    0.381
        13 -10.3797    142.3467     13.8223   6.3743370730e+01   4.7729334016e+01    0.3094402    0.2293434 -17.16 0.0009848073    1.615    0.381
        14 -11.7368    143.2656      8.5909   6.1924936945e+01   4.7983376650e+01    0.9817542    0.3412204 -15.63  0.002056906    4.389    0.772
        15  -8.5338    177.3509     12.1514   5.8438789296e+01   3.9072997581e+01    0.1829757    0.1081874 -44.45 0.0009328132    1.717    0.417
        16  -9.8261     79.3497     11.1985   7.6981482139e+01   6.2703055391e+01    0.3063306    0.1538047 -19.35  0.001491508    2.209    0.547
        17 -10.5416    220.7095      9.9262   5.3718987415e+01   2.8891914623e+01    0.2951666    0.1602637  63.23 0.0004851818    1.833    0.454
        18 -11.1609    204.9852      6.3311   5.4199603676e+01   3.2923788955e+01    0.2813066    0.2015624  -9.95  0.001278234    2.036    0.509
        19 -11.5056    209.9691      3.9692   5.3234229248e+01   3.1991387496e+01    0.2093975    0.1779045 -37.34 0.0004828134    1.372    0.271
        20  -9.6195    127.8989      7.8180   6.4189318729e+01   5.1871100415e+01    0.2125811    0.1602868  43.88 0.0007980435    1.270    0.212
        21  -9.9226    164.9025      6.7281   5.8414162602e+01   4.2713295729e+01     0.204047    0.1820923 -44.67 0.0004525598    1.258    0.205
        22  -9.0292    158.8212      2.8711   5.8049512153e+01   4.4580164155e+01    0.1922472    0.1600049  59.66 0.0008882157    1.170    0.145
        23  -9.7963    101.7663     21.9901   7.5120422595e+01   5.6722210831e+01     0.168115    0.1130921 -22.65 0.0008804629    1.633    0.388
        24 -12.1423    223.0658    244.6971   1.0366886363e+02  -8.0578207023e+00    0.5743369    0.3269183  37.09   0.00337033    1.648    0.393
        25  -8.8364     99.1099    147.8817   1.1413833968e+02   3.2330117474e+01    0.1952542    0.1788471 -20.20            0    1.264    0.209
        26  -9.8473    236.5335    145.1899   8.2440489890e+01   5.0262500482e+00    0.3962941    0.2232455  41.35  0.001908891    1.952    0.488
        27 -12.6453    210.3864    242.2152   1.0561574939e+02  -5.9253360347e+00    0.5801618    0.3653569 -44.35  0.003391297    2.057    0.514
        28 -11.1851    226.4725    143.6033   8.3801220786e+01   7.1739848984e+00    0.5131704    0.2668716  53.32  0.001712988    2.299    0.565
        29 -12.8405     55.6200    154.5906   1.2751338395e+02   3.7323050803e+01    0.9806604    0.8881223  62.27  0.004406542    1.111    0.100
        30  -9.4425      2.7115    236.9917   1.4636032107e+02   2.4612135153e+01    0.1526767    0.1069247  76.70 0.0005444177    1.092    0.085
        31 -10.2690    139.3139     92.8960   8.9308009308e+01   3.6537035406e+01    0.3519017    0.3113107 -86.26   0.00123229    1.254    0.203
        32 -11.5262    133.9077     98.3639   9.2272099870e+01   3.6676156168e+01    0.5711843    0.4814757 -52.85  0.001561302    1.220    0.181
        33 -13.0559    135.2673    125.3124   9.9105676429e+01   3.0473362685e+01     1.590578    0.5886108 -55.20  0.004556322    3.663    0.727
        34 -11.8635    134.7262    109.6559   9.5181279591e+01   3.4075410001e+01     1.328789    0.2254699 -45.97  0.002875028    6.083    0.836
        35 -10.9443    129.0662    115.5343   9.8257854473e+01   3.4034692920e+01    0.5020656    0.2815782 -56.64  0.001096792    2.050    0.512
        36 -12.2720    201.4858    222.4479   1.0407487641e+02  -1.7107413521e+00    0.5347341    0.2686549 -49.71  0.002458216    2.762    0.638
        37 -11.3349    158.5843    115.1288   9.0692923381e+01   2.7410040027e+01    0.4445263    0.3378277 -55.34 0.0006050073    1.389    0.280
        38  -9.5226    227.7894    120.4355   7.8420802412e+01   1.0975371939e+01    0.3241541    0.1822119 -45.47   0.00119769    1.673    0.402
        39  -9.8646    150.9978    221.8857   1.1437791889e+02   6.8245740947e+00    0.1954708    0.1893244  28.21 0.0003696285    1.129    0.114
        40 -10.5142     92.4280    120.0460   1.1001927573e+02   4.0323659406e+01    0.4121663    0.2332305 -78.27  0.001283044    3.308    0.698
        41  -9.0565    250.5197    116.9690   7.4226386472e+01   7.1572780409e+00    0.2013353    0.1147198 -38.84   0.00035784    1.504    0.335
        42 -11.6492    224.2429    177.0997   9.1244817204e+01   1.8188160964e+00     1.139511    0.7131068   1.26  0.005245931    2.216    0.549
        43 -10.8736     97.6056    112.6888   1.0661914753e+02   4.1133032927e+01    0.5378535    0.2716076 -63.78   0.00185238    2.674    0.626
        44 -12.1905    227.5407    187.5004   9.2702277040e+01  -4.3958933955e-01     1.390402    0.7583753 -16.74  0.006158101    2.401    0.584
        45 -12.6699    213.5699    187.6268   9.5342449021e+01   1.8995414417e+00    0.9611596    0.6004843  46.06  0.002711936    1.756    0.431
        46 -10.4392    223.1495    101.8950   7.4886678010e+01   1.5156802874e+01    0.2653967     0.212945 -42.55 0.0003767244    1.138    0.122
        47 -12.4389    159.3320    129.4426   9.4136174378e+01   2.4203694114e+01    0.7426553    0.5042338  28.12  0.003139853    1.789    0.441
        48 -10.2016     97.0341    130.8299   1.1112567586e+02   3.6875726414e+01     0.273919    0.2510132 -32.36 0.0005802523    1.173    0.148
        49 -12.4161      4.5219    187.9026   1.4351429739e+02   3.4698741001e+01    0.6851227    0.4083745  89.80  0.004185068    1.362    0.266
        50 -10.3338    146.2381    102.7676   9.0357099877e+01   3.2882547041e+01    0.3371627    0.2499636  37.50 0.0007683055    1.427    0.299
        51  -8.9010     35.8409    101.8199   1.2474469509e+02   5.2632377572e+01     0.178468    0.1498938  84.27 0.0004521234    1.318    0.241
        52  -9.2200    100.1380    163.1174   1.1675230411e+02   2.8445677783e+01    0.2076914    0.2006429 -15.49 0.0002843316    1.188    0.158
        53 -10.4966    154.9119     97.8330   8.6909491522e+01   3.1821113045e+01    0.5026549    0.2888458  39.62   0.00154576    1.924    0.480
        54  -8.4551    248.9755    137.1652   7.8759318402e+01   4.1318223020e+00    0.1600422   0.09901622  48.10 0.0008000649    1.858    0.462
        55 -10.7059    170.1147     89.5868   8.1283950463e+01   2.9712707921e+01    0.5298665    0.4067139  44.34  0.002057923    1.355    0.262
        56  -9.4841    162.7473     91.6810   8.3431464246e+01   3.1121166970e+01    0.2555675    0.2114902 -51.29 0.0005429807    1.221    0.181
        57 -13.4416     68.2707    144.6297   1.2233399763e+02   3.8103141344e+01     1.429862     1.280225  42.18  0.004270528    1.180    0.153
        58 -11.2283    152.9047     88.4606   8.4737308476e+01   3.4140884363e+01    0.3422551    0.2731086 -39.01 0.0005218015    1.281    0.219
        59 -10.3010    176.3326     85.6339   7.8950049755e+01   2.8910965135e+01     0.249488    0.2485579 -28.90  0.000300307    1.082    0.076
        60  -9.4684    130.5789     85.3494   8.9349487185e+01   4.0097269051e+01     0.313321    0.1311149 -53.08 0.0009623375    3.294    0.696
        61 -11.1049    176.9916     77.6441   7.6639789243e+01   3.0159274157e+01    0.7808438    0.7102842 -70.10  0.001700347    1.080    0.074
        62 -11.1778    189.2349     78.5574   7.4663313789e+01   2.6989155632e+01    0.4417235    0.2986007  58.81  0.001768261    1.478    0.323
        63  -9.2685    128.3562     80.6943   8.8525469586e+01   4.1524302902e+01    0.3015295    0.1942778 -14.75  0.000976316    2.370    0.578
        64  -8.6418     30.2254     80.0081   1.2209748734e+02   5.8256562046e+01    0.1751657   0.09420313 -58.78 0.0004859362    1.616    0.381
        65 -11.5090    184.7638     80.4527   7.5961746150e+01   2.7756974262e+01    0.4420081    0.3985271  -3.42  0.001003832    1.324    0.245
        66 -10.5756    108.7658     75.1731   9.2321436018e+01   4.7014157648e+01    0.4000363    0.2531476 -38.28  0.001538756    1.615    0.381
        67 -10.3018     79.5130     75.8979   1.0210924066e+02   5.2628990560e+01    0.2553658    0.2270422  84.86 0.0009429268    1.432    0.302
        68 -10.0744    122.1674     74.6397   8.8307468075e+01   4.4112738545e+01    0.2641571     0.236336 -11.38 0.0002688103    1.206    0.171
        69  -9.3507    115.8950     73.1015   8.9569149025e+01   4.5832226823e+01    0.2194969    0.2027061 -78.04 0.0003396367    1.218    0.179
        70 -12.7188    152.6765    125.4384   9.4736826784e+01   2.6567885124e+01    0.7697287    0.5356024 -35.13  0.003382501    1.539    0.350
        71 -10.3569    128.8342     51.0617   7.8853838547e+01   4.6524411332e+01    0.2418334    0.2103936  48.51 -0.0009232552    1.077    0.072
        72  -9.2513    162.8080     46.0843   7.0228300881e+01   3.8706845406e+01    0.2222879    0.1857347 -74.89 0.0004796066    1.229    0.187
        73  -9.9164    162.8793     33.5152   6.6493119998e+01   4.0345741407e+01    0.3827001    0.2109679 -24.93  0.001121746    2.144    0.534
        74 -11.3388      4.0681    169.6996   1.4241954333e+02   3.8878809799e+01    0.4353133    0.2026692  43.93  0.002344686    2.043    0.511
        75  -9.1624    170.9411     32.8635   6.5053106728e+01   3.8372240323e+01    0.4887879    0.1520636 -33.25  0.001753412    3.171    0.685
        76  -9.4490     57.4934     31.0018   9.3854008015e+01   6.4336818033e+01    0.1875563    0.1184497 -32.42 0.0004775917    1.555    0.357
        77 -10.2501    112.7873     29.1887   7.5065917957e+01   5.3343993557e+01    0.2033287    0.1863807  74.57 0.0006776689    1.176    0.149
        78  -9.7898    171.2115     24.7285   6.2701432907e+01   3.9269566905e+01     0.391998    0.2712819  58.74 0.0005110961    1.354    0.262
        79  -9.8883    182.1290     25.1211   6.1360566111e+01   3.6471804188e+01    0.4514271    0.2640798 -66.46  0.002131698    1.887    0.470
        80  -9.5483    177.5497     25.7668   6.2131054455e+01   3.7548010662e+01    0.2512251    0.2075913 -75.02 0.0002412212    1.145    0.127
        81 -13.4340     20.5358    174.0430   1.3884440922e+02   3.6449905184e+01    0.8747615     0.720943  83.08  0.003897627    1.028    0.027
        82  -9.7397    219.2753    169.9287   9.0701307794e+01   3.9130117092e+00    0.3495227     0.198091  54.95  0.001517391    2.410    0.585
        83  -9.7248     42.5807    247.1809   1.3960247107e+02   1.8316450550e+01    0.1440918   0.09781124 -69.77 0.0005124115    1.655    0.396
        84  -9.2210     78.6503     19.1409   8.0721029003e+01   6.2009744746e+01    0.1784259    0.1154964  -9.35 0.0005905547    1.712    0.416
        85  -8.7762    207.3359     12.4591   5.5438391721e+01   3.1726532361e+01    0.1695783     0.106454 -87.57 0.0005486748    1.445    0.308
        86 -12.0688     62.1266    150.3574   1.2504661751e+02   3.7523937662e+01    0.6636533    0.4446131  83.58  0.001464732    1.693    0.409
        87 -10.9314    144.2828     19.6691   6.5298939983e+01   4.6656078851e+01    0.3237844    0.2521051 -30.67  0.001736186    1.444    0.308
        88 -11.7400    238.7070    244.6420   1.0086743941e+02  -1.0160060069e+01    0.2121005    0.1716523   3.80 0.0005228014    1.144    0.126
        89  -9.2545    147.3225    158.1018   1.0363347792e+02   2.0520822877e+01    0.2145085     0.195376 -56.93 0.0007084882    1.145    0.126
        90 -10.5135    213.1992    155.4618   8.8783474696e+01   7.6052719476e+00    0.2540155    0.2535599  72.76 0.0003131047    1.161    0.138
        91  -9.6364    233.3670    152.6848   8.4568649266e+01   4.3287056778e+00    0.2500202    0.2159401 -50.28 0.0007643577    1.289    0.224
        92 -10.2514    133.9351    147.0084   1.0457094690e+02   2.5791626885e+01     0.579044    0.2143856 -55.70  0.001756062    3.338    0.700
        93 -11.2279    132.4699    137.7241   1.0283845992e+02   2.8236834809e+01    0.6911096    0.2475602 -51.71  0.002162792    2.992    0.666
        94 -11.6156     47.9801    159.0359   1.3021810017e+02   3.7163909261e+01    0.3755349    0.3343067 -52.65 0.0008857443    1.256    0.204
