#   1 NUMBER                 Running object number                                     
#   2 MAG_AUTO               Kron-like elliptical aperture magnitude                    [mag]
#   3 X_IMAGE                Object position along x                                    [pixel]
#   4 Y_IMAGE                Object position along y                                    [pixel]
#   5 X_WORLD                Barycenter position along world x axis                     [deg]
#   6 Y_WORLD                Barycenter position along world y axis                     [deg]
#   7 A_WORLD                Profile RMS along major axis (world units)                 [deg]
#   8 B_WORLD                Profile RMS along minor axis (world units)                 [deg]
#   9 THETA_WORLD            Position angle (CCW/world-x)                               [deg]
#  10 FWHM_WORLD             FWHM assuming a gaussian core                              [deg]
#  11 ELONGATION             A_IMAGE/B_IMAGE                                           
#  12 ELLIPTICITY            1 - B_IMAGE/A_IMAGE                                       
         1 -12.2792    198.2831     43.6851   4.0489843569e+01   3.0561953495e+01    0.7976872     0.767944 -70.26  0.003657337    1.158    0.136
         2 -12.0795    207.4255     35.1790   3.7380287730e+01   2.9601713721e+01     0.598605    0.5797501 -40.25  0.001369686    1.270    0.212
         3 -11.5018     32.7472     24.3995   7.7858268692e+01   6.8162249837e+01    0.7030166    0.1222322 -41.00  0.002218494    5.451    0.817
         4 -12.2987     32.6218      4.6664   6.8205242569e+01   7.0755120890e+01    0.8087003     0.445462 -14.45  0.004662128    1.802    0.445
         5  -9.2621     58.3065      7.6591   5.8610377138e+01   6.6276689943e+01    0.1061249   0.09881571 -66.35 0.0005269172    1.684    0.406
         6 -12.0530    232.7878      8.6371   2.9402347085e+01   2.7265019724e+01    0.7852487    0.6103676 -68.77  0.004819178    1.032    0.031
         7  -9.2679    191.8350    191.9956   7.6305216008e+01   4.8964183904e+00    0.2172277    0.1686619 -69.18 0.0007823058    2.011    0.503
         8 -10.4316    106.0855    249.9442   1.0427820390e+02   7.5603945356e+00     0.335526     0.161255  37.79  0.001661396    1.723    0.420
         9 -10.7890     73.4227    239.0348   1.1004762446e+02   1.4226461795e+01     1.332323    0.3462743 -70.97    0.0040975    6.004    0.833
        10  -9.6607     72.0000    248.5304   1.1123084282e+02   1.2534229366e+01    0.3156211    0.1681138 -75.07  0.001059209    2.146    0.534
        11  -9.9519     72.3038    244.6856   1.1081716311e+02   1.3246213551e+01    0.4259084    0.1751528  54.63  0.001688175    2.519    0.603
        12 -17.0611      8.4643    243.5288   1.2328301165e+02   2.0792909243e+01     14.95963     4.076928 -77.96   0.01864429    3.365    0.703
        13 -11.5746     57.1682    184.0381   1.0780267147e+02   2.8775354704e+01    0.6737698    0.6217735  88.42  0.002625176    1.043    0.041
        14  -9.2635     99.3168    181.0493   9.6394220960e+01   2.3436628462e+01    0.2062748    0.1881689 -69.65 0.0005984103    1.103    0.094
        15 -15.4502      5.8583    208.0223   1.2189961448e+02   2.8495928602e+01     4.575408     1.878775 -69.18    0.0233467    2.143    0.533
        16  -9.0243     49.1050    180.3061   1.0941515036e+02   3.0676040843e+01    0.1876437    0.1657315  66.14 0.0005360147    1.087    0.080
        17  -9.7805     43.2715    178.1898   1.1066685463e+02   3.1868969871e+01    0.4325985    0.2525902 -25.52   0.00149211    3.006    0.667
        18 -10.3600    110.6630    204.1374   9.7226424853e+01   1.6223161225e+01    0.3299237     0.215289  21.02  0.001539447    1.772    0.436
        19 -10.4193     70.2534    170.7705   1.0251427142e+02   3.0367896111e+01    0.5571449    0.3305002 -30.47  0.001953468    2.531    0.605
        20 -10.4739     74.8130    165.9469   1.0050275362e+02   3.0948394851e+01    0.3439993    0.3080678 -70.99  0.001105516    1.064    0.060
        21  -9.4659    122.9504    199.8450   9.3563803518e+01   1.5160457874e+01     0.273241    0.1918094  86.96  0.001226867    2.123    0.529
        22 -10.3005    119.9032    212.1646   9.6238821795e+01   1.2984477121e+01    0.2256802    0.1852563  59.71  0.001239754    1.294    0.227
        23 -10.6625     82.1022    158.0344   9.7098906927e+01   3.1887273704e+01    0.6671443    0.3917981  33.48  0.000859136    1.759    0.432
        24 -11.8218     71.3424    152.7021   9.9253587430e+01   3.4831290373e+01    0.5085157    0.3921171 -50.99 0.0008533226    1.257    0.204
        25  -9.0608     75.7778    210.1941   1.0642114566e+02   2.0098436954e+01    0.3420036    0.2006688  71.71  0.001409905    2.122    0.529
        26 -11.6058     70.2861    144.7349   9.8128110579e+01   3.7033446081e+01    0.7348518    0.5058532  67.74  0.002271672    1.824    0.452
        27 -10.5803     90.1143    151.3378   9.3538644512e+01   3.2335043944e+01    0.6963526    0.4460458 -14.05  0.002676789    2.611    0.617
        28 -10.9251     28.1080    149.7440   1.1136177129e+02   4.0591268015e+01    0.3580443     0.248455 -72.33  0.001431651    1.243    0.195
        29 -10.1099    134.1525    146.2899   8.0189551034e+01   2.5553678279e+01    0.8462205    0.1980919 -53.27  0.001856816    6.008    0.834
        30  -9.1232     38.4849    146.2198   1.0788314591e+02   4.0498834601e+01     0.278141    0.1962215  53.40 0.0006795596    1.539    0.350
        31  -9.3921     41.3602    207.5999   1.1413255904e+02   2.5042946162e+01    0.3638355    0.1988453  89.97  0.001448332    1.895    0.472
        32 -10.6863     29.1195    138.8884   1.0963696782e+02   4.3275307651e+01    0.3703989    0.3132221  77.27 0.0004747457    1.214    0.176
        33  -9.6409    103.3825    137.6971   8.6785852584e+01   3.3501614556e+01     0.484182    0.2576974 -27.48  0.001557956    3.247    0.692
        34  -9.5874    105.8490    131.0373   8.4517828149e+01   3.4696015416e+01     0.411798    0.2991083 -55.14  0.001268953    1.376    0.273
        35 -10.4011     90.8565    137.1565   9.0387085566e+01   3.5809732083e+01    0.2939784    0.2563638 -27.67 0.0003718828    1.208    0.172
        36 -10.9641     58.3155    131.6734   9.9370632489e+01   4.2001450743e+01    0.6853741    0.3277548 -75.68  0.002436102    2.883    0.653
        37 -10.2810    112.7545    128.6322   8.1920631586e+01   3.3977510826e+01    0.3604821     0.268084   3.66 0.0009935211    1.771    0.435
        38  -8.6359     64.5063    205.0301   1.0848818976e+02   2.2806112482e+01    0.1981223     0.126716 -74.62  0.001017047    1.566    0.362
        39  -9.2796     99.4527    124.6751   8.4904198244e+01   3.7425557039e+01    0.3060614    0.2489078  -7.11 0.0005147821    1.444    0.307
        40  -8.0332    108.2796    118.0205   8.0573417838e+01   3.7380703468e+01    0.1945798    0.1368722 -47.03 0.0003591494    1.383    0.277
        41  -8.5991    231.2484    113.7643   5.2167134754e+01   1.2373934547e+01    0.1804853    0.1536705 -12.04 0.0008237364    1.328    0.247
        42 -10.3745    114.9857    108.4173   7.6036436848e+01   3.8279101333e+01    0.3761175     0.216478 -46.27  0.001525128    1.709    0.415
        43 -11.1275     32.7293    100.7775   1.0194744342e+02   5.2568648193e+01    0.7132505    0.1506171 -62.54  0.002128941    4.091    0.756
        44 -10.0849     48.7066    107.1315   9.7552156887e+01   4.9367862920e+01    0.2387639    0.1934109  40.15 0.0007911194    1.397    0.284
        45  -8.7011     59.2838    197.1029   1.0883847374e+02   2.5343817922e+01    0.1893279    0.1742101 -67.92  0.001162908    1.165    0.141
        46 -11.2564    127.3319    217.2586   9.5277169675e+01   1.0720260788e+01    0.4854918    0.2335545  29.10  0.002026695    2.134    0.531
        47 -11.4929    186.6242     52.2912   4.4252090083e+01   3.2073538843e+01     0.435111    0.3391005  68.12  0.001131489    1.242    0.195
        48 -11.4052    135.6391    214.9902   9.3007396022e+01   9.8357149350e+00     0.658818    0.4007927  -1.28  0.002578268    3.028    0.670
        49 -11.3551    115.9464    248.2317   1.0199408614e+02   6.4435902548e+00    0.4643325    0.3151025  53.13  0.002650971    1.469    0.319
        50  -9.0969     83.5152    245.4952   1.0855348560e+02   1.1579377528e+01    0.1263436    0.1054526  52.30 -9.458926e-08    1.005    0.005
        51 -10.0400     78.9054    237.0206   1.0867633591e+02   1.3894948684e+01    0.3763428     0.212625 -60.63  0.001220462    1.929    0.481
        52 -10.2875     94.3972    237.1231   1.0533292055e+02   1.1704304912e+01    0.2966264    0.1295598 -66.58  0.001296975    2.772    0.639
        53 -12.4836    134.4131    231.8391   9.5824870126e+01   6.7108983324e+00    0.6162786    0.4641651 -33.87  0.003487349    1.525    0.344
