#   1 NUMBER                 Running object number                                     
#   2 MAG_AUTO               Kron-like elliptical aperture magnitude                    [mag]
#   3 X_IMAGE                Object position along x                                    [pixel]
#   4 Y_IMAGE                Object position along y                                    [pixel]
#   5 X_WORLD                Barycenter position along world x axis                     [deg]
#   6 Y_WORLD                Barycenter position along world y axis                     [deg]
#   7 A_WORLD                Profile RMS along major axis (world units)                 [deg]
#   8 B_WORLD                Profile RMS along minor axis (world units)                 [deg]
#   9 THETA_WORLD            Position angle (CCW/world-x)                               [deg]
#  10 FWHM_WORLD             FWHM assuming a gaussian core                              [deg]
#  11 ELONGATION             A_IMAGE/B_IMAGE                                           
#  12 ELLIPTICITY            1 - B_IMAGE/A_IMAGE                                       
         1 -12.1211     76.6145     24.4139   9.3820037195e+01   6.1225039805e+01    0.4632988    0.3285007 -39.06    0.0011564    1.527    0.345
         2 -10.6047     12.7346     16.0253   1.1722868368e+02   7.0889714437e+01    0.3175516    0.1989248  31.24  0.002081252    1.997    0.499
         3 -10.5990     26.7234     16.4127   1.1048408797e+02   6.9546779805e+01    0.2562639    0.2133168 -28.40  0.001517505    1.201    0.167
         4 -11.0170     41.3863     18.7824   1.0486572337e+02   6.7484443397e+01    0.3502519    0.2890215  -2.77  0.002421455    1.094    0.086
         5 -10.2246     45.6868     16.6279   1.0201203707e+02   6.7232956093e+01    0.3227759    0.1653415 -10.41 0.0007272182    2.985    0.665
         6 -10.0103    109.6298     12.7884   7.9395635611e+01   5.5835636519e+01    0.2519748    0.1756279 -14.86  0.001353198    1.488    0.328
         7 -11.3186     90.2640     15.8871   8.5806852107e+01   5.9671308345e+01    0.3230236    0.2206561 -18.84 0.0004651136    1.444    0.307
         8  -9.9211     88.0055      8.3150   8.3105760159e+01   6.0950710583e+01    0.3886554    0.1785414  -8.34  0.001375928    2.888    0.654
         9 -10.8941     41.7741      6.6153   9.8766394587e+01   6.9128796073e+01    0.4707874    0.1795993  28.27  0.002021816    3.314    0.698
        10 -11.5448     30.0813      7.2135   1.0443570850e+02   7.0541288075e+01    0.3226035    0.2647854  -3.15  0.001472546    1.135    0.119
        11 -11.4867     39.6733     10.5140   1.0166627864e+02   6.8895020866e+01    0.2774352    0.2005744 -34.72 0.0001964907    1.404    0.288
        12 -10.5635    155.9970     13.9441   7.0792562385e+01   4.4437990452e+01    0.2780002    0.2117154  33.48  0.001004263    1.395    0.283
        13 -10.8693    212.0842     11.9341   6.3142234227e+01   3.0366380005e+01    0.3168525    0.2170184 -68.91 0.0008677138    1.446    0.308
        14 -10.3720    210.3832      7.7771   6.2222857931e+01   3.1216622719e+01    0.2504999    0.1441402 -41.44  0.001256038    1.657    0.397
        15 -11.5319     68.3699     11.8574   9.0951661620e+01   6.4301994077e+01    0.8103213    0.5087975  71.76  0.003530487    3.724    0.731
        16  -9.9648     76.6585      8.0693   8.6400759696e+01   6.3211912600e+01    0.2628374    0.1838712  -0.90  0.000760728    1.387    0.279
        17 -11.3444     71.0191      7.0463   8.7748365457e+01   6.4371555424e+01    0.3515387    0.2387294  32.40 0.0004712146    1.337    0.252
        18 -10.8719     66.0225      6.5043   8.9190383023e+01   6.5326197658e+01    0.3068801    0.2343723   9.54   0.00182624    1.146    0.127
        19 -10.0032    119.0246     11.9795   7.6939626011e+01   5.3750913278e+01    0.2016007    0.1841729  41.57  0.000324618    1.038    0.036
        20 -11.4194     92.7710      8.0732   8.1676581229e+01   5.9988811731e+01    0.5596605    0.2352476 -31.42  0.000695827    2.416    0.586
        21 -10.9922     22.2318      9.3279   1.0934891540e+02   7.1094387012e+01    0.3058717    0.1883989  -8.56   0.00147559    1.630    0.387
        22 -10.2205      9.9819      1.4907   1.1189248188e+02   7.3401000728e+01    0.2279764    0.1399798  -3.46  0.001050001    1.600    0.375
        23  -9.9899      7.7749      4.6285   1.1468624870e+02   7.3110831446e+01    0.1869664    0.1492219   1.77  0.001450704    1.297    0.229
        24 -11.6916      3.8781      8.7121   1.1872998504e+02   7.2750761179e+01    0.3332107    0.3081016  75.19  0.001475942    1.873    0.466
        25 -10.5071      1.8899      2.9062   1.1716927816e+02   7.3814805210e+01    0.1691275    0.1127324 -25.26 0.0007623152    1.140    0.123
        26 -10.0645     15.5487      8.4519   1.1235117848e+02   7.1866553507e+01    0.2281623    0.1401593 -18.55 0.0007919634    1.448    0.309
        27 -10.5543     11.9976      7.4578   1.1375256691e+02   7.2329358236e+01    0.3382972    0.2103595 -38.00  0.002138302    1.298    0.230
        28 -11.8182    151.0581      7.6892   6.9474282487e+01   4.6295415133e+01    0.3762887      0.32893  29.19  0.002220654    1.190    0.160
        29 -11.6271     56.9085      4.2201   9.1361456977e+01   6.7127455685e+01    0.6718407    0.3288441  47.60  0.003486037    2.172    0.539
        30 -10.6444    218.5697      7.1431   6.1298389755e+01   2.9276389675e+01    0.2203283    0.1434412  70.53 0.0004952061    1.450    0.310
        31 -10.4878    120.7346      4.3374   7.3601366506e+01   5.4057006277e+01    0.2342279    0.2008769  45.50 0.0003964081    1.037    0.035
        32 -11.3416    130.2600      3.7020   7.1550245567e+01   5.1821960612e+01    0.2823395    0.2621589  55.94  0.001210911    1.058    0.054
        33 -10.3276    175.5685      3.4524   6.4759923124e+01   4.0423710640e+01    0.3098674    0.1685712  30.32  0.001336827    2.502    0.600
        34 -10.1320     55.1823      7.8110   9.3838996200e+01   6.6991155419e+01    0.2407347    0.1636777  13.90  0.000386099    1.399    0.285
        35 -10.1862    199.1634      3.1532   6.2089906782e+01   3.4463917313e+01    0.1912736    0.1428396 -67.85 0.0005943023    1.298    0.230
        36 -10.3855    146.9439      2.7373   6.8425062184e+01   4.7770171849e+01    0.2156465    0.1617431  48.23 0.0004725737    1.236    0.191
        37 -11.7714     80.2934      1.8069   8.2336331208e+01   6.3131453532e+01    0.4242445      0.16768  48.11  0.001448935    2.195    0.544
        38 -10.5725     38.9349      2.1506   9.7675903208e+01   7.0075377944e+01    0.2664146    0.1722549   7.37  0.001655025    1.488    0.328
        39 -10.9821     18.9075      2.6815   1.0769217611e+02   7.2395013014e+01     0.333481    0.1781836  13.03  0.001957949    2.093    0.522
        40 -10.2558    117.7200      5.2799   7.4583523655e+01   5.4685590667e+01    0.1960368    0.1869354  -6.82 0.0001766371    1.140    0.123
        41 -11.6036     35.0096     13.1435   1.0506304089e+02   6.9111319572e+01    0.4130127    0.2493705 -42.08  0.001604162    1.700    0.412
        42  -9.5693    157.9772      1.0000   6.6249128447e+01   4.5126270596e+01     0.226224   0.07050881  69.30 0.0003776023    2.885    0.653
        43  -8.8845    236.3054    139.3375   9.1813683270e+01   6.1938828315e+00    0.1442839    0.1019571   5.10 0.0005508991    1.674    0.403
        44 -12.6987     11.0853    245.8229   1.5028307596e+02   2.3839347186e+01    0.3940834    0.2201653  56.24  0.003007318    1.302    0.232
        45 -11.2066      1.9015    248.9023   1.5177869475e+02   2.4224292894e+01    0.3527614    0.2245685 -86.96   0.00292372    1.412    0.292
        46 -10.5710      6.6046    249.2090   1.5109395096e+02   2.3719480428e+01    0.2124305    0.1077371  84.45 0.0008383673    1.572    0.364
        47 -10.8290     12.9995    130.7690   1.4220594837e+02   4.6698736350e+01    0.3640582     0.175476  63.35  0.001234439    2.357    0.576
        48  -9.8641     29.1642    128.8993   1.3786172917e+02   4.5762887932e+01    0.2504516    0.1466598  84.12  0.001151399    1.800    0.444
        49  -9.6199     21.1688    126.1603   1.3959930698e+02   4.7089687646e+01    0.1699269    0.1311779 -79.82 0.0004792279    1.034    0.033
        50 -11.6161     23.3834    121.1478   1.3838152509e+02   4.8048707717e+01    0.5432214    0.2647176  81.77 0.0008501324    2.686    0.628
        51  -9.2141     75.4288    120.1788   1.2386486273e+02   4.2338293543e+01    0.1853455    0.1242086 -71.72 0.0003143734    1.520    0.342
        52 -10.3963      3.1972    119.0843   1.4347812295e+02   5.0007973904e+01    0.1762119    0.1286061 -65.10  0.000642089    1.199    0.166
        53 -10.2160     34.4916    114.6853   1.3439541656e+02   4.8539123369e+01    0.1972243    0.1176348  28.34  0.001083765    2.023    0.506
        54 -10.7213      3.6210    114.0029   1.4282175150e+02   5.1117620414e+01    0.2582874    0.1368447 -11.59  0.001310908    3.484    0.713
        55 -10.0727    249.1665    111.8260   8.3482066174e+01   7.9109496612e+00    0.1928055    0.1572399   1.52  0.001075077    1.324    0.245
        56  -9.8135     66.2257    110.9852   1.2459994309e+02   4.5762555320e+01    0.1882351    0.1018117 -59.37 0.0006424636    1.651    0.394
        57 -10.5979     12.3724    108.6549   1.3977383630e+02   5.1742659426e+01    0.1879579    0.1207392  76.34   0.00107371    1.656    0.396
        58 -11.6454      5.0840    108.7340   1.4181983058e+02   5.2206955755e+01    0.2752376     0.213263  -0.82  0.001830825    1.801    0.445
        59 -10.7195     58.6555    107.4975   1.2610030820e+02   4.7553354556e+01    0.2704325    0.1772021 -39.01   0.00115716    1.685    0.407
        60  -9.6634    113.6658    102.6702   1.0913777798e+02   3.9754773754e+01    0.1534972     0.119299  -7.31 0.0004746921    1.725    0.420
        61  -9.9522     66.8411    102.1513   1.2251335791e+02   4.7716076978e+01    0.2580143    0.1487492 -64.61 0.0008403884    1.715    0.417
        62 -10.3752     62.8185     99.6004   1.2315901086e+02   4.8838144187e+01    0.1859345      0.12144  48.86 0.0009484191    1.761    0.432
        63 -10.3036     36.7642     96.3721   1.3054343130e+02   5.2535444805e+01    0.4166543     0.207674  33.95  0.002116078    2.293    0.564
        64 -11.5741     18.5638     93.9941   1.3578685936e+02   5.4618083479e+01    0.4297798    0.2400147 -45.40  0.001803455    1.725    0.420
        65 -10.5767     78.8259     94.8166   1.1712635855e+02   4.7637288136e+01     0.210174    0.1786652 -32.72 0.0003939985    1.212    0.175
        66  -9.8622      3.3549     95.2483   1.4061202422e+02   5.5327424436e+01    0.1674344   0.08853061 -80.41 0.0004877578    1.642    0.391
        67 -10.8802     84.3497     93.6780   1.1516037496e+02   4.7016080901e+01    0.3128146    0.2523672   2.27  0.001653452    1.555    0.357
        68 -11.2688     27.3644     90.6930   1.3243305456e+02   5.4671707460e+01    0.4742198    0.2768045  55.54  0.002385936    2.241    0.554
        69  -9.8682     25.4642     84.9286   1.3194603179e+02   5.6124108041e+01    0.2298372    0.1558063 -58.80 0.0007958569    1.179    0.152
        70  -9.0124     38.3186     92.2759   1.2924334089e+02   5.3316818467e+01    0.1263021   0.08556147 -37.04 0.0002070469    1.572    0.364
        71 -11.5058     11.2181     88.1213   1.3713486912e+02   5.6441549044e+01    0.5683948    0.2108294 -67.44  0.002728575    2.074    0.518
        72  -9.7014     15.9931     89.4826   1.3584273056e+02   5.5817372219e+01    0.1885512    0.1230605   7.91  0.001093212    2.069    0.517
        73 -10.4260     76.5019     89.1499   1.1637251653e+02   4.9252619900e+01    0.2375568    0.2299942  46.82 0.0005720257    1.138    0.121
        74 -10.0059     44.1155     89.6234   1.2682133277e+02   5.3325771913e+01    0.2579818    0.1416353  42.63  0.001304296    2.140    0.533
        75 -10.3541      1.7382     89.6873   1.4033930389e+02   5.6652610603e+01    0.2110953    0.1188731 -69.66 0.0002284991    1.343    0.255
        76 -11.0719    104.8524     88.2041   1.0760586585e+02   4.4568554140e+01    0.4294571    0.2429446  61.29  0.001324354    2.637    0.621
        77  -9.7383    124.0991     86.8957   1.0190768736e+02   4.0922342848e+01    0.2302521    0.2087236 -79.28 0.0007013227    1.233    0.189
        78  -9.7289     19.1322     86.8728   1.3438205503e+02   5.6177418255e+01      0.18277    0.1417106 -78.58 0.0007991811    1.206    0.171
        79  -9.2771    113.8277     86.3818   1.0454295702e+02   4.3174742717e+01    0.1941328    0.1396689  30.22 0.0002938065    1.573    0.364
        80 -10.7793     54.6275     84.2312   1.2212611852e+02   5.3338923172e+01    0.2902943    0.2057779 -59.14 0.0008045213    1.271    0.213
        81  -9.0412    250.6914     87.6972   7.7596289074e+01   1.1256121105e+01    0.1345506    0.1046561  10.20 0.0002315069    1.604    0.377
        82  -9.0666     78.4343     83.4287   1.1421082584e+02   5.0203162848e+01    0.1383419    0.1271665 -50.65 7.404048e-05    1.048    0.046
        83 -10.3878      3.8878     82.6537   1.3861660876e+02   5.8089310467e+01    0.2326105    0.1395163 -73.17  0.000776733    1.351    0.260
        84 -11.7543     63.9472     80.6646   1.1812671333e+02   5.2923681908e+01    0.4805095    0.3613427 -57.43  0.002385916    1.249    0.199
        85 -10.0186    250.3704     80.7903   7.5996521562e+01   1.2348840334e+01    0.1956992    0.1226088 -23.46 0.0007062734    1.647    0.393
        86 -10.1619     89.3945     80.4613   1.0993879168e+02   4.9024498410e+01    0.2752023    0.1672474 -50.39 0.0006569763    1.582    0.368
        87  -9.8179     65.8366     75.1579   1.1596534991e+02   5.3847580745e+01    0.1888976    0.1752864 -58.49            0    1.127    0.113
        88  -8.7940    124.4307     79.4270   9.9570496054e+01   4.2333954256e+01    0.1492171    0.1437722 -64.80 0.0002075808    1.092    0.084
        89  -9.5286     24.2337     78.6118   1.3108424093e+02   5.7626744031e+01    0.1512481    0.1128723  -9.39  0.000944371    1.667    0.400
        90  -9.9878    176.6576     77.0945   8.6839857094e+01   3.0353359075e+01    0.3082411    0.2258682  48.27  0.001444304    1.377    0.274
        91  -9.6823     74.9707     75.6679   1.1309246780e+02   5.2395706525e+01    0.1770237    0.1689788   6.49 0.0002029495    1.120    0.107
        92 -10.9960     55.5954     75.5905   1.1955471238e+02   5.5110843465e+01     0.294359    0.2513315  -7.06 0.0005185209    1.304    0.233
        93 -10.5681     15.7096     76.0041   1.3348702253e+02   5.8828119944e+01    0.1732299    0.1313843 -61.13 0.0006898554    1.043    0.041
        94  -9.2083     70.3035     75.3296   1.1452715321e+02   5.3169503702e+01    0.1411898   0.09950371 -22.77 0.0003844571    1.651    0.394
        95 -10.7199     32.1488     72.9288   1.2705689767e+02   5.8202875293e+01    0.1990022    0.1840819  25.51  0.000242783    1.301    0.231
        96 -10.9408     35.7573     72.2684   1.2561563069e+02   5.8010920333e+01    0.4779719    0.2862747 -61.24   0.00175568    1.476    0.322
        97  -9.2918    224.4104     74.4344   7.7985930576e+01   1.9120697786e+01    0.1436449    0.1321332 -48.27  0.000100592    1.023    0.023
        98 -10.1346    150.9902     74.7691   9.1589543881e+01   3.7076579787e+01    0.2017494    0.1274621  52.59 0.0003479169    1.584    0.369
        99  -9.9021    136.6515     74.1134   9.4790668123e+01   4.0591757199e+01    0.2143992    0.1886894 -28.77 0.0004968243    1.137    0.121
       100  -9.5832     48.9821     74.1975   1.2145996680e+02   5.6202966886e+01    0.1589788     0.103653  28.92 0.0006731806    1.771    0.435
       101 -11.0132      4.0028     73.8040   1.3711272478e+02   6.0019532751e+01    0.3356424    0.1905803  21.30  0.001425775    2.225    0.550
       102  -9.8087    216.9186     72.4629   7.8585428196e+01   2.1198605684e+01    0.2294527    0.1843886 -34.19 0.0005251447    1.195    0.163
       103  -9.1028     95.6998     73.3020   1.0582375799e+02   4.9362542407e+01    0.1387583    0.1150151 -82.41 0.0003825686    1.586    0.369
       104 -10.2849    105.9390     71.3871   1.0217081624e+02   4.7768601046e+01    0.2513545    0.2029422 -32.72 0.0004669971    1.200    0.167
       105  -9.4367     92.3033     72.3029   1.0654894726e+02   5.0184340573e+01     0.197813    0.1702586 -70.54 0.0006916584    1.379    0.275
       106  -9.4916     90.6138     69.4789   1.0617383870e+02   5.1051641756e+01    0.2074926    0.1699266 -66.84 8.998976e-05    1.475    0.322
       107 -10.1887     80.8604     71.8200   1.1001401907e+02   5.2256821660e+01    0.2651531    0.1815242 -70.42  0.001226713    2.102    0.524
       108 -10.4842     47.3610     69.0913   1.2064449819e+02   5.7480894629e+01    0.4640277    0.2121647  19.34  0.001636381    3.196    0.687
       109 -10.7444     10.4782     68.8689   1.3390887084e+02   6.0717634913e+01    0.2481126    0.1671085 -60.42  0.001608859    1.146    0.128
       110 -10.9209     41.0168     59.2539   1.2015016237e+02   6.0229389389e+01     0.283317    0.2027908 -19.42 0.0009672489    1.517    0.341
       111 -11.3216     34.4082     65.0426   1.2425126426e+02   5.9686277121e+01    0.3487394    0.2665607   9.93 0.0006472718    1.545    0.353
       112 -10.9679     39.2117     62.6035   1.2179832578e+02   5.9725239557e+01    0.3160254    0.2113263 -15.65 0.0009089602    1.809    0.447
       113 -11.3488     17.0704     64.2526   1.3050199734e+02   6.1276761249e+01    0.2834753    0.2432446 -31.40  0.002035265    1.207    0.172
       114 -10.7394    130.3920     63.6248   9.2986244390e+01   4.3923221075e+01    0.6517516    0.3942147  75.05  0.002433919    2.812    0.644
       115  -9.9696     71.3857     57.8109   1.0863111932e+02   5.6549388459e+01    0.2390282    0.1536394 -29.49 0.0009703086    1.568    0.362
       116 -10.8182     72.6318     63.4058   1.1006736690e+02   5.5264212668e+01    0.4057012    0.2813422  88.55    0.0017347    3.058    0.673
       117 -10.9716      2.3092     59.6210   1.3503566937e+02   6.3143617780e+01    0.2591377    0.1795051  85.43  0.001661537    1.778    0.438
       118 -10.6022      8.3782     55.8951   1.3188589595e+02   6.3594216106e+01     0.316987    0.1850206  33.15  0.001941381    2.164    0.538
       119 -11.0619      9.0027     60.6826   1.3272862510e+02   6.2553602479e+01    0.3669175    0.1142642 -59.26  0.001711667    2.236    0.553
       120  -9.8141    100.9875     61.7937   1.0045346564e+02   5.0567494154e+01    0.2116886    0.1531404 -56.26 0.0008515355    1.634    0.388
       121 -10.5808     62.6919     61.9233   1.1303553755e+02   5.7023738379e+01    0.2144669    0.1777232  -6.98 0.0007700784    1.275    0.216
       122 -10.3569     60.4874     57.8997   1.1251437345e+02   5.8128505323e+01    0.2290709    0.2144716 -19.23  0.000603423    1.102    0.093
       123 -12.9659     20.6409     57.6799   1.2753978639e+02   6.2402220248e+01    0.3749591    0.3304363  49.82 0.0006957993    1.467    0.319
       124 -10.8820     20.1880     51.4633   1.2605081813e+02   6.3715202094e+01     0.345653    0.1835333 -43.15  0.001067516    1.532    0.347
       125 -11.7690     17.7080     45.3435   1.2531896932e+02   6.5129653033e+01     1.605984    0.7031477  -9.94  0.006297017    4.743    0.789
       126 -11.1687     54.4769     58.2446   1.1481560603e+02   5.8858636965e+01    0.5381511    0.4044814 -61.24  0.003099251    1.492    0.330
       127  -8.8436     67.2891     60.3321   1.1090150526e+02   5.6679354180e+01    0.1385024   0.09622701 -19.43 0.0007017836    1.626    0.385
       128  -9.8325    178.2349     58.0239   8.0925736756e+01   3.3060751472e+01    0.4071774    0.2030125 -20.56  0.001476878    2.627    0.619
       129  -9.2456    119.2977     59.6334   9.4530935945e+01   4.7121779329e+01    0.1506706    0.1163058 -68.88 0.0007031698    1.726    0.421
       130  -9.4275    158.4356     57.4778   8.4578794796e+01   3.8160913528e+01    0.1484957     0.146638  30.57 0.0008066824    1.013    0.013
       131 -10.4147     99.9289     56.1003   9.8796469425e+01   5.1805778178e+01    0.2133326    0.1942164 -14.95 0.0004625157    1.034    0.033
       132 -11.7567     87.2044     54.1643   1.0206339215e+02   5.4566564831e+01    0.4798929    0.3330016  26.69   0.00244773    1.580    0.367
       133 -10.9898    115.0284     53.8947   9.3698681184e+01   4.9038253395e+01    0.3437421    0.2800895  38.30  0.001253753    1.221    0.181
       134 -10.2520    106.4678     53.5015   9.5955267263e+01   5.0929008962e+01    0.3491718    0.2535003 -66.37  0.001632761    2.002    0.501
       135 -11.9407     66.2642     52.5021   1.0859401634e+02   5.8336578337e+01    0.6067418    0.2540264  35.60  0.002561306    2.631    0.620
       136  -9.8657     34.6571     53.1263   1.2075746274e+02   6.2121631780e+01    0.2508148    0.1411396 -34.26 0.0008958434    1.698    0.411
       137  -9.8901    169.7882     52.8779   8.0913017903e+01   3.5993820186e+01    0.2101224    0.1967953  27.13 0.0003037441    1.118    0.106
       138  -9.3017    176.2040     52.3575   7.9585122405e+01   3.4432231277e+01    0.2006532    0.1405697  72.77 0.0002131115    1.533    0.348
       139  -9.7700     81.8965     52.5364   1.0321373575e+02   5.5801928806e+01    0.1969263    0.1338213  37.51  0.001012773    1.542    0.352
       140  -9.6734     45.7980     51.1052   1.1575329950e+02   6.1326658178e+01    0.2166001    0.1170479 -32.24 0.0008137228    1.870    0.465
       141  -9.8951     38.1550     49.0162   1.1806927613e+02   6.2580987408e+01    0.1957433    0.1370865 -28.89 0.0009850645    1.322    0.244
       142  -9.0480    211.9685     48.7895   7.2984719461e+01   2.5886932973e+01    0.1783254    0.1132135  65.10 0.0002104685    1.585    0.369
       143 -10.0652    105.7729     47.4420   9.3962772850e+01   5.2081175189e+01    0.2774296    0.1414084  55.82  0.001137804    2.272    0.560
       144 -10.4719     78.0145     46.0460   1.0212607725e+02   5.7616525195e+01    0.3263443    0.2190725  32.60 0.0009564509    1.556    0.357
       145 -10.6111     68.0222     46.7473   1.0588124424e+02   5.9122866203e+01    0.3440113    0.1949424  38.98  0.001352564    1.905    0.475
       146 -10.0139     31.3193     46.6989   1.2008063115e+02   6.3716485280e+01    0.2586302    0.1815914 -61.26  0.001565667    1.523    0.344
       147 -11.0787     19.7834     31.6790   1.1995029838e+02   6.7579363161e+01    0.4786274    0.2480804  -7.25  0.002108998    2.719    0.632
       148 -10.7483     25.6984     43.7100   1.2145173906e+02   6.4809094408e+01    0.3117369    0.2503387 -76.15  0.002033815    1.645    0.392
       149  -9.4063     26.0289     30.5341   1.1669267688e+02   6.7237980416e+01    0.1367312   0.09849419  53.09 0.0003757353    2.323    0.570
       150 -10.3239     22.5056     38.9325   1.2125188551e+02   6.5999378036e+01    0.2740267    0.1626087 -58.71  0.001234839    1.677    0.404
       151 -11.1541     26.6423     35.0919   1.1810806424e+02   6.6355126988e+01    0.3744523    0.1879973 -34.77  0.001049833    1.769    0.435
       152  -9.2710     91.4291     44.5466   9.7175077332e+01   5.5433214686e+01     0.138923    0.1248953  -5.37 0.0001500436    1.020    0.019
       153 -10.9730    139.6975     40.5852   8.2963411849e+01   4.5340895687e+01     0.331083    0.2274223 -40.08 0.0009627747    1.515    0.340
       154 -10.3812     70.3331     41.3111   1.0298783958e+02   5.9703303174e+01    0.3341326     0.194946 -26.61  0.001642622    1.742    0.426
       155 -10.2282      2.5338     42.0568   1.3086126602e+02   6.6734974531e+01     0.229899    0.1326323 -19.43  0.001023259    1.926    0.481
       156  -9.5521    182.5983     41.3971   7.5206579695e+01   3.4338304885e+01    0.2850665    0.1374492  81.50 0.0009577022    3.193    0.687
       157 -10.3408     36.1681     40.6416   1.1601864734e+02   6.4387921287e+01     0.290979    0.1446759 -41.33  0.001461609    1.666    0.400
       158 -11.6250     50.5778     34.1639   1.0763465189e+02   6.3825150162e+01    0.3746275    0.3090392 -33.03 0.0007604162    1.148    0.129
       159 -10.0415     12.9635     38.1328   1.2518061888e+02   6.6878016026e+01      0.28194    0.1227032 -51.02  0.001529209    1.714    0.417
       160  -9.8527    130.7813     37.6711   8.3936467247e+01   4.7905457465e+01     0.254962    0.1727852  51.13 0.0007060278    1.408    0.290
       161 -11.8685    121.4129     36.4137   8.5711083693e+01   5.0282969764e+01    0.5039112      0.43133  82.57  0.002744872    1.412    0.292
       162  -9.6417    163.7329     37.1971   7.7082786575e+01   3.9751597104e+01    0.1926841    0.1623958  23.88 0.0003528232    1.308    0.236
       163 -11.4372    145.0045     32.9838   7.9224319598e+01   4.5046990433e+01    0.3284926    0.2157576 -41.93  0.001560319    1.618    0.382
       164 -10.5089    141.1778     30.1572   7.9015385351e+01   4.6356469073e+01    0.2595836    0.2371688  68.10 0.0007573867    1.111    0.100
       165 -10.4646    138.6337     26.9728   7.8409172440e+01   4.7375637918e+01    0.4707474    0.2019429  62.35 0.0007988703    2.304    0.566
       166 -10.0112     70.1953     35.3503   1.0066583138e+02   6.0707066982e+01    0.3244047    0.1541889 -25.39  0.001077532    2.449    0.592
       167 -10.6027      1.5981     35.7630   1.2955031082e+02   6.8020693085e+01    0.2193979    0.1225969 -54.69 0.0008191419    1.346    0.257
       168  -9.1237     99.6541     35.0050   9.0996170562e+01   5.5262062320e+01    0.2330521    0.1127979  -9.54 0.0007046862    4.530    0.779
       169 -11.0479    134.4166     33.9667   8.1793087956e+01   4.7528625666e+01    0.2457948     0.185623  43.96 0.0003629167    1.267    0.211
       170  -9.8283    166.5543     31.7992   7.4870533694e+01   3.9717199642e+01     0.353752    0.1318123 -31.02  0.001295309    2.640    0.621
       171 -11.1027     43.4321     30.3294   1.0901079319e+02   6.5387943750e+01    0.3110521     0.251976   5.50  0.000978083    1.216    0.177
       172 -10.7536     43.5137     26.5030   1.0737305255e+02   6.6008711298e+01    0.4285258    0.2091287  39.25  0.002197197    2.382    0.580
       173 -10.3270    150.4523     29.6101   7.7013373284e+01   4.4100650407e+01    0.3527994    0.1795139  67.44   0.00133021    2.057    0.514
       174  -9.9608    128.6024     30.2002   8.1724016022e+01   4.9416638093e+01    0.1974179    0.1354943  -9.21 0.0007308788    1.661    0.398
       175  -9.3090    187.1830     29.6163   7.1024663095e+01   3.4666232301e+01    0.2107679    0.1192661  55.28 0.0009427685    1.696    0.410
       176  -9.7594    104.3046     29.3722   8.7454760010e+01   5.5060755413e+01    0.2357998    0.1531702  22.36  0.001130001    1.752    0.429
       177 -10.0245     69.7907     28.2984   9.7868096916e+01   6.1860645119e+01    0.2200474    0.1616369 -35.98 0.0009350865    1.365    0.268
       178 -10.4851      1.9645     28.7425   1.2726572329e+02   6.9341217255e+01    0.1589836    0.1193175 -37.85  0.001168022    1.061    0.058
       179  -9.6948      7.4887     28.3089   1.2449714120e+02   6.9095770068e+01    0.1850942    0.1298991  13.68 0.0008244644    1.654    0.395
       180 -12.3668      5.2967    240.7365   1.5095551038e+02   2.5264901385e+01    0.4489212    0.2161639  60.99   0.00320453    1.471    0.320
       181 -10.2926    200.9832     25.9764   6.8162851135e+01   3.1577622418e+01    0.2053984    0.1915877 -79.44  0.001214739    1.015    0.014
       182 -10.3019    113.9982     25.0832   8.3236461179e+01   5.3462309518e+01    0.2692438    0.2006081 -11.58  0.001195273    1.398    0.285
       183  -9.8361    218.2182     25.0120   6.5913588916e+01   2.7394995673e+01    0.2104887    0.1371988 -74.40 0.0008436149    1.636    0.389
       184  -9.8975    153.3413     25.5602   7.5118744973e+01   4.3852679508e+01    0.2630748    0.1387669  69.54 0.0008273316    1.976    0.494
       185 -10.2148     59.0358     24.4642   1.0019211134e+02   6.4156377884e+01    0.2508233    0.1690495 -26.78 0.0009044604    1.328    0.247
       186  -8.8018     34.2832     25.6298   1.1101968427e+02   6.7243590922e+01    0.1079643   0.09230668 -62.82 0.0007016158    1.700    0.412
       187 -10.1805     51.8838     23.1502   1.0243352981e+02   6.5409824941e+01    0.3337887    0.1895147 -28.39  0.001759715    1.597    0.374
       188 -10.0841     89.4170     22.8166   8.9041068978e+01   5.9002014677e+01    0.3509008    0.1207507 -31.19  0.001361179    2.813    0.644
       189  -9.9699     84.8050     21.3552   8.9830398622e+01   6.0095150763e+01    0.4032083    0.1459015  34.60  0.001396978    3.673    0.728
       190  -9.1804    110.7708     21.9634   8.2809839284e+01   5.4566602935e+01    0.1661818    0.1117914 -21.39 0.0003157763    1.521    0.343
       191 -11.1251     13.2397     20.4261   1.1878957199e+02   7.0102887619e+01    0.2803662    0.2665848  52.65  0.001148923    1.606    0.377
       192  -9.1717    229.5022    247.5650   1.1326567322e+02  -7.2407205816e+00    0.1140615   0.08456687  22.74 0.0003500006    1.009    0.009
       193 -10.4399     31.0129     19.7430   1.0996359264e+02   6.8562620293e+01    0.2430629    0.1606183 -39.87 0.0009437399    1.360    0.265
       194 -11.0990     33.5316    247.4232   1.4687608643e+02   2.1197610497e+01    0.2169741    0.1180675  35.96  0.001428315    2.087    0.521
       195  -9.0888     22.6894     21.6314   1.1468978734e+02   6.9092960234e+01    0.1264482   0.06995688 -23.91            0    1.765    0.434
       196  -9.9048    175.4549     20.2455   6.9877611023e+01   3.8774048267e+01    0.1908438    0.1271749 -41.17 0.0004622627    1.537    0.350
       197  -9.0889    131.2301     20.7540   7.7680979730e+01   4.9909668852e+01    0.2389303   0.08548238  49.75 0.0008841131    2.470    0.595
       198 -10.0339    100.9425     19.9012   8.4523783107e+01   5.6970629758e+01    0.2046345    0.1649193 -63.79 0.0007930229    1.714    0.417
       199  -9.6142    217.4282    245.0000   1.1490608479e+02  -5.1731067817e+00    0.2551075   0.05253909  41.27 0.0009318355    3.911    0.744
       200 -11.0628     37.2299    241.6493   1.4595999282e+02   2.1758299578e+01    0.3210776   0.09495421  56.82  0.001594139    2.773    0.639
       201  -9.6960    148.2577     18.7173   7.3697436944e+01   4.5907375054e+01    0.2158546    0.1691826  86.73 0.0006599356    1.398    0.285
       202 -10.0310    199.9711     17.1134   6.5827363869e+01   3.2839043442e+01    0.2084487    0.1885067 -72.59 0.0005713089    1.041    0.039
       203 -10.8317    107.5758     16.5510   8.1427699704e+01   5.5898123209e+01    0.3825491    0.2223004  64.51   0.00147059    1.934    0.483
       204  -9.6412    202.5019    240.0836   1.1674386400e+02  -2.2966561957e+00    0.1485979    0.1139999 -27.20 0.0009058739    1.531    0.347
       205  -9.3675     60.4396    241.0000   1.4206076392e+02   1.9083478281e+01    0.2279177   0.05062984  39.19  0.000924893    3.856    0.741
       206  -9.7724     87.2004     12.5827   8.5247320477e+01   6.0662486208e+01    0.1935708    0.1524425  35.41 0.0005962868    1.160    0.138
       207 -13.2055     14.6820    239.0574   1.4942988602e+02   2.4625580515e+01    0.5924233    0.2468346  68.00  0.003658722    1.934    0.483
       208 -10.5687     20.1087     16.8203   1.1387849815e+02   7.0128107912e+01     0.195116    0.1447175  11.29 0.0004043417    1.408    0.290
       209 -12.3799      4.1220    232.6393   1.5080455434e+02   2.6772496061e+01    0.5289317    0.2442098  78.84  0.002860201    1.718    0.418
       210 -11.7781      9.5180    231.9673   1.4992283619e+02   2.6371684377e+01    0.2665195    0.1753176 -68.03  0.001861103    1.797    0.444
       211 -12.5211      8.7116    227.9888   1.4987088214e+02   2.7154148911e+01    0.4653156    0.2471186  53.06   0.00217805    1.466    0.318
       212  -9.6731    240.3293     15.2974   6.1392343698e+01   2.3252925420e+01    0.1231458   0.09664095  39.88 0.0007027627    1.637    0.389
       213 -12.7272     25.5105    235.8749   1.4754352646e+02   2.4050868747e+01    0.4152595    0.2831429  40.49  0.002820058    1.636    0.389
       214  -9.8379    144.1065     14.5022   7.2969247849e+01   4.7391347830e+01    0.2085388     0.129102  64.00 0.0004533215    1.504    0.335
       215  -8.9012    155.5721    235.5099   1.2449905694e+02   5.8917330554e+00    0.1207639   0.09813696  43.42 2.983423e-05    1.011    0.011
       216  -9.7392    249.1619    234.1415   1.0794121574e+02  -8.6426903716e+00    0.1742101    0.1184669  15.82  0.000554928    1.190    0.160
       217  -9.7109    140.0845    227.0622   1.2627190306e+02   9.7325325243e+00      0.19715    0.1305553  65.32 0.0008625631    1.717    0.418
       218 -10.2186     32.5546    225.1550   1.4575366893e+02   2.5199224134e+01     0.260413    0.1122608  48.80  0.001564322    1.827    0.453
       219 -10.2895     25.7042    225.0047   1.4691059729e+02   2.5968907612e+01    0.1522946    0.1067671  79.76 0.0007102762    1.103    0.094
       220 -10.9935      2.1961    220.0161   1.5056877645e+02   2.9203560176e+01    0.2349126    0.1014516  87.89  0.001089487    1.904    0.475
       221 -11.5655      7.9618    217.6275   1.4950378332e+02   2.9104207230e+01    0.2649537    0.1952574  65.99  0.001623485    1.147    0.128
       222 -10.9465      3.8234    212.8200   1.4996707585e+02   3.0380547759e+01    0.2845887    0.1172326  59.34  0.001580237    1.893    0.472
       223  -9.6806    209.4810    211.9949   1.1106347387e+02   2.2708284823e-01    0.1733346    0.1205174 -29.31  0.001024814    1.574    0.365
       224 -11.2086     15.4959    211.6283   1.4790386689e+02   2.9498129668e+01    0.2813274    0.1172912  59.08  0.001652295    1.943    0.485
       225  -9.9229     20.6196    209.8211   1.4689834078e+02   2.9330253907e+01    0.1516656   0.07760455  85.40 0.0003780004    1.664    0.399
       226  -9.6519    246.8627    206.9420   1.0367718120e+02  -5.1988940712e+00    0.1891504    0.1352732   3.51  0.001121245    1.267    0.211
       227 -10.4210      2.2950    205.9359   1.4989476120e+02   3.1814990467e+01    0.1521925    0.1021923  82.80 0.0007070008    1.095    0.087
       228  -9.5694    197.3932    204.1786   1.1194425707e+02   3.4321427009e+00    0.1603715    0.1232573 -48.66 0.0005346386    1.625    0.385
       229 -11.3438      9.3885    203.3117   1.4851608558e+02   3.1672808911e+01    0.2267294    0.1489306  83.04  0.000887381    1.138    0.121
       230  -8.9755    181.5098    199.5015   1.1415998600e+02   6.9982963590e+00    0.1323171    0.1163192  35.85 -0.0001169586    1.037    0.036
       231  -9.5070     23.0608    197.4987   1.4566569800e+02   3.1487076598e+01    0.1529797   0.09671166  43.99 0.0005673408    1.570    0.363
       232  -9.6001      6.5156    191.5037   1.4837048445e+02   3.4250200614e+01    0.1114067   0.07752831  77.20 0.0001193094    1.056    0.053
       233 -10.3494     15.4636    185.4265   1.4629388026e+02   3.4663565046e+01    0.2157136   0.08899636 -79.92  0.001163632    2.033    0.508
       234  -9.5285     46.3120    183.2647   1.3991751211e+02   3.1876484198e+01    0.1977453    0.1032075  67.88  0.001037981    1.923    0.480
       235  -9.4114      1.3305    183.2420   1.4886424414e+02   3.6352620741e+01    0.1489983   0.07520279  88.99 0.0004517688    1.564    0.361
       236  -9.0147    250.3130    183.3355   9.8683959017e+01  -2.7402267358e+00    0.1331921   0.08542813   6.27 0.0007045823    1.687    0.407
       237 -10.9128      4.6450    167.3242   1.4721430063e+02   3.9367538320e+01    0.2870793    0.1489605  68.03  0.001731705    1.713    0.416
       238  -9.3916     41.6175    158.2719   1.3835132535e+02   3.7838138119e+01    0.1689629   0.09770341 -65.51 0.0009398524    1.536    0.349
       239  -9.1218    247.4482    155.5359   9.3498263870e+01   1.6383464278e+00    0.1330745    0.1154511  -5.87 0.0001284524    1.009    0.009
       240  -9.5054    243.0000    154.9599   9.4109986861e+01   2.5327482650e+00    0.2164064   0.07073109 -34.05 0.0005490502    2.887    0.654
       241 -10.2128      2.7559    153.5904   1.4663058863e+02   4.2441162643e+01    0.1509862   0.08677922  49.37 0.0009618598    1.725    0.420
       242 -10.1987      8.7726    148.9472   1.4492897339e+02   4.2988429698e+01    0.1533858   0.07481895 -76.12   0.00040706    1.607    0.378
       243 -10.4081     22.0630    143.1733   1.4129621619e+02   4.3162154922e+01    0.2201004    0.1442625 -79.75  0.001072651    1.231    0.187
