#   1 NUMBER                 Running object number                                     
#   2 MAG_AUTO               Kron-like elliptical aperture magnitude                    [mag]
#   3 X_IMAGE                Object position along x                                    [pixel]
#   4 Y_IMAGE                Object position along y                                    [pixel]
#   5 X_WORLD                Barycenter position along world x axis                     [deg]
#   6 Y_WORLD                Barycenter position along world y axis                     [deg]
#   7 A_WORLD                Profile RMS along major axis (world units)                 [deg]
#   8 B_WORLD                Profile RMS along minor axis (world units)                 [deg]
#   9 THETA_WORLD            Position angle (CCW/world-x)                               [deg]
#  10 FWHM_WORLD             FWHM assuming a gaussian core                              [deg]
#  11 ELONGATION             A_IMAGE/B_IMAGE                                           
#  12 ELLIPTICITY            1 - B_IMAGE/A_IMAGE                                       
         1  -9.0901    114.2104     70.3843   7.9536925462e+01   4.6308519248e+01    0.2563577    0.2414758 -46.73 0.0007366049    1.097    0.089
         2 -11.2287    234.7121    217.4019   8.7175701878e+01  -5.4943644882e+00     2.402715     1.141235   2.12   0.00685561    7.627    0.869
         3 -10.3886    240.7623    218.3069   8.6283680956e+01  -6.5376964074e+00    0.6488948    0.3303538 -14.61   0.00321598    2.474    0.596
         4 -11.8694    198.3975    244.7686   9.7960186684e+01  -3.2458929468e+00     1.398835    0.6804016  38.01  0.007715297    1.625    0.385
         5 -10.3609    235.8496    227.0457   8.8613723360e+01  -6.8487130035e+00    0.6467314    0.3323661  26.52  0.003526985    1.773    0.436
         6 -10.4678    248.1512    215.4716   8.4527661912e+01  -7.3087300948e+00    0.6843798    0.3311673 -18.24  0.003417995    2.404    0.584
         7 -11.2757    225.8215    239.5899   9.2367656303e+01  -6.8189455351e+00    0.9569878    0.5477523 -24.68  0.005766372    1.953    0.488
         8 -11.4526    218.8190    244.9069   9.4393319461e+01  -6.3874988677e+00     1.289118     0.581246  27.39  0.006572716    2.154    0.536
         9 -10.5168    248.8489    223.3869   8.5781370302e+01  -8.3468912187e+00    0.8408834    0.4067125  17.78  0.004099609    2.483    0.597
        10 -11.8223    234.4676    234.1422   9.0014225314e+01  -7.4751263070e+00     2.740198    0.3853679  38.64  0.008176097    6.053    0.835
        11 -11.7140    232.9537    243.4860   9.1749325243e+01  -8.3096726353e+00     1.272683    0.6657032  10.20  0.006558144    2.518    0.603
        12 -11.4271    242.8789    236.5641   8.8975111761e+01  -8.9746399483e+00     1.123805    0.5522556   1.40  0.005011458    3.477    0.712
        13 -10.9252    246.9687    250.0999   9.0424673245e+01  -1.0978512386e+01    0.9582949    0.1774974  38.22  0.003606393    4.329    0.769
        14 -11.7706    246.0441    244.5834   8.9721523834e+01  -1.0283557877e+01     1.045839    0.4549135  26.27  0.005560703    2.122    0.529
        15  -9.4405    185.0106    250.3101   1.0111100483e+02  -1.8565745028e+00    0.3859662    0.1275218  40.34  0.001762665    2.355    0.575
        16 -10.1866    179.1915    242.7872   1.0113375569e+02   5.2391305306e-02    0.5087947    0.2151673  34.57    0.0024586    2.102    0.524
        17  -9.8576    163.9870    243.7976   1.0403810681e+02   2.3539308684e+00    0.3502974    0.1712622  45.93  0.001482229    1.690    0.408
        18 -10.2464    167.9578    249.6161   1.0406733369e+02   9.1447195824e-01    0.5919691    0.2338384  39.60  0.002925637    1.989    0.497
        19  -9.1904    171.3004    245.7457   1.0296289830e+02   9.1148697089e-01    0.4033157    0.1358502  45.81  0.001657913    2.536    0.606
        20 -10.0931    157.9933    244.9158   1.0527487696e+02   3.1554024381e+00    0.3114292    0.2241638  20.91  0.001631844    1.577    0.366
        21  -9.9820    152.8507    248.9865   1.0670991522e+02   3.3901722842e+00    0.4589268    0.1703142  40.74   0.00219208    2.112    0.526
        22  -9.5097    143.5894    241.7135   1.0752108588e+02   5.9353440364e+00    0.2373569    0.1851067  43.86  0.001032067    1.035    0.033
        23  -9.4729    140.5734    245.6259   1.0853804669e+02   5.8226214317e+00    0.3384514    0.1689555  45.81  0.001205069    1.577    0.366
        24  -9.1927    138.7530    250.2589   1.0939770563e+02   5.4177696748e+00     0.333663    0.1330533  43.03   0.00156948    1.927    0.481
        25  -9.4435    144.8763    249.3055   1.0818648194e+02   4.6001212523e+00    0.3704845    0.1895246  42.23  0.002065458    1.517    0.341
        26 -10.3157    133.5266    245.2310   1.0977657622e+02   6.9910531985e+00    0.4809636    0.2287236  50.62  0.002551179    1.795    0.443
        27  -9.4959    129.6188    249.0907   1.1091060682e+02   7.0092774665e+00    0.5498762     0.148142  46.54  0.001925856    2.942    0.660
        28  -9.5178    119.3312    249.1234   1.1275934228e+02   8.5787590402e+00    0.3436852      0.24962   2.42  0.001944818    2.770    0.639
        29 -10.4448    120.2484    244.6800   1.1213150972e+02   9.1370644239e+00    0.4525915     0.187099  32.70  0.001979264    2.995    0.666
        30  -9.4505    125.8660    240.7141   1.1067293917e+02   8.8985702732e+00    0.2685564    0.1517802  31.42  0.001447517    1.954    0.488
        31  -9.5089    130.4924    240.4657   1.0979137044e+02   8.2111855699e+00    0.2166446    0.1550998  69.16  0.001365973    1.508    0.337
        32  -8.6216    124.3942    248.7839   1.1181660431e+02   7.8596148567e+00    0.1869507    0.1335856  56.28 0.0009567863    1.180    0.152
        33  -9.6032    125.0414    245.4754   1.1134654284e+02   8.2737026963e+00    0.2957903    0.1634539  38.06  0.001577795    1.589    0.371
        34  -9.8912    108.4840    249.2388   1.1470399840e+02   1.0186999786e+01    0.3229863    0.2119276  23.43  0.001867642    2.272    0.560
        35  -8.1990    103.4384    250.4680   1.1571183613e+02   1.0733333873e+01    0.2089825    0.1185647  44.11 0.0009633506    1.403    0.287
        36  -9.0946    104.1264    246.2612   1.1519474989e+02   1.1309273061e+01     0.292586    0.1219459  39.95  0.001496212    2.038    0.509
        37  -8.2017     96.1948    250.6055   1.1699468560e+02   1.1758382209e+01     0.239592   0.09311815  40.58  0.001216843    2.134    0.531
        38  -8.6246     99.0023    247.4892   1.1622076195e+02   1.1858690574e+01    0.2139373    0.1832552  16.94  0.001167458    1.733    0.423
        39  -8.9427     88.8409    249.6570   1.1819471591e+02   1.2954448381e+01    0.2602075    0.1696172  44.06  0.001740072    1.326    0.246
        40  -9.3100     73.8202    250.2556   1.2082741129e+02   1.4910675021e+01    0.2919215    0.1305712  40.08  0.001648254    1.969    0.492
        41  -9.2297     48.9902    249.7609   1.2494318338e+02   1.8149469652e+01    0.3132649    0.1617915  36.90  0.001942476    2.044    0.511
        42  -9.7945      3.9455    248.6205   1.3195571323e+02   2.3245619775e+01    0.3033372    0.1226535  39.51  0.001956153    2.278    0.561
        43 -10.1054     12.9988    247.5096   1.3054113745e+02   2.2534165486e+01    0.2294612    0.1035322  38.77  0.001378173    2.163    0.538
        44  -9.7048     62.8810    248.5251   1.2255463733e+02   1.6629694114e+01    0.3324012    0.1861383  36.49  0.002071516    1.908    0.476
        45  -8.1830     25.7696    248.7429   1.2861443925e+02   2.0983645918e+01    0.2201693   0.06148108  54.22  0.001159322    2.504    0.601
        46  -8.9479     32.8794    247.5012   1.2742453663e+02   2.0410334556e+01     0.258002   0.08288297  39.14  0.001364228    2.733    0.634
        47  -8.6206    147.5822    244.9693   1.0718169079e+02   4.8095531513e+00    0.2350304    0.1420449  30.90  0.001193874    1.662    0.398
        48  -9.0794     94.8672    244.2551   1.1666016691e+02   1.2988966237e+01    0.2415951     0.193879 -19.05  0.001544715    2.378    0.579
        49  -9.3413     81.5688    244.2429   1.1901263151e+02   1.4867268181e+01    0.2903614    0.1824202  28.97   0.00172378    2.160    0.537
        50  -8.6660     42.3036    244.2570   1.2571171497e+02   1.9885856814e+01    0.2393456     0.160389  30.05  0.001616638    2.103    0.524
        51 -10.2354    114.4269    242.6801   1.1298049715e+02   1.0347699870e+01    0.2645702    0.1645709  36.58  0.001335126    1.540    0.351
        52  -9.6993    109.7578    243.4246   1.1390433323e+02   1.0932841937e+01    0.2796497    0.1249075  42.27  0.001368554    1.800    0.445
        53  -8.7152     21.8373    244.2812   1.2902083611e+02   2.2168224968e+01    0.2224933   0.07972631  36.73  0.001222107    2.806    0.644
        54 -10.2972      3.1795    242.0444   1.3182669329e+02   2.4437492863e+01    0.3533376    0.1411685  64.09  0.002267322    1.823    0.451
        55 -10.1763     28.1403    242.5964   1.2793069917e+02   2.1780381728e+01     0.311211    0.1360873  69.31   0.00188066    1.932    0.482
        56  -9.6679    104.5574    241.3100   1.1463707636e+02   1.2059172504e+01    0.2530922     0.171755  24.31  0.001068939    2.093    0.522
        57  -9.2922     69.1354    239.8947   1.2084598599e+02   1.7295644611e+01    0.3640379     0.277714  11.02   0.00226279    2.584    0.613
        58 -10.2798    172.3284    238.9960   1.0186810802e+02   1.6852327058e+00    0.6217804     0.245799  29.44  0.002405811    3.523    0.716
        59  -8.9138    155.9561    240.4655   1.0508326057e+02   4.1316212836e+00    0.1926274   0.09748237  40.59 0.0006752477    1.580    0.367
        60  -9.8192    138.5096    240.0797   1.0826352012e+02   6.9987891007e+00    0.1974024    0.1492526  31.63  0.001276462    1.334    0.251
        61  -8.7294     51.5710    238.9005   1.2381723250e+02   1.9709905049e+01    0.2463872    0.1357605  41.08   0.00156446    1.698    0.411
        62  -9.3120     19.2342    239.5623   1.2921120618e+02   2.3262370671e+01    0.1251401   0.08949244  40.05 0.0009528562    1.655    0.396
        63  -9.3942    150.5196    237.7825   1.0574894947e+02   5.4162005132e+00     0.305635    0.1371341  38.69  0.001515213    1.867    0.464
        64  -9.6607    122.9797    237.8521   1.1088706235e+02   9.8127621954e+00    0.3725085    0.1518116  30.90  0.001451203    3.686    0.729
        65  -9.0472    112.8690    237.8267   1.1275792386e+02   1.1383521466e+01    0.1759798    0.1451144  41.90 0.0009306975    1.227    0.185
        66  -9.2023    101.9155    238.4571   1.1483724883e+02   1.2930809953e+01    0.1819723   0.09523028  43.13  0.001021331    1.569    0.363
        67 -10.6979      5.0887    234.9528   1.3125268569e+02   2.5490786622e+01    0.4097793    0.1231672  53.13  0.002348553    2.282    0.562
        68  -8.8522     91.4156    236.2105   1.1654094927e+02   1.4854506587e+01    0.2263076     0.221639 -46.66  0.001514337    1.492    0.330
        69  -8.6302     78.7371    236.0327   1.1882492710e+02   1.6675519370e+01    0.2762512     0.180658  28.64  0.001653781    2.066    0.516
        70  -8.6214    195.7530    229.5442   9.6176260207e+01  -8.3087919552e-01    0.3798091    0.1403869  33.44  0.001592577    2.663    0.625
        71  -9.7495    185.3000    235.8608   9.9040741552e+01   1.0763453898e-02    0.5051079    0.1869087  49.75  0.002059322    3.106    0.678
        72  -7.9873     42.6662    235.9588   1.2514550921e+02   2.1302536901e+01    0.1765088    0.1205812  25.42  0.001137249    2.300    0.565
        73  -9.2805    207.1818    234.4812   9.4860564645e+01  -3.3256662645e+00    0.2664166    0.2080183  44.19  0.001694649    1.352    0.261
        74  -9.1090    206.2154    230.0712   9.4349405757e+01  -2.6003601882e+00    0.5468617    0.1481811  36.47  0.002035889    3.403    0.706
        75  -9.9699    162.6793    234.6046   1.0305956021e+02   3.9037082238e+00    0.3666524    0.1891757  36.18   0.00153973    1.676    0.403
        76 -10.4420      9.0328    239.5450   1.3082326372e+02   2.4300947370e+01    0.2198863    0.1156205  60.94  0.001581514    1.346    0.257
        77  -9.2107    140.3479    234.0683   1.0718746828e+02   7.6496126222e+00    0.2482938    0.1472443  39.70  0.001407968    1.415    0.293
        78  -9.5234    101.5959    233.7411   1.1442398892e+02   1.3785853711e+01    0.2093925    0.1295495  36.21  0.001146706    1.631    0.387
        79  -8.8881    154.2224    232.6600   1.0438766180e+02   5.5952580311e+00     0.287375    0.1264091  39.00  0.001199684    1.909    0.476
        80  -8.8012    108.9699    233.0721   1.1297825936e+02   1.2784706785e+01    0.1724236    0.1433472  18.30 0.0009949057    1.668    0.401
        81  -9.1542    190.6080    234.2456   9.7830536511e+01  -6.3205460671e-01    0.3475127    0.1925179  20.11  0.001722945    2.289    0.563
        82  -8.4537    171.7554    232.0151   1.0100018083e+02   2.7852077452e+00    0.1726764    0.1448586  34.15   0.00115274    1.042    0.040
        83  -8.1675    116.0868    231.9478   1.1151720469e+02   1.1876063994e+01    0.1777856    0.1456327  12.69   0.00112684    1.760    0.432
        84  -9.6751    125.3076    230.1081   1.0955636390e+02   1.0728837947e+01    0.4591422    0.2685763  14.81  0.001721022    4.884    0.795
        85  -9.6433     10.9874    231.2705   1.3015395188e+02   2.5572941228e+01    0.1507102   0.09928717  64.44  0.000944198    1.104    0.094
        86  -9.2951    216.7735    229.0624   9.2291910488e+01  -4.1523025572e+00    0.4207397    0.1919111  25.85   0.00169114    2.437    0.590
        87  -8.9625    147.3129    229.9532   1.0534024562e+02   7.1638673595e+00    0.2231298    0.1583658  25.59  0.001050105    1.560    0.359
        88  -8.6162    134.1798    229.9273   1.0784248950e+02   9.3259426496e+00    0.1906177    0.1468526  61.04 0.0007554346    1.231    0.188
        89  -8.2412    188.7706    229.3586   9.7437160259e+01   3.4443182744e-01    0.2340249    0.1341271  32.68  0.001278425    1.515    0.340
        90  -9.6367      5.5272    229.3557   1.3095045222e+02   2.6447788431e+01    0.1796922    0.1085701  44.15  0.001327259    1.604    0.377
        91  -8.4365    107.7252    228.2325   1.1269112979e+02   1.3816751319e+01    0.1866758   0.09086278  32.84 0.0006373892    2.371    0.578
        92  -7.8557     46.7628    228.5831   1.2395276086e+02   2.2154914121e+01    0.1639119   0.07648917  50.90 0.0009591749    1.676    0.403
        93  -8.9045    184.8662    226.3727   9.7712069120e+01   1.4194351107e+00    0.2529964    0.1070882  36.28  0.001159724    2.068    0.516
        94  -7.9271    153.4944    227.5198   1.0383290881e+02   6.5220277216e+00    0.1267697    0.1041123  43.16 0.0008103365    1.001    0.001
        95  -8.3372     92.8396    227.2449   1.1540902947e+02   1.6234312890e+01    0.2021556     0.155348 -36.15   0.00124671    2.105    0.525
        96  -8.6803    212.4755    225.0911   9.2421840709e+01  -2.9542983904e+00    0.2747655    0.1590622  19.35  0.001451486    1.877    0.467
        97  -8.1045    175.9912    226.4963   9.9401704441e+01   2.8926233542e+00    0.2017874    0.1044947  39.84  0.001033946    1.596    0.374
        98  -8.8039    223.8611    224.6338   9.0309306365e+01  -4.7078369703e+00    0.2802496    0.1623431  18.97  0.001046188    1.778    0.438
        99  -8.8355     68.4888    223.7948   1.1965115505e+02   2.0290607442e+01    0.2945636    0.2053674 -36.93  0.001684291    2.743    0.635
       100  -9.7419      5.4695    225.4897   1.3079363681e+02   2.7154808037e+01    0.1742756    0.1168066  71.44  0.001239341    1.024    0.023
       101 -10.5529      3.5187    222.0308   1.3096264513e+02   2.7972880848e+01    0.2909315    0.1479011 -77.49  0.001975943    1.740    0.425
       102  -8.3517    200.7396    224.5391   9.4474934489e+01  -9.6443726349e-01     0.250142    0.1016624  36.91   0.00114314    2.108    0.526
       103  -8.5466    191.9784    224.7535   9.6132840843e+01   4.6121878752e-01     0.170975   0.08999385  39.22 0.0008824107    1.582    0.368
       104  -8.0163    120.7608    224.4371   1.0975236397e+02   1.2431835698e+01    0.1724123    0.1063551  34.99 0.0009431261    1.619    0.382
       105  -9.0462    130.4826    234.6645   1.0911754703e+02   9.1449203323e+00    0.2543257    0.1718302  13.91  0.001330399    2.513    0.602
       106  -8.5374    133.1926    222.8740   1.0714043792e+02   1.0675455337e+01    0.2340503    0.1574488  20.23  0.001233579    2.086    0.521
       107  -7.7857    104.6868    223.6830   1.1277362372e+02   1.5095055773e+01    0.1091319   0.09658802   7.33 0.0007035754    1.645    0.392
       108  -7.7287     82.3593    223.3052   1.1700479819e+02   1.8470515083e+01    0.1046352   0.09506883   2.85  0.000537555    1.727    0.421
       109  -8.2991    207.0346    221.9740   9.2904368058e+01  -1.6509320203e+00    0.2067505    0.1333606  12.04  0.001133076    1.760    0.432
       110  -9.6294    196.6407    235.6935   9.6946390106e+01  -1.8012477107e+00    0.4536462    0.1486643  33.71  0.001796107    3.094    0.677
       111  -8.9541    217.8490    219.9398   9.0601556612e+01  -3.1431568313e+00    0.3996097    0.1993042  19.86  0.001784317    2.667    0.625
       112  -8.5970    149.7779    220.3883   1.0356426907e+02   8.3088962068e+00    0.1870673    0.1058909  34.81 0.0009513074    1.664    0.399
       113  -9.0384    226.7441    219.0847   8.8866464781e+01  -4.4564297635e+00    0.2786609    0.1483986  33.34  0.001507827    1.611    0.379
       114  -8.1634    202.8390    218.7451   9.3148831974e+01  -5.0754122041e-01     0.212062    0.1213243   9.19 0.0009451148    2.757    0.637
       115  -8.0778    168.3076    219.6509   9.9849291588e+01   5.2507914975e+00    0.1252884   0.09505477  69.13 0.0007043384    1.707    0.414
       116  -7.7184    211.5155    215.9865   9.1087815109e+01  -1.5710842857e+00    0.1684512   0.09993645  -6.97 0.0008083241    2.396    0.583
       117 -10.3775     13.2414    215.5317   1.2901721625e+02   2.8263391019e+01    0.2586982    0.1381719  48.96  0.001740254    1.579    0.367
       118 -10.5405      2.1965    212.4534   1.3075834907e+02   2.9887483504e+01    0.4069773    0.1348452  68.06  0.002065962    2.713    0.631
       119  -9.3252    229.1473    214.8681   8.7715399483e+01  -4.2942573299e+00    0.3350675    0.1390244  35.58  0.001578695    2.133    0.531
       120  -8.2217    221.9837    212.8161   8.8639349413e+01  -2.8656738595e+00    0.2162531    0.1206353  19.35  0.001069249    2.025    0.506
       121  -9.1627    233.5000    211.6128   8.6376500789e+01  -4.5649457993e+00    0.2267145    0.1631828  21.53  0.000811253    1.177    0.150
       122  -7.3300    115.3354    220.6969   1.1036065830e+02   1.3963571099e+01    0.1312851   0.08248259  65.18 0.0004309925    1.664    0.399
       123  -7.9026     63.4716    211.5128   1.1952563834e+02   2.3311264712e+01    0.1189814   0.09579917  71.15 0.0001298676    1.047    0.045
       124 -10.0406     10.1243    210.2746   1.2928696567e+02   2.9570832492e+01    0.3277255   0.09721588  51.76  0.001705714    2.539    0.606
       125  -9.4418    240.5325    205.6429   8.4077428982e+01  -4.9058447281e+00    0.2575183    0.1777778  13.03  0.001197307    1.331    0.249
       126  -9.3763    247.8508    205.1207   8.2724309359e+01  -5.9833098070e+00    0.3041356    0.1967999  11.31  0.001034195    1.494    0.331
       127 -10.6476      6.1116    204.6631   1.2970526085e+02   3.1033866626e+01    0.3417625    0.1666001  52.46   0.00221031    1.673    0.402
       128  -8.4985    228.4128    204.7634   8.6054953470e+01  -2.8304120656e+00    0.1702077    0.1105642 -17.49 0.0005835544    1.609    0.378
       129 -10.0677     11.7009    204.0223   1.2867462734e+02   3.0640677705e+01    0.2417381    0.1359631  49.32  0.001345801    1.554    0.357
       130  -8.1092    236.0044    201.4729   8.4106249797e+01  -3.6281381352e+00    0.1885782    0.1093086  35.44  0.001018478    1.560    0.359
       131  -9.1557    250.1388    199.3223   8.1266353439e+01  -5.5973775682e+00    0.2975511     0.160357 -22.43  0.001577306    1.850    0.460
       132  -9.1520    243.9537    198.6768   8.2202890364e+01  -4.5370382393e+00     0.276859    0.1579908 -14.57 0.0009099133    1.928    0.481
       133 -10.6786      3.4503    196.2992   1.2975236348e+02   3.2924152965e+01    0.3241604    0.1977981 -87.66  0.002272925    1.276    0.216
       134 -10.9634      2.7495    188.4459   1.2946296818e+02   3.4568934113e+01    0.6118064    0.2085548  69.64  0.002881971    2.952    0.661
       135  -7.6394    140.3335    195.3250   1.0175594281e+02   1.4426219879e+01    0.1332791    0.1063297   5.35 0.0007051079    1.711    0.416
       136  -9.5474    247.3491    190.6526   8.0101457057e+01  -4.0105636051e+00    0.3409765    0.1988411   7.26   0.00168446    2.114    0.527
       137  -7.8510    231.7881    191.4109   8.2967792825e+01  -1.5328786026e+00    0.1853983    0.1074414  29.38 0.0007459867    1.649    0.393
       138 -10.2912      2.1923    177.6654   1.2895790892e+02   3.6841564244e+01    0.3451516      0.14425  81.39   0.00183435    2.140    0.533
       139 -10.2300      4.3944    173.6459   1.2827660316e+02   3.7508231899e+01    0.3754385    0.1170173  63.15  0.001611226    3.482    0.713
       140 -10.6521      3.5926    166.9876   1.2801225367e+02   3.8992028746e+01    0.4840253    0.1438575  57.89  0.002117061    3.435    0.709
       141  -7.6004    209.3568    165.3236   8.1913610416e+01   6.6393554727e+00    0.1508711     0.104449   9.06 0.0007045284    1.769    0.435
       142 -10.6559      3.7941    152.8004   1.2697920152e+02   4.2062369869e+01     0.332881    0.1736767 -73.08  0.002002959    1.513    0.339
       143 -10.7820      4.7662    147.7773   1.2637787579e+02   4.3102152548e+01    0.5403063    0.1656474  39.78  0.002637054    3.058    0.673
       144 -10.2083      4.1489    136.1640   1.2556251058e+02   4.5745282209e+01    0.3589275    0.1088516 -86.30  0.001363999    3.636    0.725
