#   1 NUMBER                 Running object number                                     
#   2 MAG_AUTO               Kron-like elliptical aperture magnitude                    [mag]
#   3 X_IMAGE                Object position along x                                    [pixel]
#   4 Y_IMAGE                Object position along y                                    [pixel]
#   5 X_WORLD                Barycenter position along world x axis                     [deg]
#   6 Y_WORLD                Barycenter position along world y axis                     [deg]
#   7 A_WORLD                Profile RMS along major axis (world units)                 [deg]
#   8 B_WORLD                Profile RMS along minor axis (world units)                 [deg]
#   9 THETA_WORLD            Position angle (CCW/world-x)                               [deg]
#  10 FWHM_WORLD             FWHM assuming a gaussian core                              [deg]
#  11 ELONGATION             A_IMAGE/B_IMAGE                                           
#  12 ELLIPTICITY            1 - B_IMAGE/A_IMAGE                                       
         1 -16.7767    244.7508     47.1367   2.6183332459e+02  -6.0831294178e+01    0.8626124    0.2618773 -39.94   0.01822698    5.094    0.804
         2 -18.5852    240.1261     92.7640   2.6478801027e+02  -6.0075031688e+01     1.214269    0.9306966 -80.37   0.04902049    1.395    0.283
         3 -16.3972    190.9999    155.9992   2.6738213336e+02  -5.7546985671e+01    0.9305701    0.4348325 -21.11   0.02061182    5.169    0.807
         4 -10.9492    234.7700      3.1718   2.5852868553e+02  -6.1003990402e+01   0.04323036    0.0297417  36.87  0.001445072    1.443    0.307
         5 -10.4972    231.0081      1.3875   2.5831816955e+02  -6.0894956985e+01   0.03458387   0.01954163 -54.53 0.0004394639    1.699    0.412
         6 -10.2448    181.2910    211.6257   2.7036445616e+02  -5.6352626542e+01   0.01940323    0.0136791 -22.04 0.0007022346    1.729    0.422
         7 -13.3963    247.3267    247.9081   2.7458023283e+02  -5.7769780132e+01    0.1094628   0.09172004  85.47  0.003932582    1.357    0.263
         8 -11.7704    242.1289    207.6492   2.7206481289e+02  -5.8331423654e+01   0.04035693   0.03255719 -49.24 0.0007416295    1.234    0.189
         9 -11.6762    249.8268    203.8360   2.7209558973e+02  -5.8637454295e+01   0.04345118   0.03355789  -7.18  0.001721888    1.545    0.353
        10 -13.0164    240.5719    199.6938   2.7153970771e+02  -5.8420149017e+01    0.1223672   0.04389901 -45.19  0.003266603    3.114    0.679
        11 -12.9186    192.4172    194.6478   2.6972067674e+02  -5.6984195731e+01    0.1449298   0.07047557  -0.74  0.003278587    5.030    0.801
        12 -12.0729    203.3711    199.1474   2.7031875823e+02  -5.7258098640e+01   0.08941486   0.04533451 -48.35  0.002958535    1.974    0.493
        13 -12.0448    249.3960    192.7760   2.7141608223e+02  -5.8814852963e+01   0.05132729   0.03017873  24.49 0.0009237675    1.774    0.436
        14 -15.7878    193.2118    103.2360   2.6417886020e+02  -5.8381647704e+01    0.3138099    0.1777114 -79.50  0.009595176    2.042    0.510
        15 -15.9533    243.1017    138.2342   2.6782800888e+02  -5.9503200168e+01    0.2590576    0.2467384  57.04   0.01176945    1.072    0.067
        16 -12.9177    245.1479    234.7384   2.7375092998e+02  -5.7943984307e+01   0.06048084   0.03852174 -32.42  0.002144198    1.905    0.475
        17 -12.4641    238.9779    217.5630   2.7254373926e+02  -5.8060156728e+01   0.05969844   0.04138156  14.07  0.001036078    1.651    0.394
        18 -12.4267    209.6320    157.8776   2.6804077934e+02  -5.8120294500e+01   0.07746395   0.04510831 -19.83  0.002304144    2.506    0.601
        19 -12.3227    165.1621    157.3102   2.6673461431e+02  -5.6687923982e+01   0.07597556    0.0407592  -2.91  0.002212897    2.911    0.657
        20 -12.2276    167.9891    155.5178   2.6670590204e+02  -5.6806635229e+01    0.0435978   0.03153476  14.43 0.0009806886    1.461    0.316
        21 -15.3333    238.8817     83.0789   2.6411003251e+02  -6.0167510244e+01    0.1971916   0.04168658  29.21   0.00468543    3.739    0.733
        22 -13.0009     66.5520    143.8331   2.6348426018e+02  -5.3634066363e+01     0.501299    0.1401096  21.73   0.01113918    3.578    0.720
        23 -13.3272     37.1446    126.8672   2.6189196390e+02  -5.2874328370e+01   0.05944617   0.04274581 -74.07 0.0009577442    1.429    0.300
        24 -14.0217     53.5842    126.2114   2.6220668043e+02  -5.3431109589e+01    0.1035718   0.07374192  33.37  0.001919442    1.381    0.276
        25 -14.8737     45.7248    125.2381   2.6198321014e+02  -5.3181086910e+01    0.2039768    0.1324581  76.21  0.003618002    1.893    0.472
        26 -14.7179      6.4142    131.7635   2.6152522750e+02  -5.1788872391e+01    0.1375501    0.1121545  22.09  0.004096521    1.217    0.178
        27 -11.5279    147.1035    135.3545   2.6494690737e+02  -5.6413432337e+01   0.03196441   0.02424986  35.49 0.0005874347    1.307    0.235
        28 -11.6858    183.8415    215.8719   2.7068398542e+02  -5.6362781141e+01   0.03668056   0.02614745 -81.67  0.001027886    1.638    0.390
        29 -10.6573    238.7249    188.3716   2.7079915759e+02  -5.8554432055e+01    0.0424393   0.02499605 -17.81  0.001302136    2.670    0.625
        30  -9.9446     92.6033    118.2357   2.6261741809e+02  -5.4835128953e+01   0.02469603   0.01638912  33.47 0.0002996246    1.475    0.322
        31 -12.4085    141.8016    101.1982   2.6275493383e+02  -5.6698466703e+01   0.04948674   0.04072256 -38.79 0.0008228088    1.241    0.194
        32 -11.3323    113.4127     94.6236   2.6169654639e+02  -5.5830943485e+01    0.0359095    0.0298828  38.87  0.001073438    1.204    0.169
        33 -12.6384    157.6513     88.1169   2.6233089652e+02  -5.7396913020e+01   0.06028905   0.03338391  35.65  0.001018469    1.756    0.430
        34 -11.6351    158.4642     83.4583   2.6205991426e+02  -5.7483279571e+01   0.03145455    0.0279732 -84.30 0.0006363093    1.159    0.137
        35 -12.7731    165.0417     85.7163   2.6235985919e+02  -5.7675052822e+01   0.05781753   0.03476065  27.01  0.001692413    1.618    0.382
        36 -12.0495    234.9407    182.9745   2.7035052958e+02  -5.8525209007e+01    0.0613675   0.02766696  36.10  0.001744983    2.127    0.530
        37 -11.2599    138.1697     70.3185   2.6077207429e+02  -5.6961830932e+01   0.04484902   0.02057956 -64.22   0.00142244    2.061    0.515
        38 -14.7377    173.0399     96.2778   2.6321969343e+02  -5.7805089902e+01    0.2134626    0.1071195  49.06  0.002102353    2.256    0.557
        39 -12.7026    176.7554    169.9170   2.6780653130e+02  -5.6873272551e+01   0.07977708   0.04628105  22.78  0.002431632    1.768    0.434
        40 -11.0851    152.0670     62.2957   2.6058307248e+02  -5.7527216862e+01   0.02581019   0.02391632 -63.65  0.000471302    1.073    0.068
        41 -11.9237    141.4654     58.0046   2.6007761731e+02  -5.7218816043e+01   0.03516732   0.02563644  77.79 0.0005652766    1.545    0.353
        42 -11.9288    130.7505     55.4940   2.5968907002e+02  -5.6884313956e+01   0.03991638   0.03436253 -57.22 0.0008899841    1.147    0.128
        43 -13.7306    186.2343     51.3951   2.6067043050e+02  -5.8811586492e+01    0.0809584   0.06090063 -15.63  0.001455303    1.461    0.316
        44 -12.1363    189.9909     47.4122   2.6049773451e+02  -5.8985761420e+01   0.04734121   0.03188423  30.96  0.000574938    1.451    0.311
        45 -12.0113    141.4758     50.6013   2.5961303561e+02  -5.7304471986e+01   0.03270759   0.03103148  24.75 0.0006962436    1.054    0.051
        46 -12.4095    182.2453     42.9729   2.6002759144e+02  -5.8775556778e+01   0.04954781   0.03288116 -67.48 0.0009174189    1.484    0.326
        47 -11.9005    190.7917     38.0405   2.5989879122e+02  -5.9122163064e+01   0.06790992   0.03894227  -9.92  0.001575685    2.184    0.542
        48 -12.7859    179.5023    165.1086   2.6759959088e+02  -5.7035816267e+01    0.1027776   0.04569891   9.77   0.00267733    3.517    0.716
        49 -10.6300    160.7748     29.4124   2.5867275893e+02  -5.8197944477e+01   0.02458978   0.01745296  88.29  0.000293887    1.543    0.352
        50 -10.1436    196.7050     27.0979   2.5930555279e+02  -5.9447084181e+01   0.02601972   0.02246396  21.35 0.0004440893    1.155    0.134
        51 -10.1498    186.9738     24.4711   2.5891373168e+02  -5.9145159937e+01   0.02631853   0.02333915  23.66 0.0003228046    1.124    0.111
        52 -11.5680    237.8151     18.6263   2.5968252668e+02  -6.0936874225e+01   0.04130934   0.02967471  20.79 0.0004989378    1.382    0.276
        53  -9.6073    206.6094    215.2784   2.7135738251e+02  -5.7089510512e+01   0.01967865    0.0131743 -32.28 0.0006998306    1.738    0.425
