#   1 NUMBER                 Running object number                                     
#   2 MAG_AUTO               Kron-like elliptical aperture magnitude                    [mag]
#   3 X_IMAGE                Object position along x                                    [pixel]
#   4 Y_IMAGE                Object position along y                                    [pixel]
#   5 X_WORLD                Barycenter position along world x axis                     [deg]
#   6 Y_WORLD                Barycenter position along world y axis                     [deg]
#   7 A_WORLD                Profile RMS along major axis (world units)                 [deg]
#   8 B_WORLD                Profile RMS along minor axis (world units)                 [deg]
#   9 THETA_WORLD            Position angle (CCW/world-x)                               [deg]
#  10 FWHM_WORLD             FWHM assuming a gaussian core                              [deg]
#  11 ELONGATION             A_IMAGE/B_IMAGE                                           
#  12 ELLIPTICITY            1 - B_IMAGE/A_IMAGE                                       
         1 -12.4805    129.1576     47.1932   4.1433798344e+01   4.5982846622e+01     1.721774     1.032913 -71.76  0.007089523    2.399    0.583
         2 -13.2696    143.5130     61.0381   4.2615851468e+01   4.0630177484e+01     1.101597     1.034321 -17.33  0.006372585    1.254    0.203
         3 -13.2387    116.7240     63.5323   4.9188393148e+01   4.6399924589e+01     1.136402    0.6020889 -35.64  0.004855641    2.059    0.514
         4 -12.9860    210.4953     45.5111   2.9632786896e+01   2.8321464108e+01      1.25428    0.7669041 -61.18  0.007504222    1.441    0.306
         5 -11.8398    217.0540     31.5656   2.6208367659e+01   2.8784704753e+01    0.4277864    0.2981123 -21.91  0.001541864    2.070    0.517
         6 -14.3700    191.3994     68.4319   3.6817931608e+01   2.8962063159e+01     2.002759    0.8108624 -44.75   0.00734222    2.191    0.544
         7  -8.6003    147.7420     39.1808   3.5831614190e+01   4.2705528296e+01     1.050774    0.7550244   2.84  0.005424044    2.270    0.560
         8 -13.4633    193.1274     41.8607   3.0609395567e+01   3.2309092822e+01     1.464503    0.8322022  47.55  0.007314346    2.375    0.579
         9 -13.1074    173.7216     41.6856   3.2825119046e+01   3.6498473507e+01     1.078459    0.7826713 -28.62  0.003915649    1.644    0.392
        10 -11.6109    154.1540     42.8861   3.5843937360e+01   4.0751157106e+01    0.8132782    0.5280056  -6.78  0.003216561    2.745    0.636
        11  99.0000     40.3951     27.9449   6.2175063383e+01   6.7370432475e+01     1.797467     1.225169  41.76   0.01036639    1.445    0.308
        12 -12.6572     26.6226     36.0484   7.2980570787e+01   6.8125653141e+01      1.07733    0.3802283 -34.38  0.003796933    3.396    0.706
        13 -11.5775     72.4881      6.9551   4.0421983978e+01   6.3460774085e+01    0.7250929    0.5254191 -71.95  0.004178259    1.971    0.493
        14 -12.3912     63.8114     12.8248   4.5630529051e+01   6.4770687214e+01     1.674932    0.7480718  42.19   0.00116533    1.956    0.489
        15 -13.1281     76.2096     21.7194   4.5505513503e+01   6.1217047084e+01     1.116766    0.7619482  46.42  0.006382514    1.246    0.197
        16 -14.4113      4.8373     53.6135   9.1725064745e+01   6.6827758276e+01     2.468689     2.366202  65.07   0.01684819    1.374    0.272
        17 -14.5877     55.6379     39.4011   6.0268270202e+01   6.3039507833e+01      3.47799     2.047258   2.75  0.004505349    2.881    0.653
        18 -13.0514     82.2073     40.3231   5.0935572646e+01   5.7609149762e+01    0.7783569    0.5767243 -54.31  0.004204803    1.697    0.411
        19 -13.8083     13.1696     38.4891   8.1803321364e+01   6.9197295074e+01     1.499628    0.5279436 -33.16  0.003472298    3.339    0.701
        20 -12.9975     12.2352     32.3584   7.9949674243e+01   7.0404122596e+01    0.8845548    0.6447027  21.36  0.003541289    1.342    0.255
        21 -10.8825    112.8341     19.9784   3.6068343469e+01   5.3074729167e+01    0.3857739    0.2646429 -24.26  0.001425719    1.749    0.428
        22 -11.0957    105.4294     28.1427   4.0339534352e+01   5.3925114042e+01    0.5240228    0.3414765 -71.33  0.002599741    2.105    0.525
        23 -10.5226    126.0000     23.0305   3.4684695662e+01   4.9668844832e+01    0.4161125    0.1860123 -26.84  0.001573312    2.680    0.627
        24 -12.5003    163.2537     21.4911   2.9084827754e+01   4.1219892530e+01    0.2780969    0.2377631  49.42  0.000598941    1.417    0.294
        25 -11.6273     33.1796     14.9134   5.9461976597e+01   7.0289231244e+01    0.2177602    0.1524511  22.03 0.0002802478    1.233    0.189
        26  -9.0089     28.2299     18.6111   6.4001818351e+01   7.0581808392e+01    0.3180054    0.2165475  -1.41  0.001494422    1.499    0.333
        27 -10.3931    154.2684     15.5627   2.8598059991e+01   4.3870059310e+01    0.2314658    0.1983359  10.78  0.001201108    1.651    0.394
        28  -9.9257     88.7802     11.6281   3.8161588915e+01   5.9429127821e+01    0.2042875    0.1839019  55.46  0.001004964    1.076    0.071
        29 -10.2833     84.8376     13.1484   3.9702119173e+01   6.0179563638e+01    0.2071879    0.1725404  27.71 0.0008615156    1.263    0.208
        30 -10.6820     84.7507      7.9331   3.7677636638e+01   6.0661990649e+01    0.2735774    0.1691092 -17.11  0.001066893    1.991    0.498
        31 -11.0592    148.5749     11.6309   2.8221796662e+01   4.5554776754e+01     0.434565    0.2004919 -75.10   0.00187864    2.852    0.649
        32  -9.9387    129.6504     12.2321   3.0851218812e+01   4.9883378382e+01    0.2183324    0.1116488 -33.09  0.001124501    2.152    0.535
        33 -10.1079    222.0390     11.3442   2.1915624914e+01   3.0106063505e+01     0.146641    0.1073144 -77.63 0.0003214077    1.098    0.089
        34  -9.8379    141.2381     10.4130   2.8775268418e+01   4.7357571048e+01     0.199029    0.1621454  71.95 0.0008195848    1.109    0.098
        35 -11.5840    116.2870      9.1837   3.1946822412e+01   5.3281805806e+01    0.3034902    0.2532935  -8.42 0.0008405293    1.525    0.344
        36  -9.7920    227.9830      9.9636   2.1303599613e+01   2.9146714581e+01    0.1286131   0.08952927 -54.68 0.0006074381    1.179    0.152
        37 -10.4706    193.4914      8.5366   2.3278261121e+01   3.6027499824e+01    0.1900528    0.1355011  80.40 0.0006900765    1.269    0.212
        38 -10.4453     47.5797      8.0707   4.9331912956e+01   6.8483652245e+01    0.2585503    0.2104363  -1.16  0.001730129    1.288    0.224
        39  -9.9597     26.9527      9.2745   5.9797581391e+01   7.1966853285e+01      0.21354    0.1142392  16.16  0.001059825    2.246    0.555
        40  -9.3193    173.2811      6.9202   2.4542326780e+01   4.0473062042e+01    0.1529863    0.1185694 -63.24 0.0005274096    1.165    0.142
        41  -9.4311    110.7580      7.3620   3.2264977851e+01   5.4728284812e+01    0.1815264   0.09258822  59.80 0.0009274141    1.595    0.373
        42  -9.8345    100.4604      6.9749   3.3979489533e+01   5.7152419783e+01    0.1794969    0.1407111 -61.76 0.0006170489    1.464    0.317
        43  -9.9634     95.6618      7.0370   3.4945710541e+01   5.8253465683e+01    0.4453024     0.281564  79.26   0.00246623    1.592    0.372
        44  -9.9148    145.5803      5.2393   2.6846049537e+01   4.6823987292e+01    0.1903781    0.1125369 -34.29  0.001094982    1.860    0.462
        45  -9.8425      2.6087      6.6022   7.4226504054e+01   7.5503067660e+01    0.2200454   0.09401082  20.27    0.0011237    2.175    0.540
        46  -9.5413    125.7883      4.6917   2.9133510277e+01   5.1445457546e+01    0.1090011   0.08467082  41.70            0    1.465    0.318
        47 -10.6650     55.5540      2.9928   4.3849746731e+01   6.7367702257e+01    0.3104126    0.1841203  33.26   0.00176736    1.574    0.365
        48 -11.2532    155.2492      2.1076   2.5021236209e+01   4.4902827891e+01    0.2583629    0.1631773  55.31 0.0008765194    1.663    0.399
        49  -9.5330    208.8193      2.0754   2.0925610004e+01   3.3582884170e+01    0.1258589   0.07074555 -41.38 0.0003720995    1.652    0.395
        50  -9.7989    133.0845      2.2917   2.7482014758e+01   4.9949512929e+01    0.1729536    0.1321028  82.19  0.001099734    1.079    0.073
        51  -8.9645     90.6875      1.3038   3.3825462517e+01   5.9842217040e+01     0.214348   0.09456609  76.48 0.0009389825    2.468    0.595
        52 -10.1982     85.3304      1.5200   3.5031560690e+01   6.1041907879e+01    0.2838594    0.1090316  58.41  0.001083024    1.964    0.491
        53 -10.9889    177.6580     94.6962   4.5014258742e+01   2.7517308013e+01    0.2367053    0.2169449 -58.14 0.0003775502    1.022    0.021
        54 -10.8853    228.9409    249.3477   6.5536785888e+01  -7.0257734373e+00    0.2033252    0.1256671 -23.68 0.0003298487    1.291    0.226
        55 -11.7499    153.6949    249.6475   8.0201458117e+01   1.3180823065e+00    0.5924497    0.2315684  18.75  0.002311602    3.089    0.676
        56 -11.8705    112.3844    249.1919   8.9346203563e+01   6.6657267807e+00    0.3577484    0.2408856  39.66   0.00200986    1.389    0.280
        57 -11.1525     52.8766    250.5308   1.0322915264e+02   1.3702850722e+01    0.2389752   0.09968623  33.03 0.0006529756    1.934    0.483
        58 -13.4627     37.9270    248.1023   1.0644683439e+02   1.5845445187e+01    0.8290928     0.682018 -32.41  0.005316338    1.585    0.369
        59 -12.2198     11.9851    248.6029   1.1220851995e+02   1.8324918992e+01     0.614385    0.3373793 -84.65  0.003507707    1.849    0.459
        60 -10.3483     68.5470     94.9667   7.4024853459e+01   4.9996070521e+01     0.232605    0.1908852  31.22 0.0004625679    1.206    0.171
        61  -9.7074    246.5002     94.6879   3.5672929813e+01   1.4918073599e+01     0.167445    0.1073905  61.21 0.0006986538    1.920    0.479
        62 -12.2196    219.0489     91.3252   3.8179017929e+01   2.0060738925e+01    0.4070488    0.2581919 -51.57  0.001718761    1.353    0.261
        63 -11.4438    224.8819     91.1463   3.7427139695e+01   1.9054399107e+01    0.3100096    0.1810769 -59.69 0.0008032013    1.727    0.421
        64 -10.6118    224.1937     87.1764   3.6710896164e+01   1.9791074376e+01    0.2041889    0.1700567 -89.27 0.0006438692    1.278    0.217
        65 -12.2921    210.9093     93.2106   3.9625376694e+01   2.1242503025e+01    0.5256634    0.3680589  28.39  0.002575557    2.299    0.565
        66 -12.3238    188.9164     92.9861   4.2768018986e+01   2.5521483099e+01     0.656501    0.2766302  59.52 0.0002886839    2.724    0.633
        67 -12.5823    186.5948     87.7945   4.1945142135e+01   2.6867156639e+01    0.5295913    0.3833704 -16.62  0.002711754    1.970    0.492
        68 -10.6240     10.1230     92.8160   9.8001927293e+01   5.7388031467e+01    0.2023803    0.1397703 -30.40  0.001073015    1.393    0.282
        69 -11.7731     95.1727     89.5250   6.3210634395e+01   4.6231725798e+01    0.4352766    0.3848894  70.15 0.0007473072    1.275    0.216
        70 -11.8863     56.4953     86.5073   7.6332019136e+01   5.3859815021e+01    0.3114818    0.2523315 -70.49  0.001254438    1.500    0.333
        71 -11.6194     48.4870     85.0896   7.9252729546e+01   5.5352465152e+01    0.3322355    0.2963234 -87.41  0.001013714    1.396    0.283
        72 -12.8384     52.7973     89.8808   7.8793297085e+01   5.3635059849e+01    0.5462909    0.3850326  44.96  0.001413674    1.578    0.366
        73 -10.7436     52.8437     86.1755   7.7735108707e+01   5.4481585082e+01    0.2322017    0.1864998 -18.47 0.0003882914    1.276    0.216
        74  -9.7160    241.1799     91.0781   3.5561145076e+01   1.6311645993e+01    0.1578994      0.10751 -57.86            0    1.292    0.226
        75 -12.8066    163.7954     67.2355   4.0646949730e+01   3.5075246739e+01    0.8762431    0.6666409 -34.24  0.003473716    1.426    0.299
        76 -12.6120    175.1701     69.2781   3.9339232157e+01   3.2262932854e+01     1.119298     0.601721  79.58  0.004826027    2.527    0.604
        77 -12.5263    179.8713    242.9636   7.3754121925e+01  -7.6801396041e-01     0.335166    0.2555166  43.79  0.001417898    1.802    0.445
        78 -12.2697     15.8203    238.4279   1.1084047665e+02   2.0121855449e+01    0.5828609    0.3642117 -21.53   0.00227677    2.686    0.628
        79 -13.4978    177.8263     84.6860   4.2618200201e+01   2.9204152855e+01     1.281306    0.8606006  10.97  0.003953182    3.308    0.698
        80 -11.4326    227.5300    242.6748   6.4757801523e+01  -5.9576858546e+00    0.2212565    0.1776532 -35.36  0.001469954    1.541    0.351
        81 -11.1468    110.1857    240.7938   8.8819910738e+01   8.5739452911e+00    0.1983413    0.1718691  43.36 0.0005742305    1.196    0.164
        82 -14.1243    204.9884     69.9538   3.5422772856e+01   2.5997226886e+01     1.226238    0.7673935 -81.68  0.006542764    1.897    0.473
        83 -11.8466    219.3960    240.2930   6.5813840267e+01  -4.7877642675e+00    0.3439048     0.244977 -19.37  0.002356123    1.120    0.107
        84 -14.1933    212.2508     61.3273   3.2756232605e+01   2.5834697929e+01     1.425311    0.8703246  74.50  0.008245214    1.740    0.425
        85 -13.7832    199.0480     57.6832   3.3456276894e+01   2.8961840994e+01     1.512237    0.6710903 -67.38  0.005823362    3.585    0.721
        86 -11.9678    162.2634     58.5508   3.8678692576e+01   3.6732677397e+01    0.7486229    0.4747958 -19.47   0.00155591    2.326    0.570
        87 -12.9466    172.9232     55.9234   3.6413595001e+01   3.4743337991e+01    0.8443624    0.5074643  85.97  0.001133763    1.926    0.481
        88 -11.2665    170.6471     48.9454   3.5013005081e+01   3.6218511160e+01    0.3789448    0.2274278  63.35 0.0003507687    1.602    0.376
        89 -12.2992      3.6199    247.4448   1.1394422424e+02   1.9321033702e+01    0.7611369    0.3668827  83.13  0.004076506    2.064    0.515
        90 -11.0995    159.9519    219.6552   7.4302114108e+01   5.8869310300e+00    0.2239614    0.1832281 -33.96 0.0002969043    1.230    0.187
        91 -11.6641    182.7001     35.9155   3.0389467934e+01   3.5266474553e+01     0.363722    0.2523359 -67.30 0.0003355928    1.313    0.238
        92 -12.4503    187.1828     34.5147   2.9583301159e+01   3.4478679258e+01    0.3651416    0.2642947  85.36  0.002296556    1.253    0.202
        93 -12.4794    161.0978     39.1883   3.3866869831e+01   3.9641153474e+01     0.453102    0.4180325 -45.25  0.002246223    1.234    0.189
        94 -11.6489    156.3294     36.2204   3.3758977275e+01   4.1096907621e+01    0.2970383     0.172048  78.91  0.001507119    1.713    0.416
        95 -12.8246     39.3652     87.8064   8.3915920249e+01   5.5907679118e+01    0.6929569     0.366828 -60.17  0.003006456    1.953    0.488
        96 -12.9553     66.7802     83.0691   7.1237385136e+01   5.2953807381e+01    0.8488207    0.6300803  77.46 0.0009078749    2.136    0.532
        97  -9.2002    163.7310    118.3416   5.3229011777e+01   2.5934324579e+01    0.1460903    0.1109381 -72.45  0.000318634    1.606    0.377
        98  -9.6179    249.2673    117.6364   3.9626651406e+01   1.0982968558e+01    0.1314937    0.1115882  35.15 0.0009288606    1.565    0.361
        99  -9.4626    204.8517    116.6465   4.5450235539e+01   1.8381681040e+01     0.169673    0.1238949  69.29 0.0004590075    1.709    0.415
       100 -10.8054     90.0752    113.3856   7.1415975042e+01   4.1872940890e+01    0.3378487    0.2237717 -57.43  0.001014777    1.608    0.378
       101 -13.2667     54.4766     71.6261   7.2622213130e+01   5.7405030524e+01     1.083294    0.6053497 -56.77  0.004730916    2.139    0.533
       102 -12.9616     59.4406     64.3558   6.8109880666e+01   5.8045224540e+01     1.668174    0.8741613 -63.50  0.005834702    3.882    0.742
       103 -14.4185     42.5501     75.0414   7.8911050085e+01   5.8415559528e+01      1.40983    0.9925631  33.07  0.007300607    1.441    0.306
       104  -9.5412    171.2006    112.8596   5.0454249410e+01   2.5498066980e+01     0.185059    0.1665394  -1.04 0.0002937435    1.303    0.232
       105 -14.3444      7.2031     66.8823   9.3919402617e+01   6.3758487082e+01     1.282756     1.116258 -77.06  0.007503752    1.354    0.261
       106 -11.8140    132.4819    111.2027   5.8608053497e+01   3.3864703306e+01    0.3653083    0.3312655  85.05 0.0008291277    1.202    0.168
       107 -13.3741     40.6598     56.8515   7.3814478917e+01   6.2439508118e+01     1.460948    0.6798329  36.53  0.006013871    2.111    0.526
       108 -10.4248    118.2233    110.7727   6.2254998023e+01   3.6929423561e+01     0.254444    0.1834378  -3.69  0.001065381    2.076    0.518
       109 -12.3567     24.6814     50.5620   7.9681831259e+01   6.5696926055e+01    0.5059152    0.3947118 -42.46 0.0006341233    1.282    0.220
       110 -12.0902     28.9854     50.0213   7.7196904649e+01   6.5297194858e+01    0.3540052    0.2276375 -56.93 0.0003047004    1.883    0.469
       111 -12.6703     76.2884     42.0325   5.3515371174e+01   5.8614935913e+01    0.5180716    0.3813905  38.17  0.001489788    1.234    0.189
       112 -10.8812     96.9706    110.0465   6.8340412310e+01   4.1352739941e+01    0.2667176    0.2263112 -29.03 0.0007115203    1.238    0.192
       113 -13.6821     79.0253     59.6887   5.9031396204e+01   5.5237576364e+01     1.817265    0.9779307 -42.40  0.008131111    1.992    0.498
       114  -9.7964      2.3038     91.6699   1.0126169063e+02   5.8122727137e+01    0.1312038   0.09750415  62.28 0.0005554433    1.653    0.395
       115  -9.8012    204.6370     90.7379   3.9952896305e+01   2.2821624586e+01    0.1183352    0.1014849  15.20 0.0002708796    1.638    0.389
       116 -10.2094    166.5149     89.5597   4.5756039314e+01   3.0767245086e+01    0.3382052    0.2120519  82.09  0.001230763    2.302    0.566
       117 -12.0501    162.2824     84.0724   4.5169911253e+01   3.2640097704e+01    0.5015936    0.4136543  75.39  0.001797182    1.242    0.195
       118 -11.9035    169.3991     79.5705   4.2788165958e+01   3.1857314180e+01    0.5566775    0.4289725 -40.71  0.002038059    1.292    0.226
       119 -11.8045    149.1869     85.8337   4.8178016912e+01   3.5210164183e+01    0.5084599    0.3484842  75.68  0.001612459    1.769    0.435
       120 -11.9587    148.4691     81.1770   4.7098823881e+01   3.6195021465e+01    0.3771288    0.3266819 -71.77 0.0003312413    1.163    0.140
       121 -10.9968     24.1754     87.3566   9.0561858157e+01   5.7634188650e+01    0.3361932    0.2277876 -82.46  0.001630354    1.893    0.472
       122 -10.8452      4.3086     78.9548   9.8031152900e+01   6.1118436046e+01    0.2031364    0.1780784  15.94 0.0003688977    1.265    0.209
       123 -10.3846      7.7696     88.0349   9.8169624163e+01   5.8717917318e+01    0.1963518    0.1574048 -57.67 0.0004689813    1.128    0.114
       124 -11.9906      5.8216     83.3045   9.8167226612e+01   5.9986987556e+01     0.377648    0.2193807 -64.76 0.0003848771    1.569    0.363
       125 -11.1523    237.2857     86.4340   3.5091642416e+01   1.7650422151e+01    0.3159454     0.204953  77.58  0.001638888    1.895    0.472
       126 -10.7782    207.6930     85.0266   3.8316651921e+01   2.3157128754e+01     0.182758    0.1441919 -47.21 0.0003690027    1.125    0.111
       127 -10.1120    195.6832    107.3438   4.4897635419e+01   2.1711454866e+01    0.2550167    0.1430304 -50.59  0.000764545    1.670    0.401
       128 -11.9296    213.4081     82.7519   3.7107343976e+01   2.2436709184e+01    0.2925701    0.2214611  15.67 0.0009803509    2.322    0.569
       129 -10.9617     83.1512     78.3864   6.3803272004e+01   5.0913526756e+01    0.4260086    0.2421519  30.86  0.001785979    1.934    0.483
       130 -12.3877     87.8495     73.2380   6.0582018240e+01   5.0978733121e+01    0.6507078    0.4385251  -8.47 0.0004532652    2.262    0.558
       131 -12.2097    100.0443     65.0452   5.4148014504e+01   4.9879396188e+01    0.6602613    0.3232742  62.38  0.001836489    2.829    0.646
       132 -12.0616    103.7366     75.4481   5.6360006404e+01   4.7213439016e+01     1.001099    0.5945866  16.49  0.003352446    3.496    0.714
       133 -10.2622     99.9818     74.2844   5.7104116426e+01   4.8239075143e+01    0.2237213    0.1945934  19.46 0.0001656537    1.232    0.188
       134 -12.4751     96.5051     69.7406   5.6713989390e+01   4.9816757261e+01    0.8042372    0.4939702 -49.86  0.002212358    1.823    0.451
       135 -11.1474    100.5040     69.0289   5.5292223867e+01   4.9082029299e+01    0.3276656    0.2772472 -46.04  0.001028236    1.256    0.204
       136 -10.8103     19.0309     80.7382   9.1389273998e+01   5.9670456770e+01      0.19285    0.1894191  49.43 0.0003824636    1.206    0.171
       137 -11.8824     23.6962     78.3781   8.8598227711e+01   5.9809406734e+01    0.3259716     0.175352  10.41  0.001480378    2.026    0.507
       138 -11.4762     20.2427     75.7869   8.9593414134e+01   6.0725345162e+01    0.2640288    0.2028777 -29.51 0.0003456388    1.181    0.154
       139  -9.4665    216.5502    108.4963   4.2030905483e+01   1.7709140138e+01    0.1289561    0.1082341 -48.11 0.0002435507    1.011    0.011
       140 -10.0146    232.3423     79.1291   3.4202591818e+01   1.9576968145e+01    0.1774302    0.1643265  70.59  0.000967728    1.335    0.251
       141 -11.7987    223.4844     78.1049   3.4964445248e+01   2.1294881231e+01    0.3150561    0.1754215 -66.64  0.001461401    2.075    0.518
       142 -11.6462     79.1028     73.1417   6.3540918909e+01   5.2740571646e+01    0.4619613    0.3359038 -25.83 0.0004195879    1.544    0.352
       143 -11.9146     72.7997     75.2976   6.6525759888e+01   5.3507304004e+01    0.7413707    0.5360307  62.85  0.003476999    1.853    0.460
       144 -11.6572     68.3149     74.2949   6.7897858577e+01   5.4525080693e+01    0.5318079    0.2013629  34.31  0.001650578    2.750    0.636
       145 -10.5693    155.8714     76.5620   4.4443087837e+01   3.5332858422e+01    0.3972107    0.2631607  44.82  0.001957383    1.669    0.401
       146 -11.5682    153.7747     64.8097   4.1743443207e+01   3.7703245241e+01    0.4470971    0.3504402 -84.47  0.002463494    1.333    0.250
       147 -11.2538    239.7624     67.7014   3.1266622270e+01   1.9940700761e+01    0.4370761    0.1853892 -38.77  0.002266305    2.035    0.509
       148  -9.7428    250.0000     68.9210   3.0570376866e+01   1.8068118698e+01    0.1816289   0.05140257 -39.47 0.0003650599    2.832    0.647
       149  -9.8680    110.5305     52.5057   4.7254509741e+01   4.9541913355e+01    0.2755446    0.1444675  44.25  0.001203723    1.901    0.474
       150 -11.2562    107.9748     65.4881   5.2064092274e+01   4.8049639857e+01     0.262852     0.201128 -86.08  0.001287783    1.723    0.420
       151 -11.5152    105.2725     60.8460   5.1318727207e+01   4.9427307098e+01    0.4363785    0.2419777  55.42 0.0009077653    1.750    0.429
       152  -9.9387    108.6989     56.9411   4.9149494679e+01   4.9280640499e+01    0.3933749    0.1899715 -22.41  0.001386632    3.560    0.719
       153 -12.1061    195.4084     86.4328   4.0314744819e+01   2.5318942582e+01    0.4720924    0.2581147 -62.94  0.002146993    2.231    0.552
       154 -11.3086     93.3174     59.9244   5.4459563941e+01   5.2209777977e+01    0.3939283    0.3073324 -87.08  0.001195206    1.772    0.436
       155 -10.0956     89.8210     55.2999   5.3955298198e+01   5.3721772461e+01    0.3358606    0.1591548  44.09 0.0006915619    1.971    0.493
       156 -10.5488    241.0791     58.5075   2.9418470914e+01   2.0973902171e+01    0.1806668    0.1190008 -72.58  0.001183385    1.436    0.304
       157 -11.9999    231.6705     69.1414   3.2321221027e+01   2.1140960396e+01     0.257064    0.2543127 -30.08  0.001733079    1.392    0.282
       158 -12.0476    229.1483     58.8517   3.0553970080e+01   2.3025396593e+01    0.8748305    0.2442333 -37.36  0.003599337    3.224    0.690
       159 -11.3567    226.3068     48.0418   2.8693585451e+01   2.4985252882e+01    0.3954359      0.20189 -26.16  0.001347166    2.928    0.658
       160 -11.7001    230.0866     47.4754   2.8258376071e+01   2.4367993127e+01    0.4220298    0.3649874  77.09   0.00302167    1.355    0.262
       161  -9.2016    248.3419     57.2556   2.8582681784e+01   1.9915453102e+01    0.0895943   0.08700398  14.33 0.0003383284    1.582    0.368
       162 -11.6116    100.9358     53.4665   5.0082915813e+01   5.1569994254e+01    0.5849596     0.247179  48.24   0.00104754    2.160    0.537
       163 -11.9220     86.9030     97.8167   6.8297641967e+01   4.6061335007e+01    0.5762668    0.3591755  26.60  0.001162208    1.812    0.448
       164 -10.5359    238.4449     51.8149   2.8385677481e+01   2.2316417427e+01    0.1933353    0.1667837  76.73  0.001463752    1.382    0.277
       165 -10.7853    160.3273     49.9256   3.6755100499e+01   3.8398385375e+01    0.2975568    0.2456446 -18.64  0.001008929    1.554    0.357
       166  -9.9115    120.8545     50.6373   4.4234475811e+01   4.7432971235e+01    0.2144496    0.1888916  -7.39 0.0007265142    1.368    0.269
       167  -9.8410    194.2873     99.3465   4.3355393643e+01   2.3372176337e+01      0.19432    0.1358606  53.75 0.0005208447    1.582    0.368
       168 -10.5528    100.2220     46.2081   4.7820733857e+01   5.2807113325e+01    0.3844736    0.2475091  62.22  0.001650355    1.547    0.354
       169 -11.2633    221.5423     41.9576   2.7905675644e+01   2.6653241822e+01    0.3919062    0.2419645 -64.19  0.002454431    1.397    0.284
       170  -8.8558    105.3426     43.2909   4.5510341233e+01   5.2049598205e+01    0.1415928    0.0985688  31.94 0.0007025943    1.653    0.395
       171  -9.8614    245.3651     41.1570   2.5886822966e+01   2.2478629317e+01    0.1527949    0.1021581 -51.37 0.0008249428    1.167    0.143
       172  -9.7136    229.7776     39.9349   2.6832529217e+01   2.5380949941e+01    0.1545771     0.122331 -67.00 0.0005681184    1.048    0.046
       173 -11.8929    113.5664     28.1638   3.8616841470e+01   5.2026545034e+01    0.3855127    0.2758295 -88.45 0.0007791034    1.576    0.365
       174 -10.5351    113.4912     38.9350   4.2153669670e+01   5.0743596042e+01    0.5348096    0.2352679  53.02  0.002319389    1.998    0.499
       175 -10.5421    112.0765     33.6993   4.0748991577e+01   5.1726993233e+01    0.3962233      0.34016   8.07  0.002381961    1.422    0.297
       176 -10.7017     40.8978     39.5835   6.7025247812e+01   6.5501246038e+01    0.3421439    0.1991048  31.75  0.001359801    1.573    0.364
       177  -9.8475    184.0500    105.6753   4.6453649974e+01   2.4265635628e+01    0.1881486    0.1740968  79.14 0.0007748739    1.145    0.127
       178 -11.5096     91.9945     33.3812   4.5498818666e+01   5.6373748925e+01    0.3979298    0.3408704  16.47  0.002401714    1.290    0.225
       179 -11.0834     86.8566     28.7315   4.5177742442e+01   5.8084995695e+01    0.3417877    0.2833247  72.81  0.001280542    1.282    0.220
       180 -10.2479    212.0335     33.9500   2.7105876495e+01   2.9471190906e+01    0.1710572    0.1358378 -70.76 0.0004079445    1.019    0.019
       181  -9.1263    225.3068     32.2637   2.5701855227e+01   2.7141047551e+01    0.0930512    0.0855653  59.99 0.0002423894    1.528    0.346
       182 -10.1216    206.1396     31.6459   2.7138674038e+01   3.0913889847e+01    0.1976677     0.129425 -55.13 0.0005665848    1.283    0.221
       183 -10.8411    164.7164     31.1634   3.1346359464e+01   3.9801661349e+01     0.321184    0.1805617 -65.49 0.0007183488    1.905    0.475
       184 -11.6191    140.5676     29.2593   3.4175036086e+01   4.5568893260e+01    0.3038842    0.2061337  89.00  0.000482459    1.479    0.324
       185 -10.3450     73.9797    105.9992   7.5007525305e+01   4.6489569034e+01    0.1844127    0.1751634  14.13 0.0003326004    1.039    0.038
       186 -10.5319     98.0005     22.2612   3.9959133914e+01   5.6284612922e+01    0.2564771    0.2121841  43.51 0.0008892848    1.164    0.141
       187 -10.2980    102.1684     19.9775   3.8220328738e+01   5.5559513925e+01    0.2369652    0.1739374  18.37 0.0004571239    1.729    0.422
       188 -10.5798    187.2746     26.5105   2.7758895973e+01   3.5404475676e+01    0.2712284    0.2349467 -19.69  0.001848983    1.572    0.364
       189 -11.3949    147.3049     25.8231   3.2230738106e+01   4.4389425027e+01    0.4687555    0.3754066  37.95  0.002868783    1.555    0.357
       190 -11.0761    197.9175     26.2570   2.6718427779e+01   3.3211495327e+01    0.2588437    0.2215731 -27.63  0.001312205    1.525    0.344
       191  99.0000    223.6726     26.3055   2.4671578700e+01   2.8146945513e+01    0.2331135   0.09854002 -58.11 0.0009338616    2.063    0.515
       192  -9.8770    225.6855     22.9201   2.3880729945e+01   2.8158811947e+01    0.3407826    0.1236648  64.24  0.001763486    2.833    0.647
       193 -10.0296    129.1949     18.3907   3.2760583444e+01   4.9396761636e+01    0.2332022    0.1487148  89.19 0.0004516636    1.606    0.377
       194 -10.8696    119.6220     22.5866   3.5657940984e+01   5.1213874212e+01    0.3000419    0.2323327  59.87  0.001779874    1.147    0.128
       195 -10.3224    123.3245     25.9103   3.6037953997e+01   4.9987376772e+01    0.2325882    0.1940022  22.45 0.0007574212    1.495    0.331
       196  -9.5373    209.9545    105.5026   4.2341982979e+01   1.9383505681e+01      0.17744    0.1294993  58.64 0.0007521573    1.572    0.364
       197  -8.3526    175.7966     24.1653   2.8370552536e+01   3.8143591313e+01    0.3089303    0.2084937   6.92  0.001567993    3.005    0.667
       198  -9.0849    180.5520     21.5871   2.7286785025e+01   3.7395163254e+01      0.33038    0.1386204 -66.58  0.001157878    2.940    0.660
       199 -10.5967    133.0467     23.8282   3.3775200349e+01   4.7930101938e+01    0.2918094    0.2014211 -46.64  0.001675682    1.534    0.348
       200 -12.1235    110.8689    102.6128   6.2160175466e+01   4.0225517383e+01    0.4383041    0.3090084  -7.70  0.001825243    2.167    0.539
       201 -10.7136     90.5333     21.1465   4.1344073315e+01   5.8105034977e+01    0.2470958    0.1947821  30.12 0.0005615144    1.339    0.253
       202  -9.8451    234.3015     23.6972   2.3452414186e+01   2.6495793042e+01    0.1155475   0.06025576 -63.33 0.0007005206    1.590    0.371
       203 -10.7750    165.8283    102.5409   4.9048104853e+01   2.8553019263e+01    0.2951194    0.2007378 -49.96 0.0009713188    1.410    0.291
       204 -10.8705     31.8808     20.4197   6.2921926220e+01   6.9779912967e+01    0.3319409    0.2297629 -15.64  0.001594778    1.477    0.323
       205  -9.9500    143.7052    103.4074   5.3924467582e+01   3.3079770793e+01    0.2022963    0.1410495  40.54 0.0007614191    1.530    0.347
       206  -9.9175    202.7570     18.1857   2.4608564628e+01   3.3129218892e+01    0.2137843      0.18636  40.50  0.001127463    1.703    0.413
       207 -10.5238    139.4140     17.5304   3.1014026788e+01   4.7095655443e+01    0.2128918    0.1908743  56.78 0.0005698464    1.226    0.184
       208 -10.3907    121.4138     18.1405   3.3942860270e+01   5.1247075384e+01    0.3179471    0.1565512  66.58  0.001553363    1.733    0.423
       209 -11.9420     52.7585    100.1797   8.1525887131e+01   5.1187366695e+01    0.4499152    0.2875319 -16.84  0.001261361    2.033    0.508
       210  -9.5530    223.2455     14.9837   2.2531483378e+01   2.9491832203e+01    0.1312829   0.07762635 -43.81 0.0004225452    1.495    0.331
       211  -9.6033    189.3242     15.2211   2.5056893762e+01   3.6210173066e+01    0.1050876   0.07870173  61.64 0.0001819803    1.501    0.334
       212  -9.8121     87.3063     23.7112   4.3147485050e+01   5.8556392800e+01    0.1870629     0.157781  66.46 0.0001528461    1.158    0.137
       213 -10.1828    102.8701     15.0102   3.6333658950e+01   5.5883364490e+01    0.1815636    0.1564936  66.84 0.0004470389    1.028    0.028
       214 -10.2610    234.0366    101.1083   3.8299365221e+01   1.5939893733e+01    0.1836465    0.1460422 -53.85 0.0004866933    1.065    0.061
       215 -10.4350    226.0217     99.5369   3.8967858376e+01   1.7533721259e+01    0.3472192    0.1098366 -38.34   0.00138155    2.845    0.648
       216 -10.0975    174.7241     99.6359   4.6694293030e+01   2.7241446277e+01    0.2517245    0.1636951 -30.88 0.0009679163    1.721    0.419
       217 -13.0344    114.6894     80.7928   5.4911729075e+01   4.3819824528e+01    0.7477071    0.5519364 -34.53  0.003172734    1.457    0.314
       218  -9.9098    133.6694     13.4137   3.0628866386e+01   4.8834769397e+01    0.2347553    0.1081771  75.19 0.0009563708    1.987    0.497
       219 -11.5645    132.5312     35.7659   3.7391555474e+01   4.6680184600e+01     0.802689    0.3478164 -40.73  0.002747769    2.381    0.580
       220  -9.6692     95.0098     12.4932   3.7081657065e+01   5.7929917586e+01    0.1952253    0.1085095  63.97 0.0004587603    1.528    0.345
       221 -13.2707    137.7546     71.6109   4.6726604691e+01   4.0254440858e+01     1.645548     0.644766  49.45  0.004739743    2.506    0.601
       222  -9.6890    180.0778     11.6451   2.5044184952e+01   3.8541233881e+01    0.1664266   0.08838782  65.33 0.0009334444    1.769    0.435
       223 -10.9761    128.0349     58.3885   4.5007703146e+01   4.4613555057e+01    0.6638588    0.2841511  52.33  0.002392628    2.168    0.539
       224 -13.9473    127.6339     90.4462   5.4315271271e+01   3.9123219843e+01     1.280709    0.7454727 -59.47 0.0004917847    2.182    0.542
       225 -14.2919    122.9650     85.3362   5.4060657137e+01   4.1133549889e+01     1.495785     1.119847 -14.84  0.007069618    1.782    0.439
       226 -10.8269    211.0191    250.0000   6.8817252306e+01  -5.3265976894e+00    0.1795184   0.05724895  27.69 0.0008044484    2.956    0.662
       227 -11.8258    138.8321     87.8728   5.0956766994e+01   3.7134987549e+01    0.4172873    0.2749828  60.57            0    1.597    0.374
       228 -11.8127    139.7567     80.5996   4.8778792146e+01   3.8249855071e+01    0.5559255    0.2923169 -44.33  0.001092515    1.904    0.475
       229 -12.3529    164.3404    248.2423   7.7740903911e+01   2.4212138722e-01    0.4676908    0.3109065  12.34  0.002745502    1.332    0.249
       230 -11.8751    153.5804     59.1948   4.0286141902e+01   3.8602481001e+01     0.588146    0.4299554 -82.28  0.002424672    1.490    0.329
       231 -11.6921    123.0580     67.8837   4.8964076668e+01   4.4235133301e+01    0.3828187     0.316363 -60.75  0.001024513    1.295    0.228
       232 -11.0142    214.5559    246.7118   6.7673910320e+01  -5.2183538933e+00    0.2036029   0.09283549 -35.18 0.0007191013    1.941    0.485
       233 -10.3029    190.8392     99.1386   4.3852117925e+01   2.4082235445e+01    0.2008713    0.1856384 -49.95 0.0002861278    1.075    0.070
       234 -11.3075    169.8055     97.4981   4.7080865407e+01   2.8650167780e+01    0.4472832    0.3488159  67.30  0.002408178    1.376    0.273
       235 -11.6082    200.1968     96.7872   4.1897755876e+01   2.2668025440e+01    0.3175751    0.2437349 -61.85  0.001135671    1.251    0.201
       236 -10.8980     11.7611     97.4053   9.8116876236e+01   5.6130243860e+01    0.2204581    0.2044686  72.41 0.0004912698    1.233    0.189
       237 -11.5201    151.4828     96.4597   5.0442831202e+01   3.2749708847e+01    0.4324472    0.2541056  41.65  0.001696462    1.894    0.472
       238 -10.9594    139.5224     97.5336   5.3366935750e+01   3.5140731745e+01     0.293375    0.1450375  50.59 0.0007340041    2.047    0.512
       239 -13.3942    106.8730     91.3535   6.0177081558e+01   4.3430944702e+01    0.9033601    0.5488112 -52.66   0.00296057    1.796    0.443
       240 -12.5666     62.3738     93.9224   7.6089712391e+01   5.1243678795e+01     0.579917     0.348732 -60.30  0.001427224    1.878    0.468
