#   1 NUMBER                 Running object number                                     
#   2 MAG_AUTO               Kron-like elliptical aperture magnitude                    [mag]
#   3 X_IMAGE                Object position along x                                    [pixel]
#   4 Y_IMAGE                Object position along y                                    [pixel]
#   5 X_WORLD                Barycenter position along world x axis                     [deg]
#   6 Y_WORLD                Barycenter position along world y axis                     [deg]
#   7 A_WORLD                Profile RMS along major axis (world units)                 [deg]
#   8 B_WORLD                Profile RMS along minor axis (world units)                 [deg]
#   9 THETA_WORLD            Position angle (CCW/world-x)                               [deg]
#  10 FWHM_WORLD             FWHM assuming a gaussian core                              [deg]
#  11 ELONGATION             A_IMAGE/B_IMAGE                                           
#  12 ELLIPTICITY            1 - B_IMAGE/A_IMAGE                                       
         1 -11.0136      1.9025     39.3638   1.0798341706e+02   6.7388907691e+01     1.390206         0.17 -62.55    0.0034546    8.822    0.887
         2 -10.8796      1.9688      6.5974   9.6044847312e+01   7.3328810971e+01    0.8390468    0.1554505 -50.10  0.003158356    4.509    0.778
         3 -10.8426      2.2464     19.8372   1.0143589641e+02   7.1068497221e+01    0.6842089    0.1276004 -54.02  0.002640161    3.896    0.743
         4 -12.4549    202.3631     35.3536   4.6487271825e+01   3.0333496244e+01     1.222017     1.020002  -4.86  0.005516513    1.477    0.323
         5 -11.8264    218.4898     19.4202   4.0561334829e+01   2.8398717203e+01    0.7241054    0.6371426 -63.39  0.002797448    1.053    0.050
         6  -9.6859     32.8133     10.3780   8.1216929592e+01   6.9853360441e+01    0.3842678   0.08571344 -39.38  0.001406387    4.174    0.760
         7  -8.1510    241.0323      1.0000   3.4427633715e+01   2.5299268492e+01    0.1909733    0.0623856  75.41 0.0007997449    2.924    0.658
         8  -9.4185     94.7123    220.7344   1.1145754280e+02   1.6425059056e+01    0.2627933    0.1787465  48.31 0.0008010164    1.259    0.206
         9 -13.2244     86.9296    228.3485   1.1381200000e+02   1.6100976827e+01     1.851049    0.8866152  52.04  0.001868075    1.833    0.454
        10 -13.2945     46.8590    221.7877   1.2093939803e+02   2.2598209964e+01     1.667143     1.496128 -56.32  0.001404683    1.544    0.352
        11 -12.2120      8.2753    188.3721   1.2606583758e+02   3.3474338918e+01     1.279778    0.4245466 -60.45  0.006083188    2.963    0.662
        12 -14.3875      3.1661    172.0460   1.2604807870e+02   3.7431954759e+01     8.742465     0.845474 -75.11   0.02507285    6.626    0.849
        13 -14.4156     47.4093    197.4133   1.1879644514e+02   2.7546040350e+01     3.568199     2.993119 -73.04   0.02442946    1.267    0.211
        14  -9.8880    134.7022    194.7605   9.9423413462e+01   1.5103918320e+01    0.4664401    0.2771539 -41.72  0.001662144    1.955    0.489
        15 -10.0854    130.5269    204.5049   1.0184873299e+02   1.3898669637e+01    0.2605173    0.2091305  69.78   0.00118863    1.353    0.261
        16 -11.0796    136.8875    201.0731   9.9953566396e+01   1.3478713124e+01     0.750794    0.4864466  24.89  0.003690928    1.803    0.445
        17  -9.1689     63.8728    202.6486   1.1586674069e+02   2.4392026469e+01    0.2230289    0.1575656  87.76 0.0005137566    1.320    0.242
        18  -8.7725    208.2469    197.9961   8.4680870374e+01   1.4619155401e+00    0.1689183    0.1090035 -34.34 0.0008844704    1.587    0.370
        19  -8.5395    198.3261    197.6537   8.6554418180e+01   3.2307171525e+00    0.1269732    0.1098032  80.19 0.0003657859    1.747    0.428
        20  -9.2871    193.6545    195.7488   8.7129352972e+01   4.3683625355e+00    0.3214247    0.1195464 -50.20  0.001095567    4.014    0.751
        21 -13.4483     18.2072    248.8481   1.2757766908e+02   2.0726695843e+01     1.005207    0.8612931 -55.28  0.003826019    1.865    0.464
        22 -10.4399    121.4909    224.1226   1.0644545643e+02   1.1682821911e+01    0.3605335    0.2932537  -5.70  0.001769673    1.753    0.430
        23 -13.6183     69.5251    248.3196   1.1883559207e+02   1.4841787470e+01     5.077281    0.7147701  37.69   0.01635644    5.732    0.826
        24 -10.2819     65.3315    178.9560   1.1290632339e+02   2.9402517093e+01    0.4109493    0.2639152 -41.05   0.00208974    2.130    0.531
        25 -10.0725     70.0426    173.7051   1.1113889892e+02   2.9975294407e+01    0.3113211    0.2409917 -44.90 0.0007214332    1.546    0.353
        26 -13.6931     10.1534    206.6688   1.2679740584e+02   2.9500941916e+01     1.560717     1.026471  87.75  0.006130598    1.193    0.161
        27 -13.9136      4.0928    246.9574   1.2973422899e+02   2.2457692326e+01     2.118276    0.7875673 -68.43   0.01209392    2.731    0.634
        28  -8.5850    163.7626    218.0020   9.6994388066e+01   5.7955321659e+00    0.1565957    0.1113782 -44.69 0.0005902558    1.609    0.379
        29 -11.6979     66.8099    159.9556   1.1003160055e+02   3.3629593489e+01    0.4651665    0.2947882 -48.89  0.001317783    1.704    0.413
        30 -12.3337     69.4264    146.2458   1.0725558402e+02   3.6569146563e+01     1.761689    0.8937261 -88.47  0.006268214    3.431    0.709
        31 -11.9280    126.1664    230.2238   1.0627954521e+02   9.8547302447e+00    0.6108323    0.4592512 -63.96  0.003801109    1.559    0.358
        32  -9.7086     32.6341    143.8999   1.1657394015e+02   4.1386773407e+01     0.446541    0.1014146 -69.00  0.001515477    3.625    0.724
        33  -9.2891     99.5261    143.1786   9.8686765148e+01   3.2715992730e+01    0.3730212    0.2216776 -51.85  0.001556679    1.621    0.383
        34 -10.3904     88.0228    141.6318   1.0146260386e+02   3.4962910493e+01    0.2848482    0.2503148 -39.70 0.0004405721    1.235    0.190
        35  -8.8163     82.3720    142.1525   1.0308229166e+02   3.5706506011e+01    0.3767717    0.2135603  63.59  0.001269354    2.434    0.589
        36  -8.6479    133.6449    140.8268   8.9340124722e+01   2.6951156177e+01    0.2241338    0.1419896 -59.13 0.0006080211    1.750    0.429
        37  -8.8560     32.2995    137.9367   1.1591495384e+02   4.2848003971e+01    0.1864137    0.1440417 -74.15 0.0005668703    1.073    0.068
        38 -10.1075     79.3161    163.9604   1.0751331796e+02   3.0943272669e+01    0.3453453    0.2545277 -64.23 0.0004503808    1.287    0.223
        39 -11.1369     85.2007    158.2654   1.0514019587e+02   3.1415194742e+01    0.8929299    0.4748751 -42.68  0.002320183    2.306    0.566
        40  -9.6106     32.7429    157.4374   1.1810498200e+02   3.8167389490e+01    0.3496732    0.1222759 -71.37  0.001483144    2.437    0.590
        41  -8.1594    105.9623    130.4885   9.4282508520e+01   3.4617566068e+01    0.2284932    0.1487413  41.22  0.001030055    1.589    0.371
        42  -9.0432     97.8057    127.6199   9.5900394676e+01   3.6731017950e+01     0.309087     0.239991  -9.92  0.001151969    1.738    0.424
        43  -8.5630    115.5011    125.5293   9.0544222297e+01   3.4018394251e+01    0.1525145    0.1468318 -36.81 9.811926e-06    1.048    0.046
        44  -7.6047     91.6651    124.3229   9.6905632531e+01   3.8553640700e+01    0.1529357    0.1140884  79.35 0.0007050624    1.710    0.415
        45  -8.0129    107.4475    119.9640   9.1433037819e+01   3.6832085335e+01    0.2190073    0.1446308 -51.86  6.63503e-05    1.454    0.312
        46  -8.6050    110.1492    131.8113   9.3440341105e+01   3.3545785360e+01    0.2133509    0.1785894 -22.68 0.0006100315    1.389    0.280
        47 -12.1538     39.1382    207.0831   1.2129009747e+02   2.6457624699e+01    0.8919287      0.65692 -31.23  0.005379289    2.410    0.585
        48 -10.6025     32.9885    110.4938   1.1168273380e+02   4.9406796465e+01    0.7497756    0.1518239 -67.38  0.002167593    4.784    0.791
        49  -8.1307    205.4863    110.5025   6.5863391076e+01   1.7540861660e+01    0.1509693    0.1416783 -32.23 0.0008104967    1.013    0.013
        50  -8.6955     33.0000     94.9910   1.0885451447e+02   5.3103371647e+01    0.2223285   0.06308956 -63.26 0.0007990768    2.919    0.657
        51  -8.3961     41.4752     92.0182   1.0538718181e+02   5.3003927869e+01    0.2062796    0.1142182 -60.35 0.0004190731    1.541    0.351
        52  -7.8158    134.4769     73.5227   7.0856483710e+01   4.1156567448e+01    0.1539748    0.1471585   3.07 0.0003262073    1.033    0.032
        53  -8.0454    114.6850     65.3367   7.3522827150e+01   4.7088539653e+01    0.1492391    0.1206981 -75.51 0.0007047336    1.695    0.410
        54  -8.1232     51.2480     64.0019   9.4482227489e+01   5.8190773200e+01    0.1738586    0.1425551  52.68  0.000413962    1.620    0.383
        55  -9.5250     13.1829     59.6525   1.0839524853e+02   6.2569044950e+01    0.2126441    0.1385715 -64.73 0.0008449213    1.390    0.280
        56 -11.0890    119.7592    240.1356   1.0871827164e+02   9.1405893869e+00    0.3582122    0.2334988  41.14  0.002163175    1.283    0.221
        57 -11.1155    114.8625    241.9659   1.0986039343e+02   9.5709619488e+00    0.3838673      0.30001 -71.77  0.002330577    1.492    0.330
        58 -11.4252    140.6316    230.6843   1.0346955069e+02   7.4707466923e+00    0.6864321    0.2005424  39.98  0.002657758    2.857    0.650
        59 -12.4136    115.0519    230.0484   1.0846214266e+02   1.1618423344e+01     1.065475    0.4827407  52.70  0.004994069    2.183    0.542
        60 -10.7523    212.3821     26.1357   4.2881184605e+01   2.9056748349e+01    0.4626874    0.3451235  37.59  0.001286684    1.692    0.409
        61  -9.3549     73.3354    230.7680   1.1666425969e+02   1.7520171027e+01    0.3265498    0.1209235  45.25  0.001577477    2.173    0.540
        62  -7.4827    144.4456     41.4531   5.7973550840e+01   4.4004192434e+01    0.1437404    0.1384125 -89.64 0.0002836692    1.099    0.090
        63  -9.6554     32.7157     35.4239   9.2343395943e+01   6.5838953002e+01    0.5599822    0.1188054 -52.04   0.00158299    6.255    0.840
        64  -8.7311    141.6503     46.8523   6.0389011896e+01   4.3914971659e+01    0.2711008    0.1909561 -83.94 0.0008514982    2.073    0.518
        65  -9.6516     32.6090     20.5686   8.6186125280e+01   6.8366990312e+01    0.3369492   0.09978022 -42.61  0.001397265    3.010    0.668
        66 -11.2031    201.9180    223.2342   9.0358827384e+01  -1.3307439249e+00    0.6886556     0.517997  43.34  0.004201377    1.410    0.291
        67 -11.2325    195.1116     40.8508   4.8965695884e+01   3.1395255335e+01    0.4372672    0.3816454  -1.85  0.001373828    1.366    0.268
