#   1 NUMBER                 Running object number                                     
#   2 MAG_AUTO               Kron-like elliptical aperture magnitude                    [mag]
#   3 X_IMAGE                Object position along x                                    [pixel]
#   4 Y_IMAGE                Object position along y                                    [pixel]
#   5 X_WORLD                Barycenter position along world x axis                     [deg]
#   6 Y_WORLD                Barycenter position along world y axis                     [deg]
#   7 A_WORLD                Profile RMS along major axis (world units)                 [deg]
#   8 B_WORLD                Profile RMS along minor axis (world units)                 [deg]
#   9 THETA_WORLD            Position angle (CCW/world-x)                               [deg]
#  10 FWHM_WORLD             FWHM assuming a gaussian core                              [deg]
#  11 ELONGATION             A_IMAGE/B_IMAGE                                           
#  12 ELLIPTICITY            1 - B_IMAGE/A_IMAGE                                       
         1 -14.0780    220.2215    181.8309   9.2359626710e+01   9.0481766963e-01     6.596418      1.20303 -43.80   0.01742459    5.187    0.807
         2 -13.6683    243.8699    186.2775   8.8929677831e+01  -3.8945948349e+00     4.573941    0.9453373 -47.16   0.01115038    7.136    0.860
         3 -13.5034    248.3665    123.9482   7.5536665074e+01   6.6398748949e+00     3.443738    0.2805773 -42.69  0.006976822    9.020    0.889
         4 -16.0504    245.8603     67.3642   6.4274572508e+01   1.6782096369e+01     8.820237     2.472138 -39.71   0.03275663    3.287    0.696
         5  -9.5499    192.9691    202.2178   1.0186658093e+02   1.8793043704e+00    0.2550249    0.1961643 -41.21 0.0007468346    1.307    0.235
         6  -9.2643    224.6240    249.7743   1.0413416925e+02  -1.1318929827e+01    0.1556042    0.1111727 -42.36 0.0009432121    1.652    0.395
         7 -10.1376    209.5382    248.8295   1.0685625334e+02  -8.9795998813e+00    0.3152106    0.2210778 -26.71  0.001884793    1.457    0.314
         8 -10.1891    191.9200    249.6996   1.1045837092e+02  -6.4093437401e+00    0.3254942    0.1974384  56.71    0.0015505    2.510    0.602
         9 -10.3488    246.9211    240.6755   9.8482164529e+01  -1.3058615877e+01    0.3663225    0.2261144 -50.86  0.001700029    2.444    0.591
        10 -10.0552    225.4465    243.0763   1.0284442105e+02  -1.0444453625e+01    0.3112201    0.2245145 -46.83  0.001863324    1.740    0.425
        11  -9.6014    201.8735    242.3633   1.0727805392e+02  -6.7890386799e+00    0.2742756    0.1702868 -50.71  0.001436586    2.029    0.507
        12  -9.2663    240.1569    240.2893   9.9636244873e+01  -1.2094400934e+01    0.2131763    0.1597339 -58.12  0.001233062    2.258    0.557
        13  -9.2565    214.4716    241.0352   1.0458967750e+02  -8.5136712481e+00    0.1826643    0.1195619 -38.01  0.001028604    1.592    0.372
        14  -9.7195    183.5042    239.8633   1.1055445588e+02  -3.4177068996e+00    0.3553318    0.2312693 -57.20  0.001825296    2.039    0.510
        15  -9.3350    219.8718    239.8149   1.0334201686e+02  -9.1315112420e+00    0.2228419    0.1407242 -47.51  0.001209335    1.931    0.482
        16  -9.8464    159.0135    238.5216   1.1541830792e+02   9.4508124413e-01    0.2503458    0.1973102 -74.59  0.001388243    1.662    0.398
        17 -10.4366    231.1168    236.9288   1.0071613859e+02  -1.0329033305e+01    0.3453265    0.3042045 -85.11   0.00163836    2.000    0.500
        18 -10.5581    205.5615    236.0791   1.0547938003e+02  -6.3433600828e+00    0.4333863    0.3201802 -68.19  0.002202376    2.309    0.567
        19 -10.6127    191.2993    236.0012   1.0832239711e+02  -4.0354208422e+00    0.4696327    0.3469705 -70.50  0.002449333    2.184    0.542
        20  -9.8338    176.6661    235.7908   1.1128961602e+02  -1.5611524325e+00    0.3605157    0.1567356 -45.20  0.001547047    2.504    0.601
        21 -10.5798    216.5795    234.1023   1.0298146237e+02  -7.7331605493e+00    0.3622568    0.3236976  74.37  0.001876734    1.711    0.416
        22 -10.0974    249.6306    233.9695   9.6823834854e+01  -1.2448081478e+01    0.2713741     0.210198 -46.51  0.001727725    1.694    0.410
        23 -10.5627    236.7394    230.1414   9.8473459495e+01  -1.0093587329e+01    0.4177534    0.3616261 -88.48  0.002522511    2.108    0.526
        24  -9.3923    144.5529    232.4973   1.1755631292e+02   4.5925159069e+00    0.1375924    0.1242474  46.22 0.0002734413    1.017    0.017
        25  -9.6677    229.4437    228.4862   9.9532922467e+01  -8.7729788597e+00    0.2719609    0.1952284 -54.16   0.00130562    1.948    0.487
        26  -9.2340    174.0046    229.0085   1.1071115287e+02   1.3018199973e-01    0.1649166    0.1561371   6.14  0.001006392    1.065    0.061
        27  -8.9135    152.3032    229.3324   1.1538953993e+02   3.8588197273e+00    0.1374459    0.1073083  -2.85 0.0004434622    1.657    0.396
        28 -10.9247    248.1507    226.6791   9.5786466077e+01  -1.1162456479e+01    0.3611649    0.3209653 -67.69  0.001736373    1.843    0.457
        29  -9.7708    211.8785    227.7112   1.0276611814e+02  -5.9518533153e+00    0.2416432    0.1865522 -41.47  0.001134312    1.401    0.286
        30  -9.9552    199.0086    227.0329   1.0520733229e+02  -3.7519328403e+00    0.2898487    0.1966072 -49.65 0.0009243292    1.708    0.414
        31  -9.3986    184.4956    227.9755   1.0834285565e+02  -1.4822794740e+00    0.1969856    0.1333865 -42.83 0.0008648253    1.572    0.364
        32  -9.5302    223.1962    226.7858   1.0040980087e+02  -7.5601777525e+00    0.2158825    0.1664892 -42.75  0.001260261    1.445    0.308
        33  -9.9793    205.9096    225.5022   1.0355085370e+02  -4.6179765111e+00    0.3296117    0.1845496 -47.63  0.001491949    2.009    0.502
        34  -9.8052    190.5347    226.2463   1.0679466137e+02  -2.1959261053e+00    0.3004453    0.1297545 -42.06  0.001113146    2.427    0.588
        35  -9.5717    162.8127    227.3512   1.1280827056e+02   2.3962416681e+00    0.1845069     0.177533  71.74 0.0009914836    1.149    0.129
        36 -10.4739    217.2429    223.7210   1.0100152506e+02  -6.1303597580e+00    0.3405252     0.269401 -61.29  0.001257281    1.813    0.448
        37 -10.0235    180.4658    223.0592   1.0832685088e+02   1.1723190617e-01    0.3385255    0.1353306 -45.75  0.001265317    2.650    0.623
        38 -10.9155    227.8685    220.9753   9.8467647029e+01  -7.3224241618e+00    0.4107646    0.3467584 -56.17  0.001956739    1.597    0.374
        39  -9.5813    174.5101    222.5522   1.0949593384e+02   1.2561583289e+00    0.2344835    0.1361209 -59.30  0.001030928    2.305    0.566
        40  -9.8070    147.6127    223.2098   1.1541763444e+02   5.9100363040e+00    0.1925888    0.1315205 -40.29 0.0008726794    1.660    0.398
        41 -10.9515    238.9299    220.4597   9.6319407977e+01  -8.8902232089e+00    0.4412113    0.3357963 -53.26  0.001911487    1.771    0.435
        42  -9.5366    185.7743    221.4757   1.0693606955e+02  -5.1045647040e-01    0.2504117    0.1658083 -54.01  0.001244711    1.794    0.443
        43 -10.3595    202.1291    218.7033   1.0307860770e+02  -2.7993767248e+00    0.5171821    0.2835855 -51.62  0.002362173    2.209    0.547
        44  -9.9830    200.2416    210.8230   1.0200223984e+02  -1.0424566918e+00    0.2845129    0.1619578 -42.51 0.0008775647    1.771    0.435
        45 -10.6210    193.5334    219.1990   1.0492032524e+02  -1.4293459475e+00    0.3745998    0.2997378 -62.19  0.001601465    1.613    0.380
        46 -10.0059    242.3584    247.2762   1.0043943801e+02  -1.3390558485e+01    0.2661683     0.184691 -35.46  0.001444961    1.506    0.336
        47 -12.6367    236.1610    191.3952   9.1307005458e+01  -3.5590348014e+00     2.774449    0.6357933 -46.78  0.007743566    5.357    0.813
        48 -12.4546    231.2201    182.9448   9.0530995195e+01  -1.2148991468e+00     3.284244    0.4349098 -39.88  0.006940197    8.450    0.882
        49 -12.6944    235.2786    147.1854   8.2452716814e+01   4.7658502810e+00      2.14559    0.8665624 -31.73  0.007330755    3.325    0.699
        50 -10.1159    233.3065    246.8426   1.0202050950e+02  -1.2106293707e+01    0.2984636    0.2174187 -42.96  0.001863377    1.663    0.399
        51 -13.4012    244.8140    158.1068   8.3120340237e+01   1.0218759698e+00     3.354181     0.610927 -45.76  0.008716291    5.576    0.821
        52  -9.4962    175.7887    247.1082   1.1329412281e+02  -3.3904690362e+00     0.265594    0.1615841 -50.27  0.001381547    1.940    0.485
        53  -9.7518    250.3448    245.1871   9.8651661350e+01  -1.4139706450e+01    0.2420235    0.1435601 -33.31   0.00114697    1.593    0.372
        54 -10.0213    164.8451    201.4723   1.0778925966e+02   7.2462970141e+00    0.3008063    0.1932101 -29.27  0.001325186    1.941    0.485
        55 -10.6261    202.3214    197.0853   9.8942754244e+01   1.1870347898e+00    0.3523603    0.2505559 -46.92  0.001134262    1.448    0.310
        56  -9.5376    139.2382    198.9771   1.1315831238e+02   1.2625800353e+01    0.1994098    0.1938643 -70.40            0    1.062    0.058
        57  -9.6101    133.0638    199.1284   1.1462449122e+02   1.3745567316e+01    0.2070264    0.1951765   0.63 -0.0009232552    1.201    0.168
        58  -9.4109    191.1631    197.5688   1.0134360216e+02   3.1223523958e+00    0.2395075    0.1655927 -36.94 0.0008985181    1.454    0.312
        59  -9.6774    176.3318    197.3772   1.0447998533e+02   5.9304273059e+00    0.2821024    0.1769188 -47.88 0.0008593138    1.640    0.390
        60 -10.2289    184.3452    196.0264   1.0248698214e+02   4.6987541261e+00    0.3779088    0.2357051 -30.87  0.001263429    1.819    0.450
        61  -9.5973    170.0191    197.0054   1.0579427642e+02   7.2048483327e+00    0.2365741    0.1805001  -8.59  0.001129353    1.673    0.402
        62 -10.2114    209.2038    194.4769   9.7043737245e+01   4.5786547404e-01     0.306204    0.2200114 -33.45 0.0008097101    1.346    0.257
        63 -10.1140    210.0825    188.7670   9.5731953851e+01   1.3929461046e+00    0.3316285    0.1994807 -45.37 0.0008074049    1.638    0.390
        64 -10.0163    194.2403    194.3297   1.0006394277e+02   3.1973353023e+00     0.267399    0.2323965 -57.53   0.00093557    1.291    0.225
        65 -10.3331    198.8561    190.7681   9.8400516984e+01   3.0502053238e+00     0.312032    0.2321423 -38.57 0.0009807985    1.310    0.237
        66  -9.5700    161.5833    191.7400   1.0666520267e+02   9.9508696489e+00    0.2823477    0.1431565 -45.07  0.001129023    2.023    0.506
        67  -9.7052    205.1774    190.7596   9.7111761864e+01   1.8944518702e+00    0.2879342    0.1818808 -33.09 0.0007648263    1.604    0.376
        68  -9.7879    185.2942    190.1911   1.0113104474e+02   5.7111597149e+00    0.2657953    0.1754234 -39.42 0.0009095557    1.523    0.343
        69 -10.1476    178.8773    189.5969   1.0239794642e+02   7.0628765759e+00    0.3414072    0.2031751 -42.03  0.001453378    1.696    0.410
        70  -9.6829    172.1978    190.4648   1.0403729857e+02   8.1689773805e+00    0.2819277    0.2058788 -45.09 0.0009418768    1.384    0.278
        71  -9.8489    193.1278    187.7592   9.8984661716e+01   4.7215801189e+00    0.2665952    0.2113869 -25.21 0.0009314201    1.311    0.237
        72  -9.0548    156.4974    187.4943   1.0699751720e+02   1.1874320336e+01    0.1499701    0.1456685   9.86 -8.121373e-06    1.059    0.055
        73  -9.9192    197.3255    181.6423   9.6866353670e+01   5.1639806259e+00    0.3396448    0.1873222 -37.33  0.001039752    1.834    0.455
        74 -10.1141    197.8198    176.1861   9.5634797222e+01   6.1791161365e+00    0.3606884    0.2186049 -41.32  0.001151106    1.595    0.373
        75  -9.9802    166.2958    185.3739   1.0434309073e+02   1.0416368895e+01     0.284351     0.180921 -36.35  0.001242451    1.720    0.419
        76 -10.7026    203.3780    183.0093   9.5909079079e+01   3.7482669766e+00    0.4404481     0.282641 -49.89  0.001613338    1.615    0.381
        77  -9.3068    189.5123    184.9469   9.9176038392e+01   5.9830501148e+00    0.2235775    0.1418051 -43.15 0.0006814359    1.552    0.356
        78 -10.6905    210.9887    181.9312   9.4168871524e+01   2.5522197929e+00      0.48462    0.2869629 -40.10   0.00158209    1.603    0.376
        79 -10.1659    210.3086    175.3455   9.2946759362e+01   3.9707140700e+00     0.343072    0.2009127 -44.24 0.0008318885    1.626    0.385
        80 -10.1860    183.7805    182.1723   9.9833667389e+01   7.6686001846e+00    0.3584985    0.2322066 -32.80  0.001307471    1.679    0.404
        81 -10.2083    176.6641    180.6948   1.0108050568e+02   9.3809064528e+00    0.3473003     0.177704 -45.91  0.001395417    1.945    0.486
        82 -10.3141    190.8387    178.5363   9.7578417722e+01   7.0502623130e+00    0.3820325    0.2932152 -43.65  0.001868882    1.275    0.216
        83  -9.7045    192.5724    172.7198   9.5996619451e+01   7.9188918189e+00    0.3537675    0.1884804 -32.31  0.001022421    2.204    0.546
        84 -10.3313    204.9912    176.6813   9.4280372168e+01   4.7066889640e+00     0.354122     0.210861 -45.41  0.001002948    1.626    0.385
        85 -10.4321    205.2762    168.9098   9.2594144267e+01   6.2157368387e+00     0.580574    0.2335599 -44.46  0.002152931    2.364    0.577
        86 -10.0895    169.1677    177.4802   1.0208660746e+02   1.1572357864e+01    0.2858211    0.1730053 -26.96  0.001115056    2.268    0.559
        87  -8.9573    101.0007    175.9774   1.1830900039e+02   2.5065335449e+01      0.17044    0.1595897  84.88  0.000923912    1.011    0.011
        88  -9.8607    182.2574    175.4315   9.8765458887e+01   9.3948644850e+00    0.2921329    0.2070235 -43.05  0.001117029    1.388    0.280
        89  -9.5046    200.7257    171.5827   9.4074776566e+01   6.5556563953e+00    0.2780067    0.1678867 -34.14  0.001085917    1.717    0.418
        90  -9.3423    187.4739    171.9968   9.6920498043e+01   9.0827322878e+00    0.2338726    0.1443488 -43.24  0.001026306    1.580    0.367
        91  -9.2275    197.1108    169.1467   9.4297720647e+01   7.7640743355e+00    0.2274595    0.1943761 -15.68  0.000534104    1.254    0.202
        92 -10.1265    178.8648    168.1572   9.7962458309e+01   1.1643089360e+01    0.2898438    0.2016729 -39.85  0.001068555    1.437    0.304
        93 -10.2409    191.8377    164.4994   9.4395030658e+01   9.7869043093e+00    0.4399722    0.2077771 -37.99  0.001595643    2.213    0.548
        94  -9.9946    199.6446    164.0087   9.2681032275e+01   8.3225206433e+00    0.3570366    0.1851633 -41.17 0.0009739226    1.856    0.461
        95  -9.3617    184.6925    164.7173   9.5956272023e+01   1.1193658907e+01    0.2856425    0.1781289 -35.83  0.001050591    1.683    0.406
        96 -10.2672    205.3393    160.9874   9.0889846594e+01   7.8113998002e+00    0.3871291    0.2742379 -40.18  0.001400721    1.336    0.252
        97  -8.7772    172.3417    163.3066   9.8359186742e+01   1.4048354403e+01    0.1576925    0.1235359  -1.21  0.000462319    1.686    0.407
        98  -9.4623    176.5878    158.7554   9.6415745739e+01   1.4163880519e+01    0.2985752    0.1457898 -41.76  0.001123863    2.053    0.513
        99 -10.0541    197.1105    156.5644   9.1578738472e+01   1.0377629607e+01    0.3772032    0.2082548 -37.35  0.001291455    1.839    0.456
       100  -9.6571    187.5711    155.2131   9.3258402766e+01   1.2632680639e+01    0.3746801    0.1443043 -41.98  0.001273684    2.562    0.610
       101  -9.5271    205.8231    153.7447   8.9222947747e+01   9.1913174236e+00    0.2638508    0.1881637 -33.71 0.0009870571    1.410    0.291
       102  -9.0732    144.6790    152.6639   1.0249543076e+02   2.2274178842e+01    0.1615598    0.1274675  -8.84  0.000705009    1.708    0.414
       103  -9.1947    202.3769    150.8123   8.9256013854e+01   1.0492097677e+01    0.2178425    0.1344362 -33.83 0.0009400214    1.704    0.413
       104 -10.1325    215.1954    148.4331   8.6277068808e+01   8.3860960616e+00    0.3686213    0.1937442 -48.25  0.001556721    1.822    0.451
       105  -9.3901    196.6021    149.6952   9.0162679578e+01   1.1915631421e+01    0.2965283    0.1399409 -39.78  0.001123682    2.099    0.524
       106  -9.0537    191.0000    147.9483   9.0916925937e+01   1.3456901570e+01    0.2573375   0.08404005 -44.09 0.0008006081    2.930    0.659
       107 -10.4640    223.5449    146.0836   8.4250574235e+01   7.2071839844e+00    0.4116438    0.2752318 -32.19  0.001757582    1.523    0.343
       108 -10.0010    224.2881    139.9633   8.2799029061e+01   8.2526801093e+00    0.3425248    0.1751775 -39.74  0.001067113    1.816    0.449
       109  -9.8984    208.0637    144.5638   8.6769796027e+01   1.0603039066e+01    0.3048431    0.2080172 -35.04  0.001265871    1.469    0.319
       110  -9.3405    200.4516    144.9723   8.8337860433e+01   1.2093912825e+01    0.2390314    0.1412508 -43.59 0.0009067294    1.597    0.374
       111  -9.3158    218.5143    144.0927   8.4723061559e+01   8.5869179725e+00    0.2248827    0.1337936 -41.13 0.0008065685    1.550    0.355
       112  -9.4969    214.0980    141.8618   8.5042021510e+01   9.9160115583e+00    0.3244254    0.1921981 -39.91 0.0009319185    1.590    0.371
       113 -10.2980    210.8581    218.5551   1.0130826619e+02  -4.2208963018e+00    0.3600191    0.1944936 -46.09  0.001523468    1.984    0.496
       114  -9.4220    181.6045    141.7865   9.1487281376e+01   1.6783402275e+01    0.2274267    0.1413381 -54.51 0.0009489228    1.684    0.406
       115  -9.9441    209.8696    212.3870   1.0035933632e+02  -2.9664903412e+00    0.3078735    0.1988466 -39.86 0.0009001425    1.534    0.348
       116  -9.7086    208.5121    137.5765   8.5129587542e+01   1.1922011249e+01     0.319501    0.1384594 -42.78  0.001206447    2.150    0.535
       117  -9.4740    198.5897    136.7962   8.6857768862e+01   1.4173041613e+01    0.2886139    0.1410439 -40.34  0.001119587    1.995    0.499
       118  -9.1234    192.5926    136.2587   8.7928478661e+01   1.5573040108e+01    0.2198415     0.141789 -34.82 0.0009516966    1.637    0.389
       119  -9.0830    187.5205    135.0076   8.8673662304e+01   1.6937719814e+01    0.2419148    0.1466608 -44.75   0.00102894    1.581    0.368
       120 -10.2473    225.6830    133.0035   8.1049759574e+01   9.3223146672e+00    0.3414523    0.2225365 -36.81  0.001019929    1.479    0.324
       121  -9.9325    179.4883    132.0031   8.9652394121e+01   1.9342793533e+01    0.3531268    0.1491918 -38.93  0.001207626    2.509    0.601
       122  -9.8049    205.6525    130.5325   8.4077868305e+01   1.3941337462e+01     0.263941    0.1326688 -43.52  0.001064192    1.858    0.462
       123  -9.6582    212.0833    128.9219   8.2532259442e+01   1.2902666054e+01    0.3057938    0.1799202 -47.63 0.0009240123    1.583    0.368
       124  -9.4895    192.5302    128.8076   8.6213875473e+01   1.7131816325e+01     0.290867    0.1455767 -39.44   0.00112542    2.000    0.500
       125  -8.9313    186.4408    128.5189   8.7375977157e+01   1.8535299553e+01     0.152851    0.1459752 -52.79 0.0001353408    1.033    0.032
       126  -9.2788    199.6539    126.1959   8.4218431308e+01   1.6106947445e+01    0.2173178    0.1356048 -35.73 0.0009424332    1.667    0.400
       127  -9.7146    179.9314    123.5238   8.7535096592e+01   2.1032984492e+01    0.3032425    0.2165799 -30.60  0.001312049    1.585    0.369
       128  -9.6141    212.5220    122.5141   8.1011399300e+01   1.4069216964e+01    0.3028743    0.1355061 -42.93   0.00109793    2.065    0.516
       129  -9.3144    187.9807    122.9883   8.5754363279e+01   1.9337495093e+01    0.2458162    0.1821885 -73.27  0.001120617    1.615    0.381
       130  -9.3845    203.2278    121.2246   8.2398444411e+01   1.6324004508e+01    0.2719346    0.1747877 -41.46 0.0008325524    1.488    0.328
       131  -9.1064    194.3385    120.8180   8.3986531311e+01   1.8362505026e+01    0.2176356    0.1367544 -35.19 0.0009375753    1.690    0.408
       132 -10.6772    219.5948    114.6565   7.8035832309e+01   1.4082919865e+01    0.4283594    0.2133926 -52.68  0.001401784    2.021    0.505
       133  -9.5439    218.4559    109.3165   7.7030249342e+01   1.5330417184e+01    0.2681307    0.1344233 -37.94 0.0007640865    1.988    0.497
       134  -8.7472    203.4530    115.4582   8.1023104666e+01   1.7411385557e+01    0.1496004    0.1367888 -64.92 0.0001348455    1.020    0.020
       135  -9.1399    185.6558    114.7883   8.4256457363e+01   2.1531371220e+01    0.2230363    0.1337363 -51.27  0.000839548    1.661    0.398
       136  -9.4303    158.5039    219.0320   1.1233568447e+02   4.8008752457e+00    0.2069281    0.1412899 -49.48  0.001020164    1.573    0.364
       137 -11.1758    217.9109    213.7558   9.9037010367e+01  -4.5332581244e+00    0.5717071     0.362489 -54.19  0.002823891    2.053    0.513
       138 -10.3647    170.8300    216.3696   1.0919597095e+02   3.1089077623e+00    0.3465502    0.1924452 -44.36  0.001475618    1.898    0.473
       139  -9.2774    194.5600    112.9844   8.2092657147e+01   1.9877520909e+01    0.2361685    0.1411731 -44.57  0.001025026    1.594    0.373
       140  -9.6116    213.6062    104.7352   7.6795164365e+01   1.7233474258e+01    0.2087621    0.1240484 -51.24 0.0006820732    1.590    0.371
       141  -9.2900    205.5239    104.9662   7.8218461740e+01   1.8971626887e+01    0.2270872    0.1376975 -42.53  0.001024322    1.570    0.363
       142  -8.5083    199.2919    116.3590   8.1998871391e+01   1.8153651128e+01    0.1481995    0.1205216  -4.16   0.00056608    1.693    0.409
       143  -9.6649     55.9901    216.4187   1.3470594629e+02   2.2274091776e+01    0.2676226    0.1527985 -80.10 0.0006437197    1.696    0.410
       144  -9.8992    179.0667    216.9987   1.0754676679e+02   1.5125828522e+00    0.2183618     0.205491  14.95 0.0008228237    1.019    0.019
       145 -10.8069    233.0148    213.0669   9.6040013842e+01  -6.7985856298e+00    0.4256455    0.2886609 -43.22  0.001792977    1.527    0.345
       146  -9.2965    154.3682    213.8039   1.1234420827e+02   6.6187524216e+00    0.2006402    0.1318505 -38.82 0.0009443494    1.705    0.413
       147 -10.0731    176.9621    210.6675   1.0684700239e+02   3.1254056951e+00    0.3160898    0.2131335 -46.06  0.001287655    1.549    0.354
       148  -9.1854    195.3919     96.7701   7.8067800239e+01   2.2801127355e+01    0.2075216    0.1395786 -32.11 0.0009485512    1.685    0.407
       149  -9.5613    186.2147    210.8071   1.0490523487e+02   1.4300200607e+00    0.1981806    0.1609578  -0.60 0.0006130689    1.343    0.255
       150  -9.0829    188.5717     92.2298   7.8200178048e+01   2.5217689909e+01    0.2018206    0.1429682 -30.99 0.0009452546    1.621    0.383
       151  -9.6047    160.8641    210.6600   1.1035288711e+02   6.0756438689e+00     0.246996    0.1983539 -34.16  0.001034013    1.350    0.259
       152  -8.7788    207.2669     94.3167   7.5450255396e+01   2.0554140299e+01    0.1329024    0.1163695  -0.36 0.0004303568    1.552    0.356
       153  -8.6668    128.2561     91.2952   9.1184262681e+01   3.9351771901e+01    0.1435788    0.1179825   1.14 0.0006887561    1.495    0.331
       154  -8.7605    203.2806     90.3381   7.5181405629e+01   2.2172484276e+01    0.1360648    0.1172192   4.48 0.0003539959    1.621    0.383
       155 -10.7366    205.6905    207.8299   1.0033473726e+02  -1.4294303564e+00    0.3383504    0.2380251 -36.21  0.001028888    1.395    0.283
       156  -9.1288    182.9749    207.0245   1.0488560980e+02   2.7515216450e+00    0.1723458    0.1618029 -20.81 0.0008778726    1.069    0.064
       157  -9.6209    217.6823     84.4689   7.1574520172e+01   1.9972765695e+01    0.2669302    0.1201946 -45.12 0.0009271876    2.031    0.508
       158 -11.0762    215.0167     80.3424   7.1040148537e+01   2.1268082674e+01    0.5389576    0.2106584 -39.97  0.002110529    2.460    0.594
       159  -9.2637    205.9142     84.3467   7.3352464195e+01   2.2631307285e+01     0.235482    0.1601835 -38.58  0.001161442    1.510    0.338
       160  -9.0634    193.2636     82.3673   7.4966797552e+01   2.5890112676e+01     0.137252    0.1168239   4.43 0.0005136674    1.650    0.394
       161  -8.8685    185.5056     82.4988   7.6356069527e+01   2.7684534036e+01    0.1455959    0.1365041 -86.84 0.0003011578    1.037    0.036
       162  -9.6374    159.0066     80.7273   8.1050852504e+01   3.4270805669e+01       0.2112    0.1986597  71.16  0.001167892    1.020    0.020
       163  -9.4282    201.3046     77.5310   7.2487619164e+01   2.4854951560e+01    0.2451435    0.1247023 -39.78  0.001054485    1.956    0.489
       164  -9.4022    174.5890     77.2064   7.7023450211e+01   3.1186480491e+01    0.1983472    0.1431884 -27.73 0.0009491807    1.656    0.396
       165  -9.4066    167.3714     76.7921   7.8303221747e+01   3.2973908733e+01    0.2047265    0.1417052 -27.46 0.0009505086    1.738    0.425
       166  -9.4981    157.4660     75.4782   7.9958225112e+01   3.5549841422e+01    0.1466589    0.1379652  79.51 7.833981e-05    1.012    0.012
       167 -10.4964    192.9859    210.0035   1.0334021571e+02   3.8003414684e-01    0.3361613    0.2114182 -43.64 0.0009894101    1.625    0.385
       168  -8.9384    206.4549     73.5015   7.0751272540e+01   2.4344494923e+01    0.1399071    0.1257585 -78.06 0.0001008003    1.035    0.034
       169  -8.8072    195.2810     72.3484   7.2215229215e+01   2.7116803160e+01    0.1335474    0.1141878  16.19   0.00040884    1.644    0.392
       170  -9.1561    210.6097     71.2201   6.9615306382e+01   2.3771994493e+01    0.1816591    0.1306882 -33.27 0.0007717726    1.590    0.371
       171  -9.4939    163.3572     70.8371   7.7515901698e+01   3.4932523815e+01    0.2047981    0.1398503 -25.87  0.000952972    1.799    0.444
       172  -9.5140    211.5240     75.7515   7.0513914967e+01   2.2821301964e+01    0.2464745     0.134433 -36.38  0.001054935    1.945    0.486
       173  -9.2681    214.0213     69.4836   6.8737084567e+01   2.3282252148e+01    0.1960137    0.1284901  66.96 0.0004655365    1.504    0.335
       174 -10.4030    217.4420    204.8843   9.7448593801e+01  -2.8858440560e+00    0.3172192    0.2320076 -39.33  0.000999127    1.335    0.251
       175  -9.5082    212.4787     65.5203   6.8060068658e+01   2.4259809932e+01      0.24402    0.1334424 -35.22 0.0007815011    2.005    0.501
       176 -10.0983    213.4850     61.5163   6.7024688672e+01   2.4655230104e+01    0.1880995    0.1312549 -30.59 0.0007136922    1.742    0.426
       177  -9.3955    203.2260     65.5393   6.9383523286e+01   2.6369670927e+01    0.2542813    0.1850539 -43.85  0.001088663    1.377    0.274
       178  -9.4593    146.3133     65.3540   7.9523584977e+01   3.9852087298e+01    0.1473755    0.1111932  20.46 0.0007045195    1.734    0.423
       179  -9.1046    208.4403     63.9009   6.8256239547e+01   2.5430508892e+01    0.2013144    0.1268677 -43.14 0.0007103329    1.554    0.356
       180 -10.7197    197.8896    203.8735   1.0116588831e+02   6.7745872746e-01    0.4115165    0.2569232 -35.53   0.00126759    1.625    0.384
       181  -9.6559    206.8922     58.2851   6.7190367050e+01   2.6646315024e+01    0.2505089    0.1974742 -36.12  0.000964169    1.439    0.305
       182  -9.0240    156.4537    206.4807   1.1058303329e+02   7.7649991456e+00    0.1443479    0.1377964  26.12 0.0001100374    1.038    0.036
       183  -9.4542    139.3831    204.7878   1.1415397098e+02   1.1308738340e+01    0.2067998    0.1355066 -42.10 0.0009481041    1.693    0.409
       184 -10.0142    186.9780    203.0999   1.0329359463e+02   2.7956855829e+00    0.3191721    0.2111126 -53.07  0.001157433    1.690    0.408
       185  -9.1001    127.3344     53.7164   8.0392124201e+01   4.5983909981e+01    0.1366909    0.1078149 -87.26 0.0003489346    1.619    0.382
       186  -8.9874    163.3106     52.3345   7.2578661381e+01   3.7796692754e+01    0.1392588    0.1054508  30.06 0.0007043785    1.679    0.404
       187  -9.4572    172.2769     50.0221   7.0420313528e+01   3.5987533209e+01     0.181633    0.1669223 -81.20            0    1.070    0.066
       188  -9.6125    178.8892    203.6957   1.0513358030e+02   4.1638069961e+00    0.2492586    0.1934673 -32.79 0.0009711183    1.342    0.255
       189  -8.9818    208.2866     47.3464   6.4533142159e+01   2.7923156127e+01     0.121434    0.1039387  32.26 0.0004702925    1.652    0.395
       190 -11.2606    210.5513    201.2755   9.8106292552e+01  -1.0552622099e+00    0.3973825    0.3049583 -67.14  0.001297373    1.850    0.460
       191  -8.4648    173.7053     34.2863   6.6177683804e+01   3.7724212069e+01    0.1329924   0.09241191 -76.65            0    1.545    0.353
       192  -8.6420     14.9984     18.2077   1.0563613104e+02   6.9332562976e+01    0.1265159   0.07388987  19.69 0.0008318208    1.595    0.373
