#   1 NUMBER                 Running object number                                     
#   2 MAG_AUTO               Kron-like elliptical aperture magnitude                    [mag]
#   3 X_IMAGE                Object position along x                                    [pixel]
#   4 Y_IMAGE                Object position along y                                    [pixel]
#   5 X_WORLD                Barycenter position along world x axis                     [deg]
#   6 Y_WORLD                Barycenter position along world y axis                     [deg]
#   7 A_WORLD                Profile RMS along major axis (world units)                 [deg]
#   8 B_WORLD                Profile RMS along minor axis (world units)                 [deg]
#   9 THETA_WORLD            Position angle (CCW/world-x)                               [deg]
#  10 FWHM_WORLD             FWHM assuming a gaussian core                              [deg]
#  11 ELONGATION             A_IMAGE/B_IMAGE                                           
#  12 ELLIPTICITY            1 - B_IMAGE/A_IMAGE                                       
         1 -12.4087     13.1703     32.6396   1.0279282740e+02   6.8184337933e+01     1.448601    0.4450251  19.91    0.0064949    3.777    0.735
         2 -11.6719    101.2777     28.3317   6.5961637844e+01   5.6019026451e+01    0.4678026    0.2553419 -28.34  0.000457269    1.852    0.460
         3 -11.3637    177.3074     30.0094   5.0457302930e+01   3.7080262999e+01    0.5206035    0.1964017 -30.82  0.001371921    2.643    0.622
         4 -11.3964     73.9821      7.3737   6.5147770849e+01   6.4023659543e+01    0.3572716    0.2630325 -20.04  0.000312915    1.349    0.259
         5 -11.2110     64.1773     14.8964   7.2256617486e+01   6.4925637880e+01    0.6901706    0.3328486  17.38  0.002715187    3.378    0.704
         6 -11.7670     82.0706      6.2496   6.2035927669e+01   6.2557377988e+01    0.7960818    0.3728924  28.77  0.002901676    2.385    0.581
         7 -11.5371     60.3974     23.2574   7.7626186859e+01   6.4418540742e+01    0.5554149    0.3137834 -48.55  0.002659972    2.501    0.600
         8 -12.4508     76.0106     15.9570   6.8501999909e+01   6.2677027080e+01    0.4768479    0.2838881  34.67  0.001236381    1.569    0.363
         9 -10.8999     70.5150     13.9885   6.9497836873e+01   6.3924830621e+01    0.4080464    0.2151541 -17.17  0.001997396    1.992    0.498
        10 -11.4660    135.8059     21.6780   5.5013416402e+01   4.8726318725e+01    0.7179596    0.3365857  39.70   0.00218225    2.307    0.567
        11 -11.9890     85.2594     20.9347   6.7686973744e+01   6.0283616135e+01    0.5208925    0.4759746 -53.49  0.002120809    1.445    0.308
        12 -10.3110     23.8830     21.7778   9.3354341827e+01   6.9269411817e+01    0.4436698     0.151613 -43.93  0.002083985    2.353    0.575
        13 -10.9070     19.6542     15.9340   9.2925505782e+01   7.0624578787e+01    0.3016945    0.2462094 -24.75  0.001747566    1.156    0.135
        14 -11.0200     30.9758     13.2956   8.5942395606e+01   6.9881217937e+01    0.3424236    0.1840744 -40.10 0.0006210985    1.734    0.423
        15 -10.5555    107.5144     18.7224   6.0348982577e+01   5.5808877929e+01    0.3724577    0.2446295  -3.00  0.001598585    1.723    0.420
        16 -10.6109     44.1008     19.6760   8.2834962689e+01   6.7315320602e+01    0.3564595    0.2944294  29.46  0.002387161    1.413    0.293
        17 -11.6693      4.4425     18.6290   1.0210476004e+02   7.1307880861e+01    0.4088458    0.2827381  27.39  0.002851654    1.854    0.461
        18 -10.2248    175.1483     14.7621   4.6167202164e+01   3.9383330914e+01     0.235564    0.1721598   4.34  0.001197779    1.772    0.436
        19 -10.1315     50.8410     11.2535   7.5810680893e+01   6.7529839334e+01    0.3268719    0.1666153  -2.95  0.001398459    3.040    0.671
        20 -10.3060    100.1323     12.7242   5.9783499919e+01   5.8101810956e+01    0.2723227    0.1835323  -8.37 0.0008249659    1.566    0.362
        21 -10.1946     55.1300     13.1521   7.4969890502e+01   6.6626465074e+01    0.3003499    0.1722839 -28.13  0.001209349    1.614    0.380
        22  -9.6844     58.6561     10.2255   7.2109295742e+01   6.6423526511e+01    0.3484412    0.1731747  41.34  0.001794134    1.946    0.486
        23 -10.0178    113.4770      3.4491   5.2749442583e+01   5.5929424160e+01    0.2802029     0.229267 -85.22  0.001007558    1.517    0.341
        24 -11.2879    117.8912     12.1366   5.5230974895e+01   5.4093800113e+01    0.5316124    0.2820396 -30.70  0.001612372    1.995    0.499
        25 -11.9013    113.3818      7.6320   5.4448712938e+01   5.5584171045e+01    0.2773567    0.2272836  38.25 0.0002754807    1.081    0.075
        26 -10.8595    133.1221     11.0300   5.1682677056e+01   5.0500475708e+01    0.3215026    0.2342496  20.81 0.0007727909    1.509    0.337
        27 -10.1437    165.4105     10.2169   4.6118526338e+01   4.2361354941e+01    0.2398287    0.1409564 -15.53 0.0005549788    2.039    0.510
        28 -10.1776    138.5080     10.2389   5.0403792761e+01   4.9231973943e+01    0.2655459    0.2457542  -5.49  0.001605806    1.176    0.149
        29 -10.4200     39.9478     10.6913   8.0352780029e+01   6.9147923007e+01    0.2137286    0.1856192 -30.33 0.0007979266    1.443    0.307
        30  -9.5357    107.8183      9.3805   5.6446240478e+01   5.6708553208e+01    0.2086214    0.1555127  -3.33  0.000949108    1.406    0.289
        31 -11.1865     22.9662      7.8674   8.7315680957e+01   7.1549013850e+01    0.2857888     0.248721  21.70 0.0008325461    1.524    0.344
        32  -9.1374     43.0906      8.0479   7.7561853647e+01   6.9068626390e+01    0.2110753    0.1555821 -51.35  0.001208878    2.265    0.558
        33 -11.4296     11.3100      3.1980   9.1330602700e+01   7.3334993571e+01    0.4812284    0.1819512 -38.73  0.002577636    2.080    0.519
        34 -11.1672     18.0601      2.2120   8.7005964150e+01   7.2854525152e+01    0.4043592     0.269146  -7.48  0.001783047    1.273    0.214
        35 -10.5764      6.5224      8.1852   9.6517999847e+01   7.2937556480e+01    0.1646593    0.1483873 -28.75 0.0005519082    1.416    0.294
        36 -10.9897    146.0362      6.8871   4.7953538189e+01   4.7641242868e+01    0.4166645    0.3261866 -26.74   0.00234746    1.406    0.289
        37 -10.1714    150.0351      5.4963   4.6853120154e+01   4.6748835051e+01    0.2627194    0.1888508 -89.25  0.001376138    1.498    0.332
        38 -10.5578    127.0474      8.0775   5.1762934284e+01   5.2271795763e+01    0.2055072    0.1821624  44.61 0.0004044123    1.017    0.016
        39 -11.4561    242.0376      3.0439   3.6462088682e+01   2.4179594306e+01    0.3917651    0.1691559 -73.89  0.001685107    2.672    0.626
        40 -10.3054    180.8239      6.9780   4.3144000692e+01   3.8703615929e+01    0.2600536    0.1729003 -51.99  0.001147693    1.553    0.356
        41 -11.0778     92.0238      5.9929   5.9041900399e+01   6.0520406411e+01    0.4426341    0.2539904   8.33  0.001459029    2.052    0.513
        42  -9.4615     67.8010      7.2187   6.7200044826e+01   6.5184959461e+01    0.1845696    0.1249325  13.54  0.001059706    1.398    0.285
        43  -9.9593    164.3548      5.5551   4.4807745829e+01   4.3073767132e+01     0.237863    0.1765604 -83.40 0.0006412999    1.395    0.283
        44 -10.5341    228.6122      5.1388   3.7963836658e+01   2.7049494540e+01    0.2228503    0.1528557 -83.13  0.000704113    1.329    0.247
        45 -10.0286    132.0136      5.4807   4.9863105054e+01   5.1282035377e+01    0.2112078    0.1195573  61.20  0.001013627    1.548    0.354
        46 -12.7251     32.1688      2.0513   7.9521460534e+01   7.1283888625e+01    0.3123763    0.1836304  24.55 0.0008399393    1.624    0.384
        47 -10.0537     27.0007      3.0000   8.2651944458e+01   7.1785864451e+01    0.1934915    0.1299901   7.32 0.0008993818    1.340    0.254
        48 -10.2851    167.5197      1.9743   4.3287956902e+01   4.2581140493e+01    0.3540584     0.194065 -79.79   0.00154735    2.242    0.554
        49 -10.0593    126.9456      2.0628   4.9528748937e+01   5.2816061605e+01    0.2261386    0.1356285  36.78   0.00112132    1.648    0.393
        50 -10.0527     73.0647      2.1923   6.2935820332e+01   6.4713836490e+01    0.1931019     0.138833  26.21 0.0004420543    1.196    0.164
        51  -9.1246     76.3355    212.3000   1.1611445573e+02   2.1137584809e+01    0.1072604   0.09902869 -15.07 0.0007034332    1.657    0.396
        52 -10.8111    250.1994    246.2362   8.7834619061e+01  -1.1532406914e+01    0.2910056    0.1667112 -18.26  0.001856024    1.751    0.429
        53  -9.9120     72.6376    250.0735   1.2013503613e+02   1.4693340035e+01    0.1643114    0.1469454  34.74  0.001252733    1.556    0.357
        54 -12.0210     29.0768    248.5877   1.2733765024e+02   2.0300958265e+01    0.6240984     0.247721  71.86  0.003461902    2.383    0.580
        55 -10.3201      5.7336    235.2409   1.3046289702e+02   2.5092729188e+01    0.2497152     0.170627  59.41   0.00143961    1.194    0.162
        56 -12.4579     20.3149    248.6364   1.2873753304e+02   2.1246079665e+01    0.6510126    0.1853319  43.90  0.003178854    2.491    0.599
        57 -13.3434      7.0701    244.6079   1.3063762874e+02   2.3304485091e+01     1.002529    0.7265167  23.49  0.007119496    2.364    0.577
        58  -9.1536    188.4684    209.4994   9.2912707919e+01   2.8890079847e+00    0.1330225    0.1138967  26.71 4.060147e-05    1.003    0.003
        59 -10.1032     10.8314    208.4544   1.2831895664e+02   2.9661534493e+01    0.1953438    0.1393764 -58.33 0.0006972464    1.854    0.461
        60 -11.2370     18.9698    202.7748   1.2649537588e+02   3.0005899207e+01    0.3726248    0.2301761 -82.16   0.00207058    1.367    0.268
        61  -9.1136     67.7142    203.7000   1.1698817333e+02   2.4076708734e+01    0.1064032   0.09655679 -44.18 0.0002669058    1.554    0.356
        62  -9.4989    223.6055    201.8232   8.4851723884e+01  -2.0391822013e+00    0.1640043    0.1180555 -42.99 0.0005262818    1.706    0.414
        63 -10.3216    175.3904    202.6811   9.4349855928e+01   6.3495402863e+00    0.2366549    0.1882262  43.73 0.0005447178    1.165    0.142
        64  -9.9157    174.2563    219.4641   9.7332987299e+01   3.8021903835e+00    0.2631125    0.1100657  37.57    0.0011492    2.100    0.524
        65  -9.7459     34.5396    201.3348   1.2341841476e+02   2.8661274413e+01    0.1469288    0.1396222  13.57 0.0007636966    1.621    0.383
        66  -9.9361    206.6530    199.3239   8.7571860509e+01   1.2600597371e+00    0.1250874    0.1069783  73.88 0.0007049755    1.743    0.426
        67 -10.1484    215.4715    194.9075   8.5068096302e+01   3.8174516419e-01    0.1864957    0.1256847 -30.44 0.0003717513    1.523    0.344
        68  -9.8840    187.0000    191.0078   8.9901345927e+01   6.1958521032e+00    0.2151343   0.07902358 -42.01 0.0007519704    2.957    0.662
        69 -10.3282      1.9864    188.7066   1.2886995131e+02   3.4463056215e+01    0.2823936    0.1118066  72.28  0.001455203    2.330    0.571
        70  -9.6925    211.2822    188.5590   8.4646031887e+01   2.1153479737e+00    0.2349374    0.1557606 -10.65  0.001092383    1.780    0.438
        71  -9.4595     61.7768    185.0457   1.1627748247e+02   2.8849222817e+01    0.1668434   0.09446496 -72.78 0.0008715077    1.657    0.397
        72 -10.8463     16.5034    183.5091   1.2569720750e+02   3.4266205424e+01    0.2702548    0.1629694 -87.98  0.001709688    1.326    0.246
        73 -10.2094     15.4946    180.5292   1.2569139093e+02   3.4999923047e+01    0.1978847    0.1686769  88.84 0.0007389489    1.209    0.173
        74 -10.0657    166.9799    183.5194   9.2663675479e+01   1.1353528487e+01    0.2232787    0.1307353  41.58 0.0007355067    1.571    0.364
        75  -9.5571      1.9900    180.3076   1.2838749600e+02   3.6222007322e+01     0.154664    0.1141737  73.33 0.0004887424    1.105    0.095
        76  -9.9737    244.2714    178.5417   7.6626173744e+01  -2.1559703547e+00    0.2299545    0.1408717 -11.03 0.0007627615    1.794    0.443
        77 -10.8665    224.0763    178.4716   8.0229734722e+01   1.3887090172e+00    0.2453408    0.2245902   3.15 0.0004121637    1.106    0.096
        78  -8.9848     36.4614    178.4490   1.2111666715e+02   3.3350441484e+01    0.1224318   0.09772882  84.03 0.0002685743    1.021    0.020
        79  -9.4887     70.2117    177.6020   1.1352034652e+02   2.9363701047e+01     0.160133    0.1254772  27.82 0.0005261212    1.594    0.373
        80  -9.8932     46.9506    177.4791   1.1873112396e+02   3.2377128500e+01    0.1804479    0.1153796  40.76  0.001038411    1.609    0.378
        81  -9.8515    200.2124    176.5883   8.4433845269e+01   6.1621396977e+00     0.201132    0.1237079  31.43 0.0006314511    1.627    0.385
        82 -10.0567    100.9781    176.0072   1.0619962533e+02   2.5028544428e+01    0.1949365    0.1761339  74.54            0    1.014    0.014
        83 -11.0532     17.9702    172.8109   1.2460080001e+02   3.6453008444e+01     0.386009    0.1976676  66.98  0.002148673    1.819    0.450
        84 -10.8621     12.8094    170.6744   1.2553340926e+02   3.7385439435e+01    0.3266661    0.1290711 -85.15  0.001588825    2.238    0.553
        85  -9.2082     75.2187    170.9790   1.1149805476e+02   3.0156159534e+01    0.1762934    0.1541537  -6.10  0.001028377    1.651    0.394
        86  -9.5697      4.6467    168.1965   1.2707828601e+02   3.8610619880e+01    0.1704584   0.07920897 -70.93 0.0009576404    1.754    0.430
        87 -11.7194     36.2554    162.9999   1.1965196076e+02   3.6855297044e+01    0.5332553    0.4331994  65.37  0.003537823    1.173    0.147
        88 -11.9679     36.9908    157.9617   1.1894207259e+02   3.7938927909e+01    0.2461691    0.1927231  84.72 0.0003346599    1.076    0.071
        89  -9.6165     67.1773    165.1848   1.1262037088e+02   3.2614599660e+01    0.1921902    0.1379908  71.44 0.0007233974    1.353    0.261
        90 -10.7650     51.0542    164.0861   1.1631379246e+02   3.4934499675e+01    0.4391839    0.2178137 -57.06  0.002154216    1.971    0.493
        91 -11.0176     45.8734    161.3467   1.1721728249e+02   3.6176920467e+01    0.4832768    0.3616887 -24.92  0.002727085    2.126    0.530
        92  -9.3929    200.4655    162.5629   8.1455106920e+01   8.5749334486e+00     0.143505    0.1343776  11.83 0.0002422655    1.032    0.031
        93 -11.4730     22.6181    156.8056   1.2219435981e+02   3.9619781512e+01    0.4765001    0.3752656  72.87  0.003232704    1.149    0.130
        94  -9.0907    147.6394    156.3069   9.1607243476e+01   2.0676387263e+01    0.1565938    0.1178128  77.82 0.0007039903    1.734    0.423
        95 -10.3161     12.2542    153.2731   1.2426723632e+02   4.1320003963e+01    0.2483403     0.165297  16.97   0.00135895    2.156    0.536
        96 -10.3737    178.0351    151.4599   8.3695679021e+01   1.5313688895e+01    0.2774512    0.2539242 -72.65  0.001007145    1.259    0.205
        97 -11.5059     11.5379    145.8872   1.2378409145e+02   4.3060510127e+01    0.4042505     0.231768  55.15  0.002333397    1.750    0.429
        98 -10.1745    207.1120    146.2135   7.6510808434e+01   1.0155088630e+01    0.2226655     0.194078  12.17 0.0007089983    1.145    0.127
        99  -9.5863     30.5589    144.9089   1.1904446052e+02   4.1633878304e+01    0.1949067    0.1029349 -72.42 0.0005724885    1.567    0.362
       100  -9.3881    220.2448    143.9821   7.3506197177e+01   7.8425434670e+00    0.1881345     0.116777 -35.14 0.0006534662    1.537    0.349
       101 -10.3213      2.6762    143.9924   1.2571401692e+02   4.4147572512e+01    0.1927629    0.1384904 -53.84 0.0008841752    1.538    0.350
       102 -10.8502     15.7739    139.8166   1.2217371942e+02   4.4124620378e+01    0.3244828    0.1434546  13.06  0.001442161    3.966    0.748
       103 -10.8485      2.7143    137.2305   1.2513586560e+02   4.5681445459e+01    0.3444123    0.1228674 -72.38  0.001082217    2.082    0.520
       104  -9.8225      5.7106    133.6967   1.2407963793e+02   4.6286775333e+01    0.2087743    0.1396403 -82.40 0.0006959933    1.156    0.135
       105  -8.6394    143.6770    137.3062   8.8377243277e+01   2.5624677327e+01    0.1574818    0.1230083  84.72 0.0007033513    1.642    0.391
       106 -10.8302      9.1566    136.7580   1.2351285057e+02   4.5338147738e+01    0.2007218    0.1530815 -73.93 0.0002622634    1.115    0.103
       107 -10.5141     21.8001    136.0929   1.2025654099e+02   4.4496734346e+01    0.2507886    0.1713361  41.55 0.0009851644    1.628    0.386
       108  -9.3058    138.3117    135.3418   8.9242942952e+01   2.7189904090e+01    0.1577491    0.1245759  -6.26 0.0007046037    1.699    0.411
       109  -9.1429    122.6924    135.3268   9.3195375374e+01   3.0375325550e+01    0.1568937    0.1194835  84.71 0.0003850257    1.654    0.395
       110 -10.0206    107.1555    133.1911   9.6805272134e+01   3.3831151710e+01     0.249641    0.2471876 -31.97  0.001405039    1.102    0.092
       111  -9.7464     79.5035    132.9971   1.0427613133e+02   3.8503723798e+01    0.2104304    0.1307591 -60.05 0.0009967763    1.485    0.327
       112 -10.2457     54.9255    133.0510   1.1103624620e+02   4.1832112198e+01    0.3213309    0.1961932  38.45  0.001594819    1.774    0.436
       113 -10.0066     33.3426    133.2541   1.1689529837e+02   4.4124011235e+01    0.2744074    0.1337777 -78.15 0.0004205625    1.902    0.474
       114 -10.9932     37.2930    130.5106   1.1546114344e+02   4.4391321877e+01    0.3202348    0.2447031 -72.63  0.001256713    1.090    0.083
       115 -10.2623     73.9897    129.3187   1.0510514355e+02   4.0206948188e+01    0.2468554    0.1903933 -62.71  0.000728068    1.179    0.152
       116 -11.0578      1.8953    125.0585   1.2422654271e+02   4.8521850894e+01    0.2977525    0.1370088 -80.78 0.0009834839    1.747    0.428
       117 -10.4720      3.0205    120.9843   1.2352726422e+02   4.9389928863e+01    0.2778653    0.1421382 -83.98 0.0007423873    1.635    0.388
       118  -9.5466     33.3064    125.8588   1.1589830356e+02   4.5891951372e+01    0.1747684    0.1370657 -72.75 0.0003379738    1.052    0.049
       119 -11.3307     11.2569    123.3053   1.2158086946e+02   4.8308491829e+01    0.4828738    0.2400474  61.34  0.002169832    2.339    0.573
       120  -9.4585      6.6422    125.7079   1.2305821241e+02   4.8066525764e+01     0.119188   0.07409318 -49.16 0.0007029301    1.691    0.409
       121  -9.6211    226.0230    124.2110   6.7851777736e+01   1.0068406986e+01    0.1888688    0.1182535  48.66 0.0008658977    1.702    0.413
       122  -9.6033    219.5640    124.4753   6.9058065400e+01   1.1399079919e+01    0.1476736    0.1367393 -22.28 0.0001405257    1.010    0.010
       123  -9.6227     21.0265    121.4707   1.1870157611e+02   4.8005850281e+01    0.1628011     0.095341 -25.73 0.0008099042    2.653    0.623
       124 -12.1965     14.9623    103.4535   1.1800242557e+02   5.2693146891e+01    0.6823391    0.2883253  39.54  0.003138034    2.728    0.633
       125 -11.9810     16.6295    115.2954   1.1913425444e+02   4.9798462002e+01     0.408983    0.2956846 -54.79  0.001984496    1.297    0.229
       126 -12.2662     16.1425    109.1111   1.1844776830e+02   5.1286166717e+01    0.5830876    0.4317318 -40.08  0.003114516    1.494    0.331
       127  -9.5296    220.4357    116.9805   6.7085764157e+01   1.2527660419e+01    0.2278973    0.1363916 -37.64 0.0004765033    1.561    0.359
       128  -9.1150    201.4037    117.4757   7.0726086824e+01   1.6697226402e+01    0.1520817    0.1437729 -32.00 0.0001276156    1.028    0.027
       129 -10.6538     86.0128    116.5098   9.9016941039e+01   4.1453438811e+01    0.2675713    0.1984252 -55.92  0.001350546    1.251    0.200
       130  -9.1356    214.1846    115.5929   6.7860674935e+01   1.4154341102e+01    0.2022336    0.1386433  37.79 0.0005338967    1.587    0.370
       131  -9.2751    166.1480    115.4182   7.7622312513e+01   2.5288303133e+01    0.2146439    0.1526224  61.75 0.0005702054    1.595    0.373
       132 -12.3450     35.3135    108.1111   1.1255506770e+02   4.9945050184e+01     0.425397     0.261597  87.61 0.0008811036    1.923    0.480
       133 -10.1536     36.5271    102.3310   1.1115300554e+02   5.1204863707e+01    0.3014716    0.2105392  18.40   0.00168813    1.795    0.443
       134 -13.5684     54.9529    109.8683   1.0688481225e+02   4.7427398066e+01    0.3538096    0.3106034 -70.88 0.0008296988    1.044    0.042
       135 -10.3058    249.1919    112.2226   6.1274903333e+01   7.2928377136e+00    0.1941425    0.1540783 -52.94 0.0008502802    1.347    0.258
       136 -12.2789      3.2597    106.4237   1.2185280641e+02   5.2735301275e+01    0.4411407    0.3133519 -66.23  0.001520438    1.118    0.106
       137 -12.6938      2.8334    100.2939   1.2122396260e+02   5.4170105325e+01    0.2961156    0.2179227 -84.76 0.0005352697    1.189    0.159
       138 -11.1011     23.5463    107.5104   1.1601763445e+02   5.1105813778e+01    0.3529264    0.2552299  65.11  0.001888937    1.559    0.359
       139 -11.0845     62.4943    107.2194   1.0402206213e+02   4.7118185361e+01    0.3442141    0.2330774  28.54   0.00158952    1.716    0.417
       140 -11.3568    243.8222    104.6185   6.0293563302e+01   9.6153029370e+00    0.2674508    0.2114749  -3.51 0.0006909468    1.456    0.313
       141  -9.7233    223.2761    103.9748   6.3388504056e+01   1.4159049802e+01    0.2097718    0.1782464 -33.68 0.0004020463    1.096    0.088
       142  -9.5602     93.2981    104.0140   9.3861292361e+01   4.3177264345e+01    0.2100839     0.178769 -47.50 0.0004813077    1.108    0.098
       143  -9.5890    119.4819    101.9996   8.5763211164e+01   3.8614741597e+01    0.2451598    0.1495653 -43.35  0.001029283    1.603    0.376
       144 -10.9092    161.9915     98.9696   7.4120633021e+01   2.9612431004e+01    0.3776513     0.217072 -38.88  0.001509848    1.729    0.422
       145 -10.0014    145.2435     99.5086   7.8278227044e+01   3.3463217841e+01    0.3570825    0.1898166 -53.48  0.001306756    2.196    0.545
       146  -9.6733     85.3799     98.6611   9.4888005458e+01   4.5761328681e+01    0.2019593    0.1277558 -44.80 0.0009258824    1.492    0.330
       147 -11.3217     20.0704     97.0305   1.1543111994e+02   5.3831933609e+01    0.4145845    0.2677208 -74.43  0.002299563    1.335    0.251
       148 -10.1114     40.8045     97.0751   1.0877322270e+02   5.2030885117e+01    0.2489216    0.1484854 -48.71 0.0007555575    1.487    0.327
       149 -11.2238     66.9343     98.1038   1.0055730118e+02   4.8683703050e+01    0.3768474    0.1787709 -55.40 0.0008593469    1.869    0.465
       150 -10.9179     62.1122     98.5541   1.0220770954e+02   4.9225252885e+01    0.5298023    0.3704392 -22.74   0.00265691    1.828    0.453
       151 -10.9126     93.1834     94.8436   9.1464784066e+01   4.5300903216e+01     0.394535    0.2375351 -44.82  0.001759643    1.568    0.362
       152  -9.9884    250.0169     95.7070   5.7291834631e+01   9.7588430714e+00    0.1864833     0.177466 -44.28 0.0005133406    1.085    0.078
       153  -9.8037     57.4940     96.4898   1.0322104991e+02   5.0299174201e+01    0.1381223    0.1213449 -58.53 -2.191267e-05    1.024    0.024
       154 -10.0670     31.5952     93.5742   1.1109029384e+02   5.3716295826e+01    0.2533879     0.132627 -66.55 0.0007381933    1.635    0.388
       155 -10.0164     91.0523    108.5007   9.5653696399e+01   4.2516152791e+01    0.2914886    0.1933947 -36.90   0.00133312    1.641    0.391
       156  -9.5786     57.8077     93.3848   1.0239278134e+02   5.0986918260e+01    0.1714503    0.1328261   8.79 0.0004959586    1.587    0.370
       157 -10.5744    162.5129     92.4749   7.2162087398e+01   3.0769758436e+01    0.2361409    0.1547507 -26.00 0.0006870556    1.745    0.427
       158 -11.5087    158.2701     90.1360   7.2457959347e+01   3.2258821335e+01    0.4401183    0.2957667 -25.57  0.001857788    1.696    0.410
       159 -11.7512    166.6145     84.1767   6.8848374848e+01   3.1346339278e+01    0.7042682    0.4571803  46.25  0.003033987    1.562    0.360
       160 -11.0097     25.4796     91.5327   1.1271996927e+02   5.4701313000e+01    0.2922595    0.2169237 -15.65  0.001268152    1.673    0.402
       161 -11.4140     22.8192     87.5226   1.1285917768e+02   5.5834830781e+01    0.3617385    0.2026274 -57.76  0.000254972    1.396    0.284
       162 -11.3287     11.0732     91.0197   1.1734547489e+02   5.5828279175e+01    0.3297113    0.2287989  19.32  0.001186277    1.831    0.454
       163 -11.2545      4.9677     86.0215   1.1855885459e+02   5.7319101549e+01    0.3817059    0.2187259 -78.73  0.002204188    1.546    0.353
       164  -9.6666     50.0819     86.5025   1.0333710462e+02   5.3503750562e+01    0.2229534    0.1656784 -36.68  0.001132962    1.319    0.242
       165 -10.5591     45.0650     83.3946   1.0431943919e+02   5.4769713578e+01     0.462272    0.2358321  44.21  0.002158345    2.446    0.591
       166 -10.2694    112.6990     85.9749   8.3064617708e+01   4.3497128255e+01    0.2259274    0.1914607 -46.54 0.0007055331    1.159    0.137
       167 -10.5582     67.1113     84.8099   9.7108722175e+01   5.1722759327e+01    0.2537136    0.1838796 -39.78 0.0003470127    1.291    0.225
       168 -10.7690     87.9160     83.2842   8.9821414476e+01   4.8794694730e+01    0.3118024     0.213299 -58.42 0.0004125788    1.571    0.363
       169 -10.2049     30.0680     82.4164   1.0933983771e+02   5.6428070258e+01    0.3272704    0.1420206 -56.34  0.001560745    1.785    0.440
       170 -12.1954      6.2733     75.2635   1.1632948366e+02   5.9674166835e+01    0.6732393    0.3673418 -35.48  0.003120176    1.884    0.469
       171 -11.3349     12.8403     81.5648   1.1516375273e+02   5.7880396116e+01    0.4208475    0.2447308  81.23   0.00169699    2.339    0.573
       172 -10.7812     12.5316     77.9766   1.1461334060e+02   5.8710497328e+01    0.2822469    0.1693006 -66.62 0.0006424387    1.341    0.254
       173  -9.4336    134.6324     91.7840   7.8759495939e+01   3.7507923636e+01    0.2377161    0.1429413 -51.13 0.0009545584    1.776    0.437
       174  -9.4092    132.8368     83.3699   7.6705509932e+01   3.9633610730e+01    0.2108827    0.1449572  38.45 0.0004727528    1.526    0.345
       175  -9.6855    117.7155     83.0567   8.0737604137e+01   4.3052335954e+01    0.2305698    0.1896827 -36.65  0.001140234    1.189    0.159
       176  -9.1684    195.9974     82.2559   6.2455927057e+01   2.4376279600e+01    0.1901739    0.1329288  57.51 0.0004072399    1.469    0.319
       177  -9.2179    146.5097     81.5556   7.2693037998e+01   3.6772283587e+01    0.1564192    0.1526376 -78.54 0.0001317774    1.063    0.059
       178 -11.9039     21.0976     77.8140   1.1154138163e+02   5.8177651710e+01    0.4442631     0.290451 -55.55 0.0003457489    1.202    0.168
       179  -9.4372    104.1426     91.8827   8.7320563754e+01   4.3932422733e+01    0.2044454    0.1738372 -15.87  0.001033681    1.298    0.230
       180  -9.5723     71.0169     79.2526   9.4226427522e+01   5.2396805918e+01    0.2117041    0.1592364  70.69 0.0008794414    1.927    0.481
       181 -10.0192     54.0881     74.3690   9.8767888492e+01   5.5762590820e+01    0.2116381    0.1597683 -50.88 0.0006917156    1.166    0.142
       182 -11.3459     59.2398     75.8746   9.7351593289e+01   5.4780548269e+01    0.5348855    0.4092906 -84.76  0.002830186    1.794    0.443
       183 -11.7679     62.5196     71.5598   9.4923625183e+01   5.5280100942e+01    0.3851998    0.2843745 -38.76  0.001688265    1.213    0.176
       184 -11.1580     91.9227     77.3181   8.6726221378e+01   4.9363316789e+01    0.4244829    0.2898438  43.16  0.002047262    1.565    0.361
       185  -9.0929    176.6018     76.2491   6.4446092028e+01   3.0281060554e+01    0.1600701    0.1204715 -83.88 0.0006944959    1.689    0.408
       186 -10.1520    108.8828     75.8734   8.1042355753e+01   4.6372954088e+01    0.2495032    0.2057775   2.10  0.001243047    1.380    0.276
       187 -10.3819     74.6769     75.9632   9.2005522875e+01   5.2557138744e+01    0.2076207    0.1715682 -40.96 0.0007773404    1.094    0.086
       188  -9.9786     49.3132     76.2861   1.0101110275e+02   5.5903785958e+01    0.2109579    0.1789718  -8.92 0.0005374829    1.289    0.224
       189 -12.1147     44.7346     75.2025   1.0237908956e+02   5.6652410389e+01    0.2396402    0.2183479  26.78 0.0002803369    1.281    0.219
       190  -9.9208    137.7761     74.3671   7.2625047601e+01   4.0230536662e+01    0.2949123    0.2080421 -62.29 0.0007951795    1.800    0.444
       191  -9.8395    145.5000     74.0554   7.0620325670e+01   3.8432907837e+01    0.2424857    0.1537915 -36.78  0.001028969    1.578    0.366
       192 -12.0492    102.5135     72.7691   8.1958850421e+01   4.8286150677e+01    0.3819953    0.3201679 -26.72 4.459943e-05    1.171    0.146
       193 -10.7516    150.2972     72.0605   6.8859049857e+01   3.7622976917e+01    0.2785664    0.2262834  53.31 0.0002573023    1.228    0.186
       194  -9.9030    128.9383     71.7209   7.4064590984e+01   4.2797420401e+01    0.2083567    0.1925178  45.23  0.000290647    1.092    0.084
       195 -11.0672     77.8494     71.7691   8.9627869918e+01   5.2945592003e+01    0.3131837    0.2439707  53.99 0.0009157964    1.575    0.365
       196 -10.8153     37.4052     69.3951   1.0356014880e+02   5.8682293378e+01    0.4809385    0.2785348 -70.18   0.00237453    2.017    0.504
       197 -11.1010     50.5135     68.9803   9.8538701961e+01   5.7365469943e+01    0.4248596    0.1891739 -46.73  0.001105884    1.896    0.473
       198 -10.2782     51.2556     63.2537   9.6545641960e+01   5.8494298024e+01    0.3431607    0.1893489 -37.94  0.001366767    1.674    0.403
       199 -10.0132    167.7669     69.9766   6.4380478969e+01   3.3611293029e+01    0.2518056    0.2122764  55.28 0.0004976881    1.179    0.152
       200 -11.9569     94.2216     67.7715   8.2905020483e+01   5.0888929034e+01    0.5787897    0.2566095 -41.01  0.002262459    2.155    0.536
       201 -10.6883     68.7247     67.8990   9.1577935916e+01   5.5169917319e+01    0.4748871    0.1533027 -45.54  0.001242207    2.750    0.636
       202 -11.9020     16.4757     67.8836   1.1111502386e+02   6.0709557075e+01    0.2832431    0.2013882 -57.28  0.001808337    1.108    0.097
       203 -11.4759     20.6852     64.4875   1.0871454634e+02   6.1162499213e+01    0.7374513    0.4382288  77.30   0.00340054    3.263    0.694
       204  -9.3443    140.6250     68.7048   7.0106220693e+01   4.0592107537e+01    0.1644072    0.1190239  20.16 0.0007025127    1.741    0.426
       205  -9.4174    123.1499     68.4009   7.4534981631e+01   4.4741637001e+01    0.1974907    0.1472383  60.82 0.0004830469    1.515    0.340
       206  -9.4651     31.3200     68.3439   1.0558842255e+02   5.9473391249e+01     0.227418    0.1227867 -48.12 0.0007486599    1.493    0.330
       207  -9.9082     30.9866     65.4737   1.0497290414e+02   6.0127970179e+01    0.1608636    0.1472388 -30.17 0.0003811262    1.148    0.129
       208 -10.2679      6.4256     67.8255   1.1488169871e+02   6.1313513942e+01    0.1951753    0.1378361 -38.74 0.0004729918    1.326    0.246
       209 -11.8201      3.4321     64.6483   1.1538319412e+02   6.2157983401e+01    0.3362259    0.2527238 -58.41  0.001046673    1.018    0.017
       210 -10.8726     56.2976     66.3739   9.5614767673e+01   5.7209631748e+01    0.2706776    0.1743871 -23.83 0.0008129381    1.759    0.432
       211 -11.0917     77.3726     64.0429   8.7274617500e+01   5.4607200299e+01    0.3910725    0.2486923 -47.41    0.0019129    1.516    0.341
       212 -10.0541     99.8373     64.4666   8.0013419986e+01   5.0444873318e+01    0.2433134    0.1914953 -12.43 0.0006536728    1.380    0.276
       213  -9.2835    222.7730     63.0077   5.3034312108e+01   2.0973362518e+01    0.1845648      0.11295 -34.92 0.0003100855    1.544    0.352
       214 -11.1257     84.1175     61.5442   8.4109579954e+01   5.3952719569e+01    0.6194447    0.3653528  26.54  0.002774731    2.013    0.503
       215 -10.5048     86.9013     56.1705   8.1275091680e+01   5.4471628676e+01    0.2964972    0.2132973 -25.77 0.0003409858    1.374    0.272
       216 -11.0407     87.2048     52.2294   7.9735607867e+01   5.5132620188e+01    0.2767247    0.2173253 -41.06 0.0007255381    1.285    0.222
       217 -10.1670     11.0983     62.3829   1.1195745916e+02   6.2242797752e+01    0.1906432    0.1265442 -52.89 0.0004848026    1.148    0.129
       218 -10.9747    201.2877     61.8173   5.5908297837e+01   2.6427675061e+01    0.2449822     0.235758  41.51  0.000269008    1.125    0.111
       219  -9.7875    155.7982     61.9235   6.4424721258e+01   3.8012354341e+01    0.2290733    0.1702046  27.61  0.001010816    1.576    0.365
       220 -11.2314     57.6806     59.2432   9.2823274218e+01   5.8504074270e+01    0.3935086    0.2777834 -45.40   0.00218169    1.269    0.212
       221 -11.1976     64.1972     60.0126   9.0641337707e+01   5.7445576981e+01    0.7347503    0.3056316  26.28  0.002783678    3.271    0.694
       222  -9.6382     31.4171     45.2174   9.8765271539e+01   6.4283118758e+01    0.2490432    0.1301609 -51.07 0.0009857982    1.634    0.388
       223 -11.2005     29.7340     60.8283   1.0421434630e+02   6.1235001635e+01    0.6361432    0.2792934  10.01  0.002729126    3.480    0.713
       224 -12.9472     37.7302     50.9137   9.7984765319e+01   6.2533749999e+01    0.7353188    0.5444238 -19.16  0.001430212    1.323    0.244
       225  -9.2232    184.0066     60.2410   5.8362419479e+01   3.1067739294e+01    0.2035959    0.1265798  60.36 0.0008801555    1.598    0.374
       226 -10.0879    102.7818     60.2240   7.7634247744e+01   5.0647368091e+01    0.2488588    0.1708547  23.24 0.0003645435    1.700    0.412
       227 -10.8406      5.4336     58.7859   1.1339213114e+02   6.3325380109e+01    0.2938928    0.1560798 -61.38 0.0009900121    1.437    0.304
       228 -10.0351     48.0097     58.0710   9.6166189759e+01   5.9954382382e+01    0.2590303     0.178066 -61.68  0.001401801    1.642    0.391
       229 -10.4730     43.9448     57.0189   9.7432468697e+01   6.0633566154e+01    0.2356408    0.1804891 -18.17 0.0003164222    1.304    0.233
       230 -10.4062    147.0196     57.0028   6.4784271781e+01   4.1030164800e+01    0.2243989    0.2226782  75.20 0.0003131863    1.033    0.032
       231  -9.9612    129.8146     56.1415   6.8631190238e+01   4.5367956149e+01     0.270206    0.1990151 -26.77 0.0006906841    1.402    0.287
       232 -10.3107    122.9969     56.6469   7.0585657040e+01   4.6876408694e+01    0.2369932    0.2035361 -48.66 0.0003971721    1.257    0.204
       233 -11.8542     75.3367     56.0412   8.5220313766e+01   5.6504476694e+01    0.2422983    0.2170586 -26.91 0.0002815211    1.058    0.055
       234 -11.2596     69.6818     49.8027   8.4996973619e+01   5.8582822984e+01     0.445798    0.3477742 -78.90  0.001909039    2.190    0.543
       235 -10.6679    100.2293     55.7425   7.6826727440e+01   5.1977930663e+01    0.3182235    0.1859546  43.14  0.001430581    1.729    0.422
       236 -10.1113     62.0792     54.4398   8.9518330625e+01   5.8849791018e+01    0.3302286    0.2564352 -50.21  0.001883348    1.339    0.253
       237  -9.7211     69.2556     61.3812   8.9254037152e+01   5.6422881958e+01    0.2459294    0.1489433 -28.91  0.001159505    1.745    0.427
       238 -12.1263    128.7875     50.1405   6.6807023184e+01   4.6589433067e+01    0.5807695    0.4011619   6.26 0.0007370565    1.935    0.483
       239 -10.7097     12.3595     51.1259   1.0871546959e+02   6.4557320255e+01    0.2438531     0.171203 -64.02 0.0004108188    1.329    0.247
       240 -11.2779     11.3256     44.6389   1.0738884388e+02   6.5950963219e+01    0.4172869    0.2157664 -42.07  0.001352294    1.516    0.340
       241  -9.9322      3.7991     47.4110   1.1141110996e+02   6.5798039729e+01    0.2019143    0.1185058 -38.49  0.001047614    1.428    0.300
       242 -10.5043      6.9631     41.4233   1.0842346403e+02   6.6851386037e+01    0.3279738    0.1101065 -54.88 0.0006829399    2.083    0.520
       243 -10.8209      5.7135     51.7315   1.1165999773e+02   6.4804774581e+01    0.3474788    0.1679659 -43.07  0.001851047    1.647    0.393
       244 -11.4454    104.5435     49.3900   7.3192675114e+01   5.2179170498e+01    0.4287557     0.345784 -27.80  0.002283273    1.214    0.176
       245 -10.4502     45.0672     50.1616   9.4717154343e+01   6.1883323561e+01    0.4063208    0.1497373 -46.76   0.00173966    2.268    0.559
       246 -11.5645     78.3227     48.3009   8.1314502190e+01   5.7422803732e+01    0.4372286    0.2598779 -30.43   0.00152475    1.642    0.391
       247 -10.6547     53.6674     50.1637   9.1261251645e+01   6.0825635292e+01    0.1981008    0.1760134  27.27 0.0004704218    1.296    0.228
       248 -10.9187     95.0633     48.5776   7.5808912308e+01   5.4259531230e+01    0.4410296    0.3186252 -66.36 0.0009518534    2.183    0.542
       249  -9.7745     91.6715     42.3404   7.4502234464e+01   5.5958194919e+01    0.2891658    0.1385344 -35.79 0.0008845781    2.035    0.509
       250 -10.2905     89.2602     39.0542   7.3986178767e+01   5.6949985126e+01    0.3059524    0.2086573 -34.52 0.0007755083    1.446    0.308
       251  -9.4429    166.9286     48.7789   5.8016109262e+01   3.7231251072e+01    0.2020799    0.1190526  58.60 0.0005557133    1.630    0.387
       252 -11.1087    151.7444     47.8749   6.0746461101e+01   4.1265029037e+01    0.3406057    0.2805615  47.38 0.0004283161    1.179    0.152
       253 -10.0102    155.9254     46.8402   5.9545459506e+01   4.0351313403e+01    0.2343508    0.1992047  27.69 0.0005489876    1.265    0.209
       254 -10.0088    113.4085     47.0904   6.9784763607e+01   5.0625960429e+01    0.3080234    0.2326916 -74.94  0.001233925    2.002    0.501
       255 -10.7033    120.0772     46.9562   6.7921842359e+01   4.9133291568e+01    0.3389748    0.2261519 -18.70 0.0006507798    1.669    0.401
       256 -10.7858    124.5952     42.2009   6.5027044489e+01   4.8799526766e+01      0.56696    0.3554936  66.49  0.001855666    1.902    0.474
       257  -9.0525    189.3110     46.7114   5.3532231985e+01   3.1738083295e+01    0.1523634    0.1087011 -68.82 0.0002096317    1.581    0.367
       258 -10.1930    142.5056     45.5234   6.1955530538e+01   4.3944374372e+01    0.2911105    0.2367629 -71.90 0.0009213276    1.481    0.325
       259  -9.9735     86.2259     45.8009   7.7637935783e+01   5.6432640230e+01     0.195273    0.1526234  -4.54  0.001025931    1.313    0.238
       260  -9.2344    163.7049     45.3244   5.7535738601e+01   3.8569124346e+01    0.1543706     0.112934 -66.57 0.0001995808    1.622    0.383
       261  -9.7791     51.1722     44.8764   9.0338534056e+01   6.2149545020e+01    0.1829772    0.1589987 -32.15 0.0003572412    1.124    0.110
       262 -10.6394     51.3599     40.2508   8.8501596397e+01   6.2970178949e+01    0.2864782    0.2276314 -71.12 0.0009720949    2.015    0.504
       263  -9.4324    174.9680     43.6451   5.4981634470e+01   3.5886690682e+01    0.2019846    0.1870331  79.60 0.0005972183    1.045    0.043
       264 -10.1777    164.6772     42.6860   5.6516977533e+01   3.8692577295e+01    0.4456949    0.1993841  72.77  0.001497259    3.013    0.668
       265 -11.1447    110.9853     42.0658   6.8589372679e+01   5.1946417486e+01    0.2828883    0.2126508  50.37 0.0003160082    1.333    0.250
       266 -11.2973     68.7215     39.5895   8.1402729230e+01   6.0534239530e+01    0.5566134     0.419619  -2.64  0.002853555    1.340    0.253
       267 -12.3531    226.3022    246.1539   9.1888312928e+01  -8.1650942939e+00    0.5056263    0.3285696   3.77  0.003216279    1.561    0.359
       268 -11.0715     23.2416     41.1738   1.0100904438e+02   6.5791633616e+01    0.2241024    0.1927301  43.90 0.0007695252    1.605    0.377
       269 -11.1476     20.5326     37.5367   1.0101264235e+02   6.6711485491e+01    0.2691561    0.1802892 -31.91  0.001007576    1.240    0.193
       270 -11.9594     27.7238     38.0022   9.7895495462e+01   6.6013516922e+01    0.3139477     0.238272 -48.41   0.00117297    1.258    0.205
       271 -11.6883     24.4888     35.0482   9.8309884269e+01   6.6855475852e+01    0.2129925    0.1756777 -20.48 0.0003655439    1.110    0.099
       272  -9.9765     96.4900     40.5369   7.2272299057e+01   5.5276370921e+01    0.4158525    0.1255401 -37.61  0.001409374    3.236    0.691
       273 -11.2983    100.5368     38.1194   7.0091356331e+01   5.4803744260e+01    0.4939283    0.3104541  29.58  0.001207131    1.706    0.414
       274 -11.1853    105.1321     34.2914   6.7244497647e+01   5.4371942258e+01    0.2741004    0.2459294  49.75 0.0002013783    1.183    0.154
       275 -11.4611     98.4182     31.7435   6.8181635672e+01   5.6168245872e+01    0.6191857    0.3481257  21.11  0.002586725    2.411    0.585
       276 -12.2658    233.1514    246.0733   9.0692656185e+01  -9.1450459130e+00    0.5738495    0.3422575 -26.96  0.003655918    1.824    0.452
       277  -9.9645     62.0246     40.9568   8.4507514084e+01   6.1344553093e+01    0.1955529    0.1639222 -17.22  0.000325884    1.024    0.023
       278  -9.6520     61.7220     37.6940   8.3317731303e+01   6.1949805165e+01    0.1979095    0.1549941 -20.57 0.0002127977    1.121    0.108
       279 -10.0628     41.0166     41.3566   9.3267661535e+01   6.4031058231e+01    0.1705923    0.1454496  -6.72 0.0004667888    1.143    0.125
       280 -10.0751     43.0111     37.5586   9.0968242272e+01   6.4496823105e+01    0.2948443    0.2056991 -67.65  0.001532193    2.435    0.589
       281  -9.2980    199.5019     37.9841   4.9553766661e+01   3.0329236868e+01    0.1818712    0.1251657  12.74 0.0004300479    2.202    0.546
       282 -10.9881    182.0123     37.4017   5.1946394393e+01   3.4909384272e+01    0.3253753    0.2156018 -84.67  0.001046368    1.812    0.448
       283 -11.0834     81.3437     37.2957   7.5930609095e+01   5.8723442414e+01    0.3081617    0.2248246  29.31 0.0006657342    1.346    0.257
       284 -10.9890     81.7716     34.0000   7.4429417442e+01   5.9151632815e+01    0.3705089    0.2491475  -0.67  0.001465916    1.721    0.419
       285 -10.2707    165.8582     36.8480   5.4454333295e+01   3.9183064198e+01    0.2095433    0.1697776 -84.23  0.001065968    1.343    0.256
       286  -9.6446    127.4483     36.4747   6.2240169640e+01   4.8933345160e+01    0.1458905    0.1351218  29.07 8.519925e-05    1.021    0.021
       287 -11.1364     78.6827     31.6292   7.4502706711e+01   6.0075928159e+01    0.5938357     0.334132 -10.29  0.002339002    2.407    0.584
       288  -9.2352    155.4692     35.5102   5.5920646244e+01   4.2047645288e+01    0.1492606    0.1359419  41.48 0.0001375747    1.092    0.084
       289  -9.9672    110.5241     34.3819   6.5778321200e+01   5.3165425653e+01    0.3653716    0.2026455 -48.61  0.001018871    2.350    0.574
       290 -10.8334     57.1407     34.4381   8.3801465775e+01   6.3174695655e+01    0.3522963     0.248414  38.30  0.001445533    1.594    0.373
       291 -10.2132    247.4850     33.4740   4.2927445562e+01   1.9378179978e+01    0.1326274    0.1129746 -61.58 0.0001043853    1.005    0.005
       292 -10.8292    192.9185     32.9189   4.9038502828e+01   3.2673924726e+01    0.2808969    0.2041779  50.25 0.0004867721    1.430    0.301
       293 -11.5989     74.8271    240.1835   1.1895937784e+02   1.6108001413e+01    0.5265402    0.3465481 -40.56  0.003020722    2.841    0.648
       294 -10.3425    223.8248     30.5163   4.4606327521e+01   2.5254714929e+01    0.2754844    0.1385841 -60.49 0.0009982558    2.214    0.548
       295 -10.7632    152.7656     28.5002   5.4099476358e+01   4.3630438812e+01    0.4308409    0.2519368 -58.06  0.001813173    2.234    0.552
       296 -10.5911    139.4830     30.9133   5.7542407083e+01   4.6705711899e+01    0.2558881    0.2127008  47.12  0.000279036    1.127    0.113
       297  -8.8587    135.3003     29.3311   5.7868779277e+01   4.7946794553e+01    0.1518354    0.1038839  27.13 0.0006338496    1.647    0.393
       298 -12.1869     70.7333     26.0205   7.4922386923e+01   6.2307390574e+01    0.3203504    0.2232416  34.06 0.0002448905    1.394    0.283
       299  -9.2743    115.5300    244.5216   1.1192614184e+02   9.4314454185e+00    0.1201294   0.09497379  51.33 0.0003415564    1.031    0.030
       300 -10.0788    109.6589    243.2357   1.1287690105e+02   1.0539866862e+01    0.2563132    0.1557882  65.59  0.001215597    1.701    0.412
       301 -10.4098    156.5244    241.5124   1.0390972392e+02   3.3880440962e+00     0.123836   0.09897852  40.17 0.0004467743    1.006    0.006
       302  -9.6785     60.9960     29.0206   7.9953897780e+01   6.3464034133e+01    0.1828255    0.1608341 -29.18  0.000456883    1.255    0.203
       303 -10.1526     88.9913    241.0024   1.1646055423e+02   1.3977965562e+01    0.1560057    0.1439715  -3.25 0.0009428383    1.699    0.411
       304 -10.2434    195.5445    238.5462   9.6225555299e+01  -2.5164714662e+00    0.2549162    0.1776503  20.73  0.001397095    1.329    0.248
       305  -9.1794     50.3127    240.3242   1.2330120406e+02   1.9269266576e+01   0.09056713    0.0865612 -59.65 0.0004084868    1.660    0.397
       306 -10.8130    232.1316     27.9078   4.3099226005e+01   2.3603338305e+01     0.215929    0.1553772 -65.10 0.0004549543    1.295    0.228
       307 -10.1077    247.9541     27.4701   4.1504422833e+01   2.0032472568e+01    0.1901341   0.09369446 -75.28 0.0008094567    2.537    0.606
       308 -10.5869    214.9571     27.2224   4.4742090324e+01   2.7827721820e+01    0.2158033    0.1687251 -71.94 0.0005173548    1.212    0.175
       309  -9.7944     24.7510     26.8786   9.5053628396e+01   6.8312043305e+01    0.1444057    0.1252466 -40.79 0.0004641517    1.310    0.237
       310 -10.4514    243.1086     26.2220   4.1653282887e+01   2.1276481898e+01     0.181872    0.1723453  80.35 0.0003872652    1.215    0.177
       311 -12.1771    237.3100     25.2339   4.1957297800e+01   2.2725770062e+01    0.2713352    0.2279094 -56.12 0.0004141546    1.065    0.061
       312 -10.8728    111.9308     24.8325   6.1665450545e+01   5.4089636516e+01    0.2447899    0.2105998 -31.92 0.0003543071    1.257    0.204
       313 -10.6636     10.0748     25.1230   1.0163882410e+02   6.9787049014e+01    0.2448938    0.1498729 -11.95 0.0008581724    1.662    0.398
       314  -9.4250      1.4856     26.4771   1.0645756691e+02   7.0041107237e+01    0.1576396   0.09380572 -62.80 4.462767e-05    1.686    0.407
       315  -9.7393      3.5744     24.1039   1.0458319042e+02   7.0370340638e+01    0.2339067     0.126294  12.78 0.0007212406    2.106    0.525
       316 -10.7954    197.2319     24.7891   4.6187233695e+01   3.2572067248e+01    0.2278225    0.2128963 -67.31 0.0002887994    1.065    0.061
       317  -9.7924    244.0015    238.1810   8.7577011757e+01  -9.8080213735e+00    0.1674924    0.1303029  52.02  0.001085443    2.067    0.516
       318 -11.4518    129.1392     23.0937   5.6930222928e+01   5.0211949464e+01    0.3480737    0.2876597  23.31 0.0003517856    1.229    0.187
       319 -10.8402    129.4513     19.4833   5.5527125487e+01   5.0540677690e+01    0.2808928    0.2049652  66.23 0.0009136699    1.367    0.269
       320 -10.5739     94.2413     23.6182   6.6067581478e+01   5.8119346544e+01    0.5561759    0.2635223  46.26  0.002488676    1.950    0.487
       321 -12.1483     30.1018    233.6682   1.2635771552e+02   2.2845322594e+01    0.4078968    0.1939136  88.17  0.002448797    1.932    0.483
       322 -10.7477     49.0231     30.6091   8.5558859192e+01   6.4940414503e+01    0.4497922    0.2186264 -26.42   0.00208876    2.207    0.547
       323 -10.2727    119.9997     21.8014   5.8504549324e+01   5.2564146328e+01    0.4120289    0.2401329  10.84  0.001529144    2.388    0.581
       324  -9.9368    149.0796     22.8777   5.2881154840e+01   4.5236643850e+01    0.2030692      0.18061 -80.35            0    1.207    0.171
       325  -9.2315     49.5116     23.4928   8.2225089214e+01   6.6004083109e+01    0.1273905    0.1027339  -9.81 0.0008105121    1.012    0.011
       326 -10.1958     34.5624     22.8884   8.8677152185e+01   6.7983570546e+01    0.2603225    0.1473363  10.21  0.001273781    2.064    0.516
       327  -9.8656     24.2326    232.2917   1.2727697928e+02   2.3739685464e+01     0.168118     0.135045  79.75 0.0006411879    1.226    0.185
       328  -9.5264     19.3337     19.3232   9.4588814166e+01   7.0093229113e+01    0.2035406    0.1260612  -4.39 0.0009706246    1.663    0.399
       329 -10.2319    159.8998    235.8912   1.0251942102e+02   3.6829087960e+00    0.1923036    0.1505146  24.37 0.0006214389    1.281    0.220
       330 -10.8481     26.6458     14.0354   8.8459292901e+01   7.0242635335e+01    0.1873739     0.135773  -4.03 0.0005073993    1.217    0.179
       331 -11.4853     29.4806     20.5501   9.0065472559e+01   6.8916221212e+01     0.264244    0.1591172 -30.46  0.001589799    1.366    0.268
       332 -10.1691     35.6130     14.9871   8.4518549148e+01   6.9087000691e+01    0.2264217    0.1525119  -1.66 0.0008740098    1.408    0.290
       333 -11.3821     37.3453    242.6810   1.2565628076e+02   2.0397350285e+01    0.5161476    0.1982235 -86.12  0.002706545    2.774    0.639
       334 -10.5331    184.6545     21.1590   4.6780861447e+01   3.6224973439e+01    0.3399977    0.1552871  74.19  0.001074487    2.234    0.552
       335  -9.8920    114.1119     20.4497   5.9386445733e+01   5.4101433559e+01    0.2683182    0.1684762 -42.89  0.001113544    1.862    0.463
       336 -10.0182    177.8126    234.6985   9.8955624633e+01   8.9916901766e-01    0.1933217    0.1622223  -2.96 0.0008705391    1.337    0.252
       337 -10.5407     66.6047     21.1781   7.4278773800e+01   6.3691066110e+01    0.2656646    0.1726355  35.54 0.0008696665    1.489    0.328
       338 -10.9896    153.7176    233.8813   1.0342703162e+02   5.0168670942e+00    0.2273919    0.1822783 -13.06 0.0008755801    1.662    0.398
       339 -10.0149     85.9921    232.9891   1.1626994075e+02   1.5828673567e+01    0.1982796    0.1133073  64.31 0.0006062437    1.650    0.394
       340 -10.6360     10.0205     15.7501   9.7941825416e+01   7.1437414176e+01    0.2163911    0.1325333 -23.82 0.0006968265    1.373    0.272
       341  -9.8340    246.1321     19.5072   3.9847824520e+01   2.1407399368e+01    0.1768138    0.1177371  79.35 0.0003512723    1.474    0.321
       342  -9.3117    151.1528     18.8250   5.1143320981e+01   4.5154032412e+01    0.1927539    0.1505478  39.61 0.0003384928    1.289    0.224
       343  -9.9421    213.7586     17.3825   4.2334557026e+01   2.9287289712e+01    0.2854719    0.0990437  62.99  0.001116979    2.590    0.614
       344  -9.8224     79.9570    231.5086   1.1726209650e+02   1.6956886740e+01     0.177615   0.09618853  45.04  0.000490905    1.534    0.348
       345  -9.1672     95.9718     15.7660   6.2219990041e+01   5.8680110827e+01    0.1718384     0.103319  50.62 0.0003878009    1.552    0.355
       346  -9.7459     50.5571     15.4670   7.8009086697e+01   6.7014551289e+01    0.2461239    0.1132969  38.58  0.001220791    2.208    0.547
       347 -12.0684      4.8432    207.7068   1.2934815223e+02   3.0368412680e+01    0.4936555    0.2232039  83.74  0.002924094    1.828    0.453
       348 -10.1229    158.4843     13.9847   4.8342581649e+01   4.3774131683e+01    0.2057242   0.09609674 -49.05  0.000810342    2.557    0.609
       349 -10.9710     74.2271    233.0345   1.1846257599e+02   1.7474881701e+01    0.2394428    0.1683549 -76.88 0.0009306443    1.477    0.323
       350 -10.9945      5.0875    226.7514   1.3020236140e+02   2.6704598335e+01    0.3973713     0.134358  68.30  0.002067338    2.603    0.616
       351 -10.0622    190.5570    227.1435   9.5402471024e+01  -1.2568882208e-01    0.3336219    0.1244155 -42.22  0.001459001    3.172    0.685
       352  -9.4467     15.3487     14.1619   9.4388916944e+01   7.1286649474e+01    0.1469387   0.09161266 -48.02 0.0004223901    1.602    0.376
       353 -10.0394    248.7800    227.5690   8.4991817006e+01  -9.2811254270e+00    0.2086422    0.1247593 -11.94 0.0008884972    1.667    0.400
       354 -10.1164    167.1937    233.7896   1.0083756064e+02   2.7920954795e+00    0.1666587    0.1326417  17.93 0.0007234948    1.314    0.239
       355  -9.7545    130.2413    226.8412   1.0706140346e+02   1.0064887165e+01    0.2164277    0.1195467  68.87 0.0009520802    2.830    0.647
       356 -11.0221    120.1782    226.6381   1.0901237861e+02   1.1739911651e+01    0.2021587    0.1296363  54.36 0.0006223668    1.370    0.270
       357 -10.3086     66.6464    226.2622   1.1928973399e+02   1.9760648778e+01    0.2804212     0.132839  43.06  0.001062024    1.800    0.445
       358 -10.1090     26.0866    225.2113   1.2656171791e+02   2.4861031744e+01    0.1973446    0.1108801 -54.78  0.001181094    2.568    0.611
       359  -9.8679     88.2695    227.0131   1.1525757336e+02   1.6591767056e+01    0.1692814     0.138308  73.55  0.000875344    1.098    0.089
       360  -9.9910    226.4690     10.4947   3.9419269061e+01   2.6980537150e+01    0.1328247    0.1114234 -71.98 5.539272e-05    1.020    0.020
       361  -9.2557     37.6802    224.7039   1.2448197849e+02   2.3663789977e+01   0.09294751   0.08525621 -62.87 0.0004829939    1.614    0.380
       362 -10.2208    123.4372    222.2663   1.0782571593e+02   1.1987219020e+01    0.1997567    0.1232568 -52.73   0.00068706    1.909    0.476
       363 -10.4155     13.4439    222.1101   1.2857778853e+02   2.6760324720e+01    0.1773159    0.1240432 -89.85 0.0009745621    1.224    0.183
       364 -10.5207    141.4721    221.2488   1.0409305468e+02   9.1524540867e+00    0.2977101    0.2012435  20.21    0.0015638    1.933    0.483
       365 -10.1750     21.8066    220.3914   1.2703355639e+02   2.6234429845e+01    0.1272445   0.09652144  40.68 0.0005811223    1.558    0.358
       366  -9.3936    250.4917    219.4479   8.3292133870e+01  -8.5713882154e+00    0.1218496   0.09237654   9.02 7.469843e-05    1.028    0.027
       367 -11.4624    236.2770    214.8825   8.4942878843e+01  -5.8658633002e+00    0.5148287    0.3683461  13.62  0.003227346    1.209    0.173
       368 -10.9340    241.1947    211.9425   8.3554085332e+01  -6.2479137405e+00    0.3037966    0.2629187  20.88  0.002085342    1.248    0.199
       369 -10.7095     73.0164    237.4898   1.1906255964e+02   1.6834439910e+01    0.2960657    0.2184757  12.05  0.001735092    2.619    0.618
       370 -10.9185      9.7264    216.9568   1.2895730657e+02   2.8108710507e+01    0.2751167    0.1446822  65.84  0.001129923    1.457    0.314
       371  -9.9177     37.7519    217.5422   1.2398375362e+02   2.5037844731e+01    0.1859082    0.1045012  34.85  0.001107404    1.991    0.498
       372 -10.6761     24.8513    216.8694   1.2628533346e+02   2.6594530900e+01    0.3065856   0.07829683  46.85  0.001454402    2.817    0.645
       373 -10.4624     31.0409    215.7617   1.2509435393e+02   2.6141718304e+01     0.240956    0.1561631  48.61   0.00154648    1.398    0.285
       374  -9.1077    201.6592    215.6941   9.1426205721e+01  -3.3398676966e-01    0.1340275   0.08902719  12.28 0.0007041736    1.683    0.406
       375  -9.6355    194.5209    215.4800   9.2751854703e+01   9.1617178511e-01    0.1309456    0.1094512  24.69 -6.211671e-05    1.008    0.008
       376  -9.3223    136.9706    216.0000   1.0426660271e+02   1.0840976599e+01    0.2190526   0.06488674  40.95 0.0007947295    2.889    0.654
       377  -9.2198    115.0000    215.0506   1.0860815516e+02   1.4692124035e+01    0.1835241   0.07328017 -58.08 0.0004908735    2.834    0.647
       378  -9.6174    170.2792    213.3340   9.7147228570e+01   5.4850251003e+00     0.128816   0.09727813   6.62 0.0004156116    1.610    0.379
       379 -10.7774     21.2874    212.3220   1.2665371124e+02   2.7858954682e+01    0.3219308    0.1333953  57.57  0.001795232    1.979    0.495
       380 -10.1755    208.9805    212.0665   8.9418685843e+01  -1.0467738021e+00     0.197529    0.1623105  17.47 0.0004929072    1.035    0.034
