#   1 NUMBER                 Running object number                                     
#   2 MAG_AUTO               Kron-like elliptical aperture magnitude                    [mag]
#   3 X_IMAGE                Object position along x                                    [pixel]
#   4 Y_IMAGE                Object position along y                                    [pixel]
#   5 X_WORLD                Barycenter position along world x axis                     [deg]
#   6 Y_WORLD                Barycenter position along world y axis                     [deg]
#   7 A_WORLD                Profile RMS along major axis (world units)                 [deg]
#   8 B_WORLD                Profile RMS along minor axis (world units)                 [deg]
#   9 THETA_WORLD            Position angle (CCW/world-x)                               [deg]
#  10 FWHM_WORLD             FWHM assuming a gaussian core                              [deg]
#  11 ELONGATION             A_IMAGE/B_IMAGE                                           
#  12 ELLIPTICITY            1 - B_IMAGE/A_IMAGE                                       
         1 -15.3014      3.5483    130.7202   1.3363220412e+02   4.6971239277e+01     8.770028    0.9511049 -76.16   0.02290892    8.183    0.878
         2 -13.4602    203.7401     31.0169   5.8564151491e+01   3.0155376367e+01     1.214021     1.189846 -30.88  0.005628739    1.085    0.079
         3 -13.5640    221.2939     13.2658   5.1734965145e+01   2.7771891248e+01    0.9297447     0.854308  48.77  0.002283307    1.215    0.177
         4 -11.4416     81.1906    249.0068   1.2762097518e+02   1.5803446823e+01    0.2611527    0.1160801  50.42  0.001571333    1.669    0.401
         5 -13.0411    245.6772    247.5486   9.9441738902e+01  -8.2793801603e+00    0.6978465    0.4558911  45.58  0.004708725    1.842    0.457
         6 -13.2428    167.0122    248.3180   1.1277095249e+02   3.3714384112e+00    0.9081256    0.2661795  40.49  0.004040731    2.608    0.616
         7 -12.2281    145.9832    249.5929   1.1657084610e+02   6.4317648381e+00    0.5292492    0.1541321  42.31  0.002387804    2.561    0.609
         8 -13.3494    123.8441    249.2837   1.2037588973e+02   9.7937550020e+00    0.9588805    0.2880502  42.24  0.004479536    2.491    0.599
         9 -13.0931     99.4382    248.0637   1.2446003753e+02   1.3476915694e+01    0.7108709    0.2745967  42.52  0.003853978    1.980    0.495
        10 -14.9619     12.6482    241.0903   1.3819644540e+02   2.4930212007e+01     2.520442     1.317314  57.46   0.01909822    1.341    0.254
        11 -12.9694     39.6438    210.3614   1.3207928284e+02   2.7464119779e+01    0.5851999    0.3973653  70.77  0.002467464    1.147    0.128
        12 -12.0906    190.2539    249.5145   1.0891743725e+02  -3.5012339234e-01    0.4485864    0.1374407  40.67  0.002071119    2.460    0.593
        13 -12.7810    114.4188    231.9021   1.2028167300e+02   1.3817383195e+01    0.7124612    0.1483606  44.45  0.002692123    3.552    0.718
        14 -11.2886     86.6097    225.9229   1.2476458332e+02   1.8815770507e+01    0.2544995    0.1090083  52.89  0.001342293    1.965    0.491
        15 -14.6697     27.3568    223.2928   1.3500630970e+02   2.6458456607e+01     0.867816    0.8070533 -87.18  0.007592446    1.529    0.346
        16  -8.7753    152.6198    213.1667   1.1082087830e+02   1.0694159103e+01    0.1415584    0.1187661 -28.32  0.000255682    1.496    0.331
        17 -11.1489     57.8573    212.4248   1.2889599269e+02   2.4962995346e+01    0.3412577     0.135736  56.94  0.001747828    2.273    0.560
        18 -13.2999      9.9164    207.5211   1.3717183601e+02   3.0983147102e+01    0.7580067    0.5624107  50.49  0.003825359    1.347    0.258
        19 -10.5048     35.8060    199.2318   1.3202140054e+02   2.9969953301e+01    0.1538124    0.1275141 -50.86 0.0005088584    1.741    0.425
        20 -11.8293     52.6604    195.4820   1.2849240143e+02   2.8789154779e+01    0.2479187    0.2244982  56.75 0.0005034813    1.303    0.232
        21 -12.3863      7.1708    186.9925   1.3661834274e+02   3.5088055559e+01    0.4363157    0.2539426  77.33  0.001894462    1.344    0.256
        22 -11.9334     60.0486    187.2261   1.2625847783e+02   2.9519134176e+01    0.2289388    0.1992391  79.12 0.0004157985    1.126    0.112
        23 -10.8803     28.4946    186.4874   1.3252069855e+02   3.3208925541e+01     0.268425     0.112062  65.66  0.001378172    2.382    0.580
        24 -13.3850      9.5287    158.3581   1.3438767203e+02   4.0654214943e+01     1.148815    0.4529112  61.86  0.005899549    2.532    0.605
        25 -12.0824    198.8937    247.9880   1.0724315798e+02  -1.4917771186e+00    0.3983014    0.2424469  18.89  0.002454564    1.749    0.428
        26 -10.8141     71.7007    174.6885   1.2245106453e+02   3.0570294524e+01    0.2162674    0.1902171  78.61 0.0003382808    1.071    0.066
        27 -10.1767     93.7054    150.9910   1.1407673874e+02   3.2429384360e+01    0.2845021    0.2396789 -60.79 0.0007425537    1.207    0.171
        28  -9.3653     97.2768    146.9433   1.1253120887e+02   3.2743396766e+01    0.1941295    0.1824168 -31.59 0.0003557046    1.266    0.210
        29 -11.9019     82.0509    149.5711   1.1667577618e+02   3.4505154551e+01    0.2811947    0.2226026 -54.82 0.0004189175    1.324    0.245
        30 -11.7605     68.1656    143.1606   1.1912550875e+02   3.7856859301e+01    0.5231162    0.3607716  77.49  0.001865882    1.548    0.354
        31 -10.5493     64.6880    141.6779   1.1977593434e+02   3.8641006454e+01     0.277852    0.1899418 -50.21  0.000917474    1.571    0.364
        32  -9.4809    106.8653    136.4086   1.0822181445e+02   3.3445804283e+01    0.3356884    0.2129257 -20.06   0.00130663    3.156    0.683
        33 -10.3619     93.8728    133.4606   1.1096764173e+02   3.6270813839e+01    0.2376535    0.2012328 -56.60 0.0003574149    1.174    0.148
        34  -9.0553    105.0333    123.0635   1.0597214726e+02   3.6708133201e+01     0.160569    0.1546583 -88.26            0    1.010    0.010
        35 -10.8672    245.5927    102.2005   7.1094357986e+01   1.0260321811e+01     0.205633    0.1253337 -19.46 0.0009589799    1.728    0.421
        36  -9.7267    160.6220     78.7575   8.0373395448e+01   3.3968342461e+01    0.2185405    0.1415897 -44.95 0.0005790021    1.601    0.375
        37 -13.0503     57.6348    172.4353   1.2526380638e+02   3.2843873112e+01    0.4652166    0.2497584 -50.10  0.002424291    2.318    0.569
        38 -11.8731    215.8451    248.7727   1.0449537874e+02  -4.1221880402e+00     0.415181    0.1538744  29.81  0.001926051    2.749    0.636
        39 -11.8931     79.8575    166.2164   1.1957414112e+02   3.1222541036e+01    0.5322985    0.4937461 -20.79  0.003477625    1.455    0.313
