#   1 NUMBER                 Running object number                                     
#   2 MAG_AUTO               Kron-like elliptical aperture magnitude                    [mag]
#   3 X_IMAGE                Object position along x                                    [pixel]
#   4 Y_IMAGE                Object position along y                                    [pixel]
#   5 X_WORLD                Barycenter position along world x axis                     [deg]
#   6 Y_WORLD                Barycenter position along world y axis                     [deg]
#   7 A_WORLD                Profile RMS along major axis (world units)                 [deg]
#   8 B_WORLD                Profile RMS along minor axis (world units)                 [deg]
#   9 THETA_WORLD            Position angle (CCW/world-x)                               [deg]
#  10 FWHM_WORLD             FWHM assuming a gaussian core                              [deg]
#  11 ELONGATION             A_IMAGE/B_IMAGE                                           
#  12 ELLIPTICITY            1 - B_IMAGE/A_IMAGE                                       
         1  -9.9106    186.7915     29.9040   6.2046512546e+01   3.4737883069e+01    0.5160933    0.3950393 -16.89  0.002013016    1.663    0.399
         2  -7.7289    120.6009      9.7814   6.6231928201e+01   5.3483123686e+01    0.1789982    0.1193043 -38.20 0.0009553293    1.715    0.417
         3  -9.2516    205.8585      6.8367   5.4243358499e+01   3.2665726651e+01    0.2479979     0.227907 -77.23   0.00128372    1.188    0.158
         4  -9.7473    202.3987      3.2032   5.3681524467e+01   3.3849100858e+01    0.3552492    0.3141263  29.01  0.002332401    1.562    0.360
         5  -7.2779    118.6580    225.7042   1.2191995378e+02   1.1551373061e+01    0.1281997    0.1022746   6.92 0.0007031953    1.662    0.398
         6  -8.1439    101.5443    250.3027   1.2835818696e+02   9.6803025997e+00    0.2804016    0.1870179  31.66  0.001647522    1.496    0.332
         7 -15.5658     21.2580    237.0727   1.4298853443e+02   2.2708269222e+01     3.521369     2.944687 -32.13    0.0070844    2.085    0.520
         8  -7.6945    104.5083    209.8667   1.2296721405e+02   1.7066176394e+01    0.1858758    0.1350286 -64.15 0.0006615145    1.502    0.334
         9  -7.7948    152.7290    207.0360   1.1163050263e+02   9.2875394409e+00    0.1822642    0.1713662  38.41 0.0002969216    1.067    0.063
        10  -7.0546    124.0501    206.2016   1.1796573415e+02   1.4533030098e+01    0.1813507    0.1016561  38.35            0    1.610    0.379
        11  -9.0199    102.1495    203.4851   1.2264074298e+02   1.8815642944e+01    0.3310203     0.224433 -71.42  0.001082214    1.631    0.387
        12  -9.1347     89.5324    202.9219   1.2551072247e+02   2.0959638810e+01    0.3129492    0.1616074  43.31  0.001449813    1.712    0.416
        13  -7.3274    136.6080    196.8097   1.1356891301e+02   1.4243134154e+01    0.1887737    0.1392398 -68.85 0.0009391966    1.637    0.389
        14  -9.5822     59.2337    185.5858   1.3061349042e+02   2.9326060234e+01    0.5360769    0.2153362 -76.24  0.002077976    2.849    0.649
        15  -9.4227     36.4999    182.9298   1.3582720274e+02   3.2723228866e+01    0.3219657    0.2207187  34.16 0.0006560001    1.577    0.366
        16  -9.6364     38.5015    187.3108   1.3577091354e+02   3.1476163398e+01    0.4441281     0.209728  31.39  0.001505312    2.253    0.556
        17  -9.8265     34.0045    186.4708   1.3674810354e+02   3.2172846740e+01    0.5992665    0.1783755  35.51    0.0024109    2.991    0.666
        18 -15.8170     32.0857    249.8731   1.4170605484e+02   1.9050338759e+01      3.68305     1.439486  27.20  0.009796075    3.956    0.747
        19  -7.9434    125.5185    186.1043   1.1437221250e+02   1.8558422589e+01    0.2068121    0.1860411  50.19 0.0004740829    1.028    0.027
        20  -9.7789     96.3357    225.1443   1.2669940810e+02   1.5223566515e+01    0.4368939    0.2474388 -67.57  0.001746326    2.006    0.501
        21  -8.0032     16.4273    184.1644   1.4061542033e+02   3.4486005061e+01    0.3322192    0.1091629  22.55  0.001285028    4.360    0.771
        22  -8.3493     30.4521    181.9902   1.3717832599e+02   3.3597472537e+01    0.2010494    0.1768902   6.68 0.0005644902    1.575    0.365
        23  -8.9740     46.2999    176.1699   1.3273002953e+02   3.3195597631e+01    0.4378675    0.1223665 -75.13  0.001350263    4.413    0.773
        24 -10.0796    150.9402    221.7598   1.1437102292e+02   6.8572111989e+00    0.3049445    0.2344133  19.78 0.0004757058    1.352    0.260
        25  -9.1089     86.9276    174.6403   1.2215042720e+02   2.7883159152e+01    0.4417766    0.3176558  41.57  0.001347674    1.348    0.258
        26  -8.8065     19.7277    173.8478   1.3902180785e+02   3.6571490433e+01    0.2930239    0.2228997 -20.39  0.001748888    2.012    0.503
        27  -8.3672     14.9367    174.5267   1.4021905761e+02   3.6849550395e+01    0.2516024    0.1428211  30.22 0.0009404772    1.967    0.492
        28  -8.4309     89.3878    169.8869   1.2075553654e+02   2.8627388678e+01    0.3172087    0.2111071 -39.41 0.0008554393    1.886    0.470
        29  -7.3983     28.5158    174.4563   1.3694896500e+02   3.5571045027e+01    0.1565405     0.126217  15.81 0.0001341731    1.645    0.392
        30  -9.0918     32.2476    171.0599   1.3569689163e+02   3.5994952287e+01       0.4497    0.2248985 -74.26  0.002214474    1.770    0.435
        31  -7.7871    195.0347    168.5253   9.5151429806e+01   8.7087437083e+00    0.2228861    0.1388356  40.33  0.001030977    1.590    0.371
        32  -9.0052    244.3749    167.0340   8.5684097775e+01   6.7404459926e-02    0.2335187    0.1830881  33.66 0.0009772939    1.367    0.269
        33  -7.9555     90.9107    221.5937   1.2747136539e+02   1.6776888241e+01    0.1890227    0.1597246  88.83 0.0003198824    1.205    0.170
        34  -9.1237    100.4240    163.0639   1.1666656587e+02   2.8408588335e+01    0.2469989    0.2204071  42.84 0.0002940834    1.126    0.112
        35  -9.2796    245.1558    162.0447   8.4540858114e+01   7.3793628309e-01    0.2625923    0.2058064 -17.73 0.0002413698    1.159    0.137
        36  -9.4302    245.3096    157.1725   8.3516272323e+01   1.4990814588e+00     0.399344    0.2345107  49.92 0.0002639592    2.058    0.514
        37  -7.3465    108.5530    161.5416   1.1422846001e+02   2.7321639802e+01    0.1482575    0.1446535  67.66 0.0002773147    1.053    0.050
        38  -7.6572     95.6614    161.0763   1.1758284741e+02   2.9712659291e+01    0.2003973    0.1840416 -73.66 0.0003699797    1.078    0.072
        39  -8.3259    166.4627    159.6336   9.9444351065e+01   1.6230406794e+01    0.2470298    0.2355591 -15.53 0.0003151576    1.060    0.057
        40 -15.0254     23.7028    249.6107   1.4320467583e+02   2.0044023121e+01      1.36757    0.2935555  48.27  0.004969506    2.917    0.657
        41  -9.7288     84.7928    155.7827   1.1960566833e+02   3.2813587615e+01    0.3744901    0.2681223 -35.30  0.001189817    1.751    0.429
        42 -10.0362    213.3351    155.2932   8.8721430539e+01   7.6096129245e+00    0.2462753    0.2339293 -26.72 0.0002598846    1.087    0.080
        43 -10.4908    134.3760    231.2547   1.1928591172e+02   7.9246794898e+00    0.6594154    0.2669787  29.69  0.002503124    2.965    0.663
        44  -7.6006     99.7139    155.4604   1.1544877670e+02   3.0374067013e+01      0.20637    0.1480039  25.08 0.0009463239    1.632    0.387
        45  -7.3011    113.6241    154.7076   1.1154624096e+02   2.8011056833e+01    0.1554398    0.1231069  -4.83 0.0007022419    1.736    0.424
        46  -8.6999     99.0766    147.9132   1.1415394638e+02   3.2328332587e+01    0.2200477     0.207944  80.79 0.0002914634    1.020    0.020
        47  -9.2629     70.5073    145.4670   1.2183209910e+02   3.7571162239e+01    0.4044827    0.3237097  68.25  0.001462494    1.291    0.226
        48  -9.5290     67.0210    142.5180   1.2233019042e+02   3.8809602704e+01    0.4825084    0.2825737  56.41  0.002112446    1.951    0.487
        49  -8.2745     24.8049    147.1334   1.3508458711e+02   4.2529871326e+01    0.2065982    0.1596036  52.52 0.0005890457    1.332    0.249
        50  -8.1713      7.8415    145.6344   1.3953162189e+02   4.4275082267e+01    0.1645179    0.1001558  43.74 0.0006519922    1.723    0.420
        51  -7.1227     31.7062    144.7032   1.3286872220e+02   4.2476818046e+01    0.1294125   0.09136759 -45.52 0.0003049967    1.563    0.360
        52  -7.1536    142.9914    141.9889   1.0112654341e+02   2.5031860477e+01    0.1840481    0.1797436 -55.63 0.0009600444    1.040    0.038
        53  -8.2573     76.0621    141.5331   1.1950411117e+02   3.7726229391e+01    0.3318478    0.1794444  50.68  0.001386721    2.020    0.505
        54  -8.6352      2.9969    140.8686   1.4039712773e+02   4.5750118413e+01    0.2440486    0.1839164  -2.61  0.001507883    1.832    0.454
        55  -8.4975     99.2442    139.6856   1.1241340051e+02   3.4311659456e+01    0.2541606    0.2306118 -53.19 0.0005709586    1.109    0.098
        56  -8.7918    232.4254    137.5420   8.1467645713e+01   7.0968570231e+00    0.2207604    0.2056227 -21.05 0.0001750554    1.045    0.043
        57  -7.9070    218.4682    136.7940   8.3699076141e+01   9.9477492451e+00    0.2539887    0.1828687 -79.73 0.0008216259    2.241    0.554
        58  -8.1732    160.8717    137.0295   9.5609167961e+01   2.2232918553e+01    0.2262069    0.2069865 -78.91 0.0003262242    1.194    0.162
        59  -7.4554    165.1187    132.4574   9.3523407200e+01   2.2263729312e+01    0.2274116    0.1530112  43.83 0.0004492049    1.488    0.328
        60 -10.3005    149.2340    228.0996   1.1568511809e+02   6.0123123834e+00    0.4435482    0.3280597   3.36  0.002407124    1.750    0.429
        61  -8.1353     37.0491    130.2974   1.2930322623e+02   4.5518877464e+01    0.1792781      0.16509  67.28 0.0004803844    1.144    0.126
        62  -7.0513     25.9978    124.2327   1.3180938999e+02   4.8059435009e+01    0.1452407    0.1113586  25.21 0.0003991035    1.526    0.345
        63  -8.8133      4.3762    117.0552   1.3757286223e+02   5.1366547593e+01    0.1905575    0.1604579 -35.30 0.0006030533    1.352    0.261
        64  -7.0335    108.9240    213.0000   1.2238602935e+02   1.5687875400e+01    0.2308824   0.07002792  37.65 0.0008004116    2.928    0.659
        65  -7.3156    249.3707    111.8278   7.3278653488e+01   8.2089401969e+00    0.1829853    0.1139219 -29.04 0.0003494502    1.587    0.370
        66  -7.0381     36.7065     97.3055   1.2351344432e+02   5.3627488796e+01     0.129008   0.09982193  75.41 0.0004280567    1.579    0.367
        67  -8.0906      2.0209     96.2270   1.3568982388e+02   5.6425318281e+01    0.1881703    0.1319144 -47.02 0.0007230025    1.305    0.234
        68  -7.7133    136.0514     90.6127   8.9479711974e+01   3.7765985145e+01    0.2141037    0.1928335  51.89 0.0004038282    1.092    0.085
        69  -8.3661    173.4934     90.8162   8.0925033403e+01   2.8657799666e+01     0.243425    0.2065881  58.08 0.0003491683    1.173    0.148
        70  -9.5927    229.4675     82.2991   6.9398861953e+01   1.7053047497e+01    0.2457019    0.2341616  81.27 0.0003625698    1.144    0.126
        71  -9.4591    233.8721     78.6300   6.7972246127e+01   1.6687338619e+01    0.3022466    0.2346283  -9.33  0.001371906    1.765    0.433
        72  -8.4743    116.0118     73.0843   8.9530313742e+01   4.5809116100e+01    0.2173239    0.2083781  38.21            0    1.018    0.017
        73  -7.6009    172.8877     64.1455   7.3641981775e+01   3.3434509906e+01    0.2170128    0.1883985 -77.52 0.0003705366    1.156    0.135
        74  -7.9716    146.5187     53.8125   7.5746256816e+01   4.1719370856e+01    0.3789603    0.2012665  29.68  0.001309013    3.213    0.689
        75 -10.3251    128.9304     50.9201   7.8783197356e+01   4.6522367617e+01    0.2425252    0.2324544  45.31            0    1.028    0.028
        76  -8.4796    168.5051     50.4848   7.0517351841e+01   3.6628672878e+01    0.2829721    0.1983596  64.70  0.001172896    1.340    0.254
        77  -7.7251    140.0071     47.3908   7.5092053912e+01   4.4303722066e+01    0.2025367    0.1724099  62.50  0.001082127    1.099    0.090
        78 -10.2365    182.2231     35.9299   6.4278052357e+01   3.5131510838e+01    0.5953984    0.4683062 -36.31  0.003302839    1.363    0.266
        79 -11.9317    238.9384    244.4951   1.0080317952e+02  -1.0172415808e+01     0.254865    0.1989244  -5.45  0.000359957    1.146    0.127
        80  -9.3931    224.4230     33.7305   5.8757957051e+01   2.5239546857e+01    0.3342156     0.228004 -35.46  0.001249475    1.514    0.339
        81  -7.7755    197.6047     26.7194   5.9918265538e+01   3.2451190327e+01    0.2401485     0.138703  61.66 0.0009439129    1.647    0.393
        82  -7.2947    198.7148     19.6832   5.8033764759e+01   3.2997854013e+01     0.123955   0.09777927  43.14 0.0002248668    1.586    0.369
        83  -7.6876    169.9451     17.8989   6.0941350105e+01   4.0340179052e+01    0.1913418    0.1644918  54.92 0.0003324142    1.219    0.179
        84  -8.9658    248.9302    244.7908   9.9124439419e+01  -1.1486676004e+01    0.2769372    0.1179156  38.34  0.001465502    2.385    0.581
        85  -7.6344    106.6397    229.7047   1.2501601941e+02   1.2713558942e+01    0.1248144    0.1009782   6.56 0.0006550608    1.704    0.413
