#   1 NUMBER                 Running object number                                     
#   2 MAG_AUTO               Kron-like elliptical aperture magnitude                    [mag]
#   3 X_IMAGE                Object position along x                                    [pixel]
#   4 Y_IMAGE                Object position along y                                    [pixel]
#   5 X_WORLD                Barycenter position along world x axis                     [deg]
#   6 Y_WORLD                Barycenter position along world y axis                     [deg]
#   7 A_WORLD                Profile RMS along major axis (world units)                 [deg]
#   8 B_WORLD                Profile RMS along minor axis (world units)                 [deg]
#   9 THETA_WORLD            Position angle (CCW/world-x)                               [deg]
#  10 FWHM_WORLD             FWHM assuming a gaussian core                              [deg]
#  11 ELONGATION             A_IMAGE/B_IMAGE                                           
#  12 ELLIPTICITY            1 - B_IMAGE/A_IMAGE                                       
         1 -13.0838    180.0664     40.4670   6.0881642191e+01   3.5384494765e+01     1.383716     1.022219  14.98  0.004464397    1.644    0.392
         2 -12.8890    199.9289      8.7441   4.8041098763e+01   3.3976264013e+01     1.098211    0.9503879  50.99  0.004530273    1.160    0.138
         3 -10.7365     66.8227      2.9529   7.4263385724e+01   6.5210550653e+01    0.3865175    0.1757584 -25.43  0.001912137    1.997    0.499
         4 -10.1518     73.6716      6.8741   7.3791064489e+01   6.3611425822e+01    0.2572819     0.104666 -21.93  0.001093534    2.588    0.614
         5  -8.9035     75.7643    225.4926   1.2085634197e+02   2.0753554936e+01    0.1729963    0.1543044  30.87 0.0007943464    1.811    0.448
         6 -11.6744    248.4391    244.6588   9.5014114016e+01  -8.8057935029e+00    0.5027087    0.3509994  23.84  0.003720576    1.100    0.091
         7  -9.3633    150.2197    250.2307   1.1125599670e+02   6.0858866146e+00    0.1524923    0.1062211  63.57  0.001074457    1.357    0.263
         8 -19.5252     39.5196    149.3280   1.2044085333e+02   3.9623876362e+01     17.71114     3.045479 -70.38   0.05587932    5.536    0.819
         9 -11.3204     98.9964    181.2895   1.1219866366e+02   2.5350358335e+01      0.36396    0.3157574  21.51  0.001883823    1.680    0.405
        10  -9.1184    153.8427    185.2575   1.0212361434e+02   1.5227573898e+01    0.2402207    0.1532558 -69.99  0.001203487    2.135    0.532
        11 -11.9073     73.7623    211.5876   1.2001696595e+02   2.3386037650e+01    0.4051964    0.2664092 -51.03 0.0008392013    2.251    0.556
        12  -9.5953      1.5081    177.2736   1.2982706835e+02   3.7559927996e+01   0.09191307   0.07047988  80.21 -0.0003116741    1.175    0.149
        13  -8.7973    196.3602    175.7015   9.2379614886e+01   8.6146814330e+00    0.2543082    0.1540319  54.34  0.001244627    1.694    0.410
        14  -8.6627    204.0012    174.9994   9.0831424467e+01   7.2160585628e+00     0.211394    0.1545354  12.05 0.0007462727    1.616    0.381
        15  -8.1403    188.5133    175.4484   9.3805264701e+01   1.0203678541e+01    0.1359371    0.1199966  38.57 0.0002358091    1.013    0.013
        16 -10.4093     16.0716    206.3778   1.2905692773e+02   3.0937922534e+01    0.1303689   0.09595028  67.13  0.001090091    1.208    0.172
        17 -11.4735    103.5785    171.9809   1.1004460341e+02   2.6449300625e+01    0.3861691     0.337483  76.03  0.002542593    1.053    0.050
        18 -10.7219    124.4216    171.7689   1.0579621956e+02   2.3006973055e+01     0.359025    0.2425283  70.74  0.001121049    1.602    0.376
        19  -8.0617     11.4664    205.2199   1.2971186400e+02   3.1581288376e+01    0.2302296    0.1239821  69.26  0.001696119    1.368    0.269
        20  -8.6069    139.5651    167.7262   1.0206264473e+02   2.1050359231e+01    0.1761117    0.1264533 -69.15  0.000936873    1.565    0.361
        21  -9.2981     87.5402    202.4445   1.1675801954e+02   2.3107967841e+01    0.2971933    0.2025134 -74.92  0.001962025    1.450    0.310
        22  -8.0104    124.3055    161.6555   1.0419354777e+02   2.5005040518e+01    0.1398908   0.09738882  80.91 0.0007041885    1.691    0.408
        23  -8.9152     84.4702    200.4665   1.1710337075e+02   2.3901713740e+01    0.2117297    0.1180294  66.95 0.0005454466    1.694    0.410
        24 -10.4977     97.3311    157.5678   1.0924586097e+02   3.0355208104e+01    0.2581659    0.2260278 -54.13 0.0006689824    1.332    0.249
        25 -11.3212    101.7108    151.5043   1.0735606770e+02   3.0920877960e+01    0.5523168    0.3769592 -40.88  0.001501435    1.901    0.474
        26 -11.8547     86.7219    151.7887   1.1066262458e+02   3.3177842160e+01    0.3417079    0.2774732 -43.94 0.0009934785    1.559    0.358
        27  -8.1406    124.6723    152.3760   1.0251825607e+02   2.6803315475e+01    0.1470517    0.1005222  82.79 0.0007025028    1.836    0.455
        28 -11.0033    141.3877    199.7782   1.0663167484e+02   1.4994304425e+01    0.3145172    0.1557401 -57.58  0.001567708    2.398    0.583
        29  -9.6882    134.0883    146.3516   9.9360843842e+01   2.6277581906e+01    0.5798167      0.17537 -56.86  0.001697683    4.662    0.786
        30 -10.3653    111.9630    137.2460   1.0257166396e+02   3.2213558492e+01    0.4239956    0.3252535 -23.25  0.002181887    1.938    0.484
        31 -10.6561    100.4548    136.9984   1.0516906378e+02   3.4205463214e+01    0.2620172    0.2527696 -64.06 0.0004329507    1.194    0.163
        32 -10.2994    106.0196    131.0312   1.0276522340e+02   3.4566725834e+01    0.3883756    0.2940111 -86.17  0.001399547    1.422    0.297
        33  -9.1688    117.0742    128.9586   9.9760399826e+01   3.3072166689e+01    0.2140364    0.2014424 -72.17 0.0007123827    1.061    0.058
        34  -8.8679    160.6830    127.3595   8.9518091239e+01   2.4659952106e+01    0.1546661    0.1170245 -84.84 0.0007043495    1.758    0.431
        35  -9.4490    105.4310    124.6185   1.0164070257e+02   3.6054542706e+01    0.2414154    0.2198463 -40.65 0.0006434429    1.243    0.196
        36  -8.6716    112.0499    118.2759   9.8709393068e+01   3.6272657128e+01    0.1933948     0.174041  57.26 0.0003532712    1.141    0.124
        37  -9.7231    168.3681    113.3477   8.4475699218e+01   2.5680926900e+01    0.2877091    0.2577687 -81.25 0.0008343796    1.239    0.193
        38  -8.8971    205.3010    110.0268   7.6138178696e+01   1.7673093466e+01    0.2118664    0.2027818 -23.75 0.0008906059    1.044    0.042
        39  -9.8965    193.8392    196.4964   9.6528321710e+01   5.9759321412e+00     0.468243    0.2572747 -65.01  0.001740561    4.771    0.790
        40 -11.1208     71.2933    195.2829   1.1894998370e+02   2.6660074491e+01    0.3925107    0.2696589 -45.89  0.002425198    2.300    0.565
        41  -9.8248     81.8059     76.0705   9.6522192145e+01   5.0365921656e+01    0.2142466     0.193413  38.68 0.0004393625    1.252    0.202
        42 -11.3951    171.9103     71.2549   7.2059413393e+01   3.2636561995e+01    0.8954358    0.5255939 -75.74  0.001013697    3.942    0.746
        43  -9.5990     81.6454    194.9965   1.1705013500e+02   2.5303453841e+01    0.2505645    0.2212844  68.65  0.001849052    1.247    0.198
        44 -11.9522    165.7037     55.1847   6.8361658317e+01   3.6875066293e+01    0.5980466     0.536931  59.35 0.0009886186    1.133    0.117
        45 -11.4921     13.2395    244.4139   1.3124594656e+02   2.4936410283e+01    0.2130604    0.1563526  84.10  0.001983239    1.317    0.241
        46 -11.6135    184.4976     33.7269   5.7978856312e+01   3.5135162100e+01    0.6173832    0.4454649  33.96  0.001451471    1.524    0.344
        47 -11.3155    248.7705    232.3351   9.3094977088e+01  -7.7122323531e+00    0.3364845    0.2020511 -25.72    0.0022046    1.912    0.477
        48 -11.1089     98.7742    189.7482   1.1328885396e+02   2.3779031481e+01    0.4703284    0.2242488 -49.72  0.001563942    2.687    0.628
