#   1 NUMBER                 Running object number                                     
#   2 MAG_AUTO               Kron-like elliptical aperture magnitude                    [mag]
#   3 X_IMAGE                Object position along x                                    [pixel]
#   4 Y_IMAGE                Object position along y                                    [pixel]
#   5 X_WORLD                Barycenter position along world x axis                     [deg]
#   6 Y_WORLD                Barycenter position along world y axis                     [deg]
#   7 A_WORLD                Profile RMS along major axis (world units)                 [deg]
#   8 B_WORLD                Profile RMS along minor axis (world units)                 [deg]
#   9 THETA_WORLD            Position angle (CCW/world-x)                               [deg]
#  10 FWHM_WORLD             FWHM assuming a gaussian core                              [deg]
#  11 ELONGATION             A_IMAGE/B_IMAGE                                           
#  12 ELLIPTICITY            1 - B_IMAGE/A_IMAGE                                       
         1 -14.0972    243.8286     59.5827   4.6100900892e+01   1.7520670332e+01     2.653046     1.096381 -40.49   0.01160462    2.017    0.504
         2 -13.5828    218.7398     35.2816   4.3093295048e+01   2.6477479854e+01     1.747997     1.069689  81.68  0.008844838    1.710    0.415
         3 -12.0216    247.5513     28.5378   3.8718915438e+01   2.0926647512e+01    0.9049845    0.4548027 -56.74  0.004559295    1.841    0.457
         4 -12.6403    229.7015     13.7483   3.6909863052e+01   2.6571905160e+01     0.669921    0.5413061 -75.29  0.002622931    1.063    0.059
         5  -9.6231    124.2238      4.4516   4.7208190254e+01   5.2855700993e+01    0.1805398    0.1200066  79.16 0.0009397823    1.640    0.390
         6 -12.3651    210.9032    224.4161   8.7217660495e+01  -3.2091444018e+00    0.6331074     0.484122 -21.40  0.002826364    1.313    0.239
         7 -14.0723    208.6312    195.9980   8.2544899311e+01   1.5004710212e+00     1.829081     1.181815 -23.06  0.009553819    1.621    0.383
         8 -13.6060    189.7867    208.3121   8.8464621261e+01   2.6939111563e+00     1.422436    0.9325953  51.16  0.007407723    1.771    0.435
         9 -15.9643    176.2131    227.7831   9.4357029625e+01   1.8092897477e+00     2.601627     1.835117  54.99   0.01059607    1.687    0.407
        10 -15.4729    149.1023    243.9735   1.0191352573e+02   3.5846311934e+00     2.846028     1.502274  54.79   0.01332006    2.199    0.545
        11 -13.6002    156.0878    235.5776   9.9429516933e+01   3.8174529285e+00    0.8403437    0.5952368  44.90  0.003091209    1.257    0.204
        12 -13.5948     93.3754    247.2047   1.1282819184e+02   1.1442995179e+01     1.483449    0.5828535  36.66  0.007008967    2.367    0.578
        13 -11.7554     31.4077    249.0316   1.2395998981e+02   1.9019788406e+01    0.4911041     0.346242  54.93  0.002497842    1.190    0.160
        14 -11.5735     38.9228    232.0616   1.2158994998e+02   2.1324573102e+01    0.3721725    0.2158898 -89.88 0.0003478174    1.565    0.361
        15 -11.3753     38.2849    248.8688   1.2278967331e+02   1.8268328859e+01    0.5424905    0.2438742  68.62  0.003063159    2.082    0.520
        16 -13.6147     44.8890    243.0170   1.2127187078e+02   1.8559711481e+01     1.114972      0.52033  60.19   0.00357512    1.817    0.450
        17 -11.3057     41.8451    236.7897   1.2138818473e+02   2.0081818715e+01    0.2569896    0.1711229  68.19 0.0004914597    1.183    0.154
        18 -13.8738      7.6795    241.3356   1.2749410099e+02   2.2912458308e+01     1.578923    0.8604295  85.73   0.01089118    1.479    0.324
        19 -13.6146      8.9531    207.1618   1.2551335185e+02   2.9457469628e+01    0.8429434    0.7485362  73.36   0.00406274    1.311    0.237
        20 -12.8577      3.4932    183.7335   1.2513587430e+02   3.4926140627e+01     1.050119    0.4464475 -85.68  0.005531849    1.956    0.489
        21 -12.9278     59.6724    219.2698   1.1665767269e+02   2.1323750917e+01     0.624091    0.4572015  84.27  0.001836277    1.213    0.176
        22 -15.1917     29.4405    180.5584   1.1941655869e+02   3.3224839652e+01     8.070444     2.932826  82.30   0.02560339    5.249    0.810
        23 -13.7560    220.2576    212.6075   8.3437249657e+01  -2.9600208563e+00     1.139862    0.9022456 -37.68  0.005528723    1.459    0.315
        24 -11.3361     83.5045    227.4739   1.1275642579e+02   1.6470206268e+01    0.3747666    0.1914194 -68.77  0.001971787    2.104    0.525
        25 -12.1674     31.0991    208.9653   1.2140832309e+02   2.6847118029e+01    0.4464333     0.301901 -51.51  0.001040459    1.973    0.493
        26 -11.4594    233.6367    211.7598   8.0875339811e+01  -4.8917589244e+00     0.380519    0.3403745  21.93   0.00183335    1.298    0.230
        27 -10.9003    152.6087    212.5787   9.6701488531e+01   8.3297578532e+00    0.3901209    0.3381316  20.55  0.001330483    1.165    0.141
        28 -13.5483    194.9693    221.9767   8.9802040376e+01  -3.3097594986e-01    0.9392024    0.6978408  36.54  0.003483224    1.243    0.195
        29 -10.7885     48.6109    224.8790   1.1926742981e+02   2.1581447279e+01    0.1861167    0.1793452  -8.83 0.0007002646    1.594    0.373
        30 -10.4119     22.8839    209.1071   1.2300423445e+02   2.7687361259e+01     0.186235    0.1190502  70.54 0.0006278441    1.268    0.211
        31 -10.8893     24.5231    202.5314   1.2222363297e+02   2.8900313790e+01    0.2103513    0.1603181  80.20 0.0005913906    1.011    0.011
        32 -12.1296     89.2593    228.9757   1.1178038461e+02   1.5358596896e+01      0.59928    0.3229389  87.31  0.001893461    2.655    0.623
        33 -10.0851     62.4686    236.5036   1.1760909098e+02   1.7594169126e+01    0.2046604    0.1433344  77.03 0.0007685313    1.262    0.207
        34 -11.1465    230.5416    183.9389   7.6129297481e+01  -2.6166629867e-01    0.5218256    0.2901248 -21.96  0.002492439    1.925    0.481
        35 -11.5566    176.5745    183.6999   8.6597957814e+01   9.4005480222e+00    0.5745156      0.47954   3.18  0.001852762    1.274    0.215
        36 -10.7524     59.2376    180.9963   1.1278017300e+02   2.9679464267e+01    0.3564938    0.2491299 -36.97  0.001892245    2.064    0.515
        37 -10.8175     64.8090    175.1860   1.1076266007e+02   3.0296543252e+01    0.2708378    0.2232203 -50.76 0.0005873387    1.388    0.279
        38 -11.8720    187.0140    179.6520   8.3633777819e+01   8.2063738060e+00    0.6674555    0.4822467  55.94  0.002229886    1.667    0.400
        39 -11.4986    142.7132    169.8589   9.1349606509e+01   1.8625055477e+01    0.7150685    0.5258628 -44.33   0.00261271    1.402    0.287
        40 -11.1378     25.2191    228.0760   1.2379529838e+02   2.3622127051e+01    0.2958833    0.1602781  62.92 0.0007316069    1.489    0.328
        41 -10.2820     74.9021    165.2469   1.0693234481e+02   3.1246411832e+01    0.2327997    0.1982471 -69.10 0.0003676514    1.117    0.105
        42 -12.4038     61.9795    161.4942   1.0959183472e+02   3.3915565173e+01    0.4844274    0.2736214 -45.56  0.001387233    2.089    0.521
        43 -10.7976     81.8606    158.8526   1.0418104066e+02   3.1753812605e+01    0.4376402    0.3489619  -9.89  0.001080943    1.818    0.450
        44 -13.2814    170.9293    150.4928   8.0855780459e+01   1.7096678234e+01     1.244705     1.147599 -77.18  0.003761032    1.233    0.189
        45 -11.3847    182.0264    152.9653   7.9018298279e+01   1.4316334591e+01    0.4826828     0.463394  34.52  0.001995825    1.082    0.076
        46 -12.4490     20.1713    221.2254   1.2428682414e+02   2.5501448028e+01    0.4497619    0.2467933  68.68  0.001929735    1.495    0.331
        47 -10.8780     70.4712    145.4847   1.0490120117e+02   3.6657753023e+01    0.4407436    0.3436654 -28.09  0.001484624    1.660    0.398
        48 -11.3479     67.5176    142.4967   1.0518332043e+02   3.7799308910e+01    0.4558333    0.3657447  58.59  0.001396121    1.300    0.231
        49  -9.1010     94.5114    221.4908   1.0991072864e+02   1.6034817222e+01     0.128352    0.1056902  63.07  3.57454e-06    1.043    0.041
        50 -11.1184     84.9875    142.5064   1.0046354756e+02   3.5236202551e+01    0.2684297     0.242406 -42.54 0.0004029218    1.193    0.162
        51 -10.7478    245.8466    140.5059   6.4360136634e+01   4.1366998789e+00    0.5645487    0.3104198  53.41  0.002652651    2.292    0.564
        52 -12.4387    190.3378    136.9035   7.3579825498e+01   1.5763858544e+01    0.8466586    0.6446321  62.18  0.003715503    1.575    0.365
        53 -10.4099     22.8143    133.1083   1.1593392266e+02   4.5054945953e+01    0.1985126    0.1496806  83.73 0.0005594153    1.256    0.204
        54  -9.3953    107.1726    132.1345   9.2301995070e+01   3.3983289819e+01    0.2883101    0.2062431  46.22  0.001361324    1.456    0.313
        55 -10.0151    200.6558    131.1408   7.0154314089e+01   1.4689738991e+01    0.2532321    0.2158263  62.65 0.0009723692    1.355    0.262
        56 -11.1735    223.6043    246.2259   8.8484155414e+01  -7.9635913356e+00     0.542208    0.3786571  23.05  0.003645631    1.153    0.133
        57 -12.7752     69.9167    249.2385   1.1728773112e+02   1.4295343902e+01     1.489778    0.3882333  38.25  0.006279901    3.274    0.695
        58 -11.8964    218.0291     25.8209   4.0843115858e+01   2.7827130421e+01    0.5407748    0.3380433  46.76  0.001476695    1.970    0.492
        59 -12.9593    246.8576    118.7022   5.9339215296e+01   7.5549756207e+00      1.45212    0.5684806 -39.27  0.005050747    2.174    0.540
        60 -12.6997    246.9006    103.2686   5.5815798638e+01   1.0084528350e+01     1.008409    0.6213627 -55.48  0.004492903    1.805    0.446
        61 -13.0637    246.9164     92.2027   5.3268739224e+01   1.1871281124e+01     1.206402    0.6324445 -37.58   0.00484684    1.627    0.385
        62 -11.9217    183.2681    125.0901   7.2166020620e+01   1.9632645208e+01     0.659291    0.4163573  38.76  0.002866328    1.714    0.417
        63 -12.1193    186.1335    120.5132   7.0431465503e+01   1.9905670032e+01    0.8630723    0.6763735  78.73  0.003930972    1.660    0.398
        64  -9.2410     95.9292    128.1341   9.4492038732e+01   3.6935134825e+01    0.2383856    0.1795664 -21.88  0.001114296    1.726    0.421
        65  -8.4973    106.0206    120.2469   8.9837017917e+01   3.7016482453e+01    0.1754657    0.1317766  39.65 0.0002472892    1.406    0.289
        66  -8.9866    205.5085    110.4754   6.4176351783e+01   1.7515207849e+01    0.1503799    0.1398579 -35.59 7.964304e-05    1.002    0.002
        67  -9.7341    194.5291    106.3993   6.5177730208e+01   2.0734636900e+01    0.2926769    0.2220383 -37.69  0.001092484    1.244    0.196
        68 -11.1703    212.5991    101.4185   6.0667108418e+01   1.7584124390e+01    0.5715472    0.3585732 -30.61  0.002603403    1.575    0.365
        69 -11.5105    134.5276    100.9243   7.7030256692e+01   3.5576284522e+01     0.589148    0.4218509 -28.59   0.00250786    1.530    0.346
        70 -11.9982    218.7105     98.7878   5.9000690816e+01   1.6701029348e+01    0.7244326    0.3893872 -38.65  0.003162029    1.676    0.403
        71 -10.5971    221.2013     85.9898   5.5434443541e+01   1.8331270862e+01    0.2532882     0.219854  68.57  0.001411525    1.254    0.203
        72 -12.2834    220.9119    222.6014   8.5075792566e+01  -4.4846116575e+00    0.5848633    0.3715992  36.84  0.002447791    1.493    0.330
        73  -8.8189     24.5515     82.5474   1.0693159801e+02   5.6966332969e+01    0.1285861    0.1047468 -55.51  4.43636e-05    1.024    0.024
        74 -12.5702    209.4300     62.6710   5.1240247315e+01   2.4782868387e+01    0.8026887    0.5424917 -70.26  0.003834932    1.718    0.418
        75 -11.7040    220.6483     76.4923   5.3146802032e+01   2.0013185185e+01    0.6345139     0.417637 -59.84  0.003042261    1.645    0.392
        76 -11.8997    217.3953     69.2614   5.1793031864e+01   2.1905159053e+01    0.7336872    0.3658722 -38.90   0.00318512    1.805    0.446
        77  -9.9699    199.0986     72.7694   5.5490837604e+01   2.5626385575e+01    0.3114069    0.2085515  76.98  0.001422604    1.775    0.437
        78  -9.3950     13.4863     60.0687   1.0586157943e+02   6.2748522323e+01    0.1838919   0.09792871 -58.16 0.0004040794    1.509    0.337
        79  -9.4569     40.9778     58.9774   9.4378773921e+01   6.0558917229e+01    0.2618287    0.1631578  52.42  0.001281554    2.562    0.610
        80  -9.7746    135.9715     42.5437   5.8287407720e+01   4.5778310536e+01    0.2549776    0.1934543 -50.38 0.0005124816    1.460    0.315
        81 -11.3743     58.3026    236.6562   1.1839108224e+02   1.8098206495e+01    0.3666257    0.2221995 -68.91   0.00184579    1.718    0.418
        82 -10.9368    239.1141     19.8970   3.7516323988e+01   2.3787675873e+01    0.3376597    0.2344455 -47.24  0.002029338    1.256    0.204
        83 -11.1100    207.9503    231.2671   8.8901658283e+01  -3.7222094217e+00    0.5261679    0.4549251  70.22  0.003377118    1.878    0.467
