#   1 NUMBER                 Running object number                                     
#   2 MAG_AUTO               Kron-like elliptical aperture magnitude                    [mag]
#   3 X_IMAGE                Object position along x                                    [pixel]
#   4 Y_IMAGE                Object position along y                                    [pixel]
#   5 X_WORLD                Barycenter position along world x axis                     [deg]
#   6 Y_WORLD                Barycenter position along world y axis                     [deg]
#   7 A_WORLD                Profile RMS along major axis (world units)                 [deg]
#   8 B_WORLD                Profile RMS along minor axis (world units)                 [deg]
#   9 THETA_WORLD            Position angle (CCW/world-x)                               [deg]
#  10 FWHM_WORLD             FWHM assuming a gaussian core                              [deg]
#  11 ELONGATION             A_IMAGE/B_IMAGE                                           
#  12 ELLIPTICITY            1 - B_IMAGE/A_IMAGE                                       
         1 -14.2213    188.1881     32.4881   6.1634703068e+01   3.4122983053e+01     1.368602      1.12132 -15.84   0.00299289    1.244    0.196
         2 -15.0101    196.1633     21.3773   5.6940702592e+01   3.3305544639e+01       2.5522     1.628941  17.30  0.001638703    1.983    0.496
         3 -10.6918     82.1803      5.8749   7.4566090060e+01   6.3005231489e+01    0.1896808    0.1717668 -24.42 0.0004149273    1.201    0.167
         4 -11.3117     56.8575      2.8521   8.2203188866e+01   6.7850354493e+01    0.2033805    0.1519188  -3.61 0.0007006316    1.244    0.196
         5 -10.8398     85.9757    237.9173   1.2329441847e+02   1.9211068688e+01    0.1712704    0.1209453  81.48 0.0005241302    1.393    0.282
         6 -12.5624     76.8175    215.1955   1.2308278485e+02   2.3780742364e+01    0.6986679    0.4053051 -82.80  0.002960538    1.851    0.460
         7 -12.4293     95.5156    238.4415   1.2181915854e+02   1.7907936593e+01    0.5282025    0.1832702  47.79  0.002678144    2.063    0.515
         8 -15.2009    116.8339    246.6529   1.1911629145e+02   1.3956349556e+01      4.49733    0.8838831  38.83    0.0151271    6.190    0.838
         9 -11.7652     40.2542    213.2620   1.2908584240e+02   2.8350484559e+01    0.1927242    0.1069091  58.21 0.0007061376    1.333    0.250
        10 -11.7307    116.1951    211.9696   1.1595940482e+02   1.8889357686e+01    0.2723757    0.1767191  77.26 0.0008178912    1.817    0.450
        11 -11.6844     36.0482    230.0363   1.3062974318e+02   2.6155356743e+01    0.1794577    0.1292937  79.36 0.0003830791    1.203    0.169
        12 -10.1599     43.9882    210.0307   1.2827705670e+02   2.8477933526e+01    0.2696769   0.08981368  56.16  0.001466895    2.424    0.588
        13 -10.0423     37.4238    206.7419   1.2918498154e+02   2.9721717832e+01    0.1513486   0.08862278  56.42 0.0003799375    1.287    0.223
        14 -11.8393    105.6002    201.4581   1.1674334785e+02   2.2080969148e+01    0.3863734    0.1714921  49.48  0.002103116    1.841    0.457
        15 -12.9300    195.2514    194.8540   9.9714306449e+01   8.4591649352e+00    0.7137685    0.5625959  72.72  0.004185802    1.862    0.463
        16 -12.1440     37.5356    200.3750   1.2879140691e+02   3.0783555944e+01    0.1753158    0.1222149  66.94 0.0003603319    1.048    0.046
        17 -13.2243     68.1480    195.2584   1.2298457452e+02   2.8171914334e+01    0.5630903    0.4677114  88.56  0.002921358    1.212    0.175
        18 -11.6702    183.0406    215.1138   1.0478289971e+02   7.9874731995e+00     0.255091    0.1406258  47.57  0.001512625    1.522    0.343
        19 -11.5664     37.8441    226.1964   1.3016260967e+02   2.6556197503e+01    0.1635271    0.1064369  65.85 0.0003387248    1.077    0.072
        20 -11.3009    207.5995    183.7557   9.5747704717e+01   7.7037476998e+00    0.2628877     0.220977 -35.81  0.001105333    1.454    0.312
        21 -11.6860    210.9978    181.1705   9.4714190330e+01   7.4253771581e+00     0.366816    0.2490224   2.27   0.00147551    1.741    0.425
        22 -10.0584     81.7262    194.8925   1.2045987693e+02   2.6493880790e+01    0.2486158    0.1392005  33.73  0.001453303    2.058    0.514
        23 -12.1299     79.3680    180.1370   1.1944600096e+02   2.9415598756e+01    0.3400154    0.2523281 -35.73  0.002125757    2.248    0.555
        24 -12.4243     82.9564    174.7722   1.1816093300e+02   2.9916047753e+01    0.4620579     0.247914 -68.74  0.001708506    1.920    0.479
        25 -10.6057     99.5104    180.5346   1.1554605727e+02   2.6521850853e+01    0.2021461    0.1708877  68.53 0.0005947096    1.036    0.035
        26  -9.3720     72.7216    180.5666   1.2078352017e+02   3.0206880444e+01    0.1581475   0.08536153  52.55 0.0009351613    1.574    0.365
        27 -11.7555    197.6177    174.5825   9.5899720362e+01   1.0699330255e+01    0.4523677    0.2986999 -42.52  0.001990303    1.822    0.451
        28 -10.3094    203.3513    167.7373   9.3632183395e+01   1.0570288941e+01    0.2165818    0.1584874 -51.38  0.001221705    1.850    0.460
        29 -11.1783    145.7446    168.0380   1.0460016597e+02   2.1170694230e+01    0.2294343    0.1680539  45.77 0.0004959526    1.199    0.166
        30 -14.1774     52.9691    231.5611   1.2808435768e+02   2.4096117921e+01     1.948459    0.8801245  69.51   0.01262129    2.067    0.516
        31 -19.3682     11.6491    130.4445   1.2911832388e+02   4.6445283456e+01     15.91603     1.470455 -76.33   0.03757904   11.076    0.910
        32 -13.9165     59.5102    209.9724   1.2564664864e+02   2.6734945339e+01    0.8702375    0.4161177  50.81  0.003155106    1.604    0.377
        33 -10.6751    140.9648    157.6756   1.0384178714e+02   2.3815691800e+01    0.2095771    0.1835139 -79.45 0.0003522707    1.259    0.206
        34 -11.3905    133.7907    144.6383   1.0304945172e+02   2.7490887037e+01    0.9140691    0.2344598 -54.41  0.002635311    5.537    0.819
        35 -10.7909    174.5161    148.9748   9.5444006824e+01   1.8929094066e+01    0.2524523    0.2270694  53.47   0.00102442    1.128    0.114
        36 -11.8126    107.4942    141.4143   1.0830920156e+02   3.2681090607e+01    0.4895988    0.2985144 -34.87  0.002314359    2.478    0.596
        37 -12.4681     95.4263    142.3231   1.1119599877e+02   3.4411112877e+01    0.2421486    0.2318277  75.13  0.000377637    1.149    0.130
        38  -9.0786     46.5641    217.8212   1.2831425330e+02   2.6935197461e+01    0.3275531    0.2912177   6.58  0.002721506    2.078    0.519
        39 -11.0228    114.6399    131.6372   1.0493082981e+02   3.3432007215e+01    0.2868899    0.2474018  19.26 0.0006977706    1.429    0.300
        40 -11.7509    119.2622    127.1088   1.0297934836e+02   3.3525504590e+01    0.4867355    0.2949803 -52.82   0.00240399    1.681    0.405
        41 -11.0755    102.4589    127.9756   1.0712153676e+02   3.6230795689e+01    0.2553414    0.2146939 -43.46 0.0008494738    1.343    0.256
        42 -11.2888    135.8307    122.6493   9.8217129992e+01   3.1304854459e+01    0.4906305    0.2326853 -47.87  0.002022563    2.181    0.542
        43 -10.4040    160.3477    127.6440   9.3899909806e+01   2.5440065217e+01    0.2972288    0.2342098  88.73   0.00151244    1.696    0.410
        44 -10.7508    105.9378    130.9614   1.0684097418e+02   3.5045382389e+01    0.3280817    0.2604897  82.04  0.001123978    1.330    0.248
        45 -10.2665    110.0630    120.0319   1.0375623773e+02   3.6588511902e+01    0.1967491    0.1862693  83.63 0.0003187797    1.016    0.016
        46 -11.8360     63.9269    113.8629   1.1429550684e+02   4.4820783807e+01    0.2263768     0.201479  59.69 0.0007553398    1.179    0.152
        47 -10.0112    167.8808    112.7700   8.8865750124e+01   2.6488749403e+01    0.2752509    0.1910425 -67.55  0.001220829    2.089    0.521
        48 -10.1639    205.6178    110.1067   8.0805798548e+01   1.8539330170e+01    0.2702299    0.2011765  39.62 0.0006477061    1.295    0.228
        49 -11.7212     66.4139    104.7853   1.1206024222e+02   4.6488117786e+01    0.2111859    0.1849802  28.35  0.001340077    1.379    0.275
        50  -9.6715    134.5025    102.9766   9.3973985230e+01   3.5419675129e+01    0.2229874     0.141283 -44.80  0.001031591    1.586    0.369
        51  -9.9799     70.1232     72.1206   1.0378179156e+02   5.3122698345e+01    0.1930747    0.1745115 -68.01 0.0004874861    1.086    0.079
        52 -10.6584    167.9444     67.9683   7.6572677615e+01   3.4217949907e+01    0.4558601    0.2901555 -83.45  0.001645968    2.996    0.666
        53 -16.1200     73.0879    150.2573   1.1733123238e+02   3.5985160251e+01     5.284131     2.569955  71.51   0.01987221    2.998    0.666
        54  -9.4753     51.7107     60.6553   1.0683077308e+02   5.7921056049e+01    0.1588597     0.115685  44.62 0.0007245559    1.619    0.382
        55 -13.8693    177.9308     41.3890   6.6215291291e+01   3.5668063400e+01     1.052374    0.8627937  -9.45  0.001125187    1.271    0.213
        56 -14.6419    113.9810    229.3364   1.1804776612e+02   1.6676164846e+01     5.186924    0.7032815  41.82   0.01717708    5.633    0.822
        57 -11.1364     44.6687    201.1180   1.2760387623e+02   2.9895728715e+01     0.399449    0.1730673  66.25  0.001830956    2.144    0.534
        58  -9.6390     66.5411    232.9435   1.2603193099e+02   2.2321635813e+01    0.1152797    0.0842188  89.74 -1.063397e-05    1.372    0.271
        59  -9.4335    195.9917    246.0368   1.0664829489e+02   2.6002893525e+00    0.1268591   0.09270477  35.65 0.0004848281    1.033    0.032
