#   1 NUMBER                 Running object number                                     
#   2 MAG_AUTO               Kron-like elliptical aperture magnitude                    [mag]
#   3 X_IMAGE                Object position along x                                    [pixel]
#   4 Y_IMAGE                Object position along y                                    [pixel]
#   5 X_WORLD                Barycenter position along world x axis                     [deg]
#   6 Y_WORLD                Barycenter position along world y axis                     [deg]
#   7 A_WORLD                Profile RMS along major axis (world units)                 [deg]
#   8 B_WORLD                Profile RMS along minor axis (world units)                 [deg]
#   9 THETA_WORLD            Position angle (CCW/world-x)                               [deg]
#  10 FWHM_WORLD             FWHM assuming a gaussian core                              [deg]
#  11 ELONGATION             A_IMAGE/B_IMAGE                                           
#  12 ELLIPTICITY            1 - B_IMAGE/A_IMAGE                                       
         1 -14.9421     12.6028    152.3871   2.9262878596e+02   5.9402393933e+00    0.6159883    0.3215669  69.66   0.04624369    3.348    0.701
         2 -12.7918      2.9053     46.5841   2.9217781962e+02   7.2256595022e+00   0.05852808   0.01165794 -56.42  0.003692654    4.115    0.757
         3 -13.6508    195.7418     27.3340   2.8966274812e+02   6.3481309625e+00   0.08331829   0.06849397 -38.82  0.007000545    1.288    0.223
         4 -12.0849      2.3773     11.1577   2.9199235460e+02   7.6401677384e+00   0.05772832   0.01087503 -63.54    0.0033258    5.054    0.802
         5 -13.5421    211.0060      7.7997   2.8936572532e+02   6.4870492302e+00   0.05795118   0.04719831 -18.01  0.006510853    1.338    0.252
         6  -9.9853     47.1458    249.1790   2.9271968541e+02   4.6176256814e+00   0.01037796  0.008946084 -19.88 0.0005596276    1.229    0.186
         7 -11.4040    152.9856    249.0087   2.9139995093e+02   4.0165440460e+00   0.02094521   0.01090463  40.20  0.001502072    1.836    0.455
         8 -12.2328    145.2614    248.5334   2.9149358452e+02   4.0661706338e+00   0.03352087   0.02017925   5.05  0.003076732    1.977    0.494
         9 -11.2602    139.4889    245.9814   2.9155168899e+02   4.1288028341e+00   0.01477694    0.0120066 -48.17  0.001666152    1.288    0.224
        10 -11.8978    124.0457    249.6723   2.9176402219e+02   4.1739846533e+00    0.0268923   0.01487613  24.40  0.002510839    1.698    0.411
        11 -11.1657     34.9690    245.1514   2.9284978548e+02   4.7336894461e+00   0.03086618   0.01726532 -46.15  0.002882075    1.905    0.475
        12 -10.2086     29.5965    249.2399   2.9293876279e+02   4.7166241517e+00    0.0210179   0.01220976 -61.71  0.002020816    1.792    0.442
        13  -9.1977     13.3435    250.6738   2.9314906787e+02   4.7921939493e+00  0.007413178  0.004808025  54.90 0.0005564759    1.740    0.425
        14  -9.7810      2.6126    248.3678   2.9327043182e+02   4.8798960977e+00    0.0175775   0.00913076 -70.43  0.001552761    2.195    0.544
        15 -10.1428    198.2429    246.7081   2.9082402873e+02   3.7846855355e+00   0.01105631  0.004697927 -52.36 0.0005275019    2.367    0.578
        16 -10.8087    180.7566    245.5988   2.9103569194e+02   3.8975484936e+00   0.01333998  0.007823095 -51.63  0.001277553    1.759    0.431
        17 -10.3662     22.2926    244.8926   2.9300641833e+02   4.8086868368e+00   0.01919646  0.009558088  49.96  0.001287324    2.307    0.567
        18 -10.5264     82.4344    243.6708   2.9225014573e+02   4.4809561501e+00   0.01234194  0.006986985 -72.42 0.0009849544    2.042    0.510
        19 -10.0386     12.3627    240.6151   2.9310720037e+02   4.9148218801e+00    0.0152444  0.008503299  15.04  0.001374972    1.900    0.474
        20 -11.0179    237.6520    247.0482   2.9033556320e+02   3.5552779280e+00   0.01781134   0.01046004 -68.58  0.001682798    1.877    0.467
        21 -10.3873    173.4598    222.0883   2.9099923629e+02   4.2126339578e+00   0.01580851   0.01162318  54.40  0.001673078    1.468    0.319
        22 -12.3829     49.3812    216.7516   2.9251705167e+02   4.9822855957e+00   0.04193857   0.03636314 -13.09  0.002967715    1.212    0.175
        23  -9.0747    152.6527    213.0562   2.9120953440e+02   4.4365872549e+00  0.008949158   0.00842235 -65.74 0.0003638329    1.135    0.119
        24 -12.4828      9.5427    207.0977   2.9296197441e+02   5.3209101417e+00   0.05165865   0.02700536  15.93  0.003486937    2.037    0.509
        25 -11.7305     61.2797    200.2668   2.9227967900e+02   5.1064415873e+00   0.01628987   0.01288852 -30.96 0.0005522574    1.370    0.270
        26  -9.6096    191.7983    192.7088   2.9061154355e+02   4.4493505730e+00   0.02143945   0.01027253  79.03  0.001248818    5.598    0.821
        27 -10.4983     17.3206    198.4925   2.9281857107e+02   5.3769248256e+00   0.01799971   0.01007176  39.68  0.001689401    1.702    0.412
        28 -12.0020     67.5851    191.7836   2.9215519774e+02   5.1692702977e+00   0.01513498   0.01266794 -34.97 0.0005254248    1.266    0.210
        29 -12.2000    135.4755    231.8104   2.9152506364e+02   4.3165412253e+00   0.03756038   0.01198751  21.88  0.002557044    3.246    0.692
        30 -13.2470     64.5044    176.9693   2.9211358970e+02   5.3591877899e+00   0.02763374   0.01430618 -40.50  0.001946304    2.236    0.553
        31 -10.8854     77.7508    178.6320   2.9195727379e+02   5.2644117032e+00   0.01195132   0.01126763 -20.80   0.00032686    1.095    0.087
        32  -9.9382    100.1558    176.7729   2.9166766638e+02   5.1583380230e+00    0.0188977   0.01005562  54.07  0.001614872    2.299    0.565
        33 -11.8518     85.5001    169.2357   2.9180974701e+02   5.3295827053e+00   0.03678823   0.02802162  -9.54   0.00253509    1.468    0.319
        34 -10.2013     97.7625    153.2304   2.9157006541e+02   5.4458669004e+00   0.01573392   0.01384695 -31.94 0.0008626208    1.194    0.163
        35  -9.3225    100.8240    148.9013   2.9150840325e+02   5.4787603844e+00   0.01159312  0.008974103 -15.13 0.0003663895    1.442    0.307
        36 -12.0264     86.3998    152.4669   2.9170775678e+02   5.5195403980e+00   0.01489143   0.01229392 -29.39 0.0005902021    1.298    0.230
        37 -12.2274     67.3107    143.6144   2.9189815883e+02   5.7312870398e+00   0.03672575    0.0213027  48.05   0.00337863    1.830    0.454
        38 -10.8239     33.1413    132.4631   2.9226459984e+02   6.0554097128e+00   0.01755803  0.009277866  46.77  0.001558773    2.004    0.501
        39 -12.8772     34.8121    234.7855   2.9279592568e+02   4.8552155982e+00   0.01911741   0.01627454 -31.30 0.0007604446    1.245    0.197
        40  -9.8531    109.4039    137.9251   2.9134182561e+02   5.5574651645e+00    0.0211214   0.01139998 -31.38  0.001538262    2.449    0.592
        41 -10.5045     96.7171    135.2702   2.9148580616e+02   5.6607406658e+00   0.01186823    0.0104195 -17.73 0.0003610122    1.196    0.164
        42 -13.9377     39.7782    227.8441   2.9269660782e+02   4.9077805560e+00   0.04574248   0.04067315  36.17  0.002375854    1.077    0.071
        43  -9.0167    106.8325    124.3250   2.9130017715e+02   5.7303120446e+00   0.00914286  0.007805374  14.96 0.0003199161    1.132    0.117
        44  -9.5418    167.8304    112.9183   2.9047699433e+02   5.5141636235e+00   0.01248364  0.008939539  45.52  0.001201552    1.400    0.286
        45  -9.4129    203.1769    111.7708   2.9003000235e+02   5.3249313225e+00  0.009748355  0.007788784 -21.11   0.00100591    1.374    0.272
        46  -9.4449     38.5551     94.9485   2.9199393644e+02   6.4609720538e+00   0.01204922  0.008540021  41.20 0.0004022541    1.367    0.269
        47  -9.0098     68.6806     83.7180   2.9155651168e+02   6.4200740644e+00  0.009143644  0.007115567  51.46 0.0005042363    1.339    0.253
        48 -10.2350    157.6765     76.3175   2.9040464536e+02   5.9976444828e+00   0.01227742   0.01008889  51.57 0.0009024199    1.257    0.205
        49  -8.8030     42.2277     67.3694   2.9179856428e+02   6.7607231556e+00   0.01050967  0.005417368  36.24 0.0009259251    1.784    0.439
        50 -12.0120      5.8892     65.5620   2.9224328043e+02   6.9881699752e+00   0.02393989   0.01159233 -69.44  0.002048055    2.349    0.574
        51 -11.1094     14.5797     55.1199   2.9207799443e+02   7.0602173414e+00   0.01954929  0.008465666  42.36  0.001269271    2.298    0.565
        52 -10.0020    225.7134    249.7510   2.9049870801e+02   3.5921883789e+00   0.01164536   0.00433353  35.80 0.0008982622    2.375    0.579
        53 -11.4074    172.8639    247.9664   2.9114677456e+02   3.9151219599e+00   0.01910535   0.01437548  50.29  0.002062827    1.380    0.275
        54 -10.9502    101.5995    246.8156   2.9202827050e+02   4.3351921922e+00   0.01773935   0.01153795  72.41  0.001676114    2.042    0.510
