#   1 NUMBER                 Running object number                                     
#   2 MAG_AUTO               Kron-like elliptical aperture magnitude                    [mag]
#   3 X_IMAGE                Object position along x                                    [pixel]
#   4 Y_IMAGE                Object position along y                                    [pixel]
#   5 X_WORLD                Barycenter position along world x axis                     [deg]
#   6 Y_WORLD                Barycenter position along world y axis                     [deg]
#   7 A_WORLD                Profile RMS along major axis (world units)                 [deg]
#   8 B_WORLD                Profile RMS along minor axis (world units)                 [deg]
#   9 THETA_WORLD            Position angle (CCW/world-x)                               [deg]
#  10 FWHM_WORLD             FWHM assuming a gaussian core                              [deg]
#  11 ELONGATION             A_IMAGE/B_IMAGE                                           
#  12 ELLIPTICITY            1 - B_IMAGE/A_IMAGE                                       
         1 -11.7354      2.0000     82.9959   1.0930992533e+02   5.8933510474e+01    0.7984475   0.06791016 -66.91   0.00207158    6.561    0.848
         2 -12.6535    228.1665     32.2360   3.4202903724e+01   2.5627905199e+01    0.8864024    0.6555979  48.15  0.005514217    1.790    0.441
         3 -11.5212      2.2906      4.3900   8.4912675608e+01   7.4103781266e+01    0.5365823    0.1430644 -43.02  0.002457272    3.246    0.692
         4 -12.0401    225.7396      2.8645   2.8421546641e+01   2.9430055397e+01    0.8079025    0.3434106  73.24  0.004353117    2.105    0.525
         5 -14.1092    207.7714     11.1458   3.1529898958e+01   3.2373560844e+01     2.404567    0.8434205  77.01   0.01051651    2.764    0.638
         6 -12.2878    210.7849      3.1603   2.9572008841e+01   3.2534119817e+01     1.010473    0.2921638  74.25  0.004291881    3.070    0.674
         7 -13.7369    174.4710     12.9299   3.5283673981e+01   3.9717281045e+01     1.310613     1.157475 -78.04  0.006694298    1.090    0.083
         8 -12.8806    184.7611      5.9591   3.2468988036e+01   3.8021558537e+01     1.058229    0.6269068 -47.06  0.005651727    1.666    0.400
         9 -12.9286    244.1497      5.0402   2.7637024557e+01   2.5540704121e+01     1.244525      0.61031  75.21  0.006757766    1.901    0.474
        10 -10.6536     17.8665      3.3501   7.4817156365e+01   7.2697228355e+01    0.2682905    0.2017046 -56.75  0.001575392    3.078    0.675
        11  -8.3591     78.5590      4.4776   5.0042097415e+01   6.2480112361e+01    0.1238958    0.1026824  38.32 0.0002846842    1.038    0.037
        12 -10.6885     66.0889    163.2795   1.0147890182e+02   3.3020399648e+01    0.2582942    0.2488489 -14.94 0.0003472854    1.154    0.133
        13 -14.1943    101.7567    227.0440   1.0140841337e+02   1.2914928278e+01     6.065572    0.7979897  41.04   0.01612302    5.453    0.817
        14 -13.9697     12.3035    206.4371   1.1962184230e+02   2.8453807571e+01    0.9831448    0.7989293  23.18  0.001871408    1.526    0.345
        15 -13.0353     51.6548    159.4547   1.0499964939e+02   3.5817027074e+01    0.5673118    0.3394417 -38.57  0.001972672    2.000    0.500
        16 -12.1389     74.8873    156.1648   9.7779415332e+01   3.3606446511e+01    0.6636006     0.600938 -74.99  0.003658964    1.074    0.069
        17  -8.6144     67.9241    206.0645   1.0678512142e+02   2.2329211949e+01    0.1579755    0.1409996  73.42 0.0003655899    1.030    0.029
        18 -12.7135     67.8150    143.8463   9.7669294347e+01   3.7752965888e+01    0.9115367    0.5871288  63.90   0.00316842    2.014    0.504
        19 -12.2886     54.0263    121.3459   9.7728486069e+01   4.5273319066e+01     2.196399    0.7056916 -71.17  0.004340241    9.469    0.894
        20 -10.1900     91.1872    143.0736   9.0472808852e+01   3.4402105660e+01    0.3422886     0.285551  13.61 0.0009800596    1.334    0.250
        21  -9.5826     94.5750    140.1847   8.8854071643e+01   3.4557712747e+01    0.3301115    0.2144506 -29.68   0.00137549    1.912    0.477
        22 -11.8042     78.4814    141.3186   9.3936867440e+01   3.6856791456e+01    0.3378488    0.2833308 -47.47 0.0006247388    1.155    0.135
        23 -10.2224    242.7268    132.2562   5.3564307268e+01   7.4644587518e+00     0.192337    0.1058137  34.52 0.0009034798    2.410    0.585
        24 -10.4077    105.7011    131.1801   8.3524940892e+01   3.4804137027e+01     0.398945    0.3452775  -0.34   0.00100318    1.281    0.220
        25  -9.9109     91.7618    127.5514   8.6884139591e+01   3.8170144443e+01    0.3450909    0.2590378   0.11 0.0008889409    1.691    0.408
        26 -10.2005    239.5002    126.5019   5.2851075304e+01   9.0039710311e+00    0.1344672      0.11415 -38.06 -0.0002835942    1.002    0.002
        27  -9.5717    191.7260    192.5719   7.5310583375e+01   5.1652380289e+00    0.4137986    0.2283321 -65.18   0.00124515    5.558    0.820
        28  -8.8906    112.6554    125.6829   8.0166074156e+01   3.4808603331e+01    0.1646164       0.1238  -9.11 0.0007048657    1.719    0.418
        29  -9.3705    103.5774    119.8172   8.1397659912e+01   3.7926238466e+01    0.2382463    0.2073257  18.18 0.0003615647    1.205    0.170
        30 -10.6138    244.8275    112.3882   4.9135604148e+01   1.0454387162e+01    0.1697318    0.1218674  38.39 0.0009558839    1.746    0.427
        31  -9.3413    204.4512    110.8489   5.5068566568e+01   1.8478348614e+01    0.2967107    0.1868066  33.26  0.001336652    2.068    0.516
        32  -9.3889     56.6706     94.3386   9.0595782280e+01   5.1511421080e+01    0.1413046    0.1130649  73.63 0.0003552477    1.735    0.424
        33 -13.0584     34.2716    248.9120   1.1788007928e+02   1.7222992809e+01     2.505173    0.4040242  31.94  0.008412881    5.198    0.808
        34  -8.9061     24.9656     82.5424   1.0000179073e+02   5.7598254439e+01    0.1755076    0.1272771  10.75 0.0003522114    1.502    0.334
        35  -9.7362    164.2424     83.5976   5.5852392742e+01   3.2356563483e+01    0.2115637    0.1356726  44.12 0.0005515118    1.633    0.388
        36 -10.2157     13.3533     60.0973   9.9415845127e+01   6.3383515224e+01     0.199772     0.146827 -23.81 0.0004464254    1.203    0.169
        37 -11.8441    212.4390     45.3302   3.8659791198e+01   2.7275511898e+01     0.473021     0.312996 -53.40   0.00267777    1.376    0.273
        38 -10.8685      2.1141     38.0488   9.8570995589e+01   6.8475286914e+01    0.2954758    0.1886011 -70.30   0.00171175    2.107    0.525
        39 -13.5056      3.0103    244.9647   1.2356672557e+02   2.1179864880e+01     2.917572    0.7603542 -71.85   0.01341556    3.379    0.704
        40 -10.8550     22.0588    243.7286   1.1992856327e+02   1.9559054917e+01    0.2471603    0.1889859  33.89  0.001066817    1.438    0.305
        41  -8.5262    110.5465    167.4847   8.9869376100e+01   2.5059438190e+01    0.1515166    0.1461514  70.51 0.0001595185    1.062    0.058
        42 -15.2084     28.8899    185.9217   1.1416598402e+02   3.1676921917e+01     8.975629     3.320229  83.95   0.02698878    5.206    0.808
        43 -11.4754     46.7145    179.1669   1.0893273072e+02   3.1428753585e+01    0.3927366     0.275544 -33.95  0.001582633    1.835    0.455
        44 -11.4921     53.8693    173.0526   1.0626755528e+02   3.2109367711e+01    0.2923237    0.2546956 -42.96  0.000482752    1.269    0.212
        45 -14.1612     22.0310    199.0830   1.1692528637e+02   2.9229142505e+01     2.405234    0.9311324  53.94   0.01019174    2.564    0.610
        46 -14.4451     68.4250    246.5554   1.1080813543e+02   1.3587215771e+01     3.926976     1.089597  28.21   0.01272132    4.883    0.795
        47 -10.4878    167.7019    224.5512   8.6211093414e+01   3.1396949739e+00    0.2087138    0.1752203 -75.00 0.0009398888    1.761    0.432
