#   1 NUMBER                 Running object number                                     
#   2 MAG_AUTO               Kron-like elliptical aperture magnitude                    [mag]
#   3 X_IMAGE                Object position along x                                    [pixel]
#   4 Y_IMAGE                Object position along y                                    [pixel]
#   5 X_WORLD                Barycenter position along world x axis                     [deg]
#   6 Y_WORLD                Barycenter position along world y axis                     [deg]
#   7 A_WORLD                Profile RMS along major axis (world units)                 [deg]
#   8 B_WORLD                Profile RMS along minor axis (world units)                 [deg]
#   9 THETA_WORLD            Position angle (CCW/world-x)                               [deg]
#  10 FWHM_WORLD             FWHM assuming a gaussian core                              [deg]
#  11 ELONGATION             A_IMAGE/B_IMAGE                                           
#  12 ELLIPTICITY            1 - B_IMAGE/A_IMAGE                                       
         1 -12.6895     43.0972     46.4672   9.6890818576e+01   6.2343165922e+01    0.8204362    0.6849377  88.59  0.001780331    1.884    0.469
         2 -12.0423    124.5033     27.8419   6.2732589447e+01   5.0737734114e+01    0.8299543    0.6690873   8.82   0.00274908    1.272    0.214
         3 -12.9302    117.0696     41.9799   7.0002544606e+01   5.0486091750e+01     1.025754     0.760895 -89.84  0.004707137    2.150    0.535
         4 -12.6521     74.7421     50.3076   8.6343477172e+01   5.7319819984e+01     1.283601    0.7707049 -50.06  0.006187078    1.804    0.446
         5  99.0000     67.9452     31.9441   8.1536754829e+01   6.1582949591e+01     1.244302    0.6446854 -54.35  0.004811494    3.663    0.727
         6 -11.1729    178.1560     21.6563   5.0477983683e+01   3.7871904228e+01    0.5870038    0.3745708  37.43  0.002000626    1.773    0.436
         7 -10.9756      5.3384      9.2525   9.9890449241e+01   7.2380237699e+01     1.153163    0.5975988 -60.41  0.006189469    2.709    0.631
         8 -11.1095      3.1911      1.7908   9.7615959221e+01   7.3735937735e+01    0.3608137    0.1689688   6.95  0.002081665    2.513    0.602
         9  -9.6868      6.4136     30.8751   1.0751138773e+02   6.8414778523e+01     0.785264    0.3309858 -41.70  0.004354436    1.768    0.435
        10 -11.5654     19.9344     22.2909   9.7971153124e+01   6.9057408179e+01     1.416905    0.2054855 -47.38  0.004878441    4.368    0.771
        11 -12.8442     17.4725     13.5773   9.5448494825e+01   7.0745573238e+01    0.5938947    0.4429101 -16.08 0.0004607738    1.133    0.118
        12 -11.7757     22.8896     10.7484   9.1384705186e+01   7.0705178135e+01    0.4125821    0.3190481   1.89  0.001951973    1.249    0.200
        13 -12.3134    104.6216     12.8592   6.1609924777e+01   5.7032185482e+01    0.8697432    0.4888112 -35.99  0.004181983    1.947    0.486
        14 -11.8629    106.0390     20.1943   6.4326384012e+01   5.5897924300e+01    0.4684694    0.3032808 -27.62 0.0004194179    1.552    0.356
        15 -11.6895     26.4421     28.0143   9.7208902696e+01   6.7473968384e+01    0.4598981    0.4085247 -23.46  0.002403854    1.224    0.183
        16 -11.0888    155.3609     23.3926   5.4733141296e+01   4.3598276966e+01    0.9521024    0.6579548  46.29  0.004703731    1.387    0.279
        17 -10.6951    146.0791     16.1431   5.3881595597e+01   4.6766283138e+01    0.5832173    0.2760938  53.85  0.002481263    1.866    0.464
        18  -9.4337    141.4551     12.2814   5.3340815900e+01   4.8326118016e+01    0.2338609     0.214213   9.43 0.0007096225    1.123    0.109
        19 -11.1377    165.1649     17.5024   5.1120830568e+01   4.1713882886e+01    0.4774783    0.2942898  34.72  0.001554338    1.840    0.457
        20 -11.3507    138.0103     21.9492   5.7536730777e+01   4.8160299986e+01     1.031834    0.3185388  49.06  0.003171068    2.859    0.650
        21 -12.1217    132.4201     14.9603   5.6076504698e+01   5.0302276588e+01     1.229413    0.5880262  74.47  0.001851185    2.840    0.648
        22 -12.4466    163.9427     27.8784   5.4732979449e+01   4.0849546527e+01    0.5161497    0.3746995  28.54 0.0004327963    1.554    0.356
        23 -11.0847    198.7750     28.6092   4.9683265627e+01   3.1699060627e+01     0.650175    0.4238188 -11.49  0.003021987    1.897    0.473
        24 -10.1455     87.2434      7.4600   6.4004023251e+01   6.1275623539e+01    0.5589309    0.3320622  52.84  0.002406875    1.693    0.409
        25 -10.6057     91.1988     21.3262   6.9044763547e+01   5.8888892855e+01    0.6569872    0.4185702 -16.24  0.002714675    1.562    0.360
        26 -11.2011     86.0197     13.7428   6.7257281096e+01   6.0839127328e+01    0.4244861     0.334129   7.13  0.001352419    1.145    0.127
        27  -9.5719     50.4844      6.7280   7.6591980570e+01   6.7862322305e+01    0.2485386    0.1523809  33.82 0.0009323482    1.612    0.380
        28 -11.2240     32.6171     12.5674   8.7518240365e+01   6.9404497900e+01    0.2180452    0.2018041  17.10 0.0004342935    1.507    0.337
        29 -12.2074     48.2498     12.9722   8.0688057781e+01   6.7364268726e+01    0.7291343    0.3405262  33.81   0.00372016    2.206    0.547
        30 -11.5077     35.5166     18.6622   8.9046637544e+01   6.8132813253e+01     0.594026    0.2352434 -34.37  0.001993165    2.186    0.542
        31 -10.9682     75.4909      4.2417   6.6103455703e+01   6.3903395670e+01    0.6521129    0.5004688  49.59  0.003990004    1.437    0.304
        32 -10.5493     82.2045      1.3317   6.2606937669e+01   6.2883202254e+01    0.2052039    0.1104483  51.61 0.0003215153    1.778    0.437
        33 -10.4581     64.2590     10.7886   7.3231177582e+01   6.5177600755e+01    0.5501611    0.2521806  33.09  0.002595973    2.226    0.551
        34  -9.9461     62.9316      6.4707   7.1573200154e+01   6.5912013240e+01    0.3252452    0.2166131  -0.02  0.001317032    1.409    0.290
        35 -11.9502     68.4264     17.9941   7.5146074068e+01   6.3552268915e+01     0.546667    0.4435614  42.86  0.002337144    1.443    0.307
        36 -11.3892    233.8812      7.0305   4.0228659797e+01   2.5435197174e+01    0.6220401    0.2846116  55.23  0.002659749    2.351    0.575
        37 -11.8292    238.1420     15.9931   4.2036664138e+01   2.3449014311e+01    0.5724717      0.42237  35.08  0.003153425    1.805    0.446
        38 -11.3959    244.9494     15.8737   4.1416529087e+01   2.1884122495e+01     0.551311    0.3194721  -2.97  0.002399466    3.035    0.671
        39 -11.5718    245.8138      7.5175   3.9388263785e+01   2.2613723108e+01    0.4757606     0.332792 -28.69  0.002372097    1.484    0.326
        40  -9.6238    194.1946      1.3803   4.2456023835e+01   3.5795122607e+01    0.2054038    0.1236688  75.20 0.0004115028    1.531    0.347
        41 -10.7514    186.4026     15.0976   4.7346209734e+01   3.6443482931e+01    0.3467478    0.2558262  58.46 0.0005900501    1.290    0.225
        42 -11.4271    192.4131      7.8205   4.4484360897e+01   3.5636270311e+01    0.6636737    0.4198131  26.31   0.00238644    2.128    0.530
        43 -10.6184    242.4803      3.6900   3.8752995292e+01   2.3783070775e+01    0.3453144    0.2062331  79.49  0.001866403    1.614    0.381
        44 -10.2059    225.9058     15.5475   4.3059506150e+01   2.6418973227e+01    0.3808421     0.198442 -34.40  0.001477532    1.800    0.444
        45 -11.4283    211.9405      9.8061   4.2941541435e+01   3.0481395982e+01    0.4788452    0.3312129   9.45  0.001014537    2.054    0.513
        46  -9.7280    169.1145      9.7795   4.8035904664e+01   4.1474934681e+01    0.3698828     0.167455  44.00  0.001484486    2.347    0.574
        47 -10.1838    163.2964      4.9657   4.7302878765e+01   4.3430939423e+01    0.4130124    0.2420241  -0.40  0.001499475    2.219    0.549
        48  -9.3193    157.4855      2.5259   4.7326810993e+01   4.5140992676e+01    0.2515139    0.2079191  39.96  0.001435226    1.199    0.166
        49  -9.3442    161.0213      1.0000   4.6324551794e+01   4.4362348009e+01    0.3295333    0.1339738  69.11  0.001323114    2.231    0.552
        50  -9.9108    184.9373      7.0173   4.5125594461e+01   3.7640397830e+01    0.2927279    0.1880925 -40.82 0.0009356064    1.586    0.370
        51 -10.0116    152.2077      7.6306   4.9857616177e+01   4.6040091328e+01    0.5310224    0.1993596  62.53  0.001398452    2.292    0.564
        52 -11.4056     40.7569      5.8039   8.0317608270e+01   6.9353689079e+01    0.4349002    0.2055017 -17.41  0.002094133    2.367    0.578
        53  -9.3607      1.2337      7.3295   1.0129588897e+02   7.2961698830e+01    0.1742847   0.07012828 -49.52 0.0004043697    1.937    0.484
        54 -10.7404    176.3041      5.5525   4.5749567675e+01   4.0012134976e+01    0.4410799    0.2620874  85.61 0.0008070299    1.789    0.441
        55 -11.0984    218.8154      3.1515   4.0558070239e+01   2.9460319176e+01    0.3257788    0.2960888 -30.08  0.001101549    1.227    0.185
        56 -11.4401    223.6446      1.8938   3.9822997099e+01   2.8410739082e+01    0.8024149     0.350648 -85.75  0.003228517    2.794    0.642
        57 -10.9988    205.6862      2.3984   4.1578187382e+01   3.2790847975e+01    0.5093427    0.2571518  85.54  0.001614441    2.056    0.514
        58  -9.8876    117.0176      2.6839   5.4463497482e+01   5.5162681933e+01    0.3399554    0.2274896  10.17  0.001776215    1.602    0.376
        59 -10.3758    110.7763      2.0042   5.5537007735e+01   5.6671894882e+01    0.4880506    0.2487087  71.23  0.002123952    2.406    0.584
        60 -10.7945    105.2394      1.8314   5.6732355027e+01   5.7945438079e+01    0.4142736    0.3077896 -88.91 0.0009655349    1.925    0.480
        61 -10.3280    120.9093     18.9525   6.0120277864e+01   5.2646639540e+01    0.5635399    0.4031048 -45.55  0.002189104    1.651    0.394
        62 -10.5014    142.4786      3.2126   4.9890449861e+01   4.8900625386e+01    0.3868202    0.2744392  50.21  0.001668249    1.261    0.207
        63 -11.6941    133.5000      2.7776   5.1285519829e+01   5.1176155153e+01    0.4373136    0.2779914  57.71  0.001383645    1.390    0.281
        64  -9.7389     13.3250      1.8822   9.1965396937e+01   7.2933591096e+01    0.2508503    0.1602362   0.02  0.001537687    1.497    0.332
        65  -9.3346    122.7769      1.2916   5.2732646785e+01   5.3910111570e+01    0.3677927   0.09805705  60.93  0.001281541    3.080    0.675
        66  -9.4079     74.5604    153.4841   1.1152052306e+02   3.4206820702e+01    0.2515363    0.2004459 -84.74  0.001473674    1.146    0.127
        67  -9.8914     70.7356    151.5928   1.1215973772e+02   3.5171679712e+01    0.3032182    0.1626986  52.61  0.001021598    1.942    0.485
        68 -11.8988      3.6377    147.3771   1.2732293568e+02   4.3059225118e+01    0.7056014    0.3695958 -83.78  0.003774131    1.475    0.322
        69 -11.0432      5.3588    141.9350   1.2649525588e+02   4.4135577296e+01    0.2801556     0.231097  53.32  0.001138542    1.380    0.275
        70 -12.4970      3.9958    137.1620   1.2639845655e+02   4.5292891431e+01    0.2997574    0.1908237 -67.63 0.0003952624    1.316    0.240
        71 -11.3417     47.0654    146.7386   1.1721126206e+02   3.9234091960e+01    0.5981824    0.4148486 -70.36  0.003565707    1.232    0.188
        72 -11.1148     62.8229    150.1421   1.1386303106e+02   3.6554857039e+01      0.39731      0.35584  83.09  0.001675975    1.085    0.078
        73  -9.2034    233.6687    150.6785   7.5917636035e+01   4.3005706229e+00    0.1482079    0.1013498   7.50  0.000704936    1.697    0.411
        74  -9.6267    239.8466    146.8269   7.3978817575e+01   3.7130763524e+00    0.2150309    0.1742955   4.34 0.0006348143    1.185    0.156
        75 -10.5967    249.4610    142.6574   7.1426598515e+01   2.5282478467e+00    0.5709262    0.2234839 -31.84  0.002283771    2.351    0.575
        76  -9.7550    214.8195    151.1428   7.9474294070e+01   7.9715201589e+00    0.2630625    0.2408818 -43.57 0.0009072277    1.243    0.196
        77  -8.5074    104.6385    143.2987   1.0236653687e+02   3.1842352864e+01    0.1513122    0.1071794  75.26  0.000703449    1.716    0.417
        78 -10.0373    133.3275    140.3393   9.4685488445e+01   2.7157885972e+01    0.3078585    0.2724405 -16.44 0.0008048655    1.313    0.238
        79 -12.1530     23.4394    135.7983   1.2163428204e+02   4.4093585709e+01    0.7692841    0.4148109  50.61  0.002148846    1.965    0.491
        80 -12.2173     29.8698    133.0166   1.1971366003e+02   4.4162151805e+01      0.39985    0.2661067 -83.96 0.0003086721    1.284    0.221
        81 -10.3636     80.2133    136.5662   1.0732173073e+02   3.7326686547e+01    0.4399891    0.3485121 -19.02  0.002114593    1.786    0.440
        82  -8.9733     44.4219    133.4602   1.1607675197e+02   4.2612397803e+01    0.1878266    0.1338573  78.26 0.0004144321    1.414    0.293
        83  -9.3582     40.3094    137.9935   1.1773383105e+02   4.1987781969e+01    0.1846357    0.1392518 -80.03  0.001070108    1.098    0.089
        84 -10.2330     47.3157    135.5086   1.1562795012e+02   4.1817658105e+01    0.4555992    0.1831876 -62.20  0.001625427    2.052    0.513
        85  -8.7535    216.6261    135.1978   7.5452781613e+01   1.0320677320e+01    0.2043846    0.1331295 -22.87 0.0005033492    1.600    0.375
        86 -10.5413     92.6791    129.3757   1.0267720790e+02   3.7079566888e+01    0.3620192    0.2646735 -77.87  0.001428464    1.483    0.326
        87 -10.0822     68.1165    134.6348   1.1012558137e+02   3.9483772538e+01    0.2093335    0.1554383  63.92 0.0005807257    1.422    0.297
        88  -9.4746    107.6980    145.9747   1.0212310745e+02   3.0700266096e+01    0.2026907    0.1772001 -68.45 0.0004368474    1.102    0.093
        89 -10.2346     73.9876    132.7012   1.0825313731e+02   3.9134138781e+01    0.2992173    0.2433793  23.31  0.001691531    1.528    0.346
        90  -9.8762     62.7199    131.6598   1.1103854540e+02   4.0891369234e+01    0.3219054     0.191891 -63.82  0.001640191    1.469    0.319
        91 -10.2193     82.4839    125.2173   1.0456757284e+02   3.9660711789e+01    0.4907349    0.3047546 -24.12  0.001571075    2.856    0.650
        92  -8.8971    223.8549    126.8209   7.2128384212e+01   1.0214212285e+01    0.1993594    0.1659213 -48.86 0.0004422939    1.324    0.245
        93  -9.3666     23.0006    126.8720   1.2070265505e+02   4.6184948165e+01    0.1764838    0.1322037  81.62 0.0003133896    1.245    0.197
        94 -10.3532     18.5909    124.4293   1.2154038304e+02   4.7104768235e+01    0.3596237    0.1505243 -66.25  0.001821288    1.817    0.450
        95  -9.4396      2.1733    125.8307   1.2580705194e+02   4.7949743152e+01    0.2830218    0.1340387  85.85  0.001493899    2.023    0.506
        96 -10.1884      4.3598    120.5994   1.2474876987e+02   4.8989596964e+01    0.3855077    0.1699027 -61.63  0.001324834    1.782    0.439
        97  -9.8218      7.5178    114.9080   1.2331946473e+02   5.0078686205e+01    0.2418198    0.1929866  86.83 0.0008210319    1.162    0.139
        98 -11.6296      2.4818    112.0966   1.2433697476e+02   5.1029590414e+01    0.3341302    0.1942633 -77.17 0.0005867341    1.303    0.233
        99 -11.7882      3.9490    105.9352   1.2324100559e+02   5.2339810170e+01    0.4651274    0.3184862 -87.57  0.002672624    1.260    0.207
       100 -10.6951     55.6470    123.4649   1.1154962702e+02   4.3702447376e+01    0.4474127     0.337675 -22.28  0.001960627    1.844    0.458
       101 -10.8664     46.6650    121.1027   1.1360939787e+02   4.5280015503e+01    0.6525361    0.3679801  74.22  0.002466387    2.436    0.589
       102 -10.9968     32.8266    144.3327   1.2033594901e+02   4.1276320467e+01    0.3019325    0.2789936 -46.56   0.00139478    1.385    0.278
       103 -11.8380    104.2723    121.9602   9.7990072814e+01   3.6830411522e+01    0.4624437    0.4465376 -63.67  0.001240839    1.041    0.039
       104  -9.6650     67.6059    124.0856   1.0839745732e+02   4.2047573499e+01    0.3329998    0.2087993   9.20  0.001475672    2.784    0.641
       105 -10.6186     33.3735    119.4945   1.1698481503e+02   4.6990605858e+01    0.3025739    0.2459747 -88.05  0.001490475    1.126    0.112
       106  -9.0940    221.4733    120.4888   7.1011511355e+01   1.1805605105e+01    0.1483082    0.1382641 -25.04 0.0008093662    1.055    0.052
       107  -9.3686    148.0734    119.9465   8.6291381857e+01   2.8495361206e+01    0.2511418    0.1945404  -2.37 0.0007475961    1.711    0.416
       108  -9.6865    185.1713    118.8416   7.7635624733e+01   2.0303727437e+01    0.2216088    0.1864049   3.28 0.0009762033    1.324    0.245
       109 -10.3320    113.2380    115.9739   9.4178350127e+01   3.6553653768e+01     0.327085    0.2175731  41.35 0.0002537062    1.574    0.365
       110 -10.7184    107.5348    112.2178   9.4801708505e+01   3.8480221919e+01    0.6379338    0.4609796 -83.32   0.00288731    1.868    0.465
       111 -10.9506    101.5178    109.4837   9.5791724010e+01   4.0200069053e+01    0.4664771    0.3537527  27.56  0.002313898    1.530    0.346
       112  -9.9930    103.0325    106.0116   9.4496467776e+01   4.0721687178e+01    0.3899662    0.2928495  49.28 0.0003560229    1.434    0.303
       113  -9.6475     67.7685    114.1810   1.0643732523e+02   4.4373644322e+01    0.3376285     0.224014  82.11  0.001606785    2.012    0.503
       114  -9.7086     67.0063    110.5162   1.0590497733e+02   4.5342012351e+01    0.2955205    0.2038586  40.30  0.001530607    1.614    0.380
       115  99.0000     50.9295     93.9645   1.0722787287e+02   5.1195278432e+01     2.210553    0.9004729 -51.58  0.009649303    2.027    0.507
       116 -10.6107     17.3382    100.8648   1.1876083788e+02   5.2635274798e+01    0.4427245    0.2824071  25.30  0.001716871    1.986    0.496
       117 -11.7781      9.5259     97.4388   1.2055783003e+02   5.3938377262e+01     1.106657    0.4908594 -87.55  0.005088335    2.619    0.618
       118 -11.8647      7.0135     88.7199   1.2005091477e+02   5.6066885807e+01    0.6991181    0.5488737   0.43  0.004910744    1.701    0.412
       119 -11.8405     36.1135     93.2763   1.1174928205e+02   5.2866882016e+01      1.33442    0.8205658  80.24   0.00269737    2.302    0.566
       120 -12.4523     18.3206     90.2482   1.1678109092e+02   5.5003380925e+01    0.5280309    0.2939961 -38.99 0.0004387021    1.920    0.479
       121 -11.9960     43.5481     85.1404   1.0763671218e+02   5.4017555009e+01    0.4951009    0.3775361   9.92  0.001904274    1.640    0.390
       122 -10.8939     37.3603     85.8401   1.0982553193e+02   5.4463078568e+01    0.2716687    0.2319173 -64.98 0.0007563209    1.084    0.077
       123 -11.9061     22.4773    114.0008   1.1917981939e+02   4.9209596723e+01     1.085693    0.3739337  15.53  0.004057206    5.454    0.817
       124 -12.7635     25.1831    107.6953   1.1751521347e+02   5.0457815945e+01     0.939715     0.620629 -20.69  0.005343733    2.182    0.542
       125 -12.2038     18.7143    106.1789   1.1913699974e+02   5.1309745204e+01    0.2710179    0.2125509 -55.23 0.0002720495    1.214    0.177
       126  -9.0533    126.5324    113.9618   9.0165763360e+01   3.4378256865e+01     0.237385    0.1478892 -45.62  0.001019418    1.561    0.359
       127  -9.7187     48.8095    112.3090   1.1150773539e+02   4.7125232981e+01    0.2371848    0.2026614  42.29  0.001298095    1.353    0.261
       128 -11.1242    170.6899    110.3035   7.8522843293e+01   2.5339753581e+01    0.5472955    0.4434293  31.73  0.002120317    1.307    0.235
       129 -10.5471     90.9042    103.4992   9.7331845330e+01   4.3407609860e+01    0.4122841    0.4071004  37.47  0.001923616    1.104    0.094
       130 -11.4328     79.9207    108.2887   1.0166839518e+02   4.4034784665e+01    0.6377683    0.4445452  39.45  0.002450495    1.576    0.366
       131  -9.8218     86.0497    104.1159   9.8898928409e+01   4.4056495153e+01    0.2984158    0.2225281 -45.00 0.0007003779    1.266    0.210
       132  -9.9036    120.4553    109.0895   9.0512057566e+01   3.6694001863e+01    0.3529488    0.2611692  -6.85  0.001548944    1.947    0.486
       133 -10.6868    157.5249    106.3979   8.0469967945e+01   2.9193582412e+01     0.461689     0.345478   0.14  0.001548346    1.806    0.446
       134  -9.0381    161.8308    104.8918   7.9058204845e+01   2.8496275222e+01    0.2112759    0.1860999 -74.61 0.0004020515    1.299    0.230
       135  -9.3572     58.3209    108.0513   1.0793621643e+02   4.7031068473e+01    0.1984172    0.1452936 -64.83 0.0003575723    1.194    0.163
       136 -10.5284    143.2803    106.0219   8.3804262686e+01   3.2512141857e+01    0.3684564    0.2887197  56.81  0.001254416    1.367    0.269
       137 -11.5410    145.4108    100.5829   8.1772964840e+01   3.3171204933e+01    0.6122652     0.399867 -30.64  0.001531262    1.660    0.398
       138 -12.5866     24.8391     94.9762   1.1556729382e+02   5.3434261457e+01    0.9000646    0.5239035  26.08  0.002545034    2.130    0.530
       139 -10.0396     57.5934    102.3003   1.0696730618e+02   4.8473100863e+01    0.3829996    0.1909449 -61.39  0.001695343    1.764    0.433
       140 -10.3568     58.2426     97.7928   1.0579317579e+02   4.9448716301e+01     0.340014    0.3222417 -18.12  0.002164145    1.200    0.167
       141  -9.5192     60.7725    100.9887   1.0572282164e+02   4.8389160039e+01     0.211587    0.1905884 -67.19 0.0005456574    1.060    0.057
       142 -10.0722     64.3383     99.2900   1.0425831231e+02   4.8330286046e+01    0.2467743    0.2153602 -29.23 0.0005970647    1.246    0.198
       143 -10.4975     68.7857     95.4677   1.0199529249e+02   4.8623036225e+01    0.3919077    0.3338525 -19.73  0.001388627    1.331    0.249
       144  -9.3893     82.0126    102.7848   9.9763218280e+01   4.4999079355e+01    0.2133846    0.1809774 -31.18 0.0005057925    1.257    0.204
       145  -9.3373    120.8289    101.2064   8.8306396281e+01   3.8360184008e+01     0.215967    0.1843217  -8.14 0.0008122671    1.355    0.262
       146 -12.7118     78.6578     96.0292   9.9102238652e+01   4.7070920114e+01    0.7103245    0.4813897 -36.95 0.0009622784    1.527    0.345
       147 -11.0445     89.8668     89.4608   9.3942475532e+01   4.6764248008e+01    0.7335109    0.3763297 -34.44  0.002888535    2.322    0.569
       148 -12.3164     90.7284     59.9833   8.4444271361e+01   5.2760011207e+01     1.020459    0.9499896  50.32  0.005931691    1.258    0.205
       149 -10.4610     94.0096     76.5923   8.8881339663e+01   4.8829594604e+01    0.4878307    0.3303682  28.76  0.001532344    1.680    0.405
       150 -10.6018     46.9689     74.5133   1.0388865414e+02   5.6050410183e+01    0.3601549    0.1886701 -56.93 0.0003006541    1.634    0.388
       151 -10.9316     67.2116     81.8696   9.9010388309e+01   5.1929641278e+01    0.8429201    0.6715294 -14.20  0.004710689    1.445    0.308
       152 -13.0705     52.5929     73.7117   1.0172018947e+02   5.5594690616e+01    0.5413704    0.2775283 -57.43  0.001087224    1.766    0.434
       153 -11.7007     85.7687     73.7555   9.0594623919e+01   5.0857014053e+01    0.6477196    0.6288568 -36.57  0.003859048    1.105    0.095
       154 -10.6612     79.3262     67.5382   9.0725537950e+01   5.3208334262e+01    0.6342066    0.4322632  43.65  0.003225629    1.671    0.402
       155 -10.9348     79.8527     83.9236   9.5501810031e+01   4.9619624235e+01    0.5164081    0.4925427 -70.15  0.003078065    1.141    0.123
       156 -11.5452     73.4362     78.0454   9.5893616988e+01   5.1886111698e+01     1.011458    0.8769704 -21.53  0.005886378    1.171    0.146
       157  -9.9594    210.8775     97.5396   6.7050337337e+01   1.8175648235e+01     0.446433    0.3125351  29.37  0.002018785    1.694    0.410
       158 -10.2566    117.4600     93.1927   8.6979345141e+01   4.0788229668e+01    0.4336229    0.3214826  24.32   0.00135152    1.599    0.375
       159 -10.3669    120.5409     89.5105   8.5058138825e+01   4.0937541265e+01    0.4008032    0.2838565  45.05  0.001234382    1.471    0.320
       160 -11.1460    120.6344     85.1593   8.3732173018e+01   4.1828455127e+01    0.5931406    0.4339015  85.03  0.002536989    2.136    0.532
       161 -10.0147    126.4867     93.4908   8.4610179578e+01   3.8839598349e+01    0.4114951     0.301954 -55.64  0.001514154    1.457    0.314
       162 -10.5340    122.4986     93.5504   8.5701471636e+01   3.9670559784e+01    0.3424821    0.3126595 -59.96  0.001051801    1.136    0.120
       163  -9.8940    159.3580     92.9607   7.6266409890e+01   3.1452999565e+01    0.6389744    0.3555709  76.29  0.001806629    4.457    0.776
       164 -10.4912    152.2494     91.7110   7.7570437180e+01   3.3388417391e+01    0.5281078    0.3782171 -59.44  0.002304731    1.657    0.396
       165  -9.4307    138.0273     93.2388   8.1524571618e+01   3.6360028656e+01    0.3931967    0.2495403  21.61  0.001505247    2.331    0.571
       166 -12.6799    101.8954     90.1544   9.0544250474e+01   4.4480001669e+01    0.4848063     0.384719 -30.68 0.0004811425    1.284    0.221
       167 -10.0285    104.9923     76.4879   8.5519654266e+01   4.6795957708e+01    0.4599618    0.4263887 -52.73  0.002536165    1.132    0.117
       168 -11.2052    113.4534     84.1862   8.5445828720e+01   4.3516398694e+01    0.7153008    0.3818086 -35.06  0.002325446    1.966    0.491
       169  -9.8721    141.4083     96.1347   8.1506641251e+01   3.4999662972e+01    0.4612533    0.1942711  37.28  0.001474175    3.000    0.667
       170  -8.9596    200.1508     88.1558   6.6460837565e+01   2.2378098246e+01    0.2153042    0.1830288 -66.01 0.0006837039    1.315    0.239
       171 -10.3828    183.7696     85.8186   6.8945909578e+01   2.6825577414e+01    0.6896091     0.325746 -45.75  0.002499267    2.228    0.551
       172 -11.1802    142.6749     84.0790   7.7626542386e+01   3.7142600211e+01    0.6040151    0.4112726  40.26  0.002670128    1.529    0.346
       173 -10.4090    165.6183     83.4900   7.2075968472e+01   3.1742349905e+01     0.441581    0.3551091 -67.23  0.001569789    1.478    0.323
       174 -10.3759    127.6005     83.2198   8.1250572042e+01   4.0727184826e+01    0.4031001    0.2843301 -40.80  0.001851349    1.373    0.271
       175 -10.2799    127.4955     77.1550   7.9387372168e+01   4.1960738551e+01    0.4071811    0.2920235 -58.64  0.001264411    1.665    0.400
       176  -9.9138    128.5195     64.9504   7.5131056871e+01   4.4040534754e+01    0.5121131    0.3139402 -36.72  0.002229846    1.593    0.372
       177 -10.0664    123.8011     72.8508   7.9002351524e+01   4.3615514399e+01    0.4471069    0.3194554  74.59  0.001602469    2.047    0.512
       178 -11.2340    123.9646     68.4849   7.7525610319e+01   4.4411899110e+01    0.4473807    0.3911303 -71.54  0.001345191    1.377    0.274
       179 -10.6804    120.3002     68.6844   7.8593339475e+01   4.5179115411e+01    0.3236789    0.2920604  78.31 0.0006170104    1.322    0.244
       180 -10.3197    232.8098     77.3365   5.8206790315e+01   1.6362736057e+01    0.5209504    0.2729709 -44.26  0.002222375    1.822    0.451
       181  -9.1903      8.8636     76.2044   1.1741004262e+02   5.8771609280e+01    0.1971665   0.09884638 -47.53 0.0003049025    1.677    0.404
       182 -11.8386     14.0135     74.7007   1.1538345683e+02   5.8799438028e+01    0.4922367    0.3293565 -55.72  0.002137419    1.149    0.130
       183  -9.9137     14.3959     67.3347   1.1375763595e+02   6.0403020179e+01    0.3031295    0.2607242 -21.93  0.002186761    1.322    0.243
       184  -9.3602    170.5022     77.9558   6.9370222801e+01   3.1541396844e+01    0.2378046    0.2156371  51.70 0.0004786758    1.118    0.105
       185  -8.4523     38.3107     78.6712   1.0790229111e+02   5.6000734603e+01    0.1242204   0.09457468  84.93 0.0005879044    1.666    0.400
       186 -11.7748      2.0101     71.5393   1.1891445481e+02   6.0162523699e+01    0.6135847     0.137285 -65.82  0.002504706    2.928    0.658
       187 -12.5377      6.1842     62.4004   1.1571409673e+02   6.1948080433e+01    0.7962518    0.4105089 -39.97  0.003185692    1.763    0.433
       188 -10.0263    242.1317     75.6125   5.6455409159e+01   1.4506190107e+01    0.2595915    0.1747465 -42.58 0.0005738167    1.356    0.262
       189 -12.0024    186.6001     70.5313   6.3958319082e+01   2.8764668155e+01    0.9494812    0.6662391 -37.83  0.003345198    1.388    0.279
       190  -9.8067    184.3479     61.5089   6.1694590287e+01   3.0807459827e+01     0.295952    0.2612615 -49.74 0.0006859881    1.140    0.123
       191  -9.0200    246.4678     90.4478   5.9536019462e+01   1.1273338275e+01    0.1426403    0.1278766 -32.51 0.0001059194    1.006    0.006
       192  -9.1274    151.0076     73.8139   7.2435051537e+01   3.7107769294e+01    0.2656377    0.1740668  26.31  0.001072914    1.962    0.490
       193 -11.7768     40.7861     70.5551   1.0503349960e+02   5.7565132852e+01    0.4937014    0.2714223 -51.01  0.002591452    1.459    0.315
       194 -11.3844     32.3680     72.0364   1.0839742358e+02   5.8023428008e+01    0.4865954     0.299963  26.03  0.002391544    1.962    0.490
       195  -9.7408    162.2059     70.7480   6.8947576925e+01   3.4893553569e+01     0.324519    0.2699894 -72.47  0.001391949    1.422    0.297
       196 -10.0086    172.3361     68.3332   6.6075192519e+01   3.2756483955e+01    0.4327295    0.3094037   9.97  0.001223253    1.892    0.471
       197  -9.9278    171.9982     65.4800   6.5267549139e+01   3.3321322680e+01     0.475775     0.384693  52.74   0.00232722    1.237    0.192
       198 -11.1564    108.9318     80.7824   8.5703869961e+01   4.5133733486e+01    0.4899854    0.3592755 -15.05  0.001398804    1.669    0.401
       199 -11.4514    220.0751     66.4019   5.7203010911e+01   2.1070346600e+01    0.7053764    0.4043798  57.64  0.002388522    1.807    0.446
       200  -9.3422    208.0934     68.4990   5.9634604755e+01   2.3686747719e+01    0.2270347    0.1488793  58.45  0.001025358    1.572    0.364
       201 -10.6908     58.3709     63.0029   9.6540785030e+01   5.7181621689e+01    0.6301716    0.4761064 -70.01  0.003460848    1.678    0.404
       202 -10.0842    142.8649    249.1660   1.1005386054e+02   5.2795605078e+00    0.1833823    0.1338833  55.56 0.0009184104    1.228    0.186
       203 -11.8780     21.4935     47.2858   1.0597065913e+02   6.4173986654e+01    0.6075342    0.4492325  -5.05  0.003200141    1.518    0.341
       204 -10.7276     33.7702     43.0196   9.9512928797e+01   6.3977339862e+01     0.512365    0.2323375 -43.61  0.001662375    1.744    0.427
       205 -11.3358     40.0491     56.4537   1.0133303557e+02   6.0652945244e+01      0.55196    0.4112735  74.48   0.00231302    2.240    0.554
       206 -11.5483     33.0108     58.8172   1.0472404745e+02   6.0831149025e+01    0.5562668    0.3182536  -2.21 0.0003210992    2.490    0.598
       207 -11.6849     27.1577     54.1976   1.0568933369e+02   6.2304401698e+01    0.8836464    0.4677806 -31.11  0.004590539    1.957    0.489
       208 -11.0090     20.3376     54.9032   1.0856662624e+02   6.2680236406e+01    0.3356165    0.2512804  -4.26  0.001142277    1.554    0.356
       209 -11.3108     50.9165     61.2336   9.8705799316e+01   5.8468496628e+01    0.3361294    0.3008094  46.80  0.001028477    1.407    0.289
       210 -11.5011     46.1585     58.0834   9.9507163529e+01   5.9666728377e+01    0.5684925    0.2561159 -44.33  0.002194345    1.836    0.455
       211 -10.3835     25.9221     65.3191   1.0909641641e+02   6.0031375129e+01    0.2295325    0.1650482 -44.52 0.0003161944    1.157    0.136
       212 -10.6547     21.2482     65.4438   1.1084446787e+02   6.0355530276e+01    0.2514045     0.191507 -87.54 0.0008550881    1.576    0.365
       213  -9.9028    192.6350     65.6965   6.1447526210e+01   2.8022089809e+01    0.2890882    0.2514251 -74.30 0.0007659795    1.247    0.198
       214 -10.8797     57.9871     77.8504   1.0099379677e+02   5.4030369774e+01    0.5944178    0.3304346 -63.25  0.002032037    1.906    0.475
       215 -10.2677    106.4929     63.7696   8.0885423580e+01   4.9012086241e+01    0.2914047    0.2686162 -11.26  0.001282796    1.025    0.025
       216  -9.6352    197.9200     62.7730   5.9691899376e+01   2.7142623190e+01    0.2896503     0.216783 -83.76  0.001064856    1.629    0.386
       217 -10.5834    159.4455     61.7524   6.6704042849e+01   3.7124181389e+01     0.550303    0.4041022  19.27   0.00246575    1.677    0.404
       218 -10.3074    162.2882     44.6587   6.0567070351e+01   3.9053965578e+01    0.5545672    0.4292273   5.46   0.00267226    1.527    0.345
       219 -11.4520    155.9836     41.9232   6.0906335618e+01   4.1061544761e+01    0.4764488    0.3906764 -35.02 0.0009705452    1.243    0.196
       220 -11.0983    153.1243     36.0975   5.9502324999e+01   4.2593061767e+01    0.2996419     0.286999 -39.33 0.0004244975    1.091    0.084
       221 -11.2471    157.5698     55.6077   6.5116708995e+01   3.8598437111e+01    0.5744542    0.5505875 -69.85  0.003097031    1.106    0.096
       222 -10.7333    155.2673     49.4703   6.3579304306e+01   4.0136966242e+01    0.4796799    0.3067523 -17.36  0.000735833    1.803    0.445
       223 -10.1450    146.0293     62.1271   6.9838413661e+01   4.0394088100e+01    0.4100994    0.2927907   5.07  0.001414886    1.847    0.459
       224  -9.6756    174.7664    246.6967   1.0412248567e+02   5.8023617849e-01    0.2444397    0.1216312  31.35  0.001284333    1.940    0.484
       225 -11.5390    120.9207     57.6622   7.4660838832e+01   4.7054113896e+01     1.285991    0.7566044  51.56  0.005589196    1.776    0.437
       226 -10.7825    109.3317     42.5933   7.2371506174e+01   5.2094065877e+01    0.4030937    0.2790854 -21.92  0.001449222    1.450    0.310
       227 -11.3188    113.4287     49.6404   7.3852582706e+01   5.0071324375e+01    0.6436223    0.3618918  34.81  0.002587629    1.959    0.490
       228  -9.4468    199.0252    244.5230   9.9557484517e+01  -2.9824666763e+00    0.1880452   0.09263842  40.27  0.001036096    1.608    0.378
       229 -12.5646    119.8354     38.3418   6.7899211175e+01   5.0399993524e+01    0.7158419    0.5637001  87.96  0.002193805    1.791    0.442
       230 -10.7357    136.5221     56.4972   7.0225432513e+01   4.3645589543e+01     1.028122     0.564999  27.29  0.003722268    2.679    0.627
       231 -10.5105    134.2836     50.2884   6.8618547775e+01   4.5194128751e+01    0.4766473    0.3591965 -74.69  0.002181274    1.881    0.468
       232 -10.3073    141.9821     40.7499   6.3460714827e+01   4.4756916668e+01    0.5479345    0.2531741  43.85  0.002095643    2.195    0.544
       233 -11.5300    146.1423     47.3071   6.4818509635e+01   4.2759172151e+01    0.8665327    0.4153681 -25.10  0.003271954    2.310    0.567
       234 -10.6562    146.1712     43.1521   6.3379299198e+01   4.3367871653e+01    0.3543405    0.3485652  83.61 0.0006849041    1.084    0.077
       235 -11.2378    127.8239    242.7477   1.1199453398e+02   8.5713997699e+00    0.3735298     0.235799 -86.40  0.002142959    2.343    0.573
       236  -9.7731    105.4981     56.9894   7.8810621605e+01   5.0468802037e+01    0.6346928    0.1733595 -45.98  0.001732078    4.611    0.783
       237 -10.0012    188.1493     55.5921   5.9249412182e+01   3.0748929205e+01    0.2712758    0.2404846   3.18 0.0004940538    1.250    0.200
       238 -10.0344     66.9988     54.4645   9.0595043935e+01   5.7718762858e+01    0.3457436    0.1822336 -48.72 0.0009953224    1.815    0.449
       239  -9.3499      1.9483     56.2824   1.1602762735e+02   6.3468831043e+01    0.1498286    0.1196978 -50.15 0.0003858106    1.109    0.098
       240  -9.8070    234.4263     45.1085   4.9696147684e+01   2.0696830736e+01    0.2898991    0.2115089 -74.02  0.000863148    1.475    0.322
       241 -10.5703    231.2756     39.1430   4.8533619837e+01   2.2244865704e+01    0.6416353    0.3112375 -65.23  0.001777613    2.926    0.658
       242  -9.4550    237.6557     54.6112   5.1728663877e+01   1.8619459581e+01    0.2940967    0.1992337 -56.79 0.0008567374    1.501    0.334
       243 -10.8623    244.7207     51.0074   4.9980463944e+01   1.7493918248e+01    0.6847211    0.3264652  88.81  0.002384061    3.857    0.741
       244 -10.9113    240.3088     50.2908   5.0315929375e+01   1.8607611718e+01     0.389139    0.3212822 -47.31  0.001081617    1.093    0.085
       245  -9.0867    163.5074    243.5078   1.0570670414e+02   2.8085726602e+00    0.1200065   0.09408996  42.80 4.473528e-05    1.039    0.038
       246  -9.8697     59.6248     24.2052   8.1331878820e+01   6.4080139401e+01    0.5631803    0.1810013 -32.25  0.002147906    3.064    0.674
       247 -11.4165     57.2640     31.0145   8.5235789716e+01   6.3350474433e+01     0.496973    0.3243003  -6.78  0.001783957    1.696    0.410
       248 -11.4748     48.1786     30.5410   8.8722955836e+01   6.4656761345e+01    0.6109274    0.2758642  25.74  0.002805977    2.646    0.622
       249 -11.7162     60.5743     35.9354   8.5987084090e+01   6.2048156423e+01     0.408865     0.228145 -33.91  0.001343943    1.583    0.368
       250 -12.1309     60.4292     44.8890   8.9548225606e+01   6.0476077926e+01    0.9562569    0.4733211 -46.83  0.004487183    1.915    0.478
       251 -10.0412     63.4694     40.4521   8.6691578393e+01   6.0840244569e+01    0.2378024    0.1965768 -22.96  0.000571357    1.029    0.029
       252 -10.1972    211.5170     53.2464   5.4870914503e+01   2.5147472653e+01    0.4511721    0.2331997  67.99  0.001844851    2.104    0.525
       253 -10.9069    202.0003     47.2943   5.4595791814e+01   2.8407176788e+01    0.6383387    0.3518209 -30.11  0.002738572    1.802    0.445
       254  -9.1836     55.0525     50.9925   9.3800079599e+01   6.0035247752e+01    0.1901745     0.148616 -16.56 0.0006590242    1.245    0.197
       255 -10.0028     52.1446     48.1774   9.3926188568e+01   6.0949778657e+01    0.2877585     0.205877 -46.33 0.0009859757    1.281    0.219
       256 -10.7771    174.1698     47.9443   5.9384030847e+01   3.5505544014e+01    0.5482158    0.4511135 -85.77   0.00228829    1.371    0.271
       257  -9.6469    176.7469     43.5856   5.7557722629e+01   3.5460088391e+01    0.3063186    0.2382806  77.03  0.001305179    1.367    0.268
       258 -10.2826    139.7543     43.5876   6.4963441738e+01   4.4895006300e+01    0.5200306     0.271549  43.54  0.001940346    1.922    0.480
       259 -10.2645     90.8914     47.4650   7.9830008138e+01   5.5013072747e+01    0.2874273    0.2176038 -33.01 0.0005417353    1.239    0.193
       260  -9.5574      2.2136     48.8277   1.1426666718e+02   6.5025205149e+01    0.2240648    0.1920815 -18.33  0.001713924    1.341    0.254
       261  -8.9522      2.6718     44.6882   1.1307635230e+02   6.5858763978e+01    0.2304559    0.1116842 -26.20 0.0009144708    2.250    0.556
       262  -8.8830      6.4543     42.9745   1.1104395352e+02   6.6016772223e+01     0.262062    0.1656665 -52.64  0.001711013    1.164    0.141
       263  -8.9463      4.3057     39.6513   1.1106167992e+02   6.6800848198e+01    0.1627129     0.103722 -74.03 0.0007549475    1.764    0.433
       264  -9.7362     13.8375     46.4201   1.0889033637e+02   6.4881291784e+01    0.3976524    0.1375232 -37.91   0.00179047    2.715    0.632
       265 -10.0058     17.5871     41.6457   1.0591363933e+02   6.5595037755e+01    0.3545678    0.1813096 -29.85  0.001933806    1.944    0.486
       266 -10.0413    208.4293     46.6825   5.3486495836e+01   2.6859819872e+01    0.4165232    0.2157601 -74.05  0.001386244    3.514    0.715
       267  -9.7972    194.6442     46.4833   5.5483433025e+01   3.0409325872e+01    0.5353677     0.271202  89.15  0.001693889    3.776    0.735
       268  -9.2157    132.0213     45.4966   6.7469614711e+01   4.6481788069e+01    0.2255419    0.1426254  50.20 0.0004974228    1.544    0.352
       269 -10.8901     97.5303     41.5095   7.5440679970e+01   5.4717564545e+01     0.616069    0.4204871  79.13  0.002561515    2.990    0.666
       270 -10.6440     92.5120     41.3211   7.6935085507e+01   5.5734151486e+01    0.4109342    0.3204733  32.25   0.00162301    1.280    0.219
       271 -10.6289    189.1352     40.9414   5.4700990731e+01   3.2603039093e+01    0.5962993    0.2240495 -25.65  0.001664582    2.933    0.659
       272  -9.7910     86.3880     30.7635   7.4609809832e+01   5.8536804748e+01    0.4976658    0.2268915 -20.61  0.001932197    2.743    0.635
       273 -10.5990     80.6860     39.8580   8.0256223050e+01   5.8155897306e+01    0.5428227    0.3725448  38.05  0.002887211    1.517    0.341
       274 -10.8425     77.4552     34.2185   7.9071981957e+01   5.9633948292e+01    0.4070565    0.2791438  41.70 0.0009174543    1.563    0.360
       275 -10.3419     81.7753     31.3240   7.6376113631e+01   5.9310865142e+01    0.4158503    0.2766927 -49.65  0.002078705    1.966    0.491
       276  -9.3993    193.4595     39.1236   5.3498418273e+01   3.1727191188e+01    0.2425088    0.1880108  52.48 0.0003316994    1.298    0.229
       277 -10.6767     22.9194     37.0838   1.0212080442e+02   6.6086871396e+01    0.3561544    0.2364602  42.64  0.001456789    2.174    0.540
       278 -11.4964    176.5592     35.1023   5.4930286826e+01   3.6655391213e+01    0.9776702     0.680774  74.37  0.003968889    1.503    0.335
       279  -9.4851     68.0276    240.5009   1.2221586319e+02   1.7530180954e+01    0.1643776   0.08793576  44.93 0.0008040435    1.569    0.363
       280 -10.1595    176.6696     29.7656   5.3237292428e+01   3.7302001731e+01    0.4556923    0.2480521  53.64  0.001482837    1.739    0.425
       281 -11.6010    182.9741     25.2819   5.0891902314e+01   3.6196461957e+01    0.6231228    0.3330467  49.34  0.002699057    1.869    0.465
       282  -9.7585    206.8458     36.9910   5.0988209503e+01   2.8573038667e+01    0.2416391    0.2084303  72.24 0.0007022254    1.146    0.127
       283  -9.4940    133.1151     36.8636   6.4081739713e+01   4.7477579828e+01    0.3913311    0.2568716 -86.41  0.001570436    2.639    0.621
       284 -10.8775    138.6260     32.8002   6.1361174920e+01   4.6676911638e+01    0.5296131    0.4114927  71.89  0.001798117    1.433    0.302
       285  -9.3527     94.6072     36.2408   7.4251452696e+01   5.6122933006e+01    0.2359203    0.1762193  59.90  0.001161568    1.700    0.412
       286  -8.8857    172.6321    238.6812   1.0342813999e+02   2.0012545809e+00    0.1234581   0.08276221  17.81 0.0003129633    1.786    0.440
       287 -10.8052    149.2775    237.9039   1.0755861911e+02   5.9064600203e+00    0.3687043    0.1747961  32.98  0.001802835    2.206    0.547
       288  -9.6077    167.5059    237.5056   1.0419552318e+02   3.0006518057e+00    0.1219422   0.09722128  40.04  0.000810598    1.015    0.014
       289 -10.8421     14.0595     23.6604   1.0134916549e+02   6.9270845371e+01    0.3994117    0.3404489  20.58  0.001860709    1.510    0.338
       290 -10.6702    197.9561    232.9787   9.8044074669e+01  -1.3623312650e+00    0.3036645    0.2562366 -62.01   0.00203135    1.797    0.443
       291  -9.8302     15.1016    233.7106   1.3043390357e+02   2.4816691512e+01    0.1824013     0.117794 -85.55   0.00105917    1.367    0.269
       292 -10.0487    205.0616    233.5643   9.6865137222e+01  -2.5850326266e+00    0.1871848   0.09716821  40.38  0.001018882    1.587    0.370
       293 -10.7410    240.4224     33.0278   4.5995192825e+01   2.0869685236e+01    0.4861708    0.4180101 -60.49   0.00292149    1.044    0.042
       294  -9.7440    148.3709     32.8033   5.9316169721e+01   4.4235403042e+01    0.4289809    0.1536111 -21.21  0.001352931    3.566    0.720
       295 -10.2770    247.3930    231.3687   8.9202967557e+01  -8.8437150125e+00    0.1880962    0.1312122 -14.78 0.0008160138    1.402    0.287
       296  -9.4895     23.5402    231.7678   1.2899997871e+02   2.4291283064e+01    0.1614279   0.09307648  55.42  0.001156527    1.339    0.253
       297 -12.0686    105.8212     32.9027   6.9580042461e+01   5.4293079447e+01    0.6569603    0.3647326  16.08  0.002334783    2.786    0.641
       298 -12.3805    113.6327     25.2919   6.4420350823e+01   5.3579982593e+01    0.8046728    0.3552255  47.38  0.002258866    2.088    0.521
       299 -10.4541    242.4066    231.0962   8.9993529067e+01  -8.0813746659e+00    0.2307935    0.1416445  47.61  0.001348734    2.022    0.505
       300  -9.7891    248.7880     33.5058   4.5272706578e+01   1.8885421155e+01    0.2649519    0.1724523 -35.33  0.001406891    1.402    0.287
       301  -9.2173    108.2267    230.0131   1.1415496238e+02   1.3648165800e+01    0.1384116    0.0958713 -66.78 0.0005736987    1.642    0.391
       302 -10.3628    144.8663     25.4140   5.7411150833e+01   4.6039001447e+01    0.5755911    0.3002369  68.30  0.002369006    2.096    0.523
       303  -8.7241    190.2873    229.6836   9.8930429006e+01   3.3278931176e-01    0.1117805   0.09115597  62.50 0.0003704172    1.589    0.371
       304 -10.0308    234.2058    223.0455   9.0042241663e+01  -5.9149846054e+00    0.1920551     0.133466  12.91  0.000782772    1.268    0.211
       305  -9.4401      9.9924    217.7158   1.3048385934e+02   2.8190936301e+01    0.1459566    0.1019344  70.31 0.0005109617    1.063    0.060
       306 -10.2348    165.3660    212.5757   1.0099474810e+02   7.1249956329e+00    0.2649176     0.177677  62.81   0.00102166    1.860    0.462
       307  -8.5790    122.7171    209.2931   1.0890832000e+02   1.5006111849e+01    0.1262915   0.08796062  68.95 0.0003489861    1.536    0.349
       308  -9.6229    152.9623    207.9535   1.0271469050e+02   1.0069459471e+01    0.2038337    0.1489756  68.69  0.000843819    1.653    0.395
       309  -9.5658     60.9993    206.9957   1.2070739034e+02   2.4569370276e+01    0.1821635    0.1370114  70.97 0.0004573858    1.059    0.055
       310  -9.3729    210.8260     30.3375   4.8627687891e+01   2.8413180346e+01    0.3500558    0.1446034 -34.06  0.001394471    2.241    0.554
       311 -10.5552    189.3131     28.2919   5.0889463218e+01   3.4185686031e+01    0.5035609    0.3053188  -7.07  0.002072307    2.222    0.550
       312  -9.1670     36.1549     31.4139   9.4209843677e+01   6.5907814072e+01    0.1522755    0.1122838  37.09 0.0007026613    1.755    0.430
       313 -10.1866    230.6793     27.5040   4.5620860049e+01   2.3865160716e+01    0.4450165    0.2002745 -36.10  0.001541869    1.990    0.498
       314  -9.5018    221.6265     29.4684   4.7116105300e+01   2.5827034960e+01    0.2461418    0.2009386 -41.41 0.0005587842    1.173    0.147
       315  -9.2007    216.5381     32.0715   4.8404433363e+01   2.6763264542e+01    0.2071558    0.1351071 -30.08 0.0004614168    1.529    0.346
       316 -10.3632     98.5249     27.8641   6.9631038908e+01   5.6533056346e+01    0.4717597    0.2563447 -42.82  0.001084056    2.146    0.534
       317  -8.9799    234.6216     29.2394   4.5649363725e+01   2.2709563475e+01    0.1717523    0.1276473 -20.79 0.0003697007    1.490    0.329
       318  -9.4248     41.2713     28.0095   9.0590288841e+01   6.5931266682e+01    0.3388984    0.1105087 -34.04  0.001183269    3.195    0.687
       319  -9.8947    250.5587     26.6179   4.3464800216e+01   1.9340563201e+01    0.2615078     0.116392 -31.56  0.000581397    2.059    0.514
       320 -10.6622    214.6023     23.3952   4.6293405103e+01   2.8304637993e+01    0.4613892    0.3637838   6.71  0.002468612    1.633    0.388
       321  -8.4984    206.2401     25.6341   4.7889362993e+01   3.0148316455e+01    0.1484156   0.09507522 -55.18 0.0003472293    1.605    0.377
       322  -9.9757    161.5770     23.3053   5.3622046028e+01   4.2002454374e+01    0.2420354    0.2195461  -7.94 0.0002798932    1.173    0.148
       323 -10.1200      4.3864    204.6760   1.3077419942e+02   3.1160394798e+01    0.2336421    0.1239292 -69.45   0.00133434    1.817    0.450
       324 -11.0846      6.8482    194.7962   1.2982340006e+02   3.2862650951e+01    0.7312687    0.1377831 -67.71  0.003119419    3.964    0.748
       325  -9.4416     86.1747     23.6428   7.1625902932e+01   5.9577131705e+01    0.1851898    0.1251369  42.28 0.0001217605    1.464    0.317
       326 -10.6270     83.1087     19.4270   7.0748840735e+01   6.0716274814e+01    0.6672232    0.2727515  49.66   0.00282747    2.513    0.602
       327 -12.1526      4.6321    184.4790   1.2963787725e+02   3.5122410623e+01    0.5721854    0.3724581  74.90  0.003056128    1.169    0.145
       328 -10.5586    242.6387     22.2570   4.3146750857e+01   2.1674320762e+01     0.320328    0.2082063  73.91  0.001119763    1.551    0.355
       329  -9.4310    223.0577     22.4870   4.5131140292e+01   2.6317655592e+01    0.2321516    0.1982416 -74.03 0.0004957442    1.089    0.082
       330  -8.8656    220.7620     19.3421   4.4552184668e+01   2.7246890404e+01    0.1946333    0.1313078  80.99  0.000174953    1.465    0.317
       331 -10.4288     16.4973    203.0608   1.2858523847e+02   3.0343102133e+01    0.3604626   0.09060672 -79.87  0.001524038    3.733    0.732
       332 -10.6623    245.6022    200.8822   8.4118351289e+01  -4.9916647063e+00     0.217951    0.1451476  23.79 0.0006756895    1.311    0.237
       333 -10.4276     47.2972     18.9590   8.3968887162e+01   6.6629097123e+01    0.3182565    0.2552474  -5.62  0.001324638    1.063    0.059
       334  -8.7975    207.4601    201.4603   9.1071367426e+01   1.3777631983e+00    0.1321578     0.110753  20.18 0.0008079145    1.017    0.017
       335 -10.3806     38.6175     21.7556   8.9043988878e+01   6.7279866176e+01    0.3010478    0.1489637 -32.97  0.001447305    1.716    0.417
       336  -8.6925      1.3146    200.2988   1.3108193153e+02   3.2272786739e+01    0.0916429   0.07044064 -66.52 0.0003947098    1.609    0.378
       337 -10.4038    234.1154    197.1530   8.5417897472e+01  -2.6197992444e+00    0.3876554    0.2557438  22.59  0.001762772    1.387    0.279
       338  -8.7764     83.6053    196.1814   1.1515026761e+02   2.3643406674e+01     0.157439    0.1099005 -59.74 0.0005714163    1.551    0.355
       339  -9.0159    141.4534    194.5243   1.0295918316e+02   1.4507392090e+01    0.1339314    0.1198193  49.43 4.930046e-05    1.015    0.015
       340  -9.9106    169.7711    191.5228   9.6644125673e+01   9.8547415710e+00    0.3397597    0.1987371  31.04 0.0009447552    1.792    0.442
       341  -9.9371    239.8917    184.6278   8.1974055250e+01  -1.8884027444e+00    0.2206748    0.1598601 -10.54 0.0006889841    1.299    0.230
       342  -9.8910     74.4805     19.5554   7.3708295862e+01   6.2291676265e+01    0.2483307    0.1731335  10.43 0.0007573038    1.431    0.301
       343  -9.2377    232.0943     14.8703   4.2307435262e+01   2.5005748901e+01    0.2365711     0.183644  86.25 0.0007486197    1.232    0.188
       344 -10.0223    212.9038    180.9568   8.6156081251e+01   3.4880250931e+00    0.3130064    0.1619649  20.97   0.00122098    2.841    0.648
       345  -9.5213    250.3170    179.1654   7.9082970396e+01  -2.9080773369e+00    0.2673027     0.107445 -25.34  0.001102519    2.668    0.625
       346  -9.5717     28.0530    176.2470   1.2450775416e+02   3.4675802471e+01    0.2352577    0.1415676 -76.33  0.001467049    1.390    0.281
       347  -9.9607     51.8891    173.5099   1.1925771408e+02   3.2651340264e+01    0.3639738    0.1603022 -84.24  0.001604117    2.616    0.618
       348  -8.5411      1.4823     20.5502   1.0640363487e+02   7.0625393933e+01      0.11612    0.0782421 -37.99 0.0002096558    1.082    0.075
       349 -10.3338    211.3750     18.7929   4.5412628050e+01   2.9645235166e+01    0.2400004    0.2189235 -88.67 0.0002514783    1.035    0.034
       350  -9.3438    230.2396    175.4092   8.1829459924e+01   1.1408191593e+00    0.1725828    0.1246445  46.88  0.000365601    1.531    0.347
       351  -8.8488    224.6586    175.6804   8.2900386610e+01   2.1210851306e+00    0.1448862   0.09616317   9.51 -2.031678e-05    1.718    0.418
       352  -9.1590     57.4385    174.9895   1.1822498417e+02   3.1650927287e+01    0.1843253    0.1487472  59.00 0.0004862098    1.190    0.160
       353  -9.3021    194.5137     18.5381   4.7326076620e+01   3.3971721820e+01    0.2381767    0.2009025 -48.07 0.0006720386    1.183    0.155
       354  -9.8775    191.5102     17.0092   4.7258826728e+01   3.4915367167e+01    0.2998653    0.2595239  27.63  0.001270189    1.316    0.240
       355  -9.4623    238.5208    204.5239   8.6018180158e+01  -4.3140468389e+00    0.2469369    0.1151282 -31.51  0.001220458    2.201    0.546
       356  -9.8161    247.4841    173.9877   7.8509045310e+01  -1.7096498078e+00     0.397513    0.1488949  30.00  0.001397938    3.730    0.732
       357  -9.6118    205.2558     17.3982   4.5718703832e+01   3.1347605847e+01    0.1960787     0.126238  85.89 0.0007121766    1.598    0.374
       358  -9.5471    220.3888     12.5903   4.2836017825e+01   2.8091902211e+01    0.2594829    0.1256391  80.17  0.001128129    2.143    0.533
       359  -9.4522     39.4925    173.5069   1.2189603966e+02   3.4069069805e+01    0.2012719    0.0992943 -73.23  0.000780383    1.744    0.426
       360  -8.8117     94.4741     12.4542   6.4178350819e+01   5.9260456331e+01    0.1354504    0.1161827  17.87   0.00021319    1.003    0.003
       361 -10.5252     35.6225    170.4547   1.2242356140e+02   3.5146773180e+01    0.4203502    0.2047665  87.43  0.002124703    2.095    0.523
       362 -10.0675      9.0211    156.2548   1.2685471321e+02   4.0707430251e+01    0.2791643    0.1447171 -68.35  0.001675427    1.597    0.374
       363 -11.8942      9.6925    167.1469   1.2753171748e+02   3.8304186977e+01    0.5414665    0.3229309 -79.07  0.002715113    1.318    0.241
       364 -10.9515     13.9928    158.7976   1.2599772884e+02   3.9744598498e+01    0.3913969    0.2098464 -78.85  0.001668505    1.465    0.317
       365  -8.8985    197.6651    167.8660   8.6443682007e+01   8.5690249953e+00    0.1946404    0.1290087 -46.25 0.0009339386    1.699    0.411
       366 -10.1462    188.6233    164.9630   8.7659613933e+01   1.0890973914e+01    0.4784699    0.2369439 -26.81  0.001806682    2.761    0.638
       367  -9.7663     40.6553    164.3149   1.2072779367e+02   3.5958746689e+01    0.2970136    0.1103133 -70.56  0.001357945    2.307    0.567
       368 -10.1368     18.7993    165.0737   1.2549487362e+02   3.7959444982e+01    0.2475807    0.2221615 -60.91  0.001873517    1.434    0.303
       369 -10.3462     28.2345    162.2117   1.2323301843e+02   3.7701814512e+01    0.4272807    0.1306855 -70.00  0.001888639    2.613    0.617
       370  -9.9046    204.9845    163.0092   8.3973856435e+01   7.9416653565e+00    0.2525409    0.1964576  23.67 0.0005767957    1.262    0.208
       371  -9.5786     79.2814    160.3992   1.1142945151e+02   3.1958054669e+01    0.2352723    0.1509104 -89.95  0.001177261    1.736    0.424
       372  -9.4862    215.4261    158.2514   8.0934526991e+01   6.6595167638e+00      0.26809    0.1339219 -30.31  0.001121846    2.079    0.519
       373  -9.3177    223.9743    156.7235   7.9004592034e+01   5.2234822776e+00    0.2003002    0.1746486  13.49 0.0006270874    1.060    0.056
       374 -10.5341    104.7179    154.3019   1.0438912195e+02   2.9331608686e+01    0.4563074    0.3147928 -69.42  0.002293683    1.499    0.333
       375 -12.2527     22.9162    149.3286   1.2317954966e+02   4.1067464163e+01     0.627849    0.3453571 -47.97  0.001423665    2.218    0.549
       376 -11.1875     10.9890    127.2274   1.2377270196e+02   4.7035859461e+01    0.5432116    0.2558131 -66.93  0.001147259    1.624    0.384
       377 -10.6136     15.3971    147.7600   1.2473688653e+02   4.2064267640e+01     0.328771    0.2344745  55.34  0.001476287    1.427    0.299
       378 -11.9049     12.8567    140.0236   1.2459929574e+02   4.4000970234e+01     0.995261    0.4484469  85.32  0.004903805    2.293    0.564
       379 -10.6908     31.3687    153.0087   1.2162611171e+02   3.9447724975e+01    0.4652254    0.2591522 -86.20  0.002582938    1.601    0.375
