#   1 NUMBER                 Running object number                                     
#   2 MAG_AUTO               Kron-like elliptical aperture magnitude                    [mag]
#   3 X_IMAGE                Object position along x                                    [pixel]
#   4 Y_IMAGE                Object position along y                                    [pixel]
#   5 X_WORLD                Barycenter position along world x axis                     [deg]
#   6 Y_WORLD                Barycenter position along world y axis                     [deg]
#   7 A_WORLD                Profile RMS along major axis (world units)                 [deg]
#   8 B_WORLD                Profile RMS along minor axis (world units)                 [deg]
#   9 THETA_WORLD            Position angle (CCW/world-x)                               [deg]
#  10 FWHM_WORLD             FWHM assuming a gaussian core                              [deg]
#  11 ELONGATION             A_IMAGE/B_IMAGE                                           
#  12 ELLIPTICITY            1 - B_IMAGE/A_IMAGE                                       
         1 -15.3684    226.3524     88.1418   8.5422839261e+00   1.9159830021e+01      7.94533     1.819572 -31.11  0.005956191    5.929    0.831
         2 -15.3724    214.8534    167.9424   2.6694657389e+01   8.5822997269e+00     3.698604     2.195648 -49.69   0.01982296    2.087    0.521
         3 -15.1544    249.0371     97.3538   7.9604145081e+00   1.4091369575e+01     1.948368    0.2976312 -36.26   0.00625373    4.546    0.780
         4 -16.0097    230.0116    113.0676   1.3485202708e+01   1.4797322652e+01     2.767023     1.602617 -57.23   0.01403666    2.256    0.557
         5 -16.0238    240.1194    104.8065   1.0500784366e+01   1.4417509434e+01     5.105526    0.8746932 -32.93   0.01251338    7.685    0.870
         6  -9.9401    221.7357      3.0461   3.4940144492e+02   3.0827091919e+01    0.3255338    0.1509928 -60.11  0.001784133    1.789    0.441
         7 -14.9779    224.2602    188.5491   2.8850423004e+01   4.3296644884e+00     2.627954     1.835245  29.27   0.01763449    1.544    0.352
         8 -14.5576    248.1302    185.9470   2.4812460682e+01   1.9095593058e+00     1.730092    0.5735568 -34.72   0.00402193    2.437    0.590
         9 -14.7710    235.1960    175.9055   2.4959632588e+01   4.7711571481e+00     1.315528    0.8264583  23.06  0.007099282    1.713    0.416
        10  -7.8776    193.9958    238.7080   4.1770064670e+01   9.6903867691e-01     0.150639    0.1132319   3.85 0.0004837491    1.012    0.012
        11 -15.3170    238.8576    160.8832   2.1711643794e+01   6.4318157473e+00     1.414559    0.4834451 -40.65  0.006493278    2.561    0.609
        12 -14.8629    229.0465    148.6530   2.0824867626e+01   9.5415663763e+00     2.550898    0.4460953 -35.32  0.007286069    5.793    0.827
        13 -14.5765    248.5278    157.8983   1.9820657472e+01   5.6279318804e+00    0.8030704    0.4628563 -38.61  0.003612314    1.498    0.333
        14 -14.7147    226.6143    137.9609   1.9074870779e+01   1.1517849901e+01     1.978751    0.6529525  47.39  0.008297318    3.797    0.737
        15 -15.6529    240.2459    135.9547   1.6782307490e+01   9.8446491515e+00     1.309148    0.5615774 -28.07  0.006209523    2.249    0.555
        16 -15.1832    247.7377    148.0624   1.8106342089e+01   7.0972964880e+00    0.7734239    0.5048776  44.70  0.005008955    2.009    0.502
        17 -15.5265    236.1512    121.8120   1.4496889894e+01   1.2527696821e+01     0.951727    0.6329204  28.60  0.005663775    1.957    0.489
        18 -15.3831    248.6072    114.1621   1.1415694805e+01   1.1784064269e+01    0.8798085    0.4383323 -30.93  0.004796556    1.651    0.394
        19 -14.7699    246.9924    140.0995   1.6696915267e+01   8.3195981498e+00    0.4561114    0.3888512  68.72  0.003231171    1.838    0.456
        20 -15.0863    247.8562    132.1826   1.5061621797e+01   9.3267772180e+00    0.7970617    0.3080449 -40.02  0.003330946    2.070    0.517
        21 -14.8640    248.6463    122.5566   1.3080110267e+01   1.0585300343e+01    0.6173119    0.4484923 -67.14  0.003828308    2.072    0.517
        22 -13.9407    220.6889    152.6906   2.2868885313e+01   1.0114623680e+01     1.114907    0.4142416 -42.46  0.004927433    2.463    0.594
        23  -8.9877    211.5357    219.5162   3.5957289922e+01   1.5642803683e+00    0.1960364     0.175656 -10.41 0.0007837024    1.404    0.288
        24  -8.7924    183.1175    219.7413   4.1027179959e+01   4.8401672465e+00    0.1774422    0.1331388  34.68 0.0006556165    1.476    0.323
        25  -9.6407    205.0043    217.8323   3.6813794646e+01   2.5284213941e+00    0.2012744    0.1442957 -23.58  0.001391621    1.249    0.199
        26  -8.3167    143.9884    216.2481   4.8285230849e+01   1.0362020204e+01    0.2190838    0.1450236 -30.29 0.0009027172    1.647    0.393
        27  -8.7231    169.5147    214.5559   4.2851919063e+01   7.3218189559e+00     0.302658    0.1997539 -55.10  0.001735918    2.093    0.522
        28  -8.4489    185.3483    213.8679   3.9727408724e+01   5.4358188124e+00    0.1899387    0.1368291 -36.17  0.001069961    1.438    0.305
        29  -8.1882    106.6645    210.8046   5.5835476402e+01   1.6324233229e+01    0.1927595    0.1580257 -25.91  0.001169769    1.393    0.282
        30  -8.4746    178.5606    209.6596   4.0357892902e+01   6.9299607036e+00    0.2671123    0.1613553 -13.09  0.001120739    1.897    0.473
        31 -11.1607    196.0302    212.8022   3.7615688783e+01   4.2884606859e+00    0.2937426    0.2802402  30.78 0.0003531809    1.549    0.354
        32  -9.2778    173.0001    207.9582   4.1167553615e+01   7.9168757176e+00    0.2279666    0.1720342 -45.25 0.0004085274    1.534    0.348
        33  -9.6762    197.4859    204.0724   3.5972646943e+01   5.3845351536e+00    0.4031862    0.2305069 -37.88  0.002353354    1.690    0.408
        34  -7.8451    156.5076    205.9939   4.4178587489e+01   1.0438315179e+01    0.1820166   0.09446052 -24.94 0.0008106329    2.598    0.615
        35  -8.8922    186.0998    201.3682   3.7616601471e+01   7.2464888017e+00    0.2856773    0.1580437 -38.87  0.001220853    1.762    0.433
        36  -9.3803    189.5879    197.4915   3.6331849515e+01   7.3946772052e+00    0.3710426     0.206154  45.14  0.001918427    2.363    0.577
        37  -8.8748    167.6547    201.0048   4.1131408861e+01   9.7651017108e+00    0.3149616    0.1780633 -38.58  0.001685878    1.769    0.435
        38  -8.9239    161.4923    200.1778   4.2248950625e+01   1.0750228417e+01    0.2781725    0.2232555 -20.81  0.001404912    1.200    0.167
        39  -7.9859    151.3103    199.3518   4.4244105360e+01   1.2313678917e+01    0.1348351   0.09178536  -9.76 0.0006310115    1.720    0.419
        40  -7.7919     87.3375    198.6974   5.9009294486e+01   2.1371783486e+01    0.1417455   0.09103855  56.40 0.0007037856    1.667    0.400
        41  -8.9955    177.2952    196.7273   3.8535433842e+01   9.1603460768e+00    0.2510014      0.15052 -33.80  0.001385792    1.616    0.381
        42  -8.1847    138.6875    197.6373   4.6719646961e+01   1.4416174275e+01     0.137435   0.09499104 -11.61 0.0004702687    1.754    0.430
        43  -7.7831    156.4952    195.4594   4.2531387669e+01   1.2273250253e+01    0.1294581    0.1127505   4.31 0.0001026557    1.016    0.016
        44  -9.4486    186.0793    191.0048   3.5896526835e+01   8.8940089955e+00     0.435183    0.2863211 -34.49   0.00255502    1.431    0.301
        45 -11.0094    179.0275    189.7563   3.7030196925e+01   1.0072897871e+01    0.2958156    0.2400672 -38.53  0.001871569    1.303    0.233
        46  -8.7316    147.8185    192.3609   4.3885530839e+01   1.4082383057e+01    0.2879839    0.1297058 -29.79  0.001076842    3.409    0.707
        47  -8.6738    132.3493    193.8123   4.7558787288e+01   1.6057859836e+01    0.3937123       0.1049  28.93  0.001161455    4.623    0.784
        48 -10.6579    172.4070    191.0719   3.8553177078e+01   1.0781062227e+01     0.353052    0.2418245  22.56  0.000425322    1.398    0.285
        49  -8.4822    161.7760    191.3862   4.0763298091e+01   1.2240124959e+01    0.2684503    0.1592041 -34.27  0.001393268    1.715    0.417
        50  -7.8355    110.5163    190.4909   5.2212935005e+01   1.9898892186e+01    0.1352087    0.1244857  24.23 0.0001024844    1.023    0.023
        51  -7.9905     79.4947    190.5101   6.0021321460e+01   2.4206430513e+01    0.1392203    0.1200223  51.73 -3.064026e-06    1.076    0.070
        52  -9.6379    169.7599    178.2063   3.6846399271e+01   1.3410263743e+01    0.4070027     0.224437 -51.78    0.0010423    2.124    0.529
        53  -8.7785    182.7159    181.3355   3.4851625221e+01   1.0960974495e+01     0.233512    0.1846375 -24.25 0.0006173219    1.148    0.129
        54  -9.7630    151.0824    179.6543   4.1041641208e+01   1.5983660438e+01    0.4911714    0.3309515  67.78   0.00166662    2.746    0.636
        55  -8.4307    146.0000    179.9286   4.2211953648e+01   1.6711887489e+01    0.2143326   0.07561114 -48.96 0.0007987684    2.917    0.657
        56  -8.1596    138.1721    178.9397   4.3814951804e+01   1.8115895469e+01    0.2292641    0.1447553 -24.71 0.0008704061    1.981    0.495
        57  -8.7245    182.9344    176.0888   3.3864973009e+01   1.1819388625e+01    0.2871093    0.2055529  -7.77 0.0009695098    1.471    0.320
        58  -9.1684    163.5883    174.5507   3.7456038968e+01   1.5015104518e+01    0.4409241    0.1966249 -38.33 0.0009197424    2.272    0.560
        59 -10.5493    100.9958    175.9907   5.2458564465e+01   2.4455806574e+01    0.1988181    0.1864672  42.00            0    1.014    0.014
        60  -8.3350    183.0322    169.0171   3.2536457744e+01   1.3023374756e+01    0.2002055    0.1649175 -13.40 0.0003193204    1.109    0.099
        61  -9.4042    179.4785    167.2782   3.2893970796e+01   1.3872737919e+01    0.4824398    0.3302432 -33.47  0.002669509    1.359    0.264
        62  -8.1129    143.3119    169.5042   4.0968135530e+01   1.9199402832e+01    0.2387882    0.1238624 -47.51    0.0010582    1.943    0.485
        63  -8.3527    153.1487    174.7583   3.9722957063e+01   1.6600450164e+01     0.271759    0.1667041 -20.67  0.001245088    2.114    0.527
        64  -7.6650    170.4710    167.4921   3.4726420008e+01   1.5239943668e+01    0.1345266    0.1195542 -10.64 9.741644e-05    1.016    0.015
        65  -7.1133    167.3200    238.2970   4.6599211663e+01   4.0264670605e+00     0.117107   0.07472111  -1.61  0.000701941    1.616    0.381
        66  -9.1797    172.4516    158.7276   3.2630154953e+01   1.6536377860e+01     0.225208     0.194212  -3.48 0.0002280222    1.123    0.109
        67  -7.9397    159.5002    158.5284   3.5285006124e+01   1.8714431550e+01    0.1389888    0.1267283 -11.19 3.586801e-06    1.027    0.026
        68 -10.0575    175.6153    153.5311   3.0959635029e+01   1.6975803099e+01    0.4830558    0.3512773 -66.23  0.001811676    1.998    0.500
        69  -8.0839    165.4293    154.4951   3.3224879457e+01   1.8498135744e+01    0.1385853    0.1248098 -17.17 0.0001258009    1.029    0.028
        70  -8.0048    184.4602    149.9611   2.8525325131e+01   1.6162351204e+01    0.2142687    0.1205999 -38.69  0.001037289    1.620    0.383
        71  -9.3606    153.1456    156.4475   3.6258830186e+01   2.0196357053e+01    0.2652885    0.1843217 -41.79  0.000804647    1.397    0.284
        72  -8.9738    162.6516    149.7553   3.2841281617e+01   1.9888499466e+01    0.2537273    0.2286102 -53.28 0.0007849662    1.210    0.173
        73  -8.8996    133.1079    147.0801   3.9038872083e+01   2.5652276874e+01    0.3021686    0.2053169 -40.19  0.001018488    1.488    0.328
        74 -14.8490    216.6640    111.9296   1.5056149312e+01   1.7182428045e+01     2.119686     1.416371 -43.09     0.012089    1.294    0.227
        75  -9.2063    156.5404    134.5490   3.0890184960e+01   2.4008326924e+01    0.3678061     0.174993 -53.11  0.001420144    2.391    0.582
        76  -8.7650    155.3117    140.9581   3.2566761663e+01   2.2937694275e+01     0.292134    0.1954291 -38.77 0.0003136651    1.440    0.306
        77  -8.6352    158.7200    138.7541   3.1345574167e+01   2.2761071997e+01    0.3304861    0.2463724  82.35  0.001542228    2.141    0.533
        78  -7.5133    219.6380    233.3321   3.6665497822e+01  -1.0572030926e+00   0.09036835   0.08296836  28.30 0.0007038807    1.808    0.447
        79  -8.1923    167.3689    136.8176   2.9102146892e+01   2.1568781517e+01    0.2116866    0.1227191 -33.22 0.0009477563    1.756    0.430
        80  -9.6660    192.0998    128.7905   2.2643924774e+01   1.8624558063e+01    0.4534592    0.1883264 -38.79  0.001304689    2.137    0.532
        81  -8.4972    182.8094    132.7529   2.5189617001e+01   1.9557379304e+01    0.2269474    0.1692289 -29.57  0.000404238    1.258    0.205
        82  -8.6577    186.3005    130.5627   2.4066230108e+01   1.9333747986e+01    0.3287962    0.1639094  44.82  0.001292051    2.229    0.551
        83  -8.4281    166.0718    132.0338   2.8307504967e+01   2.2735682957e+01    0.3457421    0.2099931 -13.77  0.001173554    2.773    0.639
        84  -9.5814    157.2023    126.6773   2.8955745868e+01   2.5472257765e+01    0.3578041    0.1632375  45.24  0.001127462    2.334    0.571
        85  -7.9446    167.3890    124.8302   2.6397261830e+01   2.3887441868e+01    0.2113076      0.12579 -31.03 0.0005571243    1.779    0.438
        86  -8.4768    250.2201    232.2244   3.1793801229e+01  -3.8795166063e+00    0.1248401   0.09944237  -4.45 0.0006697773    1.339    0.253
        87  -8.9267    163.5950    122.2747   2.6576869228e+01   2.5114056385e+01    0.2811306    0.1302419 -45.99  0.001121475    2.052    0.513
        88  -8.3045    152.4020    120.7824   2.8616325533e+01   2.7605626367e+01    0.2083534    0.1336852 -33.72 0.0005489974    1.615    0.381
        89  -8.8335    157.3076    118.4812   2.6995507652e+01   2.7099248048e+01    0.4025582    0.1196911 -47.94  0.001220049    3.505    0.715
        90  -8.3250    175.5346    121.1787   2.3949486197e+01   2.3033942888e+01    0.2927142    0.1867549 -57.25  0.001356951    1.842    0.457
        91  -7.5499    148.3205    117.2819   2.8682687904e+01   2.9140606022e+01     0.146522    0.1171909  -0.85 0.0003392234    1.587    0.370
        92  -9.5865    180.4966    114.4684   2.1453953226e+01   2.3327004770e+01     0.299632    0.2405547   8.14  0.001606879    1.537    0.349
        93  -8.6203    146.5324    113.0158   2.8033057013e+01   3.0387433447e+01    0.2356459    0.1415245 -42.75  0.001026693    1.583    0.368
        94  -8.1693    174.9940    110.8189   2.1597886261e+01   2.5069763162e+01    0.2184399    0.1871139 -70.25  0.001204307    1.319    0.242
        95  -9.0433    154.6643    107.3468   2.4803612981e+01   2.9861413735e+01    0.4357661    0.2159512 -31.78  0.001640415    2.402    0.584
        96  -8.9978    174.0218    102.0601   1.9626211991e+01   2.6879814239e+01    0.3152831    0.1887203 -23.82  0.001353274    2.094    0.522
        97  -8.0892    160.8462     99.0437   2.1384514719e+01   3.0183648579e+01    0.2573774     0.159514 -62.16  0.001088641    2.039    0.509
        98 -11.3757    180.3804     96.0175   1.6985005077e+01   2.6667532683e+01    0.3922253    0.2684195  60.78  0.001982445    1.684    0.406
        99  -7.4729    152.4865     97.4251   2.2682717408e+01   3.2282285304e+01    0.1479497    0.1394741 -52.80  7.16398e-05    1.011    0.011
       100  -8.1499    171.3641     96.1140   1.8609136876e+01   2.8515200620e+01    0.2132727    0.1189117 -48.75 0.0004349745    1.727    0.421
       101  -7.9817    177.4627     89.9590   1.5946865298e+01   2.8336814711e+01    0.2198782    0.1278604 -39.61  0.001012617    1.540    0.351
       102  -8.3647    181.9715     88.9701   1.4937888443e+01   2.7567042902e+01     0.241075    0.1963625  76.93  0.001059564    1.415    0.293
       103  -8.4038    142.6755     88.6726   2.2417115271e+01   3.6154524854e+01    0.2760361    0.1818663 -31.37 0.0008766906    1.652    0.395
       104  -8.3059    150.7172     87.0648   2.0226140728e+01   3.4670874644e+01    0.2114866    0.1872452 -44.37 0.0005288271    1.071    0.066
       105  -9.5233    236.4971    226.5011   3.2999962209e+01  -1.9267309500e+00     0.235623   0.08872211  28.15  0.001314801    2.566    0.610
       106 -10.0495    184.3684     79.9835   1.2251507399e+01   2.8580126264e+01    0.6431159    0.2554232 -39.57  0.002572245    2.170    0.539
       107  -8.4794    163.9807     80.2693   1.5747341776e+01   3.2959057885e+01    0.1937122    0.1856065 -76.57 0.0003670244    1.073    0.068
       108  -9.7249    197.4804     77.0789   9.6102997935e+00   2.6328238000e+01    0.5286763      0.18891  59.29  0.002072792    3.189    0.686
       109  -9.4459    201.3886     74.4178   8.4299682209e+00   2.5949636798e+01    0.2376738    0.1955166 -48.01 0.0005911642    1.035    0.033
       110 -11.2459    206.6177     72.2381   7.2338069752e+00   2.5233737816e+01    0.3833684    0.2686309 -39.73 0.0003738601    1.203    0.169
       111  -8.3047    175.0627     75.6968   1.2594053571e+01   3.1295707599e+01    0.1896314    0.1787167 -69.97 0.0004203404    1.077    0.071
       112 -10.4808    179.7682     72.1884   1.0912154065e+01   3.0844315645e+01    0.2602792    0.2473886 -34.08  0.000343512    1.142    0.124
       113  -9.9770    200.0459     66.8616   6.7258138385e+00   2.7368953722e+01     0.336089    0.2646343  51.72 0.0003830535    1.513    0.339
       114  -8.9060    194.9542     66.6424   7.3198113829e+00   2.8460781609e+01    0.4515011    0.2428495 -77.47  0.001789387    3.155    0.683
       115  -8.5927    175.5418     68.9815   1.0698529168e+01   3.2293895496e+01    0.2007082    0.1824431 -63.91 0.0004106706    1.047    0.045
       116  -8.5138    170.3324     70.0200   1.1814117040e+01   3.3288595404e+01    0.2101301     0.165912 -43.34 0.0004373078    1.151    0.131
       117  -8.7044    188.0625     60.8955   6.7321287316e+00   3.0798953608e+01     0.264271    0.1678474 -38.76 0.0006582373    1.384    0.278
       118  -8.1407    192.9603     59.3258   5.6923964345e+00   2.9975176679e+01    0.1853906    0.1628226 -72.24 0.0005871215    1.117    0.104
       119 -11.1237    208.9019     52.2509   2.0937404358e+00   2.7642080851e+01    0.5475842    0.3507493 -46.17  0.003079405    1.282    0.220
       120  -7.6099    182.5543     46.4553   3.5461191022e+00   3.4108493763e+01    0.1332145     0.121353 -53.67 0.0001058738    1.092    0.084
       121 -10.0893    219.5552     33.9489   3.5672669033e+02   2.7852858489e+01    0.2860785    0.2013848 -14.65  0.001662338    1.833    0.455
       122 -10.6441    215.7134     29.3536   3.5592994345e+02   2.9177240709e+01    0.4465124    0.1121882 -43.00  0.001805165    2.731    0.634
       123 -14.8801    219.8991    124.7875   1.7347640895e+01   1.4607999842e+01     1.266555    0.9022837 -19.00  0.007438176    1.413    0.292
