#   1 NUMBER                 Running object number                                     
#   2 MAG_AUTO               Kron-like elliptical aperture magnitude                    [mag]
#   3 X_IMAGE                Object position along x                                    [pixel]
#   4 Y_IMAGE                Object position along y                                    [pixel]
#   5 X_WORLD                Barycenter position along world x axis                     [deg]
#   6 Y_WORLD                Barycenter position along world y axis                     [deg]
#   7 A_WORLD                Profile RMS along major axis (world units)                 [deg]
#   8 B_WORLD                Profile RMS along minor axis (world units)                 [deg]
#   9 THETA_WORLD            Position angle (CCW/world-x)                               [deg]
#  10 FWHM_WORLD             FWHM assuming a gaussian core                              [deg]
#  11 ELONGATION             A_IMAGE/B_IMAGE                                           
#  12 ELLIPTICITY            1 - B_IMAGE/A_IMAGE                                       
         1 -12.3203    249.4445      2.9624   3.7408909268e+01   2.2626516342e+01    0.2779776    0.1143078 -46.99  0.001322236    2.034    0.508
         2 -14.0533    236.7075      7.7419   3.9453586159e+01   2.5002508286e+01    0.4490637    0.2068462  89.54  0.001990726    2.391    0.582
         3 -11.9488     64.9754     11.0012   7.2201598219e+01   6.5227237150e+01    0.2014752    0.1648466   2.29 0.0009479669    1.024    0.024
         4 -11.8923     85.7822      7.6019   6.3615798305e+01   6.1724942237e+01    0.1684088    0.1209435  59.66 0.0003440219    1.591    0.372
         5 -12.6191    181.0266    245.0161   1.0110690644e+02  -5.3965675899e-01    0.1966856    0.1669771 -33.22 0.0005545572    1.465    0.317
         6 -16.3949     40.6347    189.9553   1.2216150924e+02   3.0515793122e+01     6.485046     1.060048 -57.99   0.02041482    6.220    0.839
         7 -11.3743    130.0227    234.5240   1.0918739560e+02   9.2413929437e+00    0.3724478    0.1708897  54.48  0.001562839    2.177    0.541
         8 -13.6315    176.6459    233.3634   1.0027977465e+02   1.7801165579e+00     0.367336    0.2513942 -79.95  0.001856774    3.050    0.672
         9 -11.1379    117.3261    236.0909   1.1174369150e+02   1.0985140201e+01      0.24015    0.1315275  50.33  0.001350028    1.490    0.329
        10 -12.7754    174.3856    238.0082   1.0135303851e+02   1.4898807045e+00    0.3763694    0.1871653 -56.79  0.001805218    3.282    0.695
        11 -13.6985    159.3795    231.3027   1.0323023434e+02   4.9493134108e+00     0.429776    0.3286216  17.52  0.002037967    1.502    0.334
        12 -13.0095    148.1951    231.9899   1.0543930116e+02   6.6947381730e+00    0.3298297    0.2170575 -43.39  0.001513868    1.911    0.477
        13 -15.8506    110.4259    210.5647   1.1010221658e+02   1.6619573785e+01     2.304059    0.7675987 -61.24  0.009139609    3.545    0.718
        14 -11.8110    135.9792    231.2676   1.0766615645e+02   8.8126436797e+00    0.3287002    0.1817013 -57.44  0.001062256    2.221    0.550
        15 -12.3106    134.5411    224.2258   1.0705220963e+02   1.0221971211e+01    0.4451381     0.239661 -72.80  0.002043932    3.080    0.675
        16 -16.5110    176.1841    181.3163   9.1786158443e+01   1.0317069356e+01     1.656608    0.9637105 -21.76  0.006856875    2.674    0.626
        17 -15.5731    174.6812    224.2849   9.9320937635e+01   3.4456585066e+00    0.9293606    0.4343872  38.78   0.00454023    1.801    0.445
        18 -18.5615     75.5211    186.3051   1.1445982277e+02   2.6855220660e+01     7.417439     3.232457  31.67   0.03193004    2.839    0.648
        19 -13.5539    170.1203    228.3952   1.0078990668e+02   3.5958188529e+00    0.2973838    0.2620367 -87.29  0.001520777    1.499    0.333
        20 -10.8081      6.2220    225.7005   1.3068012048e+02   2.7044841055e+01    0.1027313   0.05246926  70.78 0.0006769198    1.459    0.315
        21 -12.4220    140.1868    223.5619   1.0586839918e+02   9.3963225248e+00    0.3367032     0.126638  43.31  0.001475933    2.188    0.543
        22 -13.2446    140.7330    217.6329   1.0496047521e+02   1.0313378833e+01    0.5101604    0.2902204 -54.15  0.001671455    2.076    0.518
        23 -11.0312    210.3169    222.3239   9.2361940615e+01  -2.2363587751e+00    0.1282167   0.08404776  11.70   0.00052997    1.668    0.401
        24 -11.1760     18.6766    221.5769   1.2840141346e+02   2.6579416772e+01    0.1312186   0.07612428  56.18 0.0006403299    1.347    0.258
        25 -11.1067    140.8121    229.0321   1.0646191706e+02   8.3866072945e+00    0.1646118     0.144475  52.74 0.0005924357    1.082    0.076
        26 -12.5645     13.5927    216.1490   1.2898858447e+02   2.8111664262e+01    0.2727158     0.201764 -75.09  0.002093419    1.470    0.320
        27 -11.0393      9.4260    217.4071   1.2976391796e+02   2.8277497017e+01    0.1031145   0.07623846  77.12 0.0004692828    1.096    0.087
        28 -11.5006     19.7282    211.5054   1.2766085836e+02   2.8391059780e+01    0.1870479    0.1222382  71.34 0.0006999498    1.139    0.122
        29 -11.4284     45.0250    249.1552   1.2555472005e+02   1.8726607897e+01    0.3627212   0.08948272  55.10  0.001632619    3.259    0.693
        30 -15.2247    166.5756    211.4206   9.8925281933e+01   6.8801586134e+00     1.053624    0.4472119 -44.65  0.004683938    2.745    0.636
        31 -12.0866     14.0718    202.7797   1.2817632512e+02   3.0660409206e+01    0.2666152    0.1659116  55.42  0.001669024    1.356    0.262
        32 -11.4011      3.2647    201.3219   1.3004189250e+02   3.1944834686e+01    0.1601606    0.1078135 -80.97  0.001132298    1.323    0.244
        33 -14.6543    190.4772    189.9831   9.0505233671e+01   6.0979362626e+00    0.4500126    0.3271848  22.35  0.002420042    1.404    0.288
        34 -10.6409      4.3424    190.9963   1.2930510952e+02   3.3913869440e+01    0.2566197    0.0884482  66.67  0.001232599    2.794    0.642
        35 -13.4461    170.0521    203.9928   9.7040392647e+01   7.4982988741e+00    0.3519511    0.2877859  22.21  0.001104074    1.232    0.188
        36 -12.1680      7.6734    187.5289   1.2848061049e+02   3.4331362922e+01    0.3044167    0.1288432  48.47  0.001771834    2.035    0.509
        37 -10.7785    138.0897    243.8289   1.0878243562e+02   6.4874875403e+00    0.2008802    0.1242075  36.15 0.0004309335    1.448    0.309
        38 -11.2473    140.4100    239.9913   1.0790095601e+02   6.7085936162e+00    0.1887248     0.115961 -48.93 0.0006677849    2.047    0.512
        39 -16.1444    160.2149    200.4558   9.8450202679e+01   9.8891383037e+00      1.57075    0.7948346 -35.19  0.006853282    2.676    0.626
        40 -13.0494     15.8978    169.5591   1.2562946011e+02   3.7402917488e+01    0.2403701    0.1685652 -63.61 0.0008291077    1.482    0.325
        41 -12.3802     19.8128    167.2707   1.2461805370e+02   3.7547888410e+01    0.2360796    0.1283932  50.76 0.0006739017    1.732    0.423
        42 -16.3594    178.6011    206.5971   9.5773350578e+01   5.5330185613e+00    0.9200104    0.8860862 -62.35  0.006062394    1.260    0.206
        43 -14.7117    169.3848    199.7838   9.6474051225e+01   8.3358231600e+00    0.6897907    0.3857653 -33.21  0.002238745    2.278    0.561
        44 -10.4633    126.0019    236.0109   1.1011495911e+02   9.6378946489e+00    0.1832313    0.1662049 -61.20  0.001285313    1.367    0.268
        45  -9.3319    124.6994    231.3006   1.0981288466e+02   1.0625431054e+01    0.3652615    0.1415696  47.62  0.001326584    2.141    0.533
        46 -12.5363      7.6157    155.4286   1.2633516738e+02   4.1191713452e+01    0.1872873    0.1455208 -76.77  0.000523651    1.185    0.156
        47 -10.6711      2.6124    157.7031   1.2758975988e+02   4.1076112112e+01    0.1085044    0.0734128 -52.11 0.0002339791    1.779    0.438
        48 -11.2348     31.4659    243.6557   1.2744884651e+02   2.1229328771e+01    0.1779057    0.1444924 -42.11  0.001318022    2.347    0.574
        49 -14.7565    111.9699    140.2629   9.8480350520e+01   3.1344528144e+01    0.8014318    0.4375806  63.62  0.003010381    2.689    0.628
        50 -11.4629    145.0141    239.6650   1.0700793701e+02   6.0195029322e+00    0.1736603    0.1223195  43.69 0.0002782914    1.130    0.115
        51 -10.8401    170.3224    242.2795   1.0268068940e+02   1.5481608080e+00    0.1179585   0.08196998  20.11 0.0001619974    1.586    0.370
        52 -13.7343    195.7137    236.7850   9.7276976650e+01  -1.7964637123e+00    0.2487862    0.2276845  -1.43  0.001043355    1.239    0.193
        53 -14.3674     98.0470    138.8840   1.0179446324e+02   3.4118194616e+01    0.5413649    0.3308863  79.68  0.001915843    2.567    0.610
        54 -13.0034    167.1358    138.7160   8.4824570719e+01   2.0438137133e+01    0.2651556    0.2126964 -55.22 0.0006043554    1.340    0.254
        55 -12.6759    111.6369    135.0900   9.7493002754e+01   3.2597785607e+01    0.2717295    0.2179033  35.00 0.0005287692    1.345    0.256
        56 -13.5625     98.0278    133.5085   1.0073421152e+02   3.5381589594e+01    0.3939485    0.1480426  36.28  0.001029804    2.948    0.661
        57 -15.9289    102.8344    129.2390   9.8567673235e+01   3.5547767380e+01     1.491488    0.4375957  47.38  0.004493853    3.886    0.743
        58 -15.4077     48.9237    123.5769   1.1234297687e+02   4.4704902504e+01    0.7455715    0.5199237 -28.71  0.002870937    1.969    0.492
        59 -12.9174    126.6796    125.3430   9.1422294421e+01   3.1914652236e+01    0.2494753     0.187771  84.81  0.001124116    1.735    0.424
        60 -16.1472    190.7395    223.1044   9.6106275260e+01   9.0447016179e-01     1.237386    0.5873093 -41.60  0.006160691    2.487    0.598
        61 -13.9305    101.1417    118.8149   9.6724675627e+01   3.8283726868e+01    0.4645249    0.2234891  34.40  0.001802492    2.399    0.583
        62 -14.6489     20.2663    124.9075   1.2034024120e+02   4.7129386502e+01    0.3884838    0.2951204 -84.54  0.002552723    1.090    0.082
        63 -13.2983    124.1631    117.1402   9.0098211276e+01   3.4272161672e+01    0.4673359    0.1617866  51.57  0.001376329    3.659    0.727
        64 -14.0243    151.2519    108.5268   8.1020982248e+01   3.0274532683e+01    0.6629709    0.2931321  48.60  0.002360726    2.287    0.563
        65 -11.0699    129.0000    238.0767   1.0979357865e+02   8.8283530850e+00    0.2118746    0.1704697 -80.59 0.0007501638    1.472    0.321
        66 -11.5052      1.4310    105.2522   1.2320211238e+02   5.2925741638e+01     0.221029   0.08241202 -69.07 0.0006295374    1.931    0.482
        67 -12.7378     97.5645    108.7268   9.5347942785e+01   4.1261731922e+01    0.2679949    0.1852262  27.39  0.001247627    1.727    0.421
        68 -12.1351    142.8058     95.8115   7.9600689995e+01   3.4852857966e+01     0.220213    0.1902109 -79.29 0.0007548044    1.334    0.250
        69  99.0000     25.2932    240.7646   1.2829659880e+02   2.2409116243e+01    0.3105301    0.1171134  53.02   0.00185269    1.916    0.478
        70 -13.9099     50.6734     82.2381   1.0353882239e+02   5.4200266009e+01    0.4894249    0.3031708   9.49  0.002423533    2.248    0.555
        71 -13.1941     38.2425     71.7545   1.0531722489e+02   5.7845594356e+01    0.3720804    0.1861006   4.22  0.001561522    3.496    0.714
        72 -13.6230     24.6683     66.4331   1.0903257038e+02   6.0185854179e+01    0.5430087    0.2503045   6.19  0.002469144    3.349    0.701
        73 -19.0104     69.5763    218.8396   1.1901335876e+02   2.1080345557e+01     6.260362     4.340415  63.28   0.04107791    1.165    0.141
        74 -12.2617    126.2733     40.1766   6.5800968483e+01   4.8763913675e+01    0.4503149    0.2121622  48.21  0.001820076    2.007    0.502
        75 -11.8279    239.1537     24.8538   4.3280534444e+01   2.2457438648e+01    0.1648937    0.1566483  44.15 0.0002555161    1.296    0.228
        76 -10.5933    166.2960    247.9421   1.0415275324e+02   1.4063623023e+00     0.158974   0.09523485 -75.48 0.0007033636    4.228    0.763
        77 -11.2403     34.2858     14.3288   8.6886406696e+01   6.9183182108e+01    0.1231425   0.07531735 -13.76 0.0004041988    1.612    0.380
        78 -10.4080    143.3388    247.2171   1.0822103009e+02   5.1489022955e+00    0.1127991   0.07738348  28.95 0.0002217418    1.524    0.344
        79 -10.5923    132.2611    247.6971   1.1028181332e+02   6.8118032560e+00    0.1126962   0.07669694  64.01 0.0003195754    1.517    0.341
