#   1 NUMBER                 Running object number                                     
#   2 MAG_AUTO               Kron-like elliptical aperture magnitude                    [mag]
#   3 X_IMAGE                Object position along x                                    [pixel]
#   4 Y_IMAGE                Object position along y                                    [pixel]
#   5 X_WORLD                Barycenter position along world x axis                     [deg]
#   6 Y_WORLD                Barycenter position along world y axis                     [deg]
#   7 A_WORLD                Profile RMS along major axis (world units)                 [deg]
#   8 B_WORLD                Profile RMS along minor axis (world units)                 [deg]
#   9 THETA_WORLD            Position angle (CCW/world-x)                               [deg]
#  10 FWHM_WORLD             FWHM assuming a gaussian core                              [deg]
#  11 ELONGATION             A_IMAGE/B_IMAGE                                           
#  12 ELLIPTICITY            1 - B_IMAGE/A_IMAGE                                       
         1 -11.2479     75.7931     20.3012   6.8336591747e+01   6.2062889400e+01    0.4467518    0.2853433 -15.73  0.002115375    1.566    0.361
         2 -11.4662     41.1869     20.2809   8.2011482777e+01   6.7589041989e+01    0.3647808     0.235278   5.86  0.001438912    1.611    0.379
         3 -11.0711     13.6969     16.2014   9.3708410356e+01   7.1163102945e+01    0.2508694    0.1733909  19.36 0.0008346591    1.586    0.370
         4 -11.5560    234.7912     15.0227   3.8403354696e+01   2.4891828690e+01    0.2444567    0.2055328 -63.48  0.000249112    1.038    0.036
         5 -10.1045     92.8183      9.9932   5.8549645278e+01   5.9796202734e+01    0.4063725    0.2228418  -9.32  0.001959905    2.070    0.517
         6 -10.6370     89.5867     13.7024   6.1072399518e+01   6.0097703975e+01    0.3354418    0.2182073 -40.53  0.001773574    1.840    0.457
         7  -9.9684     86.0121     12.2279   6.1464702908e+01   6.0990104250e+01    0.2694572    0.1652941  52.86 0.0006494017    1.598    0.374
         8 -10.4810     63.7009     11.3281   6.8422480822e+01   6.5324534701e+01    0.1985915    0.1651056 -25.31 0.0006977191    1.324    0.245
         9 -10.4202     37.1802      6.4061   7.6947940372e+01   7.0029805723e+01    0.3274992    0.1442076 -38.51  0.001425445    2.379    0.580
        10 -11.7390     34.7242     12.6331   8.1314250923e+01   6.9520460378e+01    0.3067845    0.2361331 -18.97 0.0008573821    1.114    0.102
        11 -11.5551     30.4291      7.3337   8.0687632390e+01   7.0776860783e+01     0.379931    0.2990171   6.84  0.002701383    1.155    0.134
        12 -10.2377    134.8886     11.6346   4.9807926963e+01   4.9889486113e+01    0.2129296    0.1811304  11.70 0.0003202664    1.269    0.212
        13  -9.9992     99.7910     11.5698   5.7382994606e+01   5.8131497866e+01    0.2289337    0.1571951  59.18  0.001181415    1.461    0.315
        14 -10.9107    126.4312     10.7629   5.1087655828e+01   5.2036155625e+01    0.3538727    0.1710554  44.55  0.001576804    1.930    0.482
        15 -10.3373     22.2928      9.5731   8.5992381935e+01   7.1386286592e+01    0.2735253    0.1577331   2.60  0.001597255    1.867    0.464
        16  -9.4451     15.3965      8.8127   8.9306248350e+01   7.2177877262e+01    0.1504658   0.08111318 -30.21  0.000284997    1.492    0.330
        17  -9.3511    193.3029      8.7019   4.0734096058e+01   3.5483907197e+01    0.1392108   0.08953456 -65.54            0    1.583    0.368
        18  -9.6015     88.6367      7.7388   5.8710213921e+01   6.0896855704e+01    0.1724173    0.1126641 -29.95 0.0005441238    1.650    0.394
        19 -10.4255     71.9739      7.2547   6.3561163193e+01   6.4263251095e+01    0.2992143    0.1611121  45.48  0.001279799    1.692    0.409
        20 -10.3459     70.3195      4.6589   6.2855973082e+01   6.4833911966e+01    0.2095565     0.175639  18.61 0.0006097393    1.038    0.037
        21 -10.3773      1.5745      5.6978   9.5682088220e+01   7.3766270607e+01    0.3329996    0.1465524 -52.47  0.001814085    2.397    0.583
        22  -9.6388    211.6440      6.0999   3.8271353125e+01   3.1267606252e+01    0.1704285    0.1240567 -10.09  0.000941933    1.817    0.450
        23 -10.1288    151.3139      5.8737   4.5151780603e+01   4.6323695430e+01    0.2440643    0.1059767 -32.41  0.000781264    2.374    0.579
        24 -11.7317     57.0338      3.1597   6.6825983282e+01   6.7363303630e+01    0.4117239    0.2778426  10.18   0.00250606    1.360    0.264
        25 -11.0961    101.1050      2.0574   5.3061160948e+01   5.8699302234e+01    0.3312795    0.1870081  51.67 0.0002953591    1.511    0.338
        26  -9.9399    107.7262      4.9520   5.2745983654e+01   5.6960894314e+01       0.1922    0.1517503  32.55   0.00113576    1.154    0.133
        27  -9.4384     41.6147      5.1771   7.4266072034e+01   6.9562511826e+01    0.1658196   0.09395323 -15.79 0.0009296917    1.671    0.402
        28  -9.6742      8.1499      5.1981   9.1577180348e+01   7.3351959696e+01    0.1325382    0.1110932  -9.59  0.001023523    1.267    0.211
        29  -9.9974    130.1301      3.1694   4.7625864765e+01   5.1806779575e+01    0.1748082    0.1528046 -72.50 0.0004383368    1.296    0.228
        30  -9.7460    104.4959      4.5220   5.3302408963e+01   5.7731672286e+01    0.2523083    0.1538045  63.12 0.0006483005    1.608    0.378
        31 -10.6289    243.9906      1.9968   3.4801388849e+01   2.4269684289e+01    0.2602321    0.1328216  52.93   0.00130725    2.463    0.594
        32  -9.6040    176.1779      2.2529   4.0819705245e+01   4.0381091371e+01    0.2271881    0.1098511  38.64 0.0009429813    2.720    0.632
        33 -11.8281     80.7140      1.6431   5.8185411788e+01   6.3082122928e+01    0.3084534    0.1515315  51.47 0.0005601388    1.808    0.447
        34 -10.8271     20.5118      1.8765   8.2881645432e+01   7.2647945262e+01     0.193909    0.1397672   7.49 0.0006418847    1.223    0.182
        35  -9.9218    153.9037      1.3419   4.3321525260e+01   4.6062912747e+01    0.1970389    0.1129395  70.12  0.000384113    1.551    0.355
        36  -9.1993     67.4087      1.4520   6.2248622731e+01   6.5683457003e+01    0.1253916   0.09958735  17.32 0.0002363234    1.039    0.037
        37  -9.7058     10.8363      1.4592   8.8072108679e+01   7.3668952489e+01    0.1748382    0.0959925  28.60   0.00110063    2.018    0.504
        38 -10.2546    212.6418    133.9278   7.0741288819e+01   1.1457325735e+01    0.2601272     0.217151  57.40 0.0006587798    1.364    0.267
        39 -10.8161      1.7467    225.7413   1.2940629589e+02   2.6907016341e+01    0.2504452    0.1254768  80.87  0.001080598    1.559    0.359
        40 -12.1888     16.1984    249.0184   1.2808937429e+02   2.1239962668e+01    0.5000771    0.1913162  32.15  0.002639873    3.316    0.698
        41 -12.8649      9.6967    227.7443   1.2815947936e+02   2.5770670503e+01    0.5800629    0.3110226  77.83  0.001732251    1.458    0.314
        42 -11.0854      3.3358    249.6837   1.3013375297e+02   2.2417620577e+01    0.3853629    0.1686122  42.43  0.002554688    1.942    0.485
        43 -12.4006      9.1818    245.2684   1.2903995955e+02   2.2615477057e+01    0.5679569    0.2383422  28.75  0.003001163    3.654    0.726
        44 -12.0632      4.0183    232.5965   1.2932862618e+02   2.5412709418e+01    0.2700576    0.1607018  63.96  0.001974546    1.216    0.178
        45  -9.5607     96.1464    133.8521   9.7985864658e+01   3.5634161607e+01    0.1953411    0.1727757 -32.88 0.0004594542    1.262    0.207
        46  -9.9455     23.9779    133.9198   1.1780751493e+02   4.4861870338e+01    0.1838025    0.1488815 -83.16   0.00118798    1.031    0.030
        47 -10.5182      2.3808    133.0993   1.2332811298e+02   4.6689173462e+01    0.2542197     0.156718  50.29  0.001567507    1.742    0.426
        48 -11.1141     11.5734    129.5163   1.2058507738e+02   4.6893676273e+01    0.2775336    0.1799027  77.11  0.001334404    1.510    0.338
        49 -11.9066      8.5562    121.3242   1.2048064774e+02   4.9033515480e+01    0.3421465    0.2543231  35.32  0.001200481    1.624    0.384
        50 -11.8286     23.6705    121.0623   1.1622369500e+02   4.7963932454e+01    0.4188067    0.2486356  76.48  0.001049217    1.933    0.483
        51  -9.4182     17.8068    122.1171   1.1801509601e+02   4.8180683096e+01    0.1682496    0.1211633 -54.35 0.0004294055    1.321    0.243
        52 -10.9120     65.7934    111.0365   1.0189111007e+02   4.5828766460e+01    0.3276416    0.2444507 -87.50  0.001288702    1.559    0.358
        53 -11.1035     22.9432    110.2058   1.1486184815e+02   5.0618719527e+01    0.2165941    0.1497318 -68.12 0.0003988919    1.163    0.141
        54 -11.9781      3.6232    108.8897   1.2040918148e+02   5.2256471363e+01     0.372872    0.2485441 -19.93  0.001695007    2.034    0.508
        55  -9.8343     35.5366    109.0265   1.1082857768e+02   4.9801436062e+01     0.202438    0.1109093 -66.20 0.0003994269    1.535    0.348
        56 -10.7899     57.5750    107.6617   1.0370923309e+02   4.7712603933e+01    0.2791271    0.2214042 -26.94 0.0008721641    1.454    0.312
        57  -9.8027    235.6712    107.7065   6.0552957154e+01   1.1209069866e+01    0.1412511    0.1088517   7.79 0.0003365465    1.628    0.386
        58 -10.1180    186.9484    103.0560   6.7977189714e+01   2.2974107473e+01    0.2299338    0.2238511 -51.79 0.0005082372    1.028    0.027
        59  -9.6460    246.6241    101.6953   5.7504885765e+01   9.9473737939e+00    0.1404821    0.1052935  10.17 0.0005786865    1.769    0.435
        60 -11.0168     20.1761     99.5453   1.1402409998e+02   5.3360080990e+01    0.2193524    0.1213973 -62.02 0.0007690293    1.411    0.291
        61 -12.4862     10.6397     91.4332   1.1578193311e+02   5.5902570205e+01    0.6862982    0.2296357 -68.14  0.003012211    2.323    0.570
        62 -10.9572     24.0658     88.3011   1.1071335371e+02   5.5694783890e+01    0.3289482      0.20091 -55.03 0.0003206468    1.307    0.235
        63 -12.4748     20.8409     92.8146   1.1264652212e+02   5.4889840734e+01    0.3512005    0.2716128 -32.67 0.0004879895    1.396    0.284
        64 -10.8559     19.1049     86.5796   1.1208350814e+02   5.6463656318e+01    0.3388196    0.1581064 -63.88 0.0003908779    1.692    0.409
        65 -10.6557      3.2933     94.5394   1.1862630927e+02   5.5606851449e+01    0.3194753    0.1826381  64.94  0.001740755    2.224    0.550
        66 -11.5153    125.1658     93.2897   7.9691208561e+01   3.9322006801e+01    0.2626054    0.2453206 -43.93 0.0002355218    1.049    0.047
        67 -10.2852     29.4021     92.5535   1.0973960869e+02   5.4267147390e+01    0.2226134    0.1854967 -60.24 0.0006073433    1.019    0.019
        68  -9.2338    113.3358     92.2586   8.2683049934e+01   4.2040479737e+01    0.1516873    0.1203224   4.15 0.0001712191    1.575    0.365
        69 -10.7833     57.8924     91.8317   9.9981657413e+01   5.1421383141e+01    0.2457367     0.202388 -24.23 0.0006738526    1.306    0.234
        70  -9.7726     42.5177     88.9901   1.0452362165e+02   5.3856817887e+01     0.211787    0.1533727  83.20 0.0005471584    1.825    0.452
        71  -9.7983     64.9198     88.5448   9.6782955185e+01   5.1248411817e+01    0.2283929    0.1670524 -52.50 0.0008060164    1.223    0.182
        72 -11.6049     55.6447     85.7823   9.9218364718e+01   5.3097416147e+01    0.2735387    0.2428432  31.90  0.001215738    1.283    0.220
        73 -11.4857      3.2336     82.1607   1.1676082923e+02   5.8443067927e+01    0.3791346    0.2151152 -71.28  0.001704603    1.423    0.297
        74  -9.3544     76.7087     82.7222   9.1214467322e+01   5.0811554685e+01    0.1409771    0.1060021 -18.82 0.0002535262    1.524    0.344
        75 -10.0758    250.4528     81.0053   5.2163432606e+01   1.2430713732e+01    0.2129482    0.1193953 -35.64 0.0005693608    1.558    0.358
        76  -9.9882     78.9262     94.0483   9.3655316202e+01   4.7913282994e+01     0.243215    0.1792594  -5.19 0.0003638789    1.816    0.449
        77 -10.0299     64.6139     79.8460   9.4496331583e+01   5.3248016960e+01    0.2455935    0.2015705  27.48  0.001389682    1.346    0.257
        78  -9.7182    124.5239     78.8332   7.5478763992e+01   4.2423608870e+01    0.2810903    0.1498997 -36.46  0.000970673    1.893    0.472
        79 -10.5723     27.4418     77.5190   1.0723831791e+02   5.7893776070e+01    0.3635866    0.2108561 -14.34 0.0006314419    2.362    0.577
        80  -9.4659    176.7844     76.6037   6.2662172455e+01   3.0293747872e+01    0.2139216     0.149329  69.51 0.0006562185    1.609    0.379
        81  -9.2914    161.4724     76.4866   6.5778597988e+01   3.4111241549e+01    0.1553465    0.1498122 -68.81 0.0008093588    1.051    0.049
        82 -10.6831     55.1641     76.0890   9.6766492922e+01   5.5332751709e+01    0.3233631     0.229063   9.01  0.001345465    1.716    0.417
        83 -10.3337     42.0335     75.8020   1.0146385629e+02   5.6911589520e+01    0.2305152    0.1626239 -53.26            0    1.205    0.170
        84 -10.9912     14.8266     75.7201   1.1146363884e+02   5.9229735157e+01    0.2451955    0.1910444  85.11  0.001123776    1.517    0.341
        85 -10.7767     20.2035     73.6880   1.0904480725e+02   5.9316262321e+01    0.4034554    0.1955895 -43.70  0.000774656    1.783    0.439
        86  -9.1716     70.2914     75.3222   9.1191241333e+01   5.3410327333e+01    0.1444346     0.101557 -21.89 0.0002336638    1.609    0.379
        87 -11.1334     35.7007     73.9870   1.0333602381e+02   5.7950580645e+01    0.4293967    0.2991149  46.60  0.002433459    1.835    0.455
        88  -9.4193     38.6640     70.2764   1.0124580817e+02   5.8478433687e+01    0.1850937    0.1008271 -46.98 0.0002936796    1.515    0.340
        89  -9.7957     89.3348     80.3740   8.6384193190e+01   4.9200370261e+01    0.2855785    0.1759287 -66.36   0.00100332    2.405    0.584
        90  -9.7083    216.9446     72.2721   5.4607165757e+01   2.1229068014e+01      0.19018     0.184436 -76.20 0.0004263978    1.068    0.063
        91  -9.8288    106.4731     71.8413   7.8353865952e+01   4.7664295356e+01    0.3651992    0.2468997  55.92  0.001667176    1.725    0.420
        92  -9.7516     91.6764     71.6113   8.2855567939e+01   5.0596177205e+01    0.2494814    0.1809048 -61.92 0.0008117943    1.718    0.418
        93  -9.5493     76.0000     72.0062   8.8190644991e+01   5.3224870452e+01     0.236759   0.07511032 -47.42 0.0005071217    2.904    0.656
        94  -9.7980     99.9968     70.6630   7.9926384289e+01   4.9197272380e+01    0.1899276    0.1801393  19.89  0.000499144    1.076    0.070
        95 -11.1608     10.8093     68.5898   1.1147326214e+02   6.1067310754e+01    0.3353228     0.213571 -68.53  0.001381675    1.385    0.278
        96 -11.7089      6.6624     63.6796   1.1202164526e+02   6.2376677760e+01    0.3327495    0.2658529  -4.13  0.002330435    1.478    0.323
        97 -11.1824      5.5155     69.0681   1.1357799539e+02   6.1257151111e+01    0.2899304    0.1806853 -86.01  0.001364855    1.843    0.458
        98 -10.6402      1.4824     66.7279   1.1464471249e+02   6.1971603315e+01    0.2075011    0.1353875 -67.43 0.0005145671    1.255    0.203
        99 -10.6574     47.2703     68.9232   9.7612838401e+01   5.7843717175e+01     0.449823    0.2210458  15.99  0.001930984    2.890    0.654
       100 -10.2583     78.7920     67.5604   8.5791689803e+01   5.3681255597e+01    0.3534785    0.2590574  49.40  0.001816748    1.615    0.381
       101 -10.9713     15.4836     64.8774   1.0883198907e+02   6.1587959978e+01     0.468522     0.286048 -69.45  0.002378611    1.575    0.365
       102 -13.6818     20.1967     58.0450   1.0521573515e+02   6.2725239843e+01    0.3697536    0.2826977 -61.51  0.001196257    1.251    0.201
       103 -10.3820     62.8660     62.4517   8.9757745397e+01   5.7185096831e+01    0.3348284    0.1609177 -41.69  0.001487599    1.869    0.465
       104  -9.7428     34.7863     64.4560   1.0112921675e+02   6.0119813016e+01    0.2322395    0.1466542 -64.89  0.001240761    1.665    0.400
       105  -9.8481     96.8586     64.1203   7.8693937376e+01   5.1078170875e+01    0.1970188    0.1928372 -29.94 0.0002757853    1.115    0.103
       106 -10.4440     39.7868     60.9121   9.8120799185e+01   6.0367714001e+01    0.3443336    0.2274781 -29.39  0.001920409    1.467    0.318
       107 -10.1256    100.7730     60.6140   7.6262592507e+01   5.0952658322e+01    0.2922264    0.1897594 -61.29  0.001239057    2.274    0.560
       108 -10.4498     49.1745     59.5734   9.4008996641e+01   5.9581694137e+01    0.2673524    0.2178402  79.88 0.0009387691    1.895    0.472
       109 -11.0144     10.3249     59.9067   1.0971053264e+02   6.2985183159e+01    0.2383258    0.1798616  39.08 0.0006714017    1.726    0.421
       110 -11.0261      4.7587     57.4258   1.1139236026e+02   6.3822731162e+01    0.2182527    0.1296334 -49.86 0.0005818371    1.266    0.210
       111 -10.2102      9.0041     56.5278   1.0943710915e+02   6.3782809716e+01    0.2110159    0.1338826  41.51  0.001260999    2.134    0.531
       112 -10.1375    194.4399     58.9263   5.4490059825e+01   2.8789930097e+01    0.2348846    0.1939418  81.03 0.0004104782    1.248    0.199
       113 -10.8761     84.0412     56.9761   8.0348020645e+01   5.4821692425e+01    0.3586621    0.2716881 -56.70  0.001253037    1.613    0.380
       114 -11.3798     88.3446     52.6634   7.7341883723e+01   5.4808094801e+01    0.3648947    0.3112984   1.15  0.001321403    1.148    0.129
       115  -9.8006     71.6015     56.3208   8.4451948940e+01   5.7061936657e+01    0.2410712    0.1240923 -45.31 0.0008520406    1.855    0.461
       116 -10.5709     32.5683     56.0159   9.9542044065e+01   6.2105921421e+01    0.5058232    0.2566908 -28.57  0.002417156    2.219    0.549
       117 -11.4858    114.5429     53.8743   6.9860642833e+01   4.9206475091e+01    0.3273885     0.294818  29.81 0.0007022416    1.081    0.075
       118 -12.2692     65.4647     52.4235   8.5296617754e+01   5.8755852975e+01    0.5026505    0.2456931  38.83  0.001891852    2.208    0.547
       119 -10.4487      4.8710     50.7478   1.0974378621e+02   6.5223285301e+01    0.2879171    0.1858416  -2.58  0.001561269    1.810    0.447
       120 -11.1179      5.4038     39.9720   1.0657502194e+02   6.7385021955e+01    0.4329947    0.1394266 -39.05   0.00200249    2.575    0.612
       121 -11.2793      6.3414     34.6385   1.0449181690e+02   6.8373652436e+01    0.6146963    0.3092401  25.40  0.003585569    2.369    0.578
       122  -9.8596     19.9338     44.6866   1.0141249580e+02   6.5485050301e+01    0.2113833     0.149224 -28.72 0.0006480843    1.243    0.195
       123 -10.3791     16.3596     44.2054   1.0285949237e+02   6.5847715273e+01    0.3749946    0.2429634 -75.59  0.002049361    2.187    0.543
       124 -10.0567     13.5405     48.5123   1.0539093587e+02   6.5173226781e+01    0.2288757    0.1287331 -59.23 0.0006521426    1.537    0.349
       125 -11.7488      8.5883     45.2298   1.0664456072e+02   6.6149797177e+01    0.5965315     0.340938 -52.92  0.002369986    1.338    0.253
       126 -10.0169     38.7130     48.6081   9.4574866771e+01   6.2970864017e+01     0.199385    0.1533535 -24.28 0.0004539362    1.154    0.133
       127 -10.0705    154.6117     47.8978   5.8310967063e+01   4.0532635520e+01     0.228775     0.197147  40.92 0.0006634636    1.172    0.147
       128 -11.3054     56.7632     46.3421   8.6379363788e+01   6.1154013485e+01    0.3343536     0.304343 -48.80  0.000857438    1.322    0.244
       129 -10.3309     28.1618     43.2883   9.7289638722e+01   6.5060183179e+01    0.6144431    0.3578429 -36.10  0.002314334    1.440    0.306
       130 -10.0487     35.7400     41.0395   9.3145037525e+01   6.4733292986e+01    0.3349602      0.22825 -24.73  0.002000224    1.325    0.246
       131  -9.0373    135.7284     46.3667   6.1859385978e+01   4.5446200200e+01    0.1504743      0.11245 -62.67 0.0004382128    1.665    0.400
       132  -9.5032    105.8831     52.8390   7.1955023132e+01   5.1259979570e+01    0.1896904    0.1748469  77.68 0.0007393375    1.311    0.237
       133 -11.3708     77.2552     46.3120   7.8713279603e+01   5.7924700001e+01    0.4915967    0.3654315 -17.36   0.00153678    1.325    0.245
       134 -10.9664    140.5091     40.7039   5.8852333497e+01   4.5089024163e+01    0.2857916    0.2416843 -64.67 0.0007648987    1.348    0.258
       135 -10.7842     69.2954     42.0219   7.9903670162e+01   6.0002207433e+01    0.2289184    0.1882027  26.25 0.0001523845    1.230    0.187
       136  -9.0597     90.0000     40.9351   7.2323205712e+01   5.6438048030e+01    0.2234314   0.07588525 -35.01 0.0007945189    2.888    0.654
       137  -9.1917     82.6082     41.7548   7.5082330882e+01   5.7718857630e+01    0.1424573   0.09749547  14.62 0.0006938884    1.667    0.400
       138  -9.9404     42.9478     40.5580   8.9846011773e+01   6.4005845548e+01     0.169444    0.1192327  22.49  0.000678215    1.511    0.338
       139 -10.4447    128.0851     38.8714   6.1007923563e+01   4.8368121589e+01    0.2065414    0.2001501  36.52 0.0003565774    1.041    0.039
       140 -11.6974    121.4703     37.3401   6.2046824060e+01   5.0145879238e+01    0.3894088    0.3634884 -33.08  0.001136859    1.140    0.123
       141  -9.9775     21.8873     37.9658   9.8270927198e+01   6.6630645260e+01    0.1914792    0.1469022  49.91 0.0009394016    1.992    0.498
       142 -11.1195     26.8168     35.2782   9.5009286515e+01   6.6693196649e+01    0.4350804    0.2065799 -38.41  0.002281493    1.736    0.424
       143  -9.7936     16.9696     33.0000   9.8811207816e+01   6.7959175600e+01    0.1677635    0.1293609 -26.50 0.0006911471    1.076    0.071
       144 -10.2349     21.4207     30.8715   9.5874665593e+01   6.7982246239e+01    0.3627298     0.193749   8.59  0.001207539    2.213    0.548
       145  -9.0292    185.4435     35.4441   4.9201263819e+01   3.4392735487e+01    0.1440357    0.1298933 -77.59 -6.328051e-06    1.063    0.059
       146  -9.9337     90.8935     35.5222   6.9880825471e+01   5.7077492547e+01    0.2014637    0.1302589  45.17 0.0005276834    1.526    0.345
       147  -9.5296     38.5262     35.4941   8.9788484264e+01   6.5431297685e+01    0.3385797     0.148908  26.91  0.001442608    2.521    0.603
       148 -10.9238     38.4917     31.2550   8.8077842757e+01   6.6169864582e+01    0.3713883    0.3606115 -32.99  0.002639186    1.427    0.299
       149  -9.3019    134.0219     34.4417   5.8083977581e+01   4.7528934471e+01    0.1993736     0.104308  37.11 0.0006048906    2.172    0.540
       150  -9.8430     72.8297     32.7451   7.4807068648e+01   6.0882913236e+01     0.230763     0.131415   6.02 0.0009502892    2.769    0.639
       151  -9.1925    157.2617     32.3665   5.2794285987e+01   4.1978746642e+01    0.1461957    0.1071085  24.21 0.0006980681    1.645    0.392
       152  -9.2491    166.3790     31.1734   5.0862461448e+01   3.9800781699e+01    0.1904022    0.1258352 -43.18 0.0003249251    1.559    0.358
       153 -10.1168    128.8845     30.9112   5.7957827506e+01   4.9229661567e+01    0.2510114    0.2017621 -43.06 0.0009817849    1.359    0.264
       154 -10.0514     77.2177     30.8748   7.2467093859e+01   6.0372785089e+01    0.2058077    0.1676042  41.27  0.001209635    1.306    0.234
       155  -9.9505     44.2118     30.5782   8.5263533207e+01   6.5580058781e+01    0.2320101    0.1848736 -28.60  0.001068582    1.137    0.121
       156 -10.1183     47.0377     27.1828   8.2566455284e+01   6.5754040423e+01    0.2683102    0.2300686  52.63  0.001243205    1.753    0.429
       157 -10.0595     43.4810     25.9741   8.3581695892e+01   6.6417054371e+01    0.2745516    0.1839681 -42.13  0.001071778    1.544    0.352
       158 -10.4671     97.0060     35.0518   6.7819555699e+01   5.5896433452e+01    0.2076214    0.1832998  12.81  0.001209561    1.039    0.037
       159  -9.5683    119.6618     29.9678   5.9748959799e+01   5.1543111933e+01    0.1902772    0.1786723  -9.01  0.000501846    1.097    0.088
       160 -10.7642      7.5731     28.3998   1.0177400842e+02   6.9475466836e+01    0.3376262    0.2376166  53.41  0.002068504    2.523    0.604
       161 -10.5050     69.2197     27.1186   7.3692881437e+01   6.2333823080e+01    0.3641146    0.2302336 -45.83  0.001053157    1.973    0.493
       162 -10.9398    113.6718     26.0244   5.9708972536e+01   5.3420264029e+01    0.2933332    0.2273597 -41.25  0.001591875    1.443    0.307
       163 -10.3042    101.2120     26.4732   6.3157111797e+01   5.6149856740e+01    0.2868567    0.1854497  43.56  0.001461675    1.433    0.302
       164 -10.0504     77.1885     26.5552   7.0622617794e+01   6.0984735123e+01    0.2495264    0.1491739 -16.85  0.001237093    1.770    0.435
       165  -9.7030    146.9865     26.4477   5.2707763522e+01   4.5299089734e+01    0.2037455    0.1314152  61.86 -1.076644e-05    1.446    0.308
       166  -9.3721     18.4274     25.8253   9.5350527199e+01   6.9135472101e+01    0.1671545   0.08236246 -37.46 0.0009226386    1.615    0.381
       167  -9.9767     59.0345     23.9113   7.6136285811e+01   6.4478507353e+01     0.207551    0.1503674  -1.19  0.001218287    1.315    0.239
       168  -9.7681     58.5774     19.7320   7.4391140510e+01   6.5132012411e+01     0.268903    0.1574138 -45.01 0.0009266047    2.206    0.547
       169  -9.7859     80.7222     23.6208   6.8157729185e+01   6.0707482478e+01    0.1935177    0.1156135  31.36 0.0005217471    1.655    0.396
       170  -9.8015     83.9914     21.4980   6.6175554972e+01   6.0338614096e+01    0.2481371    0.1155155  45.05 0.0008516731    1.993    0.498
       171 -10.7460     35.0141     22.0661   8.5675509283e+01   6.8082050041e+01    0.1963584    0.1431546 -27.85 0.0003615873    1.155    0.134
       172 -10.7987      2.0636     21.9037   1.0225199330e+02   7.0993086020e+01    0.2394143    0.1354187 -52.68 0.0006055828    1.500    0.334
       173  -9.7059    229.6570    247.9991   8.9802616806e+01  -8.8598780311e+00    0.1532618    0.1222623   2.23 0.0007083069    1.150    0.131
       174 -10.5059     30.3792     21.0466   8.7416349534e+01   6.8771501813e+01    0.2401344    0.1824476   7.17   0.00113027    1.256    0.204
       175 -10.8209     14.4715     21.5426   9.5602882201e+01   7.0203574605e+01    0.3504786    0.2063151  23.09  0.002196815    1.890    0.471
       176  -9.7589    225.0057    247.1777   9.0481869282e+01  -8.1075094960e+00    0.2022482    0.1303043  -9.45  0.001274407    1.634    0.388
       177 -10.5148     20.3905     17.4526   9.0763116674e+01   7.0367302322e+01    0.2140588    0.1378026 -25.33 0.0006924558    1.255    0.203
       178  -9.8496    114.9276     17.4616   5.6082930914e+01   5.4100496214e+01     0.202847    0.1255888  57.78 0.0003110317    1.513    0.339
       179  -9.2922    170.6203    247.1784   1.0030573023e+02   1.1367033886e-01    0.1451067    0.1098967 -21.99 0.0007938212    1.637    0.389
       180 -12.2669     14.1445    238.8607   1.2794924962e+02   2.3264933972e+01     0.361389    0.1366639  58.14  0.001503446    2.005    0.501
       181  -9.0067    108.6308     16.1779   5.7067841136e+01   5.5684602667e+01    0.1635609    0.1226399   0.07 9.362386e-05    1.413    0.292
       182  -9.5162     61.0806    241.1631   1.2001408967e+02   1.7431217863e+01    0.1510617   0.06986272  40.23 0.0008272258    1.909    0.476
       183  -9.5796    202.3875    240.2408   9.3445315877e+01  -3.8920423645e+00    0.1378549    0.1145515 -38.97 0.0008654173    1.535    0.348
       184 -12.5777      5.0100    240.4668   1.2950220560e+02   2.3882831908e+01    0.5486458    0.2909955  52.02  0.003528405    1.456    0.313
       185 -10.2533     82.8978     16.0167   6.4101355204e+01   6.1204225309e+01    0.1979478    0.1746781  11.49 0.0004298733    1.055    0.052
       186  -9.7935    154.1863     15.1132   4.7720065129e+01   4.4719737341e+01    0.2043431    0.1717879  45.78 0.0003445834    1.173    0.147
       187 -10.0943     66.2399     13.8056   6.8686150913e+01   6.4589763524e+01    0.2200987    0.1581718  35.79 0.0003780525    1.306    0.235
       188  -9.2338     91.0000    237.1077   1.1415594797e+02   1.4072807563e+01    0.1660939    0.0660347 -64.20 0.0007864619    2.833    0.647
       189 -11.8525     25.9614    235.9464   1.2581908994e+02   2.2557075755e+01    0.2428217    0.1982263  53.45  0.001095573    1.349    0.259
       190  -9.0161    204.6337    235.2714   9.2263013310e+01  -3.5789313091e+00    0.1141543   0.08903036  53.12 0.0006999478    1.664    0.399
       191  -9.8961    249.4314    233.9598   8.4157184302e+01  -9.9847238017e+00    0.1705462    0.1234201  17.34  0.000418135    1.105    0.095
       192  -9.6183     71.7772     12.9528   6.6331899229e+01   6.3686609169e+01    0.2724815    0.1247552  28.87  0.001170703    2.544    0.607
       193  -9.7141    209.5017    229.5377   9.0451437542e+01  -3.5648862552e+00    0.1247929    0.1001287  18.75 8.967419e-06    1.011    0.011
       194  -9.4660    141.0000    228.0804   1.0338882344e+02   7.8739453295e+00     0.183653   0.07383345 -52.14 0.0008027932    2.945    0.660
       195 -10.7776      2.5768    220.3061   1.2902117604e+02   2.7866235617e+01    0.2780381    0.1162177  79.57  0.001554752    2.038    0.509
       196 -10.4600      9.0068    218.2290   1.2780578862e+02   2.7663834239e+01    0.2056775    0.1748457  18.85  0.001581092    1.893    0.472
       197 -10.1453    205.5428    212.6394   8.8335538977e+01  -5.1975096717e-01    0.2315026    0.1794881  19.83 0.0006992248    1.135    0.119
       198  -9.9396    223.1710    226.8284   8.7521972601e+01  -5.3151460085e+00     0.172493    0.1198084   9.76 0.0004145613    1.343    0.255
       199 -10.8387      4.4401    212.2141   1.2830725942e+02   2.9274092322e+01    0.2898983   0.08056333  59.20  0.001325075    3.135    0.681
       200  -9.3348    249.4696    211.4956   8.0230086635e+01  -7.2559308638e+00    0.1239786    0.0959743   3.60 0.0002952139    1.030    0.029
       201  -9.2505    209.6689    211.2878   8.7319979745e+01  -1.0042433759e+00    0.1166428    0.1013298  61.64 0.0007015007    1.621    0.383
       202 -10.1055     20.1835    209.8432   1.2531041777e+02   2.8227319499e+01    0.1808598    0.1121117  68.39 0.0006783295    1.274    0.215
       203 -10.3635      3.0261    205.5305   1.2822150183e+02   3.0737641770e+01    0.1514323   0.09547022  41.97  0.001045081    1.633    0.388
       204  -9.9208     10.1821    203.3994   1.2678770733e+02   3.0516334132e+01    0.1551465   0.07755268  50.98 0.0005172599    1.698    0.411
       205  -9.5393    193.6131    201.8172   8.8714226901e+01   3.2141638132e+00    0.1884162    0.1495546  24.74 0.0005781773    1.137    0.121
       206  -9.1513    123.4176    198.5047   1.0281214169e+02   1.6339425801e+01    0.1349881    0.1216443  59.45 0.0003114654    1.015    0.015
       207 -10.0074     23.5191    196.9659   1.2381038203e+02   3.0553733875e+01    0.1745943    0.1705169  16.74  0.001342991    1.543    0.352
       208 -10.8166     13.9308    192.6895   1.2540962424e+02   3.2396695706e+01     0.207989    0.1311365  75.78 0.0005052636    1.266    0.210
       209 -10.2080      6.1472    191.6001   1.2686238110e+02   3.3333672682e+01    0.1520488    0.1179435  70.12  0.001120044    1.136    0.120
       210  -9.4880     22.4523    179.7725   1.2272534857e+02   3.4383550413e+01    0.1550278   0.09309021 -69.22 0.0004883414    1.494    0.331
       211  -9.2544      2.3181    173.6512   1.2651034773e+02   3.7511825375e+01    0.1250935   0.06396915  69.13 0.0007048225    1.733    0.423
       212 -10.5048      5.3039    167.3232   1.2544602143e+02   3.8670422832e+01    0.2246537    0.1473211  75.50  0.001464117    1.268    0.211
       213  -9.4389    226.5081    163.9922   7.4924853569e+01   3.5031053540e+00     0.206577    0.1273075 -32.70 0.0007389048    1.531    0.347
       214  -9.2285     41.2580    157.6988   1.1626968091e+02   3.7503871000e+01    0.1287493    0.0840056  76.28 0.0002194865    1.509    0.337
       215  -9.0690    247.4464    155.4823   6.9475110640e+01   1.1096993888e+00    0.1358376    0.1153098 -14.03 0.0001544757    1.008    0.008
       216  -9.0882     43.7049    153.2766   1.1512784041e+02   3.8282036378e+01    0.1304139   0.08628048  72.03 0.0001853898    1.528    0.346
       217 -10.7719      3.0416    153.4970   1.2491292323e+02   4.1954858083e+01    0.2583437    0.1152636  25.71  0.001375307    2.776    0.640
