#   1 NUMBER                 Running object number                                     
#   2 MAG_AUTO               Kron-like elliptical aperture magnitude                    [mag]
#   3 X_IMAGE                Object position along x                                    [pixel]
#   4 Y_IMAGE                Object position along y                                    [pixel]
#   5 X_WORLD                Barycenter position along world x axis                     [deg]
#   6 Y_WORLD                Barycenter position along world y axis                     [deg]
#   7 A_WORLD                Profile RMS along major axis (world units)                 [deg]
#   8 B_WORLD                Profile RMS along minor axis (world units)                 [deg]
#   9 THETA_WORLD            Position angle (CCW/world-x)                               [deg]
#  10 FWHM_WORLD             FWHM assuming a gaussian core                              [deg]
#  11 ELONGATION             A_IMAGE/B_IMAGE                                           
#  12 ELLIPTICITY            1 - B_IMAGE/A_IMAGE                                       
         1 -14.5742    148.6079     62.6560   8.6665644234e+01   4.0049316817e+01     1.526642     1.293547  14.93  0.003419587    1.347    0.258
         2 -14.7910    159.7562     47.4414   7.9425631407e+01   3.9600943327e+01     1.229652     1.119085 -26.89  0.003820023    1.159    0.137
         3 -13.6269    198.3742      7.7433   6.1878781816e+01   3.4368511749e+01    0.8588516    0.4379464 -67.58   0.00372386    2.259    0.557
         4 -14.9655    172.3169     16.8108   6.7642643358e+01   4.0173489386e+01     1.431355      1.19004 -22.38    0.0049717    1.347    0.258
         5 -14.2601    189.2798     14.0735   6.4642943210e+01   3.6049671961e+01     1.307743    0.6996862 -76.48   0.00552428    2.302    0.566
         6 -11.5212     52.0106      8.4917   9.4282389776e+01   6.8095101788e+01     0.178704   0.08628321  22.75 0.0008106059    2.591    0.614
         7 -11.0631     14.1330    241.3096   1.4908468557e+02   2.4242713078e+01    0.2143236   0.08818746  82.42 0.0009735276    2.160    0.537
         8 -19.8055     87.8373    220.7753   1.3441957059e+02   1.8840638372e+01     7.915734     6.004454  65.11   0.04743209    1.086    0.079
         9 -10.6595     29.8382    200.3354   1.4401937948e+02   3.0337816083e+01    0.1409096    0.1153183  71.57 0.0003500418    1.148    0.129
        10 -12.7343    150.0426    180.2345   1.1568266642e+02   1.6092173233e+01    0.4222282    0.3258292 -22.30   0.00177415    1.690    0.408
        11 -11.1293    151.4257    196.2088   1.1811700643e+02   1.2809568489e+01    0.3271229    0.2846389  60.11  0.001602106    1.137    0.121
        12 -12.5891    152.8624    191.9692   1.1711205502e+02   1.3324978932e+01    0.5018892     0.406735 -78.65  0.001574031    1.520    0.342
        13 -12.1357    155.2282    187.4332   1.1583472141e+02   1.3725395184e+01    0.3066695     0.231233  60.10 0.0008157183    1.393    0.282
        14 -12.3020    152.0232    184.4655   1.1600249889e+02   1.4896630738e+01    0.2988203    0.2660708  61.80 0.0005427193    1.120    0.107
        15 -10.9288    145.6608    190.8266   1.1845185259e+02   1.4881328205e+01    0.2313299     0.170636  36.97 0.0004656971    1.287    0.223
        16 -13.3302    188.7405    176.5471   1.0683208297e+02   9.1934485810e+00      1.05906    0.5794841 -63.54  0.003677048    4.089    0.755
        17 -14.4959    177.4556    172.9149   1.0843608725e+02   1.2081095739e+01     1.408524    0.6300428 -38.95  0.005626467    2.483    0.597
        18 -13.0565    175.5073    186.4889   1.1142066317e+02   1.0018701380e+01    0.4821064    0.3814007 -77.60   0.00202166    1.773    0.436
        19 -13.0351    170.6834    179.8187   1.1118488059e+02   1.2155114883e+01     0.503958    0.4496796 -64.63  0.002902325    1.301    0.231
        20 -19.1700     73.5624     96.9706   1.1826847767e+02   4.8503019169e+01     18.61073    0.8449771 -54.68    0.0250636   19.398    0.948
        21 -10.8023     32.6945    250.5555   1.4652544503e+02   2.0648474832e+01    0.1003565   0.07110653  72.29 0.0002790438    1.091    0.083
        22 -13.1815    204.3754    174.8760   1.0340648459e+02   6.4297817058e+00    0.5467713    0.5071619  11.75  0.002146663    1.044    0.042
        23 -12.5330    196.6085    175.5354   1.0505852857e+02   7.8270409001e+00    0.5053161    0.4053788 -76.11   0.00256744    1.848    0.459
        24 -13.1084    193.2302    165.5053   1.0369635609e+02   1.0241490340e+01    0.4848289    0.3529125 -38.04  0.001000381    1.434    0.303
        25 -12.4122    230.5676    167.7109   9.7080443785e+01   2.6138243522e+00    0.4350829    0.2143317 -46.73  0.001859164    2.544    0.607
        26 -11.1681    168.0193    235.8351   1.2077529001e+02   3.3795174431e+00    0.1986232    0.1744785 -25.39 0.0004494276    1.395    0.283
        27 -13.6253    190.0018    161.0071   1.0340931538e+02   1.1706495235e+01     1.162181    0.4953243 -39.74  0.002705468    2.453    0.592
        28 -10.0056     20.8373    195.1527   1.4542212340e+02   3.2328494334e+01    0.1485173    0.1094522  76.27 0.0003987289    1.010    0.010
        29 -10.3783    151.6258    235.5650   1.2382116247e+02   6.1369804582e+00    0.2397978    0.1388366  42.49  0.001345773    1.380    0.275
        30 -11.0667    140.0334    240.9745   1.2667427798e+02   7.1973680694e+00    0.1987031    0.1769569 -47.41 0.0007481869    1.441    0.306
        31 -12.9644    135.1678    238.6896   1.2731230339e+02   8.3400242929e+00    0.3171537    0.2562864  55.99  0.001430188    1.106    0.096
        32 -12.9513    161.3510    152.7798   1.0778653989e+02   1.9279240928e+01     0.409517    0.3214911  40.57  0.001154924    1.231    0.187
        33 -10.6164     17.8128    154.1158   1.4294419977e+02   4.1448896036e+01    0.2091296    0.1295958 -60.25 0.0004579811    1.592    0.372
        34 -11.0335     18.6154    149.3780   1.4232532491e+02   4.2445855049e+01    0.3238817    0.1605275 -55.32  0.001667119    2.063    0.515
        35 -11.8766    115.1342    249.6119   1.3220371489e+02   9.7548057850e+00    0.1674388    0.1550145 -89.66 0.0004711458    1.316    0.240
        36 -12.7962    173.9157    148.4835   1.0408153809e+02   1.7457465756e+01    0.4784931    0.3615199 -55.74   0.00160845    1.486    0.327
        37 -10.3686     30.2989    224.3056   1.4548219976e+02   2.5602664042e+01   0.09130105   0.08081628 -69.24 0.0007005207    1.590    0.371
        38 -10.3840      8.0392    148.9726   1.4478809482e+02   4.3398771603e+01    0.1817715    0.1139834 -54.77  0.001127041    1.726    0.421
        39 -10.4872     22.9717    156.0165   1.4191270083e+02   4.0559733886e+01    0.1829601    0.1421938  82.28 0.0004253486    1.057    0.054
        40 -11.5903    170.6615    137.1011   1.0220484146e+02   2.0420207556e+01    0.2625777    0.2082253  59.31 0.0005799714    1.332    0.249
        41 -10.4169      3.7422    134.2761   1.4458780769e+02   4.7002323630e+01    0.1551637    0.1102675 -61.22 0.0006315521    1.363    0.266
        42 -13.0511    160.5561    128.0566   1.0232709213e+02   2.4513961438e+01     0.517628    0.4121029 -57.37  0.001722186    1.350    0.259
        43  -9.7360     33.1986    221.0819   1.4476631687e+02   2.5888122990e+01    0.2080726    0.1366361 -71.68   0.00143051    1.594    0.373
        44 -11.2156    167.3973    112.6623   9.6900078822e+01   2.6065239574e+01    0.3406782    0.2584226 -84.64  0.001233021    1.782    0.439
        45 -10.4936    217.6978    218.4594   1.0892380947e+02  -2.4520337215e+00    0.1963123    0.1091789 -33.91  0.001062627    1.991    0.498
        46 -10.8476    205.3452    110.2304   8.8547766740e+01   1.7590167196e+01    0.3111024    0.2095348  46.35   0.00101242    1.522    0.343
        47 -12.1685     26.8043    105.9964   1.3484213550e+02   5.1780761696e+01    0.3043191    0.2394627 -13.02  0.001120759    1.665    0.399
        48 -10.8802    139.5574    247.4481   1.2752342476e+02   6.2882446726e+00    0.3957016    0.1883866 -55.18  0.001699557    2.714    0.631
        49 -11.3266     24.5458    215.6759   1.4600207105e+02   2.7865429135e+01    0.1544987    0.1086265  54.18 0.0002975135    1.256    0.204
        50 -12.1262     39.9578     94.7298   1.2866199370e+02   5.3192503639e+01    0.4846005    0.3678699   4.49  0.002156071    1.687    0.407
        51 -13.0101     48.3689     92.6258   1.2544054604e+02   5.2786873351e+01    0.4881122    0.3509981   1.91  0.001715338    1.857    0.461
        52 -10.4093    124.5054     95.5032   1.0277794917e+02   3.9428869291e+01    0.1520166    0.1504563 -35.21 0.0001452307    1.016    0.016
        53 -11.6986      6.0243     88.9536   1.3881021902e+02   5.7134138799e+01    0.5153155    0.2284678 -12.10  0.002278242    4.130    0.758
        54 -10.8832    143.1288     81.6809   9.3894882995e+01   3.7963472407e+01    0.2635709    0.2130501 -50.25 0.0005144833    1.276    0.216
        55 -10.3053    102.6974     81.9290   1.0502543264e+02   4.6791784643e+01    0.2029617    0.1877006 -45.57 0.0003539084    1.059    0.055
        56 -13.1620     11.5611    205.8193   1.4780971322e+02   3.1092251130e+01    0.3740258    0.2790019  26.38  0.002345005    1.919    0.479
        57 -11.0947     24.7522    202.8560   1.4516974703e+02   3.0366280364e+01    0.1514224    0.1163397  85.23 0.0002910758    1.124    0.110
        58 -13.4101    163.9070     38.7176   7.5860075269e+01   3.9744996015e+01    0.5028907    0.4480915  64.75 0.0008761439    1.061    0.058
        59 -11.0944    118.6762     67.3282   9.5736110935e+01   4.6328987505e+01    0.3255441     0.254563 -78.58  0.001325234    1.740    0.425
        60 -11.0825     13.4596     59.8323   1.3073080399e+02   6.3099978280e+01    0.1753824     0.160471 -22.72 0.0004249099    1.225    0.183
        61 -11.5095    128.0240    245.7016   1.2944264827e+02   8.3756374503e+00    0.1614434    0.1473936  67.73 0.0006129647    1.211    0.174
        62 -11.2125    139.7563    200.8838   1.2129988126e+02   1.4067709698e+01    0.5164335    0.2833638  45.72  0.002515064    1.586    0.369
        63 -11.0824    134.6604    198.8266   1.2205902214e+02   1.5363531185e+01    0.3874162    0.2708405  17.51  0.001835946    2.050    0.512
