#   1 NUMBER                 Running object number                                     
#   2 MAG_AUTO               Kron-like elliptical aperture magnitude                    [mag]
#   3 X_IMAGE                Object position along x                                    [pixel]
#   4 Y_IMAGE                Object position along y                                    [pixel]
#   5 X_WORLD                Barycenter position along world x axis                     [deg]
#   6 Y_WORLD                Barycenter position along world y axis                     [deg]
#   7 A_WORLD                Profile RMS along major axis (world units)                 [deg]
#   8 B_WORLD                Profile RMS along minor axis (world units)                 [deg]
#   9 THETA_WORLD            Position angle (CCW/world-x)                               [deg]
#  10 FWHM_WORLD             FWHM assuming a gaussian core                              [deg]
#  11 ELONGATION             A_IMAGE/B_IMAGE                                           
#  12 ELLIPTICITY            1 - B_IMAGE/A_IMAGE                                       
         1 -14.0482    214.3183     19.6544   2.9992652427e+01   2.9876245132e+01     1.038451    0.7836939 -41.36  0.004135591    1.299    0.230
         2  -9.7299     60.4885     21.0199   5.8583653003e+01   6.4931565871e+01    0.1937047    0.1566392  32.00 0.0003819828    1.092    0.084
         3 -14.0799    248.6681    246.0938   7.1030265769e+01  -9.3645830005e+00     2.854856    0.6141219 -39.65   0.01108708    4.980    0.799
         4 -12.7568    242.0063    247.9426   7.2419799836e+01  -8.8971713740e+00    0.8118782    0.4960523 -39.63  0.005285302    2.010    0.503
         5 -10.5884    165.5811    248.4740   8.6661556624e+01   2.6980904799e-01    0.3765241    0.2233958   1.69  0.001389496    2.112    0.526
         6 -15.4296    121.8593    235.7733   9.4154611411e+01   8.5060579683e+00     5.937126     4.174119 -56.38   0.03440247    1.672    0.402
         7 -11.6521     40.7153    206.3963   1.0966742097e+02   2.5416765702e+01    0.2366208    0.1734536 -56.32 0.0009516738    1.517    0.341
         8  -9.8304     54.5324    206.0990   1.0631983787e+02   2.3874352713e+01    0.1327641   0.06353492  39.94 0.0005969025    1.845    0.458
         9  -9.7016     73.3010    204.7547   1.0158774531e+02   2.1775158657e+01    0.1362211   0.09165705  57.40 0.0003289782    1.490    0.329
        10 -12.1290     38.7866    199.5840   1.0953028840e+02   2.7206385833e+01    0.2561232    0.1706099  59.01 0.0008831352    1.393    0.282
        11  -8.9820     60.0401    197.6032   1.0405897627e+02   2.5161130466e+01    0.1628043    0.1343247  41.34 0.0002965785    1.161    0.138
        12 -10.0943     83.3748    194.8860   9.7810444509e+01   2.2643965749e+01     0.308974    0.2476236  47.23  0.001358423    1.175    0.149
        13 -10.0737    191.2094    191.7383   7.2098342024e+01   6.0691308980e+00    0.5284453    0.3042251 -65.76  0.001699865    5.555    0.820
        14 -10.4128      1.7522    189.6807   1.1772606706e+02   3.3020579316e+01    0.2374339    0.1039073  64.07  0.001118811    2.189    0.543
        15 -10.5956     60.1197    186.9411   1.0279226616e+02   2.7696778629e+01    0.5229948    0.2298418 -57.76  0.002141671    2.218    0.549
        16  -9.5299     72.4308    188.3709   9.9754140071e+01   2.5720495412e+01    0.1662232    0.1303748 -89.99 0.0003957201    1.338    0.252
        17 -11.2196     84.8025    185.8676   9.6166855630e+01   2.4559484899e+01    0.3727518    0.3305928  60.31  0.001595492    1.101    0.092
        18 -11.1818     78.9193    182.7320   9.7263380424e+01   2.6167565191e+01    0.4171087    0.3896714 -36.86  0.001803552    1.179    0.152
        19 -10.1531     75.4928    181.5126   9.8001941560e+01   2.6951423247e+01     0.272637    0.1869189  79.54  0.000689971    1.751    0.429
        20 -19.1646     22.5204    130.1019   1.0649540467e+02   4.6303936705e+01     19.05643     4.065243 -72.83   0.05197852    4.957    0.798
        21 -11.4961    180.5942    176.4414   7.1311744777e+01   1.0621252630e+01    0.6870012    0.3626087 -51.74  0.002657486    2.235    0.553
        22  -9.1858     88.5479    179.0088   9.4133360862e+01   2.5644795884e+01    0.2136866     0.195777 -20.77 0.0004454268    1.218    0.179
        23 -10.8842     91.2711    176.2648   9.2964093848e+01   2.5890211272e+01    0.3835615    0.2624147 -76.12  0.001205532    1.697    0.411
        24 -10.7941     84.3094    177.9650   9.5107693809e+01   2.6535513555e+01    0.2495387    0.2107407  42.97 0.0003075757    1.148    0.129
        25  -9.4834     90.4267    226.3016   1.0004615803e+02   1.4778882702e+01    0.1499637    0.1236398  86.63 0.0002999559    1.353    0.261
        26  -9.9015     72.6605    226.3904   1.0411318572e+02   1.7141156962e+01    0.1252621     0.106511  57.78 0.0001636076    1.063    0.060
        27  -9.4305    199.6511    173.5587   6.6908602058e+01   7.9838637635e+00    0.2205263    0.1524894 -53.15 0.0007823485    1.763    0.433
        28 -11.0223     43.9027    172.9494   1.0546934516e+02   3.3115494211e+01    0.3078669    0.2162325  41.88 0.0005088777    1.398    0.285
        29 -12.1636    230.9871    170.9895   6.0784530550e+01   3.5642660657e+00    0.5934112    0.2909416  48.44  0.002762144    2.840    0.648
        30 -12.5022    246.3121    165.6171   5.7301951326e+01   2.2288904845e+00    0.8407996    0.2640718 -35.01  0.003403489    2.755    0.637
        31  -9.8083    187.8778    169.8292   6.8480175939e+01   1.0638799404e+01    0.3176794    0.1874724 -44.16  0.001499822    1.658    0.397
        32  99.0000     56.4227    233.8410   1.0843034359e+02   1.7629144788e+01    0.2741822    0.1677444 -83.68  0.001530591    1.790    0.441
        33 -10.5495     68.8924    241.6191   1.0639588597e+02   1.4540369398e+01    0.1521343    0.1161403  46.50 0.0006632113    1.093    0.085
        34 -11.5052    133.9057    146.3869   7.5760378221e+01   2.5533679630e+01     1.303415    0.3475682 -54.50  0.003018701    5.842    0.829
        35 -12.6742     96.6651    146.9272   8.6077834716e+01   3.2245743200e+01    0.7409964    0.5581368 -44.39   0.00181131    1.339    0.253
        36 -11.0240    111.0908    149.4050   8.2504967201e+01   2.9099541853e+01    0.5351166    0.3338847  75.93  0.001872704    3.097    0.677
        37 -10.1593     56.5083    211.3989   1.0637200954e+02   2.2433133880e+01    0.2205915    0.1250937 -79.41  0.001089769    1.897    0.473
        38 -10.9900    118.5655    136.1557   7.7501192252e+01   3.0875097200e+01    0.6451003     0.421239 -83.37  0.002039122    2.750    0.636
        39 -10.5672     99.0821    127.6222   8.1110427680e+01   3.6592396762e+01    0.3025109    0.2361337 -88.86 0.0006079238    1.650    0.394
        40 -11.4792    107.9875    134.2616   8.0040001379e+01   3.3334303324e+01    0.6109916    0.3640282 -24.49  0.002219969    2.615    0.618
        41 -12.0526    105.7401    130.5631   7.9830259906e+01   3.4648539970e+01    0.8696452    0.5348213 -67.19  0.003453351    2.080    0.519
        42 -11.8792     96.4444    133.1791   8.3185182588e+01   3.5698916031e+01    0.3157735    0.2854307 -10.80 0.0003948376    1.199    0.166
        43 -11.3480     91.2773    152.1059   8.8671307920e+01   3.1854769598e+01    0.3429386    0.2991178  10.84 0.0003784096    1.268    0.211
        44 -10.5814    136.3415    128.2339   7.0882861244e+01   2.9157226307e+01    0.4211701      0.21531 -46.03  0.001630806    1.913    0.477
        45 -10.5889    115.0411    126.9304   7.6288135974e+01   3.3737884600e+01    0.3646575    0.2842376   8.45 0.0006625478    1.588    0.370
        46  -9.7789    111.3645    127.7573   7.7534651050e+01   3.4255657462e+01    0.2298111    0.1997131 -48.61 0.0004041702    1.131    0.116
        47  -9.9071    120.4853    122.6583   7.3709358359e+01   3.3652763778e+01    0.3188059    0.2542123  61.38  0.001501111    1.438    0.305
        48 -10.5080    103.0524    122.0821   7.8581752002e+01   3.7198575736e+01    0.3196757    0.2675041  13.73 0.0007236865    1.339    0.253
        49  -9.2084    110.2708    116.7270   7.5098083717e+01   3.7070414710e+01    0.2070679    0.1780192 -15.08 0.0004501886    1.289    0.224
        50  -9.2983    183.5688    116.2568   5.7391534046e+01   2.1778325371e+01    0.2060512    0.1338462 -29.65 0.0009319687    1.610    0.379
        51 -10.9496    135.0886    113.3551   6.7426546391e+01   3.2698727714e+01    0.8234881    0.1085355 -46.49     0.001538    8.232    0.879
        52 -10.3914     54.0000    230.0047   1.0864081704e+02   1.8711464692e+01    0.2660388    0.1224197 -79.38  0.001239895    2.523    0.604
        53 -11.9133    118.2435    109.3076   7.0859132089e+01   3.7147739011e+01    0.7010088    0.5155406 -81.68  0.002686766    1.972    0.493
        54 -10.0566    205.4248    110.3399   5.2119830351e+01   1.8446333680e+01    0.2472278    0.2228625 -55.75  0.000579692    1.105    0.095
        55 -11.0213    120.1719    103.9862   6.8867721691e+01   3.7918399314e+01    0.3980343    0.2172871 -34.64  0.001292036    2.064    0.516
        56 -10.3345     89.3790    104.5432   7.8318455767e+01   4.3924512324e+01    0.2872361    0.2548308  73.39  0.000751692    1.307    0.235
        57  -8.8952    154.6617     84.7236   5.5025810293e+01   3.4058946601e+01    0.1483294    0.1173348  18.99 0.0003716129    1.613    0.380
        58 -10.6080     67.5773     81.2201   7.9236993261e+01   5.3067038089e+01    0.4031925    0.2399551  47.59  0.001762463    1.960    0.490
        59 -10.2882     62.9974     79.5279   8.0469510759e+01   5.4178072607e+01    0.2888446    0.2353618  34.20 0.0008323527    1.278    0.217
        60 -12.9008    172.8986     62.4417   4.5475216817e+01   3.3552314037e+01    0.7737325    0.6330314  -0.09 0.0009782489    1.620    0.383
        61 -10.5376     75.3605    248.7203   1.0565001543e+02   1.2364383413e+01    0.2802811   0.08725847 -55.98  0.001179161    3.569    0.720
        62 -13.7802    189.3094     48.8820   3.9527195714e+01   3.1742750863e+01     1.135729    0.8965729  43.12  0.003625484    1.540    0.351
        63 -12.4590    195.3152     42.3867   3.7165144268e+01   3.1260987360e+01    0.5241113    0.4074242  50.31  0.001673699    1.505    0.336
        64 -10.5958     67.7704     55.6965   7.0448224813e+01   5.8227814109e+01    0.3428913    0.2367886  46.68 0.0009559185    1.568    0.362
        65  -9.5854     39.2601     47.9135   7.9800617131e+01   6.4158693701e+01    0.2092412    0.1688934  30.46 0.0002550895    1.329    0.247
        66 -12.3010     60.6681    228.0019   1.0697968876e+02   1.8321536749e+01    0.3695221    0.1868782 -51.19  0.001706142    2.385    0.581
        67 -11.3530     53.5764    243.2881   1.0979973228e+02   1.6071859364e+01    0.1927115    0.1668171  20.17  0.001042333    1.358    0.264
        68 -10.0601    189.8358     14.8836   3.0974893691e+01   3.5734514129e+01    0.1793545    0.1636794  74.93 0.0006829966    1.217    0.178
