#   1 NUMBER                 Running object number                                     
#   2 MAG_AUTO               Kron-like elliptical aperture magnitude                    [mag]
#   3 X_IMAGE                Object position along x                                    [pixel]
#   4 Y_IMAGE                Object position along y                                    [pixel]
#   5 X_WORLD                Barycenter position along world x axis                     [deg]
#   6 Y_WORLD                Barycenter position along world y axis                     [deg]
#   7 A_WORLD                Profile RMS along major axis (world units)                 [deg]
#   8 B_WORLD                Profile RMS along minor axis (world units)                 [deg]
#   9 THETA_WORLD            Position angle (CCW/world-x)                               [deg]
#  10 FWHM_WORLD             FWHM assuming a gaussian core                              [deg]
#  11 ELONGATION             A_IMAGE/B_IMAGE                                           
#  12 ELLIPTICITY            1 - B_IMAGE/A_IMAGE                                       
         1 -13.9113    186.5161     45.9270   5.2058141513e+01   3.2702012099e+01      1.26433     1.031397  22.20  0.000989793    1.510    0.338
         2 -14.0770    196.3656     38.0435   4.8395336061e+01   3.1295972532e+01     1.391973     1.146774 -28.04  0.003533218    1.300    0.231
         3 -14.7824    206.4554     27.3630   4.4242762929e+01   3.0147417630e+01     2.074055     1.460304  21.87  0.001967267    2.104    0.525
         4  -9.9568    155.1170     10.8094   4.6185005108e+01   4.4909314208e+01    0.2112282    0.1746828 -77.15  0.000638745    1.271    0.213
         5 -10.5731     63.0475      8.5318   6.7294152237e+01   6.5753312260e+01    0.1831846    0.1122619  43.64 0.0007146548    1.581    0.368
         6 -13.0883    230.4906      3.3700   3.6071146791e+01   2.7139501844e+01    0.8636709    0.3922165  75.39  0.004211084    2.058    0.514
         7 -12.5334     58.4636      2.8574   6.6131474318e+01   6.7149501160e+01    0.6152951    0.2050325  41.71  0.002701971    2.660    0.624
         8 -11.8834     30.1630      2.7517   7.8360393100e+01   7.1402817662e+01    0.3505416    0.2133179  48.78  0.001957798    2.744    0.636
         9 -11.0878     99.1102    180.9798   1.0562102705e+02   2.4136124605e+01    0.3728816     0.269402 -39.25   0.00192533    1.768    0.435
        10 -11.6273    139.5655    248.1532   1.0621901253e+02   4.8471503978e+00    0.4756931    0.2500907 -66.08  0.002414417    2.953    0.661
        11 -15.7373     85.8834    228.1813   1.1425165258e+02   1.6451143127e+01     2.505323     2.322055 -87.35   0.01111673    1.269    0.212
        12 -16.8583     51.7328    198.2417   1.1818756756e+02   2.7107366590e+01     10.38757      4.20987  50.86   0.04961179    2.218    0.549
        13 -10.9212    146.5716    182.8136   9.5116566998e+01   1.5350060837e+01    0.3102487    0.2464082  49.45 0.0008655895    1.202    0.168
        14 -15.9483     47.6487    222.9071   1.2108426284e+02   2.2552332344e+01     3.278909     1.274098  88.30   0.01370431    3.627    0.724
        15 -11.8197    141.5830    174.7837   9.4764894084e+01   1.7945348764e+01    0.6027094    0.4200384 -86.80  0.001951807    2.148    0.534
        16 -11.0900     46.5968    172.1013   1.1664744291e+02   3.3540255807e+01     0.511876    0.2495562 -75.42  0.002030487    1.881    0.468
        17 -13.9265     43.3460    111.9780   1.0896153769e+02   4.8307078153e+01      2.18643     1.178879  54.29   0.01013843    2.368    0.578
        18 -13.8250     72.5339    156.7727   1.0836214968e+02   3.3799366321e+01    0.5831729    0.5560353 -40.27   0.00158154    1.266    0.210
        19 -15.0223     68.5684    144.2929   1.0740116504e+02   3.7357180665e+01     5.113697     2.170844  61.11    0.0037618    4.501    0.778
        20 -10.3252     51.9488    164.1159   1.1445702297e+02   3.4760006051e+01    0.3593712    0.1931093 -46.67  0.001697028    2.306    0.566
        21 -10.3260    159.4560    162.8041   8.8342709851e+01   1.6937145538e+01    0.3249339     0.249665 -68.79  0.001072178    1.612    0.380
        22 -12.3473     90.6950    154.5869   1.0339284717e+02   3.1574467800e+01    0.6365752    0.4630497 -24.71  0.003036264    2.034    0.508
        23 -11.4637    133.7915    144.8272   9.0554658497e+01   2.6014838540e+01     1.238465    0.3295484 -54.85  0.002990058    5.495    0.818
        24 -10.2318    204.6770    176.6914   8.1702451139e+01   5.4213679853e+00    0.3183548    0.1935425 -49.62  0.001478667    1.987    0.497
        25 -10.6977    174.4798    148.9684   8.1994806246e+01   1.6661258440e+01    0.2928454      0.25735  65.37 0.0006999319    1.279    0.218
        26 -10.0210     85.2973    144.6831   1.0302766568e+02   3.4800235955e+01    0.2336672    0.1953744  79.41  0.001271145    1.212    0.175
        27 -10.1798     40.8562    142.3583   1.1443819654e+02   4.1207865798e+01    0.2292194    0.1673546  77.82 0.0003568293    1.345    0.256
        28 -11.2386    103.9958    139.6994   9.7094490515e+01   3.2869474823e+01    0.5917104    0.3723929 -29.73   0.00243398    2.314    0.568
        29 -12.4527     91.4678    139.7894   1.0045522944e+02   3.4989865547e+01    0.2875048    0.2636932 -56.57 0.0004925216    1.100    0.091
        30 -11.7061    135.7944    127.6594   8.6083657364e+01   2.9473902407e+01    0.8062195    0.1833708 -48.41  0.002046931    4.507    0.778
        31 -10.6508    105.9623    130.7828   9.4653594466e+01   3.4633568434e+01    0.3641937    0.3084464 -73.82  0.001222725    1.209    0.173
        32 -15.6211      9.4988    206.5945   1.2709573878e+02   2.9929880429e+01    0.7547569    0.6680725 -11.13  0.004574015    1.960    0.490
        33 -10.6021    112.6699    130.2608   9.2729235148e+01   3.3509690778e+01    0.3439862    0.2817229   1.84 0.0008514596    1.591    0.372
        34 -12.6931     43.2243    127.4529   1.1162361045e+02   4.4565188115e+01    0.6680626    0.4095388  80.26   0.00293461    1.959    0.490
        35 -10.3155    160.6721    127.8030   8.0087712158e+01   2.4044871522e+01    0.3709272     0.241399 -54.72    0.0015716    1.694    0.410
        36 -11.1360     99.4719    126.5178   9.5481349380e+01   3.6813245377e+01    0.4522583    0.3083118  11.74  0.001917974    2.273    0.560
        37 -11.4951    119.3826    123.1934   8.9267021599e+01   3.3854256095e+01    0.5793495      0.37389 -11.23  0.002055894    3.086    0.676
        38 -11.9750     15.8553    122.8559   1.1865042781e+02   4.8153263475e+01    0.4095058    0.2648495  42.22  0.001871064    1.755    0.430
        39 -10.9149     24.7692    120.8548   1.1588232607e+02   4.7921806620e+01    0.2328141    0.1358102  59.22  0.001011306    1.999    0.500
        40 -10.1231    108.6667    119.0936   9.1190226859e+01   3.6888136924e+01    0.2320433    0.2120318  44.95 0.0003708368    1.139    0.122
        41  -9.8712    168.0533    112.8680   7.4581009990e+01   2.5474516169e+01    0.3343862    0.2325239 -78.94  0.001319964    2.260    0.558
        42 -12.1178    117.7433    108.4312   8.5957006751e+01   3.7562198684e+01    0.7378818    0.5700209 -62.75  0.003504843    1.399    0.285
        43 -11.3300     19.9635    111.0739   1.1588440548e+02   5.0644698389e+01    0.2549064    0.1819437  34.98  0.000767601    1.666    0.400
        44 -10.1715    205.5359    110.1382   6.6250134090e+01   1.7351153398e+01    0.3082818    0.2186736  41.71  0.000786289    1.512    0.339
        45 -10.5433    134.5932    105.0812   8.0537716644e+01   3.4731980647e+01     0.569519    0.1502443 -44.07  0.001564336    3.707    0.730
        46 -13.1683     54.6654    147.0641   1.1149087656e+02   3.8493123014e+01     1.600081    0.7181354  30.26  0.007010301    2.601    0.616
        47 -13.1829     83.9637    161.8018   1.0628642803e+02   3.0923107304e+01     1.312399    0.5650287  59.41 0.0004743963    3.594    0.722
        48 -10.7688    241.1314     99.9418   5.7885765107e+01   1.1357835719e+01    0.3000404      0.15469 -35.56 0.0008832676    1.716    0.417
        49 -11.1996     56.7657     95.9822   1.0135699092e+02   5.0592899042e+01    0.5155988    0.2530257  47.42  0.002199742    2.580    0.612
        50 -11.5100     42.0669     91.2889   1.0519658313e+02   5.3368133644e+01    0.3504093    0.2593369 -26.83  0.001488461    1.506    0.336
        51 -10.7179     53.0968     90.6617   1.0131010743e+02   5.2284374162e+01    0.2888575    0.1749441 -50.10   0.00138047    1.418    0.295
        52  -9.7815    157.4547     81.0759   6.8033778923e+01   3.4255646116e+01    0.2366974    0.1523688 -37.40 0.0006186015    1.539    0.350
        53  -9.3377    184.6293     77.1452   6.1315994602e+01   2.8254443826e+01    0.2153809    0.1454255 -22.93  0.000691811    1.685    0.407
        54 -10.6151     60.7703     68.4622   9.2463866642e+01   5.6238488789e+01    0.2607125    0.2349388  62.20  0.001559571    1.412    0.292
        55 -18.0891      6.4642    240.3569   1.2926454943e+02   2.3760963955e+01     9.917609     2.385962 -78.69    0.0303256    3.652    0.726
        56 -11.3081    124.3500    242.4995   1.0841671606e+02   8.1205916432e+00    0.3568094    0.1688616 -68.60    0.0016566    3.276    0.695
        57 -11.2188    208.0326    195.9626   8.4831323172e+01   1.6245856740e+00    0.2704226    0.1821014 -33.81  0.001460113    1.527    0.345
        58 -11.3157    149.7806     53.3736   6.1084371136e+01   4.0915635065e+01     0.500239    0.3279093 -76.92  0.001512222    2.362    0.577
        59  -9.0530    159.5641    196.5368   9.4729417489e+01   1.0279222701e+01    0.1371758    0.1252248  39.73 0.0001065039    1.026    0.025
        60 -10.2652    152.3359    197.5475   9.6433496820e+01   1.1404944001e+01    0.3075366    0.1894747 -58.79  0.001475581    1.980    0.495
        61 -11.0306    151.4259     46.9159   5.8637606940e+01   4.1478900326e+01    0.3480998    0.2779951 -69.63   0.00105724    1.457    0.314
        62 -11.2314     26.8564     35.2936   9.4996757062e+01   6.6686644403e+01    0.2945421    0.1887571  47.09   0.00133539    2.492    0.599
        63 -12.2694     18.4724     33.5674   9.8297851032e+01   6.7735236403e+01    0.4649054    0.1962035  31.14  0.002373988    2.780    0.640
        64  -9.6879    189.6860     14.9599   4.2847968842e+01   3.5737150671e+01    0.1869315    0.1682213 -53.52  0.000583943    1.129    0.114
        65 -11.7479    112.3896    197.5401   1.0507165544e+02   1.8400918559e+01    0.4625384    0.3095593  50.93  0.002459501    1.363    0.267
        66  -9.3046     97.4025    190.7678   1.0742355403e+02   2.2269990795e+01    0.1689468    0.1231216 -54.10 0.0003159883    1.497    0.332
        67  -9.8461     94.8493    187.3335   1.0751758886e+02   2.3419271612e+01    0.2119059    0.1705276 -89.04  0.000354278    1.219    0.180
        68 -10.6260    113.2693    207.6055   1.0628556069e+02   1.6222363125e+01    0.2588653    0.2031985  74.77 0.0006067562    1.305    0.234
        69 -13.0016    196.6321    198.0636   8.7435356647e+01   3.2938899405e+00     1.232837    0.9847438  78.43  0.006590651    2.031    0.508
