#   1 NUMBER                 Running object number                                     
#   2 MAG_AUTO               Kron-like elliptical aperture magnitude                    [mag]
#   3 X_IMAGE                Object position along x                                    [pixel]
#   4 Y_IMAGE                Object position along y                                    [pixel]
#   5 X_WORLD                Barycenter position along world x axis                     [deg]
#   6 Y_WORLD                Barycenter position along world y axis                     [deg]
#   7 A_WORLD                Profile RMS along major axis (world units)                 [deg]
#   8 B_WORLD                Profile RMS along minor axis (world units)                 [deg]
#   9 THETA_WORLD            Position angle (CCW/world-x)                               [deg]
#  10 FWHM_WORLD             FWHM assuming a gaussian core                              [deg]
#  11 ELONGATION             A_IMAGE/B_IMAGE                                           
#  12 ELLIPTICITY            1 - B_IMAGE/A_IMAGE                                       
         1 -14.4709    216.8488      6.2281   4.0796931622e+01   2.9896610849e+01     2.066942     1.266506  66.78  0.005501621    1.542    0.352
         2 -14.9976    192.4010     35.2274   5.1508849014e+01   3.2671130293e+01     2.683695     1.754334  14.40    0.0115607    2.379    0.580
         3 -10.3735     61.7783    220.1004   1.2058808140e+02   2.1870712122e+01    0.1679805    0.1221401  75.29 0.0006816462    1.130    0.115
         4 -12.1267    247.6061    249.0399   9.0156608624e+01  -1.0957775884e+01    0.5224662     0.233421  31.23  0.003003666    1.794    0.443
         5 -16.9131     70.5461    145.8935   1.1013289235e+02   3.6692156440e+01     10.36744     5.159715  73.07   0.03718492    3.621    0.724
         6  99.0000     42.5764    208.9454   1.2330356804e+02   2.6407216434e+01    0.4313188    0.1612303  70.31  0.001783754    3.533    0.717
         7 -10.3474     44.0579    205.6355   1.2276760054e+02   2.6893981610e+01    0.1586294    0.1211143  78.40  0.001104676    1.040    0.039
         8 -19.2657     11.2725    102.1182   1.1996802201e+02   5.3054378320e+01     17.24892     1.255761 -71.01   0.03283872   12.960    0.923
         9 -17.6955     37.9433    246.4536   1.2655149056e+02   2.0014221672e+01     8.077479     2.302106  32.69   0.02998129    6.135    0.837
        10 -11.7928     68.0362    207.1126   1.1822577275e+02   2.3577238590e+01     0.224415     0.171963  59.45 0.0004361121    1.109    0.098
        11 -10.8773     73.0058    205.6781   1.1709638933e+02   2.3186954570e+01    0.2886994    0.2675074 -86.16  0.001452577    1.291    0.225
        12 -11.0893     32.9562    206.1758   1.2490872748e+02   2.8045174169e+01     0.176056     0.134946 -68.95  0.001252564    1.482    0.325
        13 -11.7482    193.9699    196.5688   9.1019654876e+01   4.3777281311e+00     1.138909    0.5954642 -62.41  0.003629782    5.755    0.826
        14 -11.9989    201.5932    199.1970   9.0019008147e+01   2.5907120070e+00    0.5614517    0.2053394  38.55  0.002249694    2.506    0.601
        15 -13.3437     57.8867    201.0824   1.1967550412e+02   2.6125487111e+01    0.5029861    0.2755672 -68.03  0.002865531    1.772    0.436
        16  -9.9460     87.5746    202.8644   1.1384131292e+02   2.1663677245e+01    0.2103508    0.1723573  27.16 0.0009683694    1.568    0.362
        17  -9.7916    161.2902    200.0599   9.8165675704e+01   9.7634531206e+00    0.1762181    0.1691919  59.63 0.0003965544    1.122    0.109
        18 -12.1391     33.5578    198.6344   1.2425238240e+02   2.9500766378e+01     0.214109    0.1681845  42.21 0.0009799146    1.465    0.318
        19 -11.7007    151.7948    196.5241   9.9545635939e+01   1.2128505509e+01    0.3137053    0.2529236  52.16 0.0009715558    1.154    0.134
        20  -9.3780     45.3792    198.8207   1.2195957269e+02   2.8122192015e+01    0.1183377   0.06467333  57.21 0.0002154127    1.572    0.364
        21  -9.7446     44.7254    195.5490   1.2181383768e+02   2.8874535636e+01    0.1573061    0.1018585  67.78 0.0003633631    1.303    0.233
        22  -9.6085     63.1529    205.1620   1.1900715398e+02   2.4617089769e+01     0.170606    0.1102276  66.37  0.001017712    1.337    0.252
        23 -10.1569     82.4727    195.2666   1.1402666535e+02   2.3965839760e+01    0.2777402    0.1815146  67.85  0.001555025    1.464    0.317
        24 -11.7237     96.9253    191.7494   1.1051792926e+02   2.2504881061e+01     0.343036    0.2689687 -39.96 0.0007914479    1.716    0.417
        25  -9.6084     73.0248    217.8953   1.1827143038e+02   2.0792191379e+01    0.1696538    0.1207319  68.66 0.0003219958    1.169    0.145
        26  -9.5024     39.4956    192.5394   1.2260775273e+02   3.0102146356e+01     0.118108   0.09341501  79.52 0.0008090074    1.041    0.039
        27 -12.9633     68.4941    186.6279   1.1601105905e+02   2.7759889877e+01    0.6759629    0.6001636 -77.63  0.004533072    1.226    0.184
        28 -11.2815    158.3979    236.0675   1.0405633043e+02   4.3888171474e+00    0.2559524    0.1801019  38.54  0.001098564    1.166    0.142
        29 -12.0731    141.6367    189.0237   1.0046439677e+02   1.5399259015e+01    0.3568009    0.2450736 -62.17  0.001842129    1.684    0.406
        30 -11.0701    153.8041    184.9216   9.7160853208e+01   1.3927495209e+01    0.2958069    0.1916404 -59.10  0.000987206    1.842    0.457
        31 -11.7485     99.4048    180.8345   1.0847917798e+02   2.4413619071e+01    0.2721098    0.2505137  50.43 0.0005869519    1.173    0.147
        32 -10.7550    204.5977    176.0284   8.5032743836e+01   5.7601283134e+00    0.3106743    0.2979229 -59.51  0.001018806    1.285    0.222
        33 -10.1647    197.1630    176.5989   8.6608781044e+01   7.0905839314e+00    0.2741286    0.2343505  36.93  0.001072786    1.117    0.105
        34  -9.6482    188.7097    175.2666   8.8042988982e+01   8.9636048463e+00    0.2318866     0.173765 -42.39 0.0005350345    1.437    0.304
        35  -9.9387     50.8571    172.8109   1.1834782753e+02   3.3039746425e+01    0.1908461    0.1513155  76.73 0.0007293575    1.065    0.061
        36 -10.4999     43.9417    171.8032   1.1977408983e+02   3.4070845403e+01    0.5117096    0.1449423  39.03  0.002148089    3.149    0.682
        37  -9.6080    185.6872    169.3210   8.7469408122e+01   1.0626258432e+01    0.1393035    0.1155726  85.21 0.0007038526    1.653    0.395
        38 -10.2736     70.2615    177.6599   1.1458082436e+02   2.9467668030e+01    0.2364843    0.1776218  62.40 0.0007308554    1.199    0.166
        39 -10.0490    161.5026    166.0561   9.1961543201e+01   1.6099857000e+01    0.2084033    0.1454883 -47.12 0.0006075746    1.521    0.343
        40  99.0000     31.9038    227.5527   1.2647214415e+02   2.4060009560e+01    0.2557725   0.08106798  54.35 0.0001235346    2.460    0.594
        41  -8.0762     50.0773    216.5534   1.2248055820e+02   2.4023347070e+01    0.2852374    0.2227677  -6.24   0.00172623    2.746    0.636
        42 -12.3526     55.3083    212.0686   1.2113916972e+02   2.4249488752e+01    0.3739508    0.1872498  63.81  0.001304223    1.835    0.455
        43  -9.7983    149.7888    156.2236   9.2600992094e+01   2.0462658081e+01    0.2465528    0.1621531  86.08 0.0009445553    2.735    0.634
        44 -11.7474    134.0039    146.0862   9.4211018956e+01   2.5812182330e+01     1.287683     0.333466 -55.28  0.003107348    5.829    0.828
        45 -10.6479    113.2008    150.9983   1.0028281818e+02   2.8668044759e+01    0.4063281    0.2539899  74.16  0.001352878    2.313    0.568
        46 -10.4769    174.4981    148.9839   8.5524956558e+01   1.6793439449e+01    0.2918836    0.2533418  66.09 0.0008084865    1.281    0.219
        47 -11.5148    144.1258    146.2464   9.1823256888e+01   2.3732476735e+01    0.5362419    0.2478933 -59.29  0.001840535    2.959    0.662
        48 -10.4466    112.4452    142.1977   9.8751419499e+01   3.0813123955e+01    0.2770458    0.1965461  69.90 0.0006903869    1.671    0.402
        49 -11.3443    106.8593    145.0243   1.0072250726e+02   3.1167163134e+01    0.3420063    0.2401053  73.67  0.001608688    1.721    0.419
        50 -12.1943    107.6663    138.6831   9.9262545936e+01   3.2488721077e+01     0.600297    0.4061864 -35.26  0.002756908    1.839    0.456
        51 -12.6147     95.5763    138.5926   1.0238221652e+02   3.4601215060e+01    0.3089427    0.2822062  54.88  0.001307935    1.122    0.109
        52 -11.5108    105.8111    131.1158   9.8175843109e+01   3.4579524466e+01    0.4718678    0.3390413 -49.81   0.00163244    1.372    0.271
        53 -11.1365    135.7495    127.5103   8.9633672879e+01   2.9565772457e+01     0.667421    0.1835074 -50.18  0.001864086    3.899    0.744
        54 -11.3953    114.7119    129.6457   9.5514224044e+01   3.3278430578e+01    0.3714231     0.311122 -20.71 0.0007022407    1.468    0.319
        55 -11.4092    120.0752    123.2982   9.2657887197e+01   3.3696369296e+01    0.5651577    0.3276536 -25.95   0.00200749    2.988    0.665
        56 -10.0650    161.1442    127.7576   8.3585672474e+01   2.4016955752e+01     0.352693    0.2487545 -74.81  0.001467904    2.056    0.514
        57 -11.2964    102.3369    125.5027   9.7894597144e+01   3.6509361965e+01    0.2923936    0.2449918 -25.03 0.0005245155    1.437    0.304
        58 -12.0353     39.0953    212.0033   1.2417778381e+02   2.6206632953e+01      0.35565    0.1627198  73.45  0.001590523    2.181    0.541
        59 -10.2913    109.9917    118.7746   9.4287231026e+01   3.6674886774e+01    0.2414637    0.2058895 -55.89  0.000355398    1.131    0.116
        60 -10.2902    167.6880    112.5456   7.8252969767e+01   2.5653089636e+01     0.388441    0.2861779 -81.30  0.001649551    1.945    0.486
        61 -11.6964    118.7136    110.8159   8.9966544711e+01   3.6795758778e+01    0.5714834    0.3745285  58.75  0.002035618    1.789    0.441
        62 -10.1082    205.5921    110.1341   6.9823184573e+01   1.7271153022e+01    0.2775228    0.2170373  41.39 0.0006511445    1.329    0.248
        63 -10.1046    134.5668    105.7883   8.4452975251e+01   3.4586042038e+01    0.3886793    0.1493952 -47.16  0.001287614    2.610    0.617
        64  -9.5023    183.3968     83.2258   6.6904170287e+01   2.7474620503e+01    0.2244707    0.1405258 -45.51 0.0009455053    1.607    0.378
        65  -9.6483    168.9557    234.7406   1.0190598237e+02   2.8490541208e+00    0.1678642    0.1309498  39.13 0.0002835605    1.035    0.034
        66  -8.7265     74.2960     77.2505   9.4175893051e+01   5.2178172522e+01    0.1339981    0.1030277 -16.87 0.0002013505    1.488    0.328
        67  -9.4027     68.7851     71.7917   9.4439698114e+01   5.4166847026e+01    0.1727932    0.1557733 -74.83 0.0002623174    1.291    0.225
        68 -11.8119    161.4243     62.6087   6.5285186113e+01   3.6583676892e+01    0.7431279    0.4597486  87.11  0.002737941    2.699    0.630
        69 -12.3703    163.1642     56.1898   6.2918034923e+01   3.7189360336e+01     1.072398    0.6414889 -87.65  0.003444052    3.032    0.670
        70 -10.0323     70.3365    248.0244   1.2125445618e+02   1.5744998140e+01    0.1391216    0.1069038  81.22 0.0005020378    1.211    0.174
        71 -13.5151    177.0997     50.0964   5.8378965858e+01   3.4547409910e+01    0.9219881    0.7699614  28.43 0.0008293659    1.352    0.260
        72  99.0000     43.4751    220.8070   1.2399991347e+02   2.4000343744e+01    0.1978024    0.1672723 -52.17  0.001445518    1.782    0.439
        73 -11.6598     61.0295    234.0153   1.2182468062e+02   1.9393463128e+01     0.190369    0.1350793  79.80  0.000423934    1.209    0.173
