#   1 NUMBER                 Running object number                                     
#   2 MAG_AUTO               Kron-like elliptical aperture magnitude                    [mag]
#   3 X_IMAGE                Object position along x                                    [pixel]
#   4 Y_IMAGE                Object position along y                                    [pixel]
#   5 X_WORLD                Barycenter position along world x axis                     [deg]
#   6 Y_WORLD                Barycenter position along world y axis                     [deg]
#   7 A_WORLD                Profile RMS along major axis (world units)                 [deg]
#   8 B_WORLD                Profile RMS along minor axis (world units)                 [deg]
#   9 THETA_WORLD            Position angle (CCW/world-x)                               [deg]
#  10 FWHM_WORLD             FWHM assuming a gaussian core                              [deg]
#  11 ELONGATION             A_IMAGE/B_IMAGE                                           
#  12 ELLIPTICITY            1 - B_IMAGE/A_IMAGE                                       
         1 -14.2279     24.6883     52.9499   1.0047838377e+02   6.3301757752e+01     1.064467    0.6102836 -53.42  0.005163355    1.465    0.318
         2 -15.0484      4.7605    131.0135   1.2146097592e+02   4.6794130137e+01     4.819389    0.6143489 -70.82   0.01519676    4.622    0.784
         3 -15.5060     12.0557     75.0075   1.1103621901e+02   5.9435684698e+01     1.784338    0.5038894 -49.13  0.006321921    2.559    0.609
         4 -15.9258      5.6417     62.5643   1.1082564125e+02   6.2554904999e+01     2.277474    0.5511318 -59.87  0.009495722    2.683    0.627
         5 -16.0313     28.5395    125.4283   1.1434486552e+02   4.6294558561e+01     2.011059    0.8099078 -76.44  0.008367225    2.471    0.595
         6 -15.0197    136.5110     98.0002   7.6847588691e+01   3.5741517500e+01     2.532178     1.295701 -41.63  0.007923832    1.901    0.474
         7 -13.5071     96.0357     29.4755   6.4599547771e+01   5.6672558047e+01     1.192566    0.8209499 -11.73  0.006236375    1.528    0.346
         8 -14.2381     39.1686     37.0005   8.8634684898e+01   6.4924183897e+01    0.9916409    0.7277006 -26.14  0.003872864    1.131    0.116
         9 -15.3801     58.4615     15.2942   7.0940404406e+01   6.5509295659e+01      2.06712     1.298345  16.55  0.009502717    1.615    0.381
        10 -14.9017     83.9518     37.9160   7.1776938660e+01   5.7882124627e+01     1.621575     1.041208 -45.98  0.005516453    1.834    0.455
        11 -15.7490     49.9924     62.6082   9.3297629851e+01   5.8707327581e+01     1.967751      1.64139  72.63   0.01141995    1.771    0.435
        12 -14.4444     65.3729     38.7106   7.8659416435e+01   6.1004082506e+01    0.9409717     0.874687  89.88  0.003603794    1.608    0.378
        13 -15.7268     90.2188     60.6419   7.8300394052e+01   5.2847030746e+01     1.728871     1.311241  57.68  0.006473159    1.660    0.397
        14 -15.2562    127.8645     52.6064   6.4693584975e+01   4.6247903701e+01      1.70511     1.286427 -85.89  0.005981783    1.897    0.473
        15 -16.0630    129.0348     28.5734   5.5925517620e+01   4.9346269592e+01     1.894819     1.504787 -68.56  0.006183234    1.571    0.363
        16 -13.2087    209.1487     33.1626   4.4429957105e+01   2.8928470237e+01    0.8482143    0.6491471 -56.06   0.00363443    1.224    0.183
        17 -12.7298    216.5995     25.2551   4.1590903118e+01   2.8135424973e+01    0.5942954    0.3708128  33.11   0.00114323    2.467    0.595
        18 -13.3216     87.8800     16.9859   6.1755938067e+01   5.9872332830e+01     1.381453    0.4219356  46.24  0.005302548    2.848    0.649
        19 -13.6434     87.6437      5.0193   5.6569426136e+01   6.1124135572e+01    0.9468884    0.5564439  37.32  0.003540851    1.512    0.339
        20 -12.4600    101.3610      3.0033   5.2262810397e+01   5.8346358855e+01    0.6488646    0.3419504  57.07  0.002332716    1.687    0.407
        21 -13.8102    227.4329     14.0923   3.7863577084e+01   2.6923030361e+01    0.7245277    0.5893614 -64.25  0.002614727    1.057    0.054
        22 -12.0800      8.6131     16.3895   9.4883118106e+01   7.1378470554e+01    0.4387488    0.2645033   8.17  0.002844342    1.722    0.419
        23 -13.5489    141.7520      2.7028   4.4520394542e+01   4.8869248725e+01     1.473705    0.3592243  69.33  0.004634753    4.046    0.753
        24 -10.5678    208.1251      1.7125   3.6559083326e+01   3.2704851440e+01    0.3131722    0.1565763  78.75  0.001535375    1.861    0.463
        25 -10.1346    200.7717      1.4104   3.7136305037e+01   3.4482119006e+01    0.1846715    0.1040222  64.09 0.0009511257    1.651    0.394
        26 -12.2194     40.1955    153.3073   1.1496400036e+02   3.8402100948e+01    0.5768425    0.3312446  79.99  0.002338923    1.927    0.481
        27 -13.9758    244.5883    247.9583   8.6222759936e+01  -1.0979516871e+01    0.9733761    0.6106697  40.01  0.005636802    1.785    0.440
        28 -13.3384    228.1996    249.6938   8.9297804111e+01  -8.9754328698e+00     1.040871    0.3264778  38.69  0.004525928    2.767    0.639
        29 -14.9790    192.5155    248.5578   9.5482951478e+01  -3.6815722188e+00      1.27713    0.4716286  39.11  0.004504173    2.232    0.552
        30 -15.1889    168.7786    240.4466   9.8735089299e+01   1.1273966779e+00     1.407802    0.8380161 -27.24  0.007558162    2.295    0.564
        31 -14.5090    183.5312    236.4904   9.5363594678e+01  -6.1919791261e-01     1.040249    0.6078102  43.99  0.004355614    1.591    0.371
        32 -15.5323    199.3171    233.8107   9.1990241642e+01  -2.7091487459e+00     1.600988     1.245698 -59.66  0.006474702    2.022    0.505
        33 -14.8869     46.4825    184.9429   1.1704599924e+02   3.0317672653e+01     1.498043    0.7614909 -68.96  0.007798496    1.760    0.432
        34 -17.5433     83.5289    241.5587   1.1506504699e+02   1.3929329192e+01     4.997955     1.380859  41.60   0.02147626    2.824    0.646
        35 -17.4218     36.9257    205.8186   1.2091018308e+02   2.6871248266e+01     2.374573     1.214985 -89.69   0.01264275    1.857    0.461
        36 -16.2520     61.7789    188.5902   1.1407574997e+02   2.7605339316e+01     2.075675     1.056295 -83.14  0.009405422    2.162    0.537
        37 -14.3617     21.4585    240.8094   1.2599127254e+02   2.1676318869e+01    0.7339631     0.434351  58.18  0.003698173    1.278    0.218
        38 -15.1458     11.7745    249.0258   1.2796414869e+02   2.1197696602e+01    0.6516032    0.3154904  50.24  0.003422339    1.572    0.364
        39 -14.1070     11.0227    231.7819   1.2728008676e+02   2.4419866443e+01    0.6050964    0.2371664 -82.41   0.00259215    2.228    0.551
        40 -14.2044      1.6849    247.6848   1.2949126937e+02   2.2425707189e+01    0.4045867    0.1224524 -84.27  0.002127387    2.978    0.664
        41 -15.7868      3.7252    237.7903   1.2876116562e+02   2.4010697563e+01    0.7738336    0.3563577 -80.93  0.003568636    1.866    0.464
        42 -12.5345     49.3799    158.5604   1.1334916167e+02   3.6113934482e+01    0.5743032    0.4058867 -89.87  0.001941812    1.317    0.241
        43 -13.5111     63.0952    161.5320   1.1036110253e+02   3.3701184290e+01    0.5137745    0.3012375 -47.51  0.001561121    1.923    0.480
        44 -12.3632     56.5731    159.7464   1.1172788669e+02   3.4961441911e+01    0.5676513     0.353067 -80.02  0.001910649    1.536    0.349
        45 -12.7343     82.4725    159.0018   1.0513606526e+02   3.1577940610e+01    0.6113006    0.5246487 -34.32  0.001408199    1.413    0.292
        46 -12.7629     72.3120    154.0170   1.0691368048e+02   3.4256242841e+01      0.78601    0.3720036  67.20  0.002594627    4.040    0.752
        47 -12.5924     62.9074    149.1944   1.0858599386e+02   3.6702183478e+01    0.3829954    0.3550989  58.03  0.001369382    1.170    0.145
        48 -13.9122     68.1584    144.2550   1.0640365053e+02   3.7206091605e+01    0.8312501    0.5735731  76.92  0.002785267    1.665    0.399
        49 -13.0137     60.3935    137.8233   1.0742137414e+02   3.9808227215e+01     0.599704    0.3338356 -76.67  0.002409967    1.913    0.477
        50 -11.5222    166.1415    156.3699   8.4348544258e+01   1.6828432016e+01     0.484607     0.286934  41.66  0.001332847    1.682    0.405
        51 -13.2001    246.3977    229.2769   8.2824940596e+01  -9.0453400036e+00    0.5424304     0.402298  -5.73  0.002118929    1.138    0.121
        52 -12.1472     22.7951    230.2802   1.2518512959e+02   2.3504386840e+01    0.3308579    0.2007512  76.74  0.001195218    1.305    0.234
        53 -13.5699      5.2340    110.5947   1.1902005305e+02   5.1583990131e+01    0.7053933    0.5414434  88.56  0.003130267    1.227    0.185
        54 -13.7216     21.3942    219.8747   1.2482010275e+02   2.5674159531e+01    0.6526535    0.2744601  80.11  0.003075638    2.376    0.579
        55 -15.3727     89.0129    226.9330   1.1258326868e+02   1.5856562172e+01    0.9205819    0.8042095  54.68   0.00226995    1.138    0.121
        56 -15.2017    208.2508    228.5909   8.9490313824e+01  -3.3649664868e+00     1.365188    0.9163283 -45.13  0.006600971    1.902    0.474
        57 -15.7787     17.8358    108.7652   1.1502851556e+02   5.1179709826e+01     1.578659    0.6062496 -67.56  0.005108895    2.028    0.507
        58 -10.6440    184.9925    148.4758   7.8489096911e+01   1.4544761790e+01    0.2712217    0.2176635 -85.22    0.0012874    1.771    0.435
        59 -15.7902    147.2483    129.5625   8.2538831752e+01   2.6535215647e+01     2.543488     1.284351 -55.88  0.006844455    2.374    0.579
        60 -14.4731      2.7250    207.7511   1.2750896512e+02   2.9903299768e+01    0.5129064    0.2737859 -75.94  0.002364639    1.607    0.378
        61 -12.0572     51.0590    133.9323   1.0934940552e+02   4.1902899196e+01    0.3966423    0.2782563  11.90   0.00179696    1.982    0.496
        62 -10.7077    107.1061    131.6932   9.3383776454e+01   3.4055246125e+01    0.4612668    0.2648335  49.55  0.001938843    1.892    0.471
        63 -14.7683    229.9666    123.2055   6.4024322629e+01   9.9478748234e+00     1.302634    0.9678954 -14.56  0.004801182    1.454    0.312
        64 -14.7654    245.6510    115.7789   5.9809222382e+01   8.1043202190e+00     1.364269    0.9436074 -46.56  0.004391118    1.393    0.282
        65 -13.6686    197.5000    120.6526   6.9270011745e+01   1.7289604248e+01     1.435192      1.05153 -73.11  0.005678912    1.940    0.485
        66 -10.1939     96.1092    128.5363   9.5694566445e+01   3.6752964428e+01    0.2240416    0.1934568 -31.55 0.0003889626    1.270    0.212
        67 -13.6458    160.8026    114.0976   7.5374354931e+01   2.6872064917e+01     1.325462    0.9793829  64.73   0.00492139    1.604    0.377
        68  -9.6077    106.4279    120.3926   9.0937490798e+01   3.6862689331e+01    0.1493726    0.1428574 -42.63 0.0001698592    1.047    0.045
        69 -12.2769     53.0540    116.0994   1.0561689565e+02   4.6044931290e+01    0.4693924    0.3678048 -84.24  0.001575087    1.311    0.237
        70 -11.5039    129.0039    113.0134   8.2934684348e+01   3.4095976371e+01    0.4035786    0.3530934 -73.91   0.00115721    1.264    0.209
        71 -11.4473    124.1613    111.0691   8.3705737955e+01   3.5541160961e+01    0.4170903    0.3540505  83.67  0.001396934    1.409    0.290
        72 -13.2746    217.3072    104.7123   6.1680497519e+01   1.5855774281e+01    0.6310261    0.5950178   8.96  0.003580832    1.139    0.122
        73 -11.5073    223.3685    109.9359   6.1950182721e+01   1.3629464801e+01    0.2772852    0.2219599  38.62  0.001391594    1.384    0.277
        74 -11.3285    205.6561    109.9553   6.5043050319e+01   1.7485575229e+01    0.2851783    0.2539875   9.05 0.0008466081    1.230    0.187
        75 -13.2256     94.7381     97.9537   8.8544698069e+01   4.4213579517e+01     1.062579     0.846789  17.85  0.004426082    1.459    0.314
        76 -14.2341     70.3847    104.0158   9.7652840397e+01   4.6712187175e+01    0.9517623      0.81883  78.08  0.003052057    1.350    0.259
        77 -13.3448     79.3657    100.8890   9.4061706279e+01   4.6108089269e+01     0.694769    0.6007062 -41.64  0.002414129    1.083    0.077
        78 -11.7480    232.2135     96.7397   5.7341980309e+01   1.4008807231e+01    0.5262308    0.2346755 -34.62  0.002131413    2.034    0.508
        79 -11.4125    233.5875     90.7951   5.5699045810e+01   1.4702597124e+01    0.3202356    0.2168751 -33.57  0.001134329    1.348    0.258
        80 -12.4183    230.5356     84.4996   5.4607039673e+01   1.6392496678e+01     0.935638    0.3273338 -39.70  0.003455141    2.455    0.593
        81 -14.5661    214.2369     89.6824   5.8399522926e+01   1.9159429345e+01     1.295984     1.266196  53.09   0.00447715    1.111    0.100
        82 -12.4667    209.7649     75.8348   5.5531734480e+01   2.2519711748e+01    0.6152353    0.5490629  62.64  0.002011485    1.186    0.157
        83 -13.6276     37.4833     89.8297   1.0518049734e+02   5.4019025059e+01     1.218604     0.451911 -45.31  0.005001076    2.446    0.591
        84 -11.3142    249.5213     94.5292   5.4348810817e+01   1.0802607924e+01     0.324257    0.2557045 -53.76  0.001844193    1.242    0.195
        85 -12.3262    118.4699     87.2961   7.8517837872e+01   4.1910954115e+01    0.6138594    0.4749026 -33.67  0.001852783    1.277    0.217
        86 -12.1122    111.4802     83.2193   7.9253488872e+01   4.4213757161e+01    0.5559716    0.4546798  67.02   0.00161496    1.490    0.329
        87 -13.2405     11.1384    206.2389   1.2588254353e+02   2.9441020895e+01    0.3853333    0.2987274  37.79  0.001762899    1.571    0.364
        88 -15.9866     52.7051    226.7905   1.1954292602e+02   2.0758068465e+01     1.289734    0.7074099  86.32  0.007380257    1.830    0.454
        89 -11.1314     24.5056    210.5655   1.2365262762e+02   2.7227743644e+01    0.4471499    0.1789429  85.85  0.002023016    2.674    0.626
        90 -12.9344    140.9624    197.7531   9.7858949574e+01   1.3192346683e+01    0.6463517    0.5488888  -2.46  0.002510598    1.432    0.302
        91 -14.5216     32.5809     71.7425   1.0260212909e+02   5.8601483454e+01     1.150221    0.5933896 -52.65  0.003848928    1.549    0.354
        92 -12.5968    221.6514    195.0999   8.1018036670e+01  -5.8533402636e-01    0.5947606     0.458577   9.30  0.002148931    1.205    0.170
        93 -15.0634     71.4638     53.2210   8.2028564966e+01   5.7497396228e+01     1.362616    0.9117562  42.22  0.004624349    1.667    0.400
        94 -12.8454    232.4158    190.0644   7.8080369049e+01  -1.5888220907e+00    0.8391905    0.5119753   2.22  0.003486876    2.050    0.512
        95 -10.8788     83.0425    200.4958   1.1083647694e+02   2.2062669792e+01    0.1962924     0.117911  41.21  0.001029362    1.579    0.367
        96 -12.2959     85.7231    142.4943   1.0138869278e+02   3.5064432419e+01    0.3018701    0.2393189 -53.47 0.0003630561    1.218    0.179
        97 -10.6142     63.6278     86.7097   9.5453218246e+01   5.1694743975e+01    0.3111352    0.2052793 -28.40  0.001325955    1.701    0.412
        98 -11.2406     24.9259     82.5209   1.0796517462e+02   5.6819959408e+01    0.2039291    0.1420652 -58.52 0.0004694733    1.158    0.136
        99 -10.1804     97.7033    144.0182   9.8497766599e+01   3.2748515965e+01     0.214534    0.1864629 -63.09  0.000768345    1.091    0.083
       100 -11.5154    198.6339     75.7188   5.7309122774e+01   2.5179567891e+01    0.5887836    0.2914894  57.41  0.002379965    2.096    0.523
       101 -11.2052    182.3150     75.1736   6.0050267150e+01   2.9230383533e+01    0.3846095    0.2914747  78.58  0.001823834    1.529    0.346
       102 -10.9831    232.1313     70.5883   5.0979485863e+01   1.8252905446e+01      0.35799    0.1812194 -43.44  0.001594016    1.751    0.429
       103 -11.7050    192.5693     87.0130   6.1437088893e+01   2.4677743573e+01    0.5497749    0.4417098  71.31  0.002735696    1.378    0.274
       104 -14.4588    148.7289    178.2233   9.2708985613e+01   1.5716273218e+01     1.568253     1.057024 -78.71  0.005250643    2.340    0.573
       105 -11.2546    131.5191    190.2333   9.8686250545e+01   1.6375789865e+01    0.3207476    0.2562039 -73.30  0.001317067    1.408    0.290
       106 -12.7821    199.7536     49.0031   4.9868277893e+01   2.9067252101e+01    0.8990659    0.4780416  68.25  0.003549321    1.963    0.491
       107 -11.8590    107.4043     41.7971   6.6175281226e+01   5.2527215617e+01    0.6239474    0.3296801 -40.83  0.002435343    2.005    0.501
       108 -12.7939    201.6610     37.9867   4.6631267417e+01   3.0116397592e+01    0.7422537    0.4013922  65.10  0.002632958    1.809    0.447
       109 -14.7726    228.6698    168.0778   7.4285027210e+01   2.5303572884e+00      2.00563    0.7941504 -35.76  0.006659553    2.370    0.578
       110 -12.2159    230.2278    140.0612   6.7873113638e+01   6.9785529673e+00    0.7983613    0.4447522 -55.74  0.003221352    2.668    0.625
       111 -15.0439     88.7861     77.4016   8.4353509781e+01   4.9781472762e+01     1.311192     1.084175 -34.49  0.004408768    1.124    0.110
       112 -12.5090     14.9883     27.5933   9.6197210582e+01   6.8956309817e+01    0.5041698    0.3010811  -5.65  0.003032974    1.790    0.441
       113 -10.4351    160.0353     24.5126   4.8736054173e+01   4.2174516479e+01     0.373787    0.1316028  65.31   0.00135365    2.696    0.629
       114 -10.1762     99.4963    180.5692   1.0442978949e+02   2.3906118328e+01    0.1380912    0.1258356  73.08 0.0001349875    1.010    0.010
       115 -12.4203      9.9728    177.4830   1.2423313646e+02   3.5699182613e+01     0.334304    0.2063605  78.47   0.00105051    1.347    0.258
       116 -12.3075      4.2757    173.5244   1.2514711218e+02   3.7052579988e+01    0.3877351    0.2043035  63.59  0.002127427    1.731    0.422
       117 -12.0093    249.6674    170.7217   7.1194339198e+01  -1.4611744244e+00    0.4978816    0.2610218 -36.41  0.002121785    1.742    0.426
       118 -15.3948     67.7461    206.6104   1.1474746185e+02   2.2907636951e+01     1.121019    0.5043579 -61.34  0.004258462    2.215    0.548
       119 -13.0252    144.1227    158.9818   8.9956403304e+01   2.0691046987e+01     1.088728    0.8250688  88.91  0.004262847    1.805    0.446
       120 -11.5901     76.0753    165.2229   1.0769937428e+02   3.1038777799e+01    0.2658892    0.2383736 -65.98 0.0004004055    1.143    0.125
