#   1 NUMBER                 Running object number                                     
#   2 MAG_AUTO               Kron-like elliptical aperture magnitude                    [mag]
#   3 X_IMAGE                Object position along x                                    [pixel]
#   4 Y_IMAGE                Object position along y                                    [pixel]
#   5 X_WORLD                Barycenter position along world x axis                     [deg]
#   6 Y_WORLD                Barycenter position along world y axis                     [deg]
#   7 A_WORLD                Profile RMS along major axis (world units)                 [deg]
#   8 B_WORLD                Profile RMS along minor axis (world units)                 [deg]
#   9 THETA_WORLD            Position angle (CCW/world-x)                               [deg]
#  10 FWHM_WORLD             FWHM assuming a gaussian core                              [deg]
#  11 ELONGATION             A_IMAGE/B_IMAGE                                           
#  12 ELLIPTICITY            1 - B_IMAGE/A_IMAGE                                       
         1 -12.7400     72.0994      7.9185   6.5043170700e+00   6.5224390056e+01    0.3960592    0.2727185 -22.56  0.001147421    1.627    0.386
         2 -11.3700     72.2242      2.7990   3.7590574551e+00   6.5660736203e+01    0.2357528    0.1756776  62.78 0.0005984235    1.174    0.148
         3 -10.8955     92.2163      8.0323   1.6177760733e+00   6.0204351836e+01    0.1695381    0.1132631 -21.58 0.0008747699    1.705    0.414
         4 -11.7236     83.0639      7.0594   3.1971863186e+00   6.2600199948e+01    0.2013875    0.1794036  68.81 0.0003631968    1.029    0.029
         5 -12.3244     36.6044      4.7092   1.8817090816e+01   7.3522491803e+01    0.2301642     0.206273  41.23 0.0002583601    1.133    0.117
         6 -11.2321    110.8433      1.8936   3.5581152899e+02   5.5964912434e+01    0.1979127    0.1610126  58.84 0.0003179749    1.192    0.161
         7 -10.7654     25.1978      1.8430   2.3771774198e+01   7.6035066038e+01    0.1712402    0.1294702  11.20 0.0003931683    1.291    0.225
         8 -11.9327    178.2917    246.2298   4.2420204713e+01   1.6925165406e+00    0.2581312    0.2307685 -60.58  0.001264317    1.975    0.494
         9 -12.5039    238.4649    250.4521   3.2763629900e+01  -4.7292545656e+00    0.1671809    0.1000862  17.19  0.001265212    1.430    0.301
        10 -12.5442    139.9716    248.8138   5.0280881727e+01   5.6568508437e+00    0.2992311    0.2902739  18.09   0.00157047    1.390    0.281
        11 -11.6164    114.4440    248.2618   5.5586219019e+01   8.7303356864e+00    0.2977034    0.2432202 -82.09  0.001731767    1.797    0.444
        12 -11.1570     36.0288    250.5684   7.3011745214e+01   1.6961249905e+01    0.1720898   0.09200492  28.46 0.0003818305    1.505    0.335
        13 -11.9103     36.5048    246.8617   7.2718859991e+01   1.7597583520e+01    0.2421509    0.1894177  43.67 0.0009052523    1.027    0.026
        14 -12.9751     14.1635    217.1102   7.6469343186e+01   2.5634804175e+01    0.6265444    0.4424017  26.67  0.003235684    1.336    0.251
        15 -12.5662     14.0497    210.0023   7.6187503662e+01   2.7183022698e+01    0.2437218    0.2034171  79.42 0.0004054914    1.187    0.157
        16 -13.3237     31.5195    239.5317   7.3459922118e+01   1.9471988853e+01    0.6814088    0.3052167  36.14  0.003660702    1.649    0.393
        17 -14.2395     37.3879    228.3573   7.1488557531e+01   2.1103157601e+01    0.7805485    0.4550932 -41.13  0.004097022    2.462    0.594
        18 -14.0626     24.9401    211.8115   7.3564546405e+01   2.5803857042e+01     1.220778    0.3974155 -55.02  0.004795218    3.803    0.737
        19 -14.3262     22.7217    242.1945   7.5552660500e+01   1.9791028202e+01    0.9873496     0.498874  14.71  0.005166683    2.246    0.555
        20 -14.0692     14.8997    228.8007   7.6774078257e+01   2.3136738021e+01    0.6848562    0.5222167  88.64  0.003676533    1.384    0.277
        21 -14.3887     10.1620    239.6980   7.8232468877e+01   2.1388890940e+01    0.4776567    0.4210499 -20.89  0.002306389    1.554    0.356
        22 -15.1838      4.5710    247.1532   7.9659425328e+01   2.0444342969e+01    0.9082516    0.3936203  31.34  0.003267172    1.735    0.424
        23 -13.1272      3.0604    239.1213   7.9768366655e+01   2.2096022813e+01    0.2510539    0.2248852  19.93 0.0009269421    1.331    0.249
        24 -14.4512      6.0407    234.6438   7.8984459588e+01   2.2724992437e+01    0.5732488    0.3034732  36.88  0.002446787    1.434    0.303
        25 -11.4052     99.5434    246.6602   5.8662901341e+01   1.0744267243e+01     0.216101    0.1552373  20.56 0.0005635956    1.177    0.151
        26 -10.5273    246.1697    245.1796   3.0863041665e+01  -4.8246767283e+00     0.120724   0.09049208  -9.37 0.0002503616    1.276    0.217
        27 -10.2527    147.2542    245.3469   4.8372193692e+01   5.3285759710e+00    0.1163741   0.07681768  -8.15 0.0002684317    1.590    0.371
        28 -11.1827    131.8128    244.9525   5.1519812705e+01   7.2054100099e+00    0.1865101    0.1661477  65.32  0.001310438    1.601    0.375
        29 -11.3635    205.7778    243.9854   3.7173588733e+01  -9.1112445854e-01    0.1461327    0.1030026  29.84 0.0006643873    1.635    0.388
        30 -11.4964    153.0834    243.8341   4.7003047445e+01   4.8742769454e+00    0.1785477    0.1482465  -4.86  0.000330178    1.158    0.136
        31 -11.4634    143.5846    242.5822   4.8780180272e+01   6.1768727360e+00    0.2630875    0.1713926 -31.17  0.001632721    1.674    0.403
        32 -11.2918    222.4086    242.6609   3.4205145005e+01  -2.3875358561e+00    0.1323285     0.113865   9.93 0.0007183105    1.578    0.366
        33 -11.2105    127.7689    242.9827   5.2145013540e+01   7.9988136572e+00     0.209385    0.1339822  40.78 0.0004012707    1.563    0.360
        34 -11.2584     53.4849    242.9966   6.8687772820e+01   1.6584151551e+01     0.382978    0.1119971  21.50  0.001375937    3.829    0.739
        35 -11.1756    184.5997    240.6878   4.0493239350e+01   1.7473281933e+00    0.2315135    0.1344045 -44.67  0.001373981    2.137    0.532
        36 -11.5061    117.4861    241.3758   5.4175741280e+01   9.4964957364e+00    0.2207199    0.1843966  40.21  0.000962329    1.267    0.211
        37 -10.9795    217.4879    240.9732   3.4772118824e+01  -1.7105051581e+00     0.118909   0.09327549 -51.32  0.000809847    2.504    0.601
        38 -11.0019    167.7894    241.6069   4.3804738719e+01   3.5019898622e+00    0.1651887   0.08906346  32.82 0.0009545634    1.695    0.410
        39 -11.5853     67.3121    240.2958   6.5342093645e+01   1.5582208764e+01    0.3914129    0.1015133  31.48  0.001577069    2.699    0.630
        40 -11.0794    207.7401    236.4108   3.5760768291e+01  -1.6471845715e-01    0.1496893     0.083573  13.89  0.000344395    1.560    0.359
        41 -11.0625    137.7882    236.1885   4.9189926752e+01   7.8747784645e+00    0.1798874    0.1441755  29.91 0.0006973568    1.205    0.170
        42 -12.2563     71.5165    233.4832   6.3807317603e+01   1.6388145650e+01    0.4119754    0.2775662 -22.13  0.002273842    2.079    0.519
        43 -11.1228     73.1107    229.2561   6.3059684020e+01   1.7016590137e+01    0.2687413    0.1759161  83.72 0.0009545674    2.013    0.503
        44 -11.8720    165.7184    234.3436   4.3224030735e+01   4.7931351188e+00     0.217055    0.1746565  18.54 0.0002425538    1.168    0.144
        45 -10.9868     47.4909    235.4746   6.9565046027e+01   1.8650010415e+01    0.1259081   0.09705548  42.85 2.661645e-05    1.048    0.046
        46 -11.6742    158.4705    233.5006   4.4555334586e+01   5.7830527927e+00    0.2004657    0.1652908   3.58 0.0005373517    1.073    0.068
        47 -11.2487    101.3480    233.9335   5.6950561525e+01   1.2745328877e+01    0.2343487    0.1371527  36.02 0.0006205007    1.423    0.297
        48 -10.7899     51.5684    234.1725   6.8528164964e+01   1.8472262228e+01    0.1499365    0.1110935 -53.58 0.0005785327    1.665    0.399
        49 -11.6515     25.1417    232.4268   7.4569182708e+01   2.1474817003e+01    0.2261931    0.1529168  78.23 0.0006169687    1.511    0.338
        50 -11.5004     25.3694    228.2318   7.4314252480e+01   2.2299328090e+01    0.2077265    0.1156075  86.70  0.001147766    1.951    0.487
        51 -11.0157    216.6520    231.0627   3.3472527159e+01  -4.0951222845e-01    0.1503219    0.1066218 -12.78  0.000418832    1.116    0.104
        52 -11.1565    181.5243    231.0159   3.9702420905e+01   3.4289303405e+00    0.1599464    0.1046464 -33.92 0.0004175606    1.557    0.358
        53 -13.5921    141.2327    210.4632   4.4926028947e+01   1.1772620900e+01     0.742189    0.5195395 -81.02  0.003635159    2.871    0.652
        54 -12.4150    145.5254    215.8351   4.4774649259e+01   1.0263173300e+01    0.3229169     0.255588 -37.85  0.002032977    1.379    0.275
        55 -12.6748    151.7974    229.4633   4.5368126748e+01   7.2217865574e+00    0.3561436     0.277548  40.59  0.002304391    1.497    0.332
        56 -12.9919    147.8954    224.0358   4.5434468558e+01   8.5840811729e+00    0.3401529    0.2895615 -64.69  0.000646675    1.708    0.415
        57 -11.3959     61.1814    231.1846   6.6047744778e+01   1.8005397032e+01    0.1844051    0.1171467  45.70 0.0005677544    1.353    0.261
        58 -11.9482    194.3594    228.1353   3.6909765080e+01   2.3695853823e+00    0.2413794    0.1786425   5.46 0.0009124474    1.064    0.061
        59 -11.5134    138.2009    227.7556   4.8009890658e+01   9.2002909458e+00    0.1802693    0.1718199 -51.11 0.0006717147    1.389    0.280
        60 -12.9367    105.4353    226.7082   5.5207009830e+01   1.3547673862e+01    0.3165306    0.2665932 -56.40  0.002050138    1.433    0.302
        61 -13.5037    115.6283    224.1077   5.2552957064e+01   1.2721045658e+01    0.6039913    0.3094071 -61.36  0.002944768    2.590    0.614
        62 -11.8141     29.6070    226.7401   7.3239751977e+01   2.2200089723e+01    0.2761417    0.1225775  36.96  0.001047323    1.707    0.414
        63 -13.2182     13.4901    194.7108   7.5607072052e+01   3.0687956379e+01    0.3243298    0.2857149  51.05   0.00047046    1.070    0.066
        64 -13.0337     10.6260    190.3306   7.6154659180e+01   3.1951175600e+01    0.7804922    0.3221895   8.70  0.003065478    3.364    0.703
        65 -14.1944      2.3907    219.2472   7.9348112907e+01   2.6162544891e+01    0.8932081    0.4039488 -76.29  0.003587922    2.321    0.569
        66 -12.3283      4.4956    207.0838   7.8437556091e+01   2.8618003459e+01    0.2182567    0.1511095  81.53 0.0003967338    1.369    0.269
        67 -14.1451      3.5459    201.5500   7.8474637596e+01   2.9927461005e+01      0.78815    0.5516392 -72.20  0.004091159    1.542    0.351
        68 -13.3278    160.8534    222.8577   4.2577047048e+01   7.1363140074e+00    0.4085764    0.2923489  23.04  0.001245746    1.207    0.171
        69 -11.5709     92.0856    224.6675   5.8103171437e+01   1.5606931149e+01    0.2072755    0.1834311 -37.91  0.000535589    1.313    0.239
        70 -12.9344    173.9049    220.7859   3.9665412241e+01   5.8362022823e+00    0.4043564    0.2549778 -57.27  0.002177694    2.637    0.621
        71 -12.3904     81.0154    227.0481   6.0975482572e+01   1.6505887927e+01    0.4017845    0.2396861  37.58  0.001029307    1.386    0.279
        72 -12.7835     52.8165    223.2792   6.7438697374e+01   2.0516061558e+01     0.360095    0.1835652 -79.13  0.001795393    2.360    0.576
        73 -13.3123     49.4121    216.5558   6.7761810398e+01   2.2289587527e+01    0.5495507    0.2678669 -63.36  0.002716932    2.267    0.559
        74 -11.6732     33.6841    223.2057   7.2068192229e+01   2.2530148349e+01    0.2510118    0.1734056  61.88  0.001246207    1.343    0.255
        75 -12.9789     17.8008    237.5914   7.6461505656e+01   2.1128055828e+01    0.2549077    0.2037994  41.17 0.0009094439    1.075    0.070
        76 -11.2050    121.9678    217.4741   5.0251189742e+01   1.3099113758e+01    0.1962505    0.1484902  25.64  0.001168872    1.126    0.112
        77 -12.2306    119.8709    213.7762   5.0240837601e+01   1.4062373835e+01    0.2835679    0.1895104  45.13  0.001028747    1.570    0.363
        78 -13.2697    124.9691    221.8899   5.0151120593e+01   1.1908852192e+01    0.4349196    0.2962619  28.27  0.001707883    1.242    0.195
        79 -13.5594    128.1202    214.7584   4.8479414895e+01   1.2773456815e+01    0.6503049    0.3473937  44.90  0.002938743    2.062    0.515
        80 -13.1442     28.5544    218.1073   7.3020934937e+01   2.4102991748e+01    0.5458736    0.3723483 -47.39  0.003171723    1.883    0.469
        81 -11.8521    239.6515    220.1574   2.8167836947e+01  -1.3717828411e+00    0.1646262    0.1257724  12.01 0.0007828787    1.339    0.253
        82 -10.7133    190.3045    220.2813   3.6471400222e+01   3.9367340641e+00    0.1193039   0.07475113  -3.61 0.0002629813    1.554    0.357
        83 -11.6823     77.1046    219.2303   6.1145978165e+01   1.8525205616e+01    0.3854421    0.1826968  26.90  0.001808629    1.837    0.456
        84 -13.8068    193.9436    212.2347   3.4553110975e+01   4.6665145672e+00    0.3785524    0.2374254 -31.91  0.001725169    1.492    0.330
        85 -11.6985    161.1480    216.6649   4.1606147216e+01   8.0861020610e+00    0.2125323    0.1589093 -25.00 0.0002985965    1.313    0.238
        86 -10.6086     61.0262    223.5200   6.5462795889e+01   1.9550382860e+01    0.1939158    0.1079984  28.57 0.0005675978    1.517    0.341
        87 -11.5065     92.6994    217.2523   5.7134910127e+01   1.6970660802e+01    0.3186684    0.1498725  30.57  0.001051409    1.777    0.437
        88 -12.1024    250.6164    215.6985   2.5860090653e+01  -1.8948679705e+00    0.1789346    0.0781333 -32.99 0.0002595288    1.878    0.468
        89 -12.4402    108.0182    214.1198   5.3075209370e+01   1.5582541571e+01    0.3299271    0.2545944 -67.60  0.001339744    1.625    0.385
        90 -11.4582     84.1814    214.6738   5.8929993706e+01   1.8570670393e+01    0.4153704    0.1815557  42.03  0.001854481    2.035    0.509
        91 -11.7885    156.1093    213.5736   4.2187962882e+01   9.2479776186e+00    0.3579754    0.2177462  38.93  0.001827945    1.702    0.412
        92 -11.5088     41.6826    211.8392   6.9351699727e+01   2.4130051718e+01     0.280466     0.216474 -27.69  0.001640578    1.699    0.411
        93 -11.0396     72.9484    212.3226   6.1481288232e+01   2.0454537068e+01    0.1879937     0.143765  29.74 0.0003529617    1.141    0.124
        94 -11.1359    172.5802    211.2336   3.8467009095e+01   7.4825551499e+00     0.171527    0.1027796 -28.05 0.0009500538    1.660    0.397
        95 -13.2440    180.2546    207.6421   3.6395526573e+01   7.0608374679e+00    0.3025731    0.2242244 -13.40 0.0006550308    1.208    0.172
        96 -11.8808     53.8542    209.3546   6.6054462531e+01   2.3342792582e+01    0.3637119    0.1728691  57.97  0.001604849    2.342    0.573
        97 -10.5636     97.4676    210.5592   5.5181044390e+01   1.7684069201e+01    0.1349809    0.1139536  35.39 0.0005698416    1.071    0.066
        98 -12.6800    160.7263    207.7469   4.0330457886e+01   9.6063497810e+00    0.3430955    0.2463474  17.62  0.002058096    1.232    0.188
        99 -12.9276     37.1624    207.5147   7.0197612687e+01   2.5549005427e+01    0.3802278    0.3674352 -48.76 0.0007610457    1.247    0.198
       100 -12.0288     35.6862    203.6873   7.0311241565e+01   2.6555415308e+01    0.2406398    0.1641443  -3.97 0.0009160872    1.962    0.490
       101 -12.6753    145.5219    202.0180   4.2693803518e+01   1.2688770204e+01    0.3748233    0.3380397 -64.34  0.001838358    1.471    0.320
       102 -11.3159     20.9542    204.1940   7.4157069807e+01   2.7861906115e+01    0.2240279    0.1675859  86.25 0.0009817482    1.333    0.250
       103 -11.2124     16.4682    204.8223   7.5336327822e+01   2.8121767258e+01    0.2287125    0.1128646  86.24 0.0008671621    2.107    0.525
       104 -11.1320    115.3854    204.1657   4.9980392793e+01   1.6519912034e+01    0.1695101    0.1324451 -72.33 0.0007303437    1.671    0.402
       105 -12.9908     91.2826    198.6908   5.5244451449e+01   2.0977246177e+01    0.7876564    0.3074565 -51.66  0.002720193    2.744    0.636
       106 -12.9203     83.7915    200.1398   5.7359116651e+01   2.1670203268e+01    0.6015486    0.4615044 -43.06  0.002369954    1.482    0.325
       107 -11.9012    136.2590    199.7807   4.4427967598e+01   1.4412133493e+01    0.3536728    0.2291798 -77.93  0.001524839    3.180    0.686
       108 -13.2949    122.5362    196.8344   4.7192969085e+01   1.6952886136e+01    0.4321331     0.362075 -55.45  0.002545812    1.380    0.275
       109 -13.1652    119.2268    188.9382   4.6781377693e+01   1.9032199884e+01    0.3907933    0.3714723  54.63  0.002193946    1.191    0.160
       110 -12.0821    176.8337    198.6878   3.5602749797e+01   8.9354473760e+00     0.218911    0.1535892 -23.56 0.0008775029    1.337    0.252
       111 -11.1076    103.5604    205.2821   5.3011668782e+01   1.7929588200e+01    0.1656685    0.1260219 -39.81 0.0003153049    1.466    0.318
       112 -11.8504     15.7601    183.7675   7.4400449538e+01   3.3090440561e+01    0.2941389    0.1895907 -49.36 0.0009049017    1.849    0.459
       113 -13.1441     25.7171    183.4789   7.1587017421e+01   3.2268987942e+01    0.4360427     0.269639  43.60  0.002283998    1.410    0.291
       114 -13.1875     22.6982    196.5965   7.3268434043e+01   2.9437424416e+01    0.4700071    0.2770318  23.02  0.002255825    1.649    0.393
       115 -11.0729     22.3031    192.6665   7.3136141836e+01   3.0390752092e+01    0.2089653    0.1502919  52.57 0.0007499775    1.201    0.167
       116 -11.8916     24.9268    188.7907   7.2172391744e+01   3.1065398380e+01    0.3299902    0.1589833  38.14  0.001439532    1.739    0.425
       117 -12.3331     20.0323    187.8420   7.3459695045e+01   3.1739113752e+01    0.6012909    0.1326935  37.16  0.002192775    3.028    0.670
       118 -12.2111    172.9230    196.3897   3.5996508132e+01   9.8451840374e+00    0.2451142    0.1753521 -36.37 0.0008156628    1.395    0.283
       119 -12.7417     35.9318    195.8678   6.9676395989e+01   2.8319277518e+01     0.577733    0.2496434  37.39   0.00262267    1.890    0.471
       120 -12.6461    193.1221    194.1211   3.1728661488e+01   7.4951882084e+00    0.2666935     0.179281 -29.54 0.0007530864    1.347    0.258
       121 -11.4103    138.9236    197.0000   4.3383834517e+01   1.4551053821e+01    0.2226389   0.06938391  32.59 0.0008003898    2.928    0.659
       122 -11.3664     86.5779    193.2309   5.5765543541e+01   2.2805080539e+01    0.2625045    0.1743567  28.35  0.000614906    1.369    0.269
       123 -10.8322    188.7503    191.7994   3.2143367418e+01   8.4393059755e+00    0.1507123    0.1389698  15.11 0.0004520899    1.304    0.233
       124 -11.5639    164.3578    191.9551   3.6998821146e+01   1.1800009182e+01    0.2145429    0.1774309  48.83 0.0008948892    1.559    0.359
       125 -12.4553    133.3905    190.8042   4.3669935810e+01   1.6547499042e+01    0.3415519    0.2327254 -23.80  0.001751552    1.667    0.400
       126 -11.8233    111.4995    191.5268   4.9101373189e+01   1.9636613082e+01    0.2366191    0.1490116  47.07  0.000625316    1.674    0.403
       127 -12.9930    110.2263    188.1975   4.8919094948e+01   2.0523262210e+01    0.2902693    0.2677126  40.65 0.0007141348    1.109    0.098
       128 -10.6797     52.5690    192.4992   6.4862664223e+01   2.7288004949e+01    0.1356509    0.1214038  47.57  0.000108443    1.016    0.015
       129 -10.6131     50.2706    190.3535   6.5288918952e+01   2.8054648070e+01    0.1454094    0.1217932  51.68 0.0003860593    1.075    0.070
       130 -10.6920    141.1690    191.3992   4.1967182231e+01   1.5279718341e+01    0.1757006    0.1164059  39.43 0.0001528386    1.508    0.337
       131 -11.2237    201.2504    190.3680   2.9616243934e+01   7.0117792318e+00    0.1490515    0.1069626  33.36 0.0003342886    1.529    0.346
       132 -10.8772    175.1522    188.6060   3.4221382457e+01   1.0838123143e+01    0.1858099    0.1098619  19.31 0.0009461609    1.765    0.433
       133 -12.3794    226.5749    186.7301   2.4762912294e+01   4.3879497326e+00    0.2126307    0.1824201   2.10 0.0004895259    1.242    0.195
       134 -10.8415    186.6927    186.9885   3.1694978419e+01   9.4913351668e+00    0.1792344    0.1423196 -20.75 0.0005889215    1.118    0.105
       135 -12.7301    127.5855    185.9668   4.4262434038e+01   1.8380481455e+01    0.4271737    0.2287759  38.70  0.001746192    1.769    0.435
       136 -11.1055    209.3847    185.8164   2.7411907608e+01   6.6475419937e+00    0.1709328    0.0937663 -26.67 0.0005201052    1.664    0.399
       137 -11.8561    164.8350    185.2122   3.5733921247e+01   1.2915178923e+01    0.5044312    0.3227348 -75.66  0.001784786    5.183    0.807
       138 -11.1910      7.9412    185.0000   7.6626847500e+01   3.3432206459e+01    0.3541237    0.1708002 -25.00  0.001357398    3.935    0.746
       139 -12.6842      2.4399    184.5369   7.8107515992e+01   3.3959993952e+01    0.4088475    0.2861302   7.81  0.002334158    1.677    0.404
       140 -13.1547      1.7308    177.3620   7.8003956428e+01   3.5741890315e+01     0.875618    0.1727513 -81.91  0.002702548    4.803    0.792
       141 -11.7043    155.9559    184.3007   3.7465449014e+01   1.4400319328e+01    0.2228528    0.1988986 -74.65  0.001327659    1.564    0.361
       142 -12.4230     32.9214    183.7716   6.9570616747e+01   3.1497106583e+01    0.3877972    0.1593412  52.51 0.0009725539    2.376    0.579
       143 -12.6278    105.1229    183.0393   4.9440147548e+01   2.2391169295e+01    0.2877163    0.2046071 -54.46 0.0006038848    1.522    0.343
       144 -10.6694     54.5394    184.5265   6.3510505223e+01   2.8938893361e+01    0.1382398    0.1260918  46.53 0.0001202511    1.023    0.022
       145 -10.2875    205.5169    183.4917   2.7666780888e+01   7.5003066651e+00    0.1222002     0.100162 -12.14 0.0001656722    1.035    0.033
       146 -12.2507     94.6158    180.5769   5.1854890647e+01   2.4496151992e+01    0.4189976    0.2614627 -61.03  0.001663673    1.767    0.434
       147 -13.7980    117.5371    178.8348   4.5568574369e+01   2.1405456736e+01    0.6312252    0.3342042  42.60  0.002044125    1.876    0.467
       148 -11.1323     48.5248    180.2718   6.4786664867e+01   3.0669497220e+01    0.1850011    0.1260118 -57.17 0.0004882447    1.579    0.367
       149 -10.3343     59.3750    180.4576   6.1686989685e+01   2.9329138718e+01    0.1383981    0.1262316  55.51 3.756786e-05    1.033    0.032
       150 -13.8029    128.5190    175.7187   4.2294688911e+01   2.0334914199e+01    0.5090582    0.4804406 -74.02  0.001653669    1.256    0.204
       151 -11.4383     55.9022    177.9253   6.2399845769e+01   3.0369884675e+01    0.2255278    0.1817597  33.91            0    1.154    0.134
       152 -12.5166    137.6916    176.5504   4.0233637762e+01   1.8710291162e+01    0.4285826    0.2671353  58.95  0.001850737    2.522    0.603
       153 -12.4862     63.0435    176.7724   6.0193392912e+01   2.9759234271e+01    0.3080454    0.2338633   7.30 0.0007288172    1.512    0.338
       154 -12.6782     30.7263    175.9124   6.9565951262e+01   3.3646195986e+01    0.4164721    0.2081873 -60.91  0.001278456    2.049    0.512
       155 -12.8115      7.8356    175.9406   7.6208706597e+01   3.5640494793e+01    0.2898765    0.2173133 -42.29  0.001650946    1.626    0.385
       156 -10.8014    216.2475    176.0358   2.4533715703e+01   7.2155414050e+00    0.1528549   0.08654843 -33.48 0.0003237287    1.511    0.338
       157 -12.8786    106.7910    175.5192   4.7804548715e+01   2.3794468482e+01    0.3011646    0.2321782  42.06 0.0007879691    1.258    0.205
       158 -10.9336     36.4903    175.9630   6.7877625381e+01   3.3049314353e+01    0.2029198    0.1326725 -79.88 0.0004856802    1.560    0.359
       159 -11.9764     23.7166    167.3449   7.0965915193e+01   3.6468295465e+01     0.551026    0.2097432  52.74  0.001882507    2.617    0.618
       160 -11.8555      7.6326    163.1884   7.5574277854e+01   3.8850854110e+01     0.225224    0.1755015  30.06 0.0004555543    1.283    0.221
       161 -12.7642      6.6311    159.0363   7.5640475197e+01   3.9985640223e+01    0.3290763    0.2140445  29.68  0.001420551    1.496    0.331
       162 -13.7809     19.9134    173.9012   7.2586939310e+01   3.5155542831e+01     0.681447    0.5584204 -86.08  0.004035202    1.195    0.163
       163 -13.1337     14.9424    166.3139   7.3552033514e+01   3.7488768579e+01    0.4672775    0.4608333  22.11  0.001888136    1.168    0.144
       164 -11.6612     12.2035    161.3582   7.4060625229e+01   3.8973690187e+01    0.2878506    0.1795056  32.57 0.0006600355    1.512    0.339
       165 -13.2139    145.1809    173.1918   3.7881235172e+01   1.8185445131e+01    0.7438315    0.2351395  42.43  0.002535269    3.374    0.704
       166 -13.3229     90.9228    171.3657   5.1461371292e+01   2.7165111338e+01    0.4694845    0.3529112 -53.48  0.001573726    1.406    0.289
       167 -13.1150     78.2603    172.6332   5.5247365498e+01   2.8709845106e+01    0.5857884     0.291164  48.50  0.002385395    2.111    0.526
       168 -12.6343    153.4377    165.4464   3.4556231509e+01   1.8360065284e+01    0.4231802    0.2916652  64.06  0.001944233    2.373    0.579
       169 -11.7982    153.4574    170.4752   3.5507688613e+01   1.7386602045e+01    0.2183049    0.2043575  59.22  0.000797092    1.324    0.245
       170 -12.4984    197.1355    170.3239   2.6748468212e+01   1.0721492667e+01    0.3388872    0.2089539  33.89  0.001014422    1.702    0.412
       171 -11.2851     53.7104    169.5705   6.2079981413e+01   3.2703256666e+01    0.3536628    0.1667915 -57.64  0.001478713    2.151    0.535
       172 -10.4712     62.5556    170.4785   5.9546434840e+01   3.1365448848e+01    0.1428023    0.1336679  49.34 1.154877e-05    1.013    0.013
       173 -11.7934     38.6321    168.6302   6.6542745688e+01   3.4664701305e+01    0.3175715    0.1111762  44.22 0.0005924535    2.586    0.613
       174 -11.7194     31.2885    168.2684   6.8741635534e+01   3.5512873399e+01    0.3046864     0.191352  42.05  0.001521938    1.443    0.307
       175 -12.5828    122.8028    164.8106   4.1759019828e+01   2.3578861695e+01    0.3337349    0.2037162 -49.25  0.001538788    1.693    0.409
       176 -12.4234    127.6340    166.3857   4.0830316379e+01   2.2439744965e+01     0.282226    0.2423857  -4.57  0.001052736    1.200    0.166
       177 -12.7327     83.7087    166.6919   5.2785928525e+01   2.9351069176e+01    0.3220429     0.225181  59.82 0.0007982448    1.617    0.381
       178 -11.1043     50.4710    174.0388   6.3557722914e+01   3.1976510226e+01    0.2018234    0.1379834 -76.18 0.0003733123    1.528    0.345
       179 -12.5775    103.4346    165.3669   4.6995420939e+01   2.6619065781e+01    0.2848572    0.2246693  25.92   0.00146411    1.232    0.188
       180 -11.3066    218.0175    164.8564   2.2206080260e+01   8.6530246045e+00    0.1809082     0.145922 -19.04  0.000520503    1.013    0.012
       181 -13.0840     93.2618    163.2129   4.9473237947e+01   2.8731209367e+01    0.4425086    0.2720723  46.85  0.001158635    1.651    0.394
       182 -10.7128     46.1653    163.8291   6.3715181107e+01   3.5052292420e+01    0.1902358    0.1628023 -35.70 0.0003850315    1.342    0.255
       183 -10.7459     48.6985    160.7029   6.2555461745e+01   3.5558661635e+01    0.2124174    0.1848598 -79.84 0.0005000633    1.157    0.135
       184 -12.6333      4.2249    168.6035   7.6883624165e+01   3.7729061799e+01     0.462926    0.1776517  29.96  0.002016494    2.262    0.558
       185 -12.5184     37.7225    160.7550   6.6017512533e+01   3.6780036751e+01    0.5998502    0.1934333  33.96  0.002050376    2.586    0.613
       186 -12.2278    170.3870    160.3492   2.9942650874e+01   1.6545374212e+01    0.2770772    0.2111809  14.86   0.00153528    1.361    0.265
       187 -12.0920     25.2679    159.7443   6.9852972986e+01   3.8280068591e+01    0.3125132    0.2157358  29.77 0.0009316501    1.407    0.289
       188 -12.7411    104.1369    157.6465   4.5419634450e+01   2.8293527078e+01    0.4087762    0.2905756  77.13  0.001639122    2.026    0.506
       189 -10.9484    250.3808    157.8358   1.6241759770e+01   5.5006966182e+00    0.1630274   0.08234195 -27.14 0.0008243092    1.650    0.394
       190 -12.2768    157.1912    171.5989   3.4897212046e+01   1.6576451782e+01    0.3199898    0.1586497  30.31  0.001378919    2.073    0.518
       191 -12.6684    133.3301    156.1095   3.7438857194e+01   2.3659491930e+01    0.4548825    0.3633711 -61.74  0.001377323    1.450    0.311
       192 -13.1047    119.0799    157.1621   4.1277781850e+01   2.5887600922e+01     0.398869     0.322478  18.99   0.00136608    1.265    0.209
       193 -12.0281     31.8667    157.6495   6.7558863031e+01   3.8191434614e+01    0.2391891     0.183814 -58.74 0.0008579869    1.354    0.261
       194 -13.4511    110.4188    164.4584   4.4939129868e+01   2.5697548344e+01    0.4699931    0.3440765  -2.71  0.002230442    1.719    0.418
       195 -10.9854    190.4609    155.9569   2.5191307031e+01   1.4108959234e+01    0.1711524    0.1097169 -59.16 0.0006044296    2.373    0.579
       196 -11.5520    141.1620    155.8595   3.5492258615e+01   2.2352828944e+01     0.199312    0.1949616  67.38 0.0003090761    1.172    0.147
       197 -12.5475     61.0335    155.7682   5.8008971095e+01   3.5277766343e+01    0.2717442    0.2092406   1.85  0.001182815    1.553    0.356
       198 -11.5963     42.9114    155.3509   6.3754036128e+01   3.7617283671e+01    0.2055941    0.1762862  31.03 0.0006251012    1.161    0.139
       199 -10.4854    195.0260    154.0646   2.3994629291e+01   1.3715457964e+01     0.154346    0.1317145 -18.79 0.0003927117    1.006    0.006
       200 -11.7231     75.7299    161.0226   5.4260532982e+01   3.1905989879e+01     0.199958    0.1944071  85.18 0.0001788005    1.058    0.054
       201 -13.4992     74.9657    150.9307   5.2867336008e+01   3.4548944204e+01    0.5253269    0.3206943  40.21    0.0014184    1.557    0.358
       202 -12.8648     81.1756    152.6782   5.1245062162e+01   3.3171020687e+01    0.3837822    0.2784837 -58.46  0.001605312    1.418    0.295
       203 -12.6824     84.3093    149.9993   4.9818141539e+01   3.3350737426e+01    0.2940896    0.2764843  36.64 0.0008397473    1.029    0.029
       204 -13.3896      4.1479    149.9610   7.5889835900e+01   4.2508065884e+01    0.5920889    0.4253762 -37.87  0.003202865    1.644    0.392
       205 -13.4285     11.5595    144.0554   7.3034493104e+01   4.3548653094e+01    0.5828436    0.3652698 -72.62  0.002556489    1.497    0.332
       206 -11.6018     67.4917    153.5170   5.5632495995e+01   3.4971861237e+01    0.1469429     0.142358  47.10 7.123862e-05    1.029    0.028
       207 -12.5801     27.5989    150.4983   6.8234386752e+01   4.0486899448e+01    0.3836832    0.2606735 -12.81  0.001318348    1.924    0.480
       208 -10.8519    225.5395    150.5334   1.8352390530e+01   9.7651909463e+00    0.1212166   0.09805554 -25.75 5.942866e-05    1.046    0.044
       209 -12.1772    135.9970    150.0830   3.5560273165e+01   2.4468619104e+01    0.2153027    0.2088275  -6.08 0.0004128904    1.040    0.038
       210 -12.2492    109.4287    149.4218   4.2371724549e+01   2.9311688499e+01    0.3630146    0.2712364  46.43  0.001187916    1.358    0.264
       211 -12.3623     95.8785    148.9842   4.6162658713e+01   3.1722902025e+01    0.2653746    0.2154257  36.07 0.0005987923    1.188    0.158
       212 -10.9924     20.2059    148.2099   7.0476207372e+01   4.1758481159e+01    0.1979537     0.142835  55.55 0.0003790376    1.316    0.240
       213 -11.4722    182.0463    145.2613   2.4582319494e+01   1.7335862360e+01    0.2201224    0.1752832 -35.74 0.0003478796    1.158    0.136
       214 -11.0538    170.9986    145.4570   2.6780110796e+01   1.9189967786e+01    0.1996178    0.1345402  38.78 0.0007468081    1.555    0.357
       215 -10.6822    121.5499    145.4697   3.8276774269e+01   2.8067109540e+01    0.1473643    0.1436352  11.18  6.74197e-05    1.014    0.014
       216 -12.7985    103.1284    143.3657   4.2940699799e+01   3.1833484137e+01     0.492007    0.3460518  83.71  0.001130328    2.125    0.530
       217 -11.3039    143.3238    143.7661   3.2466153256e+01   2.4469388882e+01    0.2525544    0.1864534 -30.96  0.000685785    1.396    0.284
       218 -11.4879    196.2383    143.0501   2.1557969235e+01   1.5370434091e+01    0.1953511    0.1768171   7.12 0.0002995155    1.138    0.122
       219 -13.5398     50.8968    142.0748   5.9329378878e+01   4.0170563666e+01    0.5210511    0.4272888  39.54  0.001641014    1.182    0.154
       220 -11.1182     37.7443    142.9875   6.3961895529e+01   4.1461825464e+01    0.2021306    0.1805285 -85.29 0.0003495543    1.084    0.078
       221 -11.1096    164.8768    141.1276   2.7112063232e+01   2.1083654922e+01    0.2008453    0.1890856 -66.77 0.0004808899    1.241    0.194
       222 -10.5039    150.5516    141.5134   3.0307948348e+01   2.3606815373e+01    0.1450757    0.1336683 -12.60 8.182732e-05    1.047    0.045
       223 -12.9616     72.8173    139.1937   5.1496453912e+01   3.7873811766e+01    0.3504627    0.2740132 -54.40 0.0002920553    1.298    0.230
       224 -13.7003     68.6061    137.1424   5.2517622367e+01   3.9039998270e+01    0.4886233    0.3962425 -67.32 0.0006696224    1.254    0.202
       225 -12.2473     60.3788    139.6485   5.5724397443e+01   3.9563948530e+01    0.2624959    0.2487558 -38.63 0.0004606906    1.124    0.110
       226 -11.8956      1.6164    138.5671   7.6035593106e+01   4.5668031466e+01    0.3783211    0.1395098 -77.84  0.001255798    2.425    0.588
       227 -11.8106    206.4135    139.0494   1.9038534818e+01   1.4398037537e+01    0.2123522    0.1840922  23.11 0.0003354836    1.262    0.208
       228 -11.7198     83.7966    145.4162   4.9141526650e+01   3.4575359627e+01    0.2094829    0.1465192  19.73 0.0004398077    1.579    0.367
       229 -12.3078     41.5227    137.7699   6.1955899940e+01   4.2443600260e+01    0.3478177    0.2589696  72.32  0.001719637    1.409    0.290
       230 -12.2001     44.8407    134.0566   6.0241101513e+01   4.3056806758e+01    0.3160986    0.2392303 -24.11  0.001531634    1.595    0.373
       231 -12.3658     19.6944    138.3765   6.9731072590e+01   4.4431470277e+01     0.345888    0.2358726 -30.50 0.0006283812    1.774    0.436
       232 -11.6903    132.4893    138.0325   3.3854202385e+01   2.7689878561e+01    0.3042992    0.2009985 -42.00  0.001016477    1.512    0.338
       233 -11.4329    133.9333    133.3480   3.2443580191e+01   2.8425568204e+01    0.3771984    0.2169891 -53.27  0.001080386    1.864    0.463
       234 -13.7892    125.5736    133.3302   3.4575027620e+01   3.0027289901e+01    0.7499533    0.5711854 -89.03  0.002991148    1.877    0.467
       235 -10.9019     32.0655    136.3498   6.5120065416e+01   4.3841173616e+01    0.1973322    0.1827961  32.71 0.0005509819    1.116    0.104
       236 -10.8350    196.4828    134.4695   1.9729332582e+01   1.6772949147e+01    0.1317481    0.1153582 -29.94 2.410654e-05    1.040    0.039
       237 -12.4109     78.3076    133.3326   4.8571766513e+01   3.8516764485e+01     0.287906    0.2552308  37.42 0.0006583707    1.107    0.097
       238 -13.6902     81.9740    130.4952   4.6792340315e+01   3.8636563741e+01    0.5450733     0.434902 -14.53  0.001693343    1.535    0.349
       239 -10.6724    160.8118    132.2061   2.6000254311e+01   2.3543098025e+01    0.1917462    0.1593488  -6.17 0.0003295148    1.315    0.239
       240 -12.3084    108.1155    132.1776   3.9113337899e+01   3.3584407912e+01     0.231728    0.2089687   4.59 0.0005465415    1.191    0.161
       241 -13.0159     19.3331    131.8114   6.9195154245e+01   4.6236452692e+01     0.514334    0.2708856  32.64 0.0008284813    1.832    0.454
       242 -12.1896     50.3904    130.4270   5.7676011291e+01   4.3347583317e+01    0.3263581    0.1864838  19.19  0.000972781    1.956    0.489
       243 -10.8578    167.4630    129.0076   2.3904777712e+01   2.2907300194e+01    0.2063074    0.1310234 -41.50 -5.500466e-06    1.477    0.323
       244 -13.2152     57.0746    127.6480   5.4788527414e+01   4.3201145600e+01    0.5690392    0.3574375 -19.44  0.002263941    2.372    0.578
       245 -11.3830    109.8248    127.8465   3.7639165727e+01   3.4278339578e+01    0.2102616    0.1848711  81.13  0.000477942    1.299    0.230
       246 -11.8504    101.0346    128.5288   4.0378300726e+01   3.5762793041e+01    0.2367583    0.1499004  38.53 0.0003828156    1.553    0.356
       247 -11.5591    176.4382    127.1389   2.1727957461e+01   2.1584856330e+01    0.2254386    0.1911672  38.31 0.0002472202    1.269    0.212
       248 -10.7933     41.5075    127.5516   6.0458157071e+01   4.5205990745e+01    0.1463113       0.1416  88.53 7.315387e-05    1.019    0.019
       249 -10.7959    111.2966    136.3060   3.9117911854e+01   3.2030214781e+01    0.1531477    0.1195035 -12.25   0.00020825    1.586    0.370
       250 -10.8216     35.5478    126.5214   6.2524580597e+01   4.6148404585e+01    0.1456032    0.1389686 -83.47 0.0001507344    1.022    0.022
       251 -10.7788     27.1665    125.5997   6.5556575037e+01   4.7239661829e+01    0.1900497    0.1405777   0.77 0.0004521853    1.581    0.368
       252 -13.2938      4.1771    121.7149   7.3900975210e+01   5.0038821538e+01    0.4755173    0.2609785 -82.31  0.002210879    1.676    0.403
       253 -13.8725     14.8070    119.8353   6.9620348843e+01   4.9850761173e+01    0.5300216    0.4890111  -1.40  0.002512099    1.202    0.168
       254 -11.5535    105.0501    121.3041   3.7496655355e+01   3.6726977678e+01    0.2229241    0.1956075  43.85 0.0005087029    1.133    0.117
       255 -11.6517     51.5677    120.7753   5.5547155987e+01   4.5786329174e+01    0.3021673    0.2306187 -89.58  0.001101323    1.432    0.302
       256 -11.1721     28.8873    121.0609   6.4285630072e+01   4.8315506349e+01     0.222573    0.1814216  60.39  0.001168621    1.236    0.191
       257 -13.2319     82.6487    118.3692   4.3906860855e+01   4.1585201760e+01    0.4936704    0.3829341 -53.10  0.001526085    1.293    0.226
       258 -12.0082     79.3465    116.7100   4.4646910655e+01   4.2579457610e+01     0.328243      0.23727 -54.79 0.0007567637    1.384    0.277
       259 -12.9525     74.1532    114.0964   4.5856287588e+01   4.4131060652e+01    0.3742569    0.3275079 -58.92 0.0003338982    1.144    0.126
       260 -10.8903    211.2478    118.9566   1.4100191497e+01   1.6826395560e+01    0.1710612   0.09378958 -37.82 0.0003511411    1.540    0.351
       261 -10.9600     95.5193    119.4952   3.9978985704e+01   3.8969413016e+01      0.26222    0.2123558 -66.40 0.0006931804    1.324    0.245
       262 -11.6807     93.5015    116.4673   3.9890193423e+01   4.0082750137e+01    0.2755484    0.2618601  45.47 0.0005154104    1.043    0.042
       263 -11.8925     96.6782    115.6891   3.8692735757e+01   3.9669886001e+01    0.2742651    0.2164889 -37.84 0.0007333595    1.341    0.254
       264 -10.5307    232.4403    118.4695   1.1094602194e+01   1.3509994458e+01    0.1220708   0.09709258 -33.23 5.617252e-05    1.009    0.009
       265 -11.6113    121.9896    118.0036   3.1895277995e+01   3.4132145767e+01    0.2203326    0.2196255 -39.37  0.001203672    1.009    0.009
       266 -12.1681     77.6140    113.2137   4.4428504709e+01   4.3764365155e+01    0.3952778    0.2160144 -50.74 0.0001873364    1.817    0.450
       267 -13.3154     75.5170    119.5289   4.6609947974e+01   4.2511967801e+01    0.5034314    0.3700683  44.19   0.00235421    1.355    0.262
       268 -12.1564    201.8148    114.2952   1.4510581681e+01   1.9198427340e+01    0.2277364    0.1929151 -34.95 0.0002815675    1.020    0.020
       269 -10.5070    143.2329    114.8164   2.5785012641e+01   3.0463915789e+01    0.2534444     0.168633 -84.69 0.0009591969    2.837    0.647
       270 -11.7962     68.2468    115.2505   4.8240339462e+01   4.4803356862e+01    0.2125855    0.1761664  65.38 0.0005154194    1.309    0.236
       271 -13.1242     62.5944    110.5962   4.9293940151e+01   4.6903565255e+01    0.5673842     0.342207 -64.81  0.001205276    1.722    0.419
       272 -11.5880     82.4527    111.9150   4.2438788700e+01   4.3236223409e+01    0.2874128    0.1493358 -50.40 0.0004874857    1.913    0.477
       273 -11.4125     11.4753    112.5482   7.0144928600e+01   5.2074857580e+01    0.1401081     0.129375 -78.56 1.467559e-05    1.016    0.016
       274 -12.3758    205.7129    110.7064   1.3132926994e+01   1.9088737999e+01    0.2310811    0.1922171 -45.71   0.00026966    1.125    0.111
       275 -12.2525     68.6523    109.6422   4.6809094888e+01   4.6187343230e+01    0.3957144    0.2968939 -27.76 0.0008917845    1.584    0.369
       276 -12.1617      8.0458    110.4889   7.1326449872e+01   5.2856923859e+01    0.2056562    0.1399497  13.94  0.001038742    1.608    0.378
       277 -11.9680      1.8137    109.1011   7.3755090625e+01   5.3583236942e+01    0.2214196    0.1760053  65.88 0.0006965185    1.246    0.197
       278 -10.9289    139.2233    107.1957   2.4791408299e+01   3.2852386089e+01    0.2116565    0.1807332 -87.09  0.001072318    1.375    0.273
       279 -10.6307     98.4957    107.5271   3.6047278806e+01   4.1258825411e+01    0.1558619    0.1513181  75.43 0.0008096771    1.043    0.041
       280 -12.0493     62.6464    102.1083   4.7280420440e+01   4.9096669708e+01    0.4954514    0.3132571  87.11  0.001890847    2.487    0.598
       281 -11.0193    104.8322    102.1311   3.2647407823e+01   4.1220934476e+01    0.2341504    0.2102626  81.82 0.0003937805    1.216    0.178
       282 -11.1035     78.8851    102.3174   4.1256929097e+01   4.6263895052e+01    0.3180917    0.1292322  43.17  0.001082659    2.470    0.595
       283 -11.5442     56.0412    101.3073   4.9707514315e+01   5.0321987085e+01    0.2631261    0.2197781 -73.35 0.0004943861    1.240    0.194
       284 -11.7322     57.9155     97.5213   4.8027411414e+01   5.1018424160e+01    0.2838835    0.2531984  24.40 0.0008028891    1.150    0.130
       285 -12.7709      5.2997    100.1783   7.1379008612e+01   5.5816375410e+01    0.5231037    0.2556524  23.25  0.002327625    2.113    0.527
       286 -12.1455      5.2146     94.7441   7.0787945791e+01   5.7289182347e+01    0.3098867    0.2771134  25.78  0.001835071    1.212    0.175
       287 -12.1829     94.3082     98.5120   3.4947651719e+01   4.4207248556e+01    0.3375333    0.2754036  67.04  0.000783474    1.381    0.276
       288 -11.1629    178.3180     96.6601   1.4215115982e+01   2.6624525668e+01    0.1446563    0.1027811 -66.80 0.0007049153    1.710    0.415
       289 -12.2808    121.7816     90.6135   2.4598470280e+01   4.0051027237e+01    0.6912472     0.463484   2.62  0.002569382    2.883    0.653
       290 -12.4224     82.4506     93.8328   3.7661020696e+01   4.7651615884e+01     0.296395    0.2452544  17.21 0.0006737787    1.363    0.266
       291 -10.7321    104.1388     96.7971   3.1371277634e+01   4.2567861188e+01    0.2075653    0.1828011   2.36 0.0002419855    1.318    0.241
       292 -11.3835     57.8600     91.6799   4.6543615236e+01   5.2518232849e+01    0.2398764    0.2007413 -42.65 0.0003276094    1.204    0.169
       293 -11.1607     25.2998     91.9527   6.1057921982e+01   5.6566012024e+01    0.3950211    0.1695256  30.47  0.001567082    2.279    0.561
       294 -13.0581     73.7770     90.1376   3.9784024082e+01   5.0172664400e+01    0.3781718    0.3545409 -74.99  0.001139129    1.109    0.098
       295 -10.0443    140.6685     90.7115   2.0032107847e+01   3.5799259640e+01    0.1480787    0.1191158  12.29 0.0002929302    1.623    0.384
       296 -11.6895      2.8846     87.4250   7.0983119756e+01   5.9372789973e+01    0.3525883    0.1804499  88.20  0.001528387    2.074    0.518
       297 -11.2596      7.5482     87.5034   6.8745496520e+01   5.9104451891e+01    0.3407856    0.1830564  44.50  0.001416789    2.028    0.507
       298 -11.1204     11.7509     87.0298   6.6639272498e+01   5.8970431828e+01    0.1941442    0.1665586 -70.52 0.0002904792    1.084    0.078
       299 -10.4754    142.9438     86.9975   1.8492531803e+01   3.5991404330e+01    0.1732593    0.1680048 -86.55            0    1.031    0.030
       300 -12.0749     54.5590     85.4334   4.6239191941e+01   5.4606915803e+01    0.5166849    0.4326608  -0.31  0.002619246    1.337    0.252
       301 -11.7799    164.5833     85.1629   1.3695882171e+01   3.1502783667e+01    0.2536088    0.1759584 -32.78 0.0007667216    1.447    0.309
       302 -10.4161    135.2620     85.6549   1.9837338808e+01   3.7987457542e+01    0.1530579    0.1142114 -70.35 0.0003164447    1.600    0.375
       303 -12.9595     94.7699     83.5081   3.0366462190e+01   4.7498152160e+01    0.3213865    0.3049457 -89.22 0.0004661924    1.091    0.084
       304 -11.0180     10.3479     81.9674   6.6515826867e+01   6.0409428321e+01    0.2019475     0.161721 -65.30  0.001112805    1.142    0.124
       305 -11.2499     65.8312     81.5824   4.0363977125e+01   5.3663717436e+01    0.2974012    0.1503957  32.08  0.001138384    2.093    0.522
       306 -11.8547    108.0416     78.6922   2.4774630692e+01   4.5581473083e+01    0.2682601    0.2377589 -53.83 0.0004285496    1.141    0.123
       307 -11.7560    111.2743     78.6825   2.3852055675e+01   4.4847551014e+01    0.2419689     0.218746 -70.20 0.0001788418    1.147    0.128
       308 -11.5381     89.1753     79.4372   3.0940828546e+01   4.9575371674e+01    0.3039863    0.2503126 -13.11  0.001463007    1.477    0.323
       309 -11.6117      5.2011     80.0873   6.8831473093e+01   6.1206536457e+01    0.2412117    0.1408398  68.28  0.001095715    2.031    0.508
       310 -11.3685      9.7816     77.4482   6.6039113582e+01   6.1638021997e+01    0.2550779     0.183151 -73.19  0.001340095    1.316    0.240
       311 -11.2167    162.0538     77.5010   1.2096584007e+01   3.3367137147e+01    0.2106821    0.1411195  60.83  0.000789547    1.574    0.365
       312 -11.0918    105.0538     73.0158   2.3812219951e+01   4.7399691644e+01    0.2474727    0.1889617 -84.46 0.0007486488    1.690    0.408
       313 -11.9416     69.4180     72.5264   3.5991721389e+01   5.5097528962e+01    0.2624331    0.2232567 -36.85 5.315559e-05    1.207    0.171
       314 -11.6787     72.3058     68.4454   3.3432204542e+01   5.5434006998e+01    0.3692301    0.2682727  -8.37   0.00162132    1.947    0.486
       315 -11.4582      1.9630     72.9823   6.9457509667e+01   6.3231046024e+01    0.2411238    0.1312094 -42.16  0.001136583    1.736    0.424
       316 -11.7356     52.4786     71.7538   4.3056147524e+01   5.8269993004e+01    0.3086782    0.2427525 -10.04 0.0008103219    1.491    0.329
       317 -11.8427    154.2924     67.9064   1.0808785028e+01   3.6730203475e+01    0.2335267    0.2031297  58.91 0.0002997316    1.197    0.165
       318 -13.0640     48.2588     65.5814   4.3002093008e+01   6.0389424373e+01    0.5171041    0.3924676  80.31  0.001327228    1.849    0.459
       319 -10.6473    124.8112     66.8115   1.6570979391e+01   4.3913278669e+01    0.2021242    0.1697602 -79.23 0.0002848922    1.281    0.220
       320 -12.2682     60.2791     66.8855   3.7899703173e+01   5.8060139553e+01    0.3777454    0.2362175  54.07  0.001429491    1.903    0.474
       321 -13.3569     17.9157     61.4033   5.8034537792e+01   6.5144872095e+01    0.4044104    0.3163987  10.73  0.001194228    1.319    0.242
       322 -12.0908     12.8165     60.0714   6.0708590312e+01   6.5888776744e+01    0.2523562    0.2448048  18.82 0.0004598915    1.123    0.110
       323 -11.2881     27.6680     60.4098   5.2127680595e+01   6.4411720515e+01    0.2154325    0.1973681  43.15 0.0004927075    1.195    0.163
       324 -11.3272     34.3245     59.3008   4.8056534135e+01   6.3865677962e+01    0.2467955    0.1944402 -13.12 0.0004328106    1.358    0.263
       325 -12.1219     32.1457     56.8146   4.8421429623e+01   6.4727770760e+01    0.2652412    0.2249848  49.32 0.0003792102    1.331    0.249
       326 -10.4369    153.4067     57.5007   7.9455644191e+00   3.8583178379e+01    0.1407923    0.1301468 -64.78 0.0001180516    1.025    0.024
       327 -11.2429     96.8539     56.6122   2.0542878009e+01   5.2406218233e+01    0.2427606     0.209293 -23.46 0.0005382722    1.286    0.222
       328 -11.9539     23.6849     56.2284   5.3125372050e+01   6.5850291109e+01    0.3709109    0.2113072 -44.01 0.0009096458    1.664    0.399
       329 -11.0625    179.8300     56.1349   3.6270577650e+00   3.2704567383e+01    0.2002867    0.1590714 -61.59 0.0003159954    1.160    0.138
       330 -13.2198    108.8768     50.9581   1.5109401580e+01   5.0485323572e+01    0.6283208    0.2288985  55.38   0.00162564    2.587    0.614
       331 -12.7865     37.5100     53.8253   4.4358439873e+01   6.4688334763e+01    0.4303251    0.2408347 -53.71  0.001647734    1.789    0.441
       332 -11.2261    195.3795     52.4481   8.1180394815e-01   2.9854184310e+01    0.2110672    0.1751762 -43.30 0.0005154397    1.115    0.103
       333 -11.0785    151.5756     51.2413   6.3941027658e+00   3.9957203113e+01     0.186318    0.1375531 -22.69 0.0003936569    1.575    0.365
       334 -13.0830     30.2256     49.5400   4.6915495633e+01   6.6638037379e+01    0.4167064     0.301297 -21.65  0.002146318    1.484    0.326
       335 -11.6169     16.4590     49.9702   5.5602863241e+01   6.8045109492e+01    0.2679887    0.1959477   8.00 0.0003187136    1.397    0.284
       336 -11.5074     98.9887     48.9774   1.7053347242e+01   5.3215005963e+01    0.2848949    0.1871736 -64.79  0.001003714    2.004    0.501
       337 -11.6974     95.8127     45.5914   1.6659844761e+01   5.4534450843e+01    0.3743658    0.2067663  58.61  0.001595015    1.772    0.436
       338 -11.4557      2.9981     45.0835   6.3210558400e+01   7.0183218021e+01    0.4419701    0.1574354 -56.34  0.001860092    2.234    0.552
       339 -11.4676    142.2566     45.9891   6.3474565379e+00   4.2984585897e+01    0.1956022    0.1785866 -58.24 0.0003011034    1.071    0.066
       340 -11.5794     40.0304     46.5039   4.0064847054e+01   6.5903446081e+01     0.214168    0.1348305  32.50 0.0004985331    1.558    0.358
       341 -10.8462     88.9424     44.1715   1.8166197897e+01   5.6407377864e+01    0.2421238    0.1683744  83.33  0.001073169    1.950    0.487
       342 -11.7006     49.4674     43.9233   3.3951317279e+01   6.4840525229e+01    0.2431803    0.1943877  32.01 0.0004126302    1.205    0.170
       343 -13.7269     33.1773     40.3207   4.1366729636e+01   6.8223153178e+01    0.7065666    0.3584242  35.19  0.002565295    1.929    0.482
       344 -12.3204     93.7285     40.4308   1.5207111885e+01   5.5851027939e+01    0.3166885    0.2378914  37.37 0.0005317314    1.418    0.295
       345 -10.8212    120.9682     39.5062   8.1905072954e+00   4.9212155045e+01     0.209242    0.1348186  63.47 -6.720398e-05    1.466    0.318
       346 -12.3526     80.3775     37.9716   1.8344251167e+01   5.9412234369e+01     0.432303    0.2536395 -41.37  0.001749455    1.809    0.447
       347 -12.1429      9.9724     36.8636   5.5613976681e+01   7.1623374260e+01    0.2293774    0.1908057 -21.82 0.0003600181    1.092    0.085
       348 -11.0510      4.9985     36.7916   5.9309473165e+01   7.2004784749e+01    0.2329358     0.170994 -85.81  0.001289677    1.684    0.406
       349 -11.4656     52.7423     35.9772   2.8649148664e+01   6.5706153694e+01    0.1911766    0.1772225 -12.35 0.0002878951    1.087    0.080
       350 -11.0530     86.6440     34.1376   1.4671648374e+01   5.8504915630e+01    0.2122123    0.1777795  66.59  0.001085032    1.168    0.144
       351 -12.1565     42.3377     33.9087   3.3021221284e+01   6.8003852068e+01    0.2954583    0.2333465  20.40 0.0009321938    1.249    0.199
       352 -11.9559     16.0493     33.8377   4.9940846988e+01   7.1727267570e+01    0.4221958    0.1364791  35.43  0.001396769    3.152    0.683
       353 -10.6726    127.5625     32.4640   4.4477302703e+00   4.8489525728e+01    0.1402811    0.1292876  86.27 0.0001117495    1.023    0.023
       354 -12.4195     77.6679     30.6301   1.5968082578e+01   6.1149942271e+01    0.2717361    0.2657808 -24.15 0.0002301572    1.099    0.090
       355 -11.4853     63.3196     32.3936   2.2160456638e+01   6.4129571874e+01    0.2314714    0.1637134  20.64  0.001120668    1.698    0.411
       356 -12.0996     30.9851     31.6925   3.8669016741e+01   7.0266992221e+01     0.197185    0.1680788  19.83 0.0008889058    1.109    0.098
       357 -10.7256     72.7692     31.2072   1.7938090797e+01   6.2204046492e+01    0.1932398    0.1586253  26.50 0.0008396105    1.283    0.221
       358 -11.2545      1.9973     30.6678   5.9576346184e+01   7.3578542055e+01    0.1773653    0.1483863 -12.66 0.0003571736    1.116    0.104
       359 -11.0264     96.7699     30.6107   1.0344582754e+01   5.6511261049e+01    0.2024034    0.1311686  73.04 0.0006291735    1.618    0.382
       360 -11.0764     26.2512     30.5894   4.1230991449e+01   7.1162005571e+01    0.1846566    0.1217084  17.23 0.0006326158    1.560    0.359
       361 -11.1967     67.6588     28.8747   1.8717292891e+01   6.3709794373e+01    0.1977825    0.1258265 -44.38 0.0009411223    1.755    0.430
       362 -11.3264     60.7957     29.5800   2.1832636257e+01   6.5113254129e+01    0.1906975    0.1303997  58.49 0.0004266994    1.549    0.354
       363 -11.4205     45.5612     25.8075   2.7056811412e+01   6.8810478281e+01    0.1868663    0.1293854 -49.74 0.0009492639    1.729    0.422
       364 -11.1279     98.4091     24.7496   7.4972272416e+00   5.6849269269e+01    0.1750671    0.1398215  -8.69 0.0003321291    1.506    0.336
       365 -12.3841     85.6702     23.8146   1.0384520857e+01   6.0138351363e+01    0.4266098    0.2079195  57.19 0.0009377836    1.824    0.452
       366 -11.1661     19.7544     24.2829   4.2614141540e+01   7.3246652427e+01    0.2032457    0.1737097 -59.37  0.001203915    1.426    0.299
       367 -11.2480    137.8810     29.8516   1.8534731076e+00   4.6214494964e+01    0.1996007    0.1824795  56.43 0.0003548396    1.189    0.159
       368 -11.6043    113.4384     23.4542   3.7723489514e+00   5.3183462403e+01    0.2365902    0.2169632  88.77 0.0001920509    1.029    0.029
       369 -11.8108     70.5209     20.8455   1.3683895847e+01   6.4153106975e+01    0.2150857     0.200335 -40.87 0.0005918189    1.185    0.156
       370 -11.3826     98.7163     20.1388   5.4894724159e+00   5.7313989740e+01    0.2346218    0.1793456  80.90 0.0004721485    1.291    0.225
       371 -10.6416    141.4991     18.9455   3.5777115181e+02   4.6557717387e+01    0.1821517    0.1314231 -31.72 0.0003371823    1.464    0.317
       372 -10.8516     81.3086     19.3157   9.5386212542e+00   6.1754028287e+01    0.1446171   0.09874352  32.77  0.000432621    1.631    0.387
       373 -11.2384    132.7037     16.9860   3.5828666273e+02   4.8980303688e+01    0.1826915    0.1687617 -78.73 0.0004092015    1.068    0.064
       374 -10.9923    125.3621    249.2866   5.3374138524e+01   7.2871115278e+00    0.1304537    0.1169264 -66.68 0.0004870983    1.567    0.362
       375 -11.6118     50.9448    248.9671   6.9641057557e+01   1.5750774538e+01    0.3780592    0.1622187  34.66  0.001992912    1.700    0.412
       376 -12.7783     30.0200    247.4908   7.4177816455e+01   1.8108059680e+01    0.3368191    0.2300565  43.33  0.001249261    1.116    0.104
       377 -12.6472    162.4908    247.4889   4.5606334947e+01   3.2717360706e+00    0.2117216    0.1649338  12.78 0.0001235255    1.069    0.065
       378 -11.2148     68.3177    247.0262   6.5636593756e+01   1.4241777708e+01    0.2609815    0.1612229  70.29  0.001496854    2.039    0.510
       379 -11.3185     58.2447    248.0509   6.7959495320e+01   1.5149046758e+01    0.2029542    0.1342935  32.38 0.0005381472    1.181    0.153
